###################################################################
## OUTPUT of StarlightChains_v04.for    [Cid@UFSC - 01/Apr/2007] ##
###################################################################

## Some input info
KUG0210-078._50_35.txt                   [arq_obs]
Base.CB07.vall.4m                        [arq_base]
Masks.EmLines.NEW.gm                     [arq_masks]
StCv04.C11.config                        [arq_config]
   66                                    [N_base]
    0                                    [N_YAV_components = # of components with extra extinction!]
    0                                    [i_FitPowerLaw (1/0 = Yes/No)]
-9.99                                    [alpha_PowerLaw]
CCM                                      [red_law_option]
 1.458241                                [q_norm = A(l_norm)/A(V)]

## (Re)Sampling Parameters
 3741.00                                 [l_ini (A)]
 7218.00                                 [l_fin (A)]
    1.00                                 [dl    (A)]     (OBS: dl_cushion =    50.00 A)

## Normalization info
 4020.00                                 [l_norm (A) - for base]
 4010.00                                 [llow_norm (A) - window for f_obs]
 4060.00                                 [lupp_norm (A) - window for f_obs]
6.756238E-18                             [fobs_norm (in input units)]

## S/N
 3691.00                                 [llow_SN (A) - window for S/N]
 7268.00                                 [lupp_SN (A) - window for S/N]
   2.438                                 [S/N in S/N window]
   3.363                                 [S/N in norm. window]
   0.006                                 [S/N_err in S/N window]
   0.008                                 [S/N_err in norm. window]
  1.0000                                 [fscale_chi2]

## etc...
    -2007953                             [idum_orig]
  2356                                   [NOl_eff]
  2322                                   [Nl_eff]
    34    NSIGMA                         [Ntot_cliped & clip_method]
  1067640                                [Nglobal_steps]
   7                                     [N_chains]
  42                                     [NEX0s_base = N_base in EX0s-fits]
 0   0   1       34   2.0   1.683E+03    [Clip-Bug, RC-Crash & Burn-In warning-flags, n_censored_weights, wei_nsig_threshold & wei_limit]
    27     26.701     26.032      0.669  [idt_all, wdt_TotTime, wdt_UsrTime & wdt_SysTime (sec)]

## Synthesis Results - Best model ##

 1.86074E-05                             [chi2/Nl_eff]
    71.70344                             [adev (%)]

   102.66207                             [sum-of-x (%)]
 2.29312E-17                             [Flux_tot (units of input spectrum!)]
 1.44327E-13                             [Mini_tot (???)]
 7.65599E-14                             [Mcor_tot (???)]

  -8.18                                  [v0_min  (km/s)]
   0.54                                  [vd_min  (km/s)]
 0.8903                                  [AV_min  (mag)]
 0.0000                                  [YAV_min (mag)]

# j     x_j(%)      Mini_j(%)     Mcor_j(%)     age_j(yr)     Z_j      (L/M)_j    YAV?  Mstars   component_j        a/Fe...       SSP_chi2r SSP_adev(%)   SSP_AV   SSP_x(%)
  1      0.0000     0.0000E+00    0.0000E+00    1.000000E+06  0.00400  1.094E-02    0   1.0000   age020_m42            0.0000     1.8246E-05    67.7161   2.0568    95.6723
  2      4.5208     1.7461E-02    3.2913E-02    3.160000E+06  0.00400  4.007E-02    0   0.9999   age045_m42            0.0000     1.9582E-05    67.2709   1.3232   101.6109
  3      0.0000     0.0000E+00    0.0000E+00    5.010000E+06  0.00400  2.539E-02    0   0.9488   age055_m42            0.0000     1.9347E-05    67.6534   1.6585    99.0053
  4      0.0000     0.0000E+00    0.0000E+00    6.610000E+06  0.00400  2.620E-02    0   0.9220   age061_m42            0.0000     2.0149E-05    67.5327   1.2771   100.9621
  5      0.0000     0.0000E+00    0.0000E+00    1.000000E+07  0.00400  1.322E-02    0   0.8862   age070_m42            0.0000     1.9958E-05    68.7704   1.0560   101.4061
  6      3.0584     6.0044E-02    9.7016E-02    1.445000E+07  0.00400  7.883E-03    0   0.8571   age078_m42            0.0000     1.9689E-05    68.8216   1.3739    99.2826
  7      0.0000     0.0000E+00    0.0000E+00    2.512000E+07  0.00400  5.251E-03    0   0.8174   age090_m42            0.0000     2.0066E-05    68.9922   0.9364   101.5990
  8      0.0000     0.0000E+00    0.0000E+00    4.000000E+07  0.00400  3.649E-03    0   0.7851   age104_m42            0.0000     2.0244E-05    68.7466   0.6970   102.6100
  9      0.0000     0.0000E+00    0.0000E+00    5.500000E+07  0.00400  3.098E-03    0   0.7629   age110_m42            0.0000     2.0638E-05    67.9470   0.8285   103.1111
 10      0.0000     0.0000E+00    0.0000E+00    1.015200E+08  0.00400  2.228E-03    0   0.7207   age116_m42            0.0000     2.1133E-05    67.4223   0.8441   103.3035
 11      0.0000     0.0000E+00    0.0000E+00    2.861200E+08  0.00400  1.093E-03    0   0.6648   age125_m42            0.0000     2.1582E-05    67.8064   0.2962   105.3279
 12      0.0000     0.0000E+00    0.0000E+00    5.088000E+08  0.00400  6.597E-04    0   0.6365   age130_m42            0.0000     2.1947E-05    66.6254   0.2602   106.8711
 13      0.0000     0.0000E+00    0.0000E+00    1.434000E+09  0.00400  2.132E-04    0   0.5798   age139_m42            0.0000     2.1663E-05    65.5928  -0.7546   110.1062
 14      0.0000     0.0000E+00    0.0000E+00    4.250000E+09  0.00400  5.895E-05    0   0.5377   age158_m42            0.0000     2.1208E-05    65.1244  -1.0000   104.0097
 15      3.3469     1.4757E+01    1.4499E+01    7.500000E+09  0.00400  3.510E-05    0   0.5212   age171_m42            0.0000     2.1549E-05    65.7075  -1.0000   100.3100
 16      0.0000     0.0000E+00    0.0000E+00    1.300000E+10  0.00400  2.005E-05    0   0.5034   age193_m42            0.0000     2.2074E-05    66.8336  -1.0000    96.7514
 17      0.0000     0.0000E+00    0.0000E+00    1.800000E+10  0.00400  1.525E-05    0   0.4967   age213_m42            0.0000     2.2049E-05    67.1834  -1.0000    95.9127
 18      1.6264     2.0331E-02    3.8327E-02    1.000000E+06  0.00800  1.238E-02    0   1.0000   age020_m52            0.0000     1.8269E-05    67.7867   2.0495    95.9022
 19      0.0000     0.0000E+00    0.0000E+00    3.160000E+06  0.00800  3.074E-02    0   0.9966   age045_m52            0.0000     1.8628E-05    67.7232   1.9778    96.6069
 20      0.0000     0.0000E+00    0.0000E+00    5.010000E+06  0.00800  2.668E-02    0   0.9443   age055_m52            0.0000     1.9311E-05    67.9371   1.7508    97.9956
 21      0.0000     0.0000E+00    0.0000E+00    6.610000E+06  0.00800  2.136E-02    0   0.9177   age061_m52            0.0000     1.9410E-05    68.5826   0.5378   103.3025
 22      0.0166     2.1197E-04    3.5272E-04    1.000000E+07  0.00800  1.215E-02    0   0.8827   age070_m52            0.0000     1.9793E-05    69.4442   1.2483   100.8659
 23      0.0000     0.0000E+00    0.0000E+00    1.445000E+07  0.00800  8.717E-03    0   0.8552   age078_m52            0.0000     1.9839E-05    68.8897   1.3415   100.5041
 24      0.0000     0.0000E+00    0.0000E+00    2.512000E+07  0.00800  5.592E-03    0   0.8162   age090_m52            0.0000     2.0229E-05    69.1758   1.0049   102.5922
 25      0.0806     3.2000E-03    4.7301E-03    4.000000E+07  0.00800  3.896E-03    0   0.7841   age104_m52            0.0000     2.0526E-05    68.7924   0.9030   103.5783
 26      0.0000     0.0000E+00    0.0000E+00    1.015200E+08  0.00800  2.148E-03    0   0.7226   age116_m52            0.0000     2.1135E-05    68.0221   0.8271   103.6600
 27      0.0000     0.0000E+00    0.0000E+00    2.861200E+08  0.00800  9.925E-04    0   0.6683   age125_m52            0.0000     2.2107E-05    66.8142   0.3322   107.5707
 28      0.0000     0.0000E+00    0.0000E+00    9.047900E+08  0.00800  3.141E-04    0   0.6138   age135_m52            0.0000     2.2420E-05    65.2484  -0.5463   114.0473
 29      0.0000     0.0000E+00    0.0000E+00    1.434000E+09  0.00800  1.719E-04    0   0.5853   age139_m52            0.0000     2.1845E-05    65.4965  -1.0000   110.1577
 30      0.0393     7.7291E-02    8.1595E-02    2.500000E+09  0.00800  7.872E-05    0   0.5600   age150_m52            0.0000     2.2032E-05    65.0681  -1.0000   103.3957
 31      0.0000     0.0000E+00    0.0000E+00    4.250000E+09  0.00800  4.336E-05    0   0.5426   age158_m52            0.0000     2.1944E-05    65.1507  -1.0000   102.2871
 32      0.0000     0.0000E+00    0.0000E+00    6.250000E+09  0.00800  3.159E-05    0   0.5319   age166_m52            0.0000     2.2778E-05    66.0697  -1.0000    98.4165
 33      0.0000     0.0000E+00    0.0000E+00    1.300000E+10  0.00800  1.361E-05    0   0.5073   age193_m52            0.0000     2.5468E-05    70.1206  -1.0000    87.2492
 34      0.0000     0.0000E+00    0.0000E+00    1.800000E+10  0.00800  9.886E-06    0   0.4990   age213_m52            0.0000     2.6603E-05    70.1998  -1.0000    84.1318
 35     74.6369     7.4813E-01    1.4103E+00    1.000000E+06  0.02000  1.544E-02    0   1.0000   age020_m62            0.0000     1.8317E-05    67.7776   2.0509    96.0640
 36      0.0000     0.0000E+00    0.0000E+00    3.160000E+06  0.02000  3.762E-02    0   0.9858   age045_m62            0.0000     1.8712E-05    67.7795   1.9942    96.7493
 37      0.0000     0.0000E+00    0.0000E+00    5.010000E+06  0.02000  3.296E-02    0   0.9342   age055_m62            0.0000     1.9876E-05    67.7051   1.6207   100.0009
 38      1.4601     1.9582E-02    3.2710E-02    8.710000E+06  0.02000  1.154E-02    0   0.8861   age067_m62            0.0000     1.9415E-05    72.5777   0.8029   100.8877
 39      0.0000     0.0000E+00    0.0000E+00    1.445000E+07  0.02000  7.663E-03    0   0.8472   age078_m62            0.0000     1.9664E-05    70.3782   0.9194   102.3929
 40      0.0000     0.0000E+00    0.0000E+00    2.512000E+07  0.02000  4.532E-03    0   0.8099   age090_m62            0.0000     1.9966E-05    70.6629   0.9234   101.6050
 41      3.1008     1.7559E-01    2.5141E-01    5.500000E+07  0.02000  2.733E-03    0   0.7595   age110_m62            0.0000     2.0628E-05    68.8602   0.8943   102.6346
 42      1.7502     1.9786E-01    2.6054E-01    1.609000E+08  0.02000  1.369E-03    0   0.6985   age120_m62            0.0000     2.1868E-05    67.4526   0.7198   105.3612
 43      0.0000     0.0000E+00    0.0000E+00    2.861200E+08  0.02000  9.013E-04    0   0.6714   age125_m62            0.0000     2.2538E-05    66.4106   0.4590   108.4657
 44      0.0000     0.0000E+00    0.0000E+00    5.088000E+08  0.02000  5.028E-04    0   0.6449   age130_m62            0.0000     2.2765E-05    64.9156  -0.0019   113.5426
 45      0.0000     0.0000E+00    0.0000E+00    9.047900E+08  0.02000  2.428E-04    0   0.6179   age135_m62            0.0000     2.2303E-05    64.8637  -0.6455   114.5874
 46      0.0000     0.0000E+00    0.0000E+00    1.434000E+09  0.02000  1.263E-04    0   0.5908   age139_m62            0.0000     2.1944E-05    64.1791  -1.0000   111.9772
 47      0.0000     0.0000E+00    0.0000E+00    2.500000E+09  0.02000  5.985E-05    0   0.5673   age150_m62            0.0000     2.2443E-05    64.3005  -1.0000   104.5363
 48      0.0000     0.0000E+00    0.0000E+00    4.250000E+09  0.02000  3.271E-05    0   0.5468   age158_m62            0.0000     2.3809E-05    65.8209  -1.0000    97.4265
 49      0.0000     0.0000E+00    0.0000E+00    1.000000E+10  0.02000  1.360E-05    0   0.5167   age181_m62            0.0000     2.6402E-05    67.8546  -1.0000    88.7355
 50      0.0000     0.0000E+00    0.0000E+00    1.800000E+10  0.02000  7.124E-06    0   0.5013   age213_m62            0.0000     2.8488E-05    68.6541  -1.0000    82.6052
 51      0.3959     2.3641E-03    4.4558E-03    1.000000E+06  0.05000  2.592E-02    0   0.9998   age020_m72            0.0000     1.8298E-05    67.8183   2.0436    96.1092
 52      0.0000     0.0000E+00    0.0000E+00    3.160000E+06  0.05000  4.845E-02    0   0.9577   age045_m72            0.0000     1.9316E-05    67.8137   1.8773    97.7783
 53      0.0000     0.0000E+00    0.0000E+00    5.010000E+06  0.05000  3.072E-02    0   0.9147   age055_m72            0.0000     1.9537E-05    69.7300   1.4676    99.7169
 54      0.0000     0.0000E+00    0.0000E+00    6.610000E+06  0.05000  1.455E-02    0   0.8877   age061_m72            0.0000     1.9625E-05    75.0228   0.8655   100.6099
 55      0.0000     0.0000E+00    0.0000E+00    1.000000E+07  0.05000  9.074E-03    0   0.8524   age070_m72            0.0000     1.9576E-05    70.3470   1.6297    99.5151
 56      0.0000     0.0000E+00    0.0000E+00    2.512000E+07  0.05000  4.250E-03    0   0.7902   age090_m72            0.0000     2.0293E-05    69.9725   1.3547   100.6085
 57      0.0763     3.8272E-03    5.4962E-03    4.000000E+07  0.05000  3.087E-03    0   0.7618   age104_m72            0.0000     2.0703E-05    70.1223   1.1419   101.6535
 58      0.0120     1.0889E-03    1.4566E-03    1.015200E+08  0.05000  1.700E-03    0   0.7096   age116_m72            0.0000     2.1720E-05    68.2214   0.8737   104.5396
 59      0.0000     0.0000E+00    0.0000E+00    2.861200E+08  0.05000  7.384E-04    0   0.6633   age125_m72            0.0000     2.2750E-05    65.8510   0.2778   111.1219
 60      0.0000     0.0000E+00    0.0000E+00    5.088000E+08  0.05000  3.819E-04    0   0.6372   age130_m72            0.0000     2.2680E-05    64.9584  -0.2863   115.1620
 61      0.0000     0.0000E+00    0.0000E+00    9.047900E+08  0.05000  1.676E-04    0   0.6110   age135_m72            0.0000     2.2416E-05    64.1856  -1.0000   114.7173
 62      0.0000     0.0000E+00    0.0000E+00    1.434000E+09  0.05000  8.837E-05    0   0.5874   age139_m72            0.0000     2.2886E-05    64.1011  -1.0000   105.9916
 63      1.2432     4.5453E+00    4.7967E+00    2.500000E+09  0.05000  4.233E-05    0   0.5598   age150_m72            0.0000     2.4064E-05    65.4171  -1.0000    98.3439
 64      7.2691     7.8396E+01    7.7574E+01    6.250000E+09  0.05000  1.435E-05    0   0.5249   age166_m72            0.0000     2.7055E-05    68.6395  -1.0000    86.0754
 65      0.0000     0.0000E+00    0.0000E+00    1.300000E+10  0.05000  6.513E-06    0   0.5036   age193_m72            0.0000     3.0065E-05    69.5882  -1.0000    79.2366
 66      0.0285     9.7424E-01    9.0819E-01    1.800000E+10  0.05000  4.527E-06    0   0.4945   age213_m72            0.0000     3.1944E-05    69.7968  -1.0000    74.5911


## Synthesis Results - Average & Chains ##

# j      x_j: min, <> & last-chain-values for 1 ...  7 chains
  1      0.0000      0.6350      0.9504      1.9607      0.4531      0.7956      1.7474      0.5020      0.0840
  2      4.5208      0.3389      0.6590      1.0598      0.5976      0.2970      1.0727      0.2077      0.2419
  3      0.0000      0.6914      1.0722      2.3628      0.4663      0.6715      3.7372      1.5140      2.2289
  4      0.0000      0.5642      0.9899      1.1468      0.0000      0.0000      0.3907      0.4836      1.8647
  5      0.0000      0.5314      0.5112      0.0255      1.0924      3.5551      1.2668      0.0000      1.8836
  6      3.0584      0.5293      1.3413      0.5822      1.7360      0.0000      1.8101      0.9369      0.0746
  7      0.0000      0.5289      0.6492      0.0000      0.0000      0.3291      0.9780      1.3778      1.6437
  8      0.0000      0.6810      2.1817      0.6357      2.1687      0.3757      0.9830      1.9354      1.1029
  9      0.0000      0.4955      0.0000      0.0000      0.2430      1.1647      1.3864      0.0000      1.8492
 10      0.0000      0.6595      0.0000      0.7483      0.3417      0.0000      0.0000      3.1078      0.8630
 11      0.0000      0.5428      3.4971      0.0492      0.0000      0.0000      0.0000      1.6009      1.0664
 12      0.0000      0.6475      0.0231      0.5201      0.5196      1.9773      0.4927      0.0000      0.1864
 13      0.0000      0.4802      0.6233      1.0138      0.0000      1.0324      0.6050      1.7356      0.0000
 14      0.0000      0.5702      0.0000      0.0000      1.0336      0.0000      1.0806      0.7141      0.0000
 15      3.3469      0.5127      2.0085      1.1683      1.7651      1.6931      0.0197      0.9876      0.0000
 16      0.0000      0.7342      0.1667      0.0000      0.0000      0.9769      0.4275      1.0996      3.2588
 17      0.0000      0.5714      1.8066      1.6154      0.1725      1.5323      3.1177      1.7298      1.5910
 18      1.6264      0.4949      1.0195      2.7293      1.9983      1.5849      1.5469      0.0000      2.0445
 19      0.0000      0.5678      0.2669      3.8390      0.3667      0.0000      1.2675      1.0208      0.0000
 20      0.0000      0.6850      0.3532      1.8213      1.1793      0.6847      0.8347      3.3174      1.2712
 21      0.0000      0.7217      3.4300      0.0000      1.5582      0.5187      0.5339      2.0802      2.4270
 22      0.0166      0.7019      1.0529      0.8676      1.5432      0.0000      0.4878      0.0000      2.5034
 23      0.0000      0.6499      1.4192      0.0000      1.7864      0.3407      0.0000      0.0105      0.2004
 24      0.0000      0.4778      0.6778      0.0000      0.1949      2.0960      0.6773      0.2994      0.6218
 25      0.0806      0.4507      0.5970      0.6075      0.0000      0.5466      0.2912      0.3270      0.3547
 26      0.0000      0.5196      0.0000      0.7210      0.7063      0.6374      0.9578      0.4639      0.1560
 27      0.0000      0.4013      0.2406      1.3928      1.0272      1.3278      0.0000      0.7948      0.0000
 28      0.0000      0.6472      1.8264      0.0000      0.2626      1.4825      0.8084      0.1554      2.1297
 29      0.0000      0.3248      0.0000      1.0562      1.4240      0.0000      0.4464      0.9249      0.5410
 30      0.0393      0.7059      1.9291      2.1652      0.8144      1.5376      1.3760      0.8547      2.3110
 31      0.0000      0.4117      1.6123      0.0000      0.6628      0.5447      0.9445      0.1297      1.1386
 32      0.0000      0.4991      0.1357      0.0000      0.0000      1.5817      1.0508      1.7299      0.0000
 33      0.0000      0.5533      0.0000      1.7594      1.6570      0.1642      0.0000      0.4543      0.7676
 34      0.0000      0.6905      0.0000      1.1400      0.6568      0.0000      0.0000      0.0000      0.3771
 35     74.6369      0.6288      1.1251      2.4291      0.8073      1.2123      2.3071      1.6620      0.8666
 36      0.0000      0.4281      0.3247      0.2683      0.0000      0.7209      0.0000      1.3131      0.0376
 37      0.0000      0.4652      0.0981      0.0000      0.6735      0.1223      0.6143      1.1024      1.0601
 38      1.4601      0.5458      1.5707      0.7326      1.2327      1.8419      0.4617      2.6035      1.3368
 39      0.0000      0.7233      0.8713      1.3320      1.2017      0.0000      0.5080      0.5840      0.9785
 40      0.0000      0.4507      0.0000      0.0000      0.0000      1.6183      1.0417      1.1340      0.6990
 41      3.1008      0.4794      0.3217      2.1091      2.1191      0.8579      0.5174      0.3633      0.8826
 42      1.7502      0.5550      0.0000      0.9589      0.0000      1.2407      0.0138      1.6791      0.0000
 43      0.0000      0.5036      1.2309      1.1455      1.2948      0.0000      0.7149      1.7060      0.6124
 44      0.0000      0.5664      0.0000      0.0000      0.0000      0.0000      0.1994      0.0000      0.0000
 45      0.0000      0.5495      1.4312      0.0994      1.3560      1.4713      0.8888      0.3731      0.5473
 46      0.0000      0.3774      0.0000      1.1933      0.3922      0.0000      1.8245      2.2898      0.0000
 47      0.0000      0.4237      0.0000      0.0165      0.0000      0.0000      0.6976      0.0000      0.0652
 48      0.0000      0.6537      0.7389      0.2964      3.8982      0.2630      0.5947      3.3854      1.3839
 49      0.0000      0.7583      0.7807      0.0035      0.0000      0.7666      0.8778      3.6030      2.5794
 50      0.0000      3.8735      1.8125      3.8780      3.5878      1.3493      1.6529      2.6560      1.8535
 51      0.3959      0.4047      0.3780      0.6838      0.0000      0.2465      0.0000      0.2532      0.7247
 52      0.0000      0.5553      0.1080      1.5199      0.0000      0.4894      2.3162      0.9766      2.0311
 53      0.0000      0.5634      1.3051      1.7453      0.4486      0.7371      1.1736      0.5267      0.5351
 54      0.0000      0.4002      0.0000      0.2826      2.4419      0.5169      0.3101      1.3873      1.4328
 55      0.0000      0.7728      2.8365      1.0262      3.8324      0.1252      0.9386      1.8661      1.4513
 56      0.0000      0.5193      0.0000      0.0000      0.5384      1.4337      0.4377      0.7518      0.1642
 57      0.0763      0.4673      2.2624      0.4908      0.0000      0.7823      0.7828      0.0000      0.0000
 58      0.0120      0.4223      2.0323      1.5871      2.0264      1.4969      0.3973      0.4179      0.0000
 59      0.0000      0.3237      0.0000      0.4963      0.1817      0.0000      1.0157      0.0000      1.9252
 60      0.0000      0.7167      1.3715      0.0566      0.9945      0.2436      0.5598      0.2320      0.0000
 61      0.0000     26.7779     11.2743     15.7222     16.0908     16.2906     14.0289      5.9296     11.4237
 62      0.0000      0.4211      1.2596      0.0000      0.0000      0.1894      1.1235      2.0934      0.0000
 63      1.2432      0.5243      0.0000      0.5575      0.8642      0.4640      0.0000      0.0000      0.8430
 64      7.2691      1.7178      3.6554      0.9557      1.7853      5.3685      1.4674      1.3164      1.8406
 65      0.0000      3.7456      2.7265      1.4393      2.8200      2.7835      2.3288      2.6304      1.8115
 66      0.0285      5.2251      4.9029      3.2509      0.3243      4.4373      4.7577      1.3468      3.0573

# j      m_j: min, <> & last-chain-values for 1 ...  7 chains
  1  0.0000E+00  3.9115E-03  6.9704E-03  1.6722E-02  4.7299E-03  5.7791E-03  1.3747E-02  4.5838E-03  7.1639E-04
  2  3.2913E-02  5.6991E-04  1.3194E-03  2.4674E-03  1.7032E-03  5.8889E-04  2.3037E-03  5.1777E-04  5.6315E-04
  3  0.0000E+00  1.7411E-03  3.2150E-03  8.2380E-03  1.9901E-03  1.9939E-03  1.2019E-02  5.6520E-03  7.7700E-03
  4  0.0000E+00  1.3378E-03  2.7950E-03  3.7655E-03  0.0000E+00  0.0000E+00  1.1833E-03  1.7002E-03  6.1215E-03
  5  0.0000E+00  2.4006E-03  2.7495E-03  1.5935E-04  8.3637E-03  1.8937E-02  7.3087E-03  0.0000E+00  1.1779E-02
  6  9.7016E-02  3.8780E-03  1.1701E-02  5.9063E-03  2.1558E-02  0.0000E+00  1.6938E-02  1.0176E-02  7.5702E-04
  7  0.0000E+00  5.5485E-03  8.1080E-03  0.0000E+00  0.0000E+00  4.0713E-03  1.3103E-02  2.1426E-02  2.3869E-02
  8  0.0000E+00  9.8735E-03  3.7663E-02  1.2761E-02  5.3293E-02  6.4226E-03  1.8203E-02  4.1598E-02  2.2136E-02
  9  0.0000E+00  8.2225E-03  0.0000E+00  0.0000E+00  6.8339E-03  2.2791E-02  2.9382E-02  0.0000E+00  4.2481E-02
 10  0.0000E+00  1.4376E-02  0.0000E+00  2.2585E-02  1.2624E-02  0.0000E+00  0.0000E+00  1.0042E-01  2.6043E-02
 11  0.0000E+00  2.2247E-02  1.7067E-01  2.7945E-03  0.0000E+00  0.0000E+00  0.0000E+00  9.7270E-02  6.0505E-02
 12  0.0000E+00  4.2095E-02  1.7853E-03  4.6823E-02  5.7264E-02  1.5159E-01  4.0914E-02  0.0000E+00  1.6778E-02
 13  0.0000E+00  8.8002E-02  1.3602E-01  2.5724E-01  0.0000E+00  2.2310E-01  1.4161E-01  4.7151E-01  0.0000E+00
 14  0.0000E+00  3.5049E-01  0.0000E+00  0.0000E+00  1.0768E+00  0.0000E+00  8.4828E-01  6.5069E-01  0.0000E+00
 15  1.4499E+01  5.1304E-01  2.3930E+00  1.6186E+00  2.9936E+00  1.9978E+00  2.5191E-02  1.4650E+00  0.0000E+00
 16  0.0000E+00  1.2422E+00  3.3582E-01  0.0000E+00  0.0000E+00  1.9489E+00  9.2367E-01  2.7578E+00  7.6326E+00
 17  0.0000E+00  1.2541E+00  4.7213E+00  4.9090E+00  6.4156E-01  3.9657E+00  8.7394E+00  5.6283E+00  4.8341E+00
 18  3.8327E-02  2.6937E-03  6.6072E-03  2.0570E-02  1.8436E-02  1.0173E-02  1.0753E-02  0.0000E+00  1.5406E-02
 19  0.0000E+00  1.2403E-03  6.9416E-04  1.1613E-02  1.3577E-03  0.0000E+00  3.5366E-03  3.3061E-03  0.0000E+00
 20  0.0000E+00  1.6338E-03  1.0029E-03  6.0144E-03  4.7672E-03  1.9257E-03  2.5427E-03  1.1729E-02  4.1970E-03
 21  0.0000E+00  2.0895E-03  1.1824E-02  0.0000E+00  7.6464E-03  1.7709E-03  1.9740E-03  8.9279E-03  9.7271E-03
 22  3.5272E-04  3.4361E-03  6.1374E-03  5.8808E-03  1.2805E-02  0.0000E+00  3.0497E-03  0.0000E+00  1.6966E-02
 23  0.0000E+00  4.2967E-03  1.1172E-02  0.0000E+00  2.0017E-02  2.6564E-03  0.0000E+00  1.0279E-04  1.8345E-03
 24  0.0000E+00  4.6997E-03  7.9382E-03  0.0000E+00  3.2491E-03  2.4310E-02  8.5083E-03  4.3654E-03  8.4669E-03
 25  4.7301E-03  6.1124E-03  9.6405E-03  1.1408E-02  0.0000E+00  8.7406E-03  5.0432E-03  6.5746E-03  6.6601E-03
 26  0.0000E+00  1.1778E-02  0.0000E+00  2.2631E-02  2.7138E-02  1.7038E-02  2.7731E-02  1.5589E-02  4.8962E-03
 27  0.0000E+00  1.8209E-02  1.2999E-02  8.7504E-02  7.8998E-02  7.1046E-02  0.0000E+00  5.3462E-02  0.0000E+00
 28  0.0000E+00  8.5219E-02  2.8637E-01  0.0000E+00  5.8617E-02  2.3020E-01  1.3596E-01  3.0345E-02  3.8823E-01
 29  0.0000E+00  7.4523E-02  0.0000E+00  3.3555E-01  5.5378E-01  0.0000E+00  1.3082E-01  3.1458E-01  1.7184E-01
 30  8.1595E-02  3.3839E-01  1.1011E+00  1.4371E+00  6.6169E-01  8.6919E-01  8.4242E-01  6.0737E-01  1.5336E+00
 31  0.0000E+00  3.4718E-01  1.6189E+00  0.0000E+00  9.4727E-01  5.4166E-01  1.0172E+00  1.6220E-01  1.3292E+00
 32  0.0000E+00  5.6633E-01  1.8336E-01  0.0000E+00  0.0000E+00  2.1162E+00  1.5228E+00  2.9096E+00  0.0000E+00
 33  0.0000E+00  1.3897E+00  0.0000E+00  6.1189E+00  7.0542E+00  4.8640E-01  0.0000E+00  1.6916E+00  2.6689E+00
 34  0.0000E+00  2.3487E+00  0.0000E+00  5.3687E+00  3.7863E+00  0.0000E+00  0.0000E+00  0.0000E+00  1.7754E+00
 35  1.4103E+00  2.7442E-03  5.8469E-03  1.4679E-02  5.9715E-03  6.2391E-03  1.2860E-02  1.0753E-02  5.2357E-03
 36  0.0000E+00  7.5600E-04  6.8266E-04  6.5605E-04  0.0000E+00  1.5011E-03  0.0000E+00  3.4373E-03  9.1880E-05
 37  0.0000E+00  8.8847E-04  2.2316E-04  0.0000E+00  2.1803E-03  2.7535E-04  1.4986E-03  3.1213E-03  2.8030E-03
 38  3.2710E-02  2.8241E-03  9.6771E-03  5.2487E-03  1.0810E-02  1.1238E-02  3.0510E-03  1.9970E-02  9.5751E-03
 39  0.0000E+00  5.3887E-03  7.7293E-03  1.3740E-02  1.5174E-02  0.0000E+00  4.8334E-03  6.4498E-03  1.0092E-02
 40  0.0000E+00  5.4277E-03  0.0000E+00  0.0000E+00  0.0000E+00  2.2981E-02  1.6021E-02  2.0244E-02  1.1652E-02
 41  2.5141E-01  8.9778E-03  7.1737E-03  5.4686E-02  6.7262E-02  1.8945E-02  1.2376E-02  1.0085E-02  2.2880E-02
 42  2.6054E-01  1.9083E-02  0.0000E+00  4.5647E-02  0.0000E+00  5.0302E-02  6.0759E-04  8.5585E-02  0.0000E+00
 43  0.0000E+00  2.5278E-02  7.3570E-02  7.9616E-02  1.1016E-01  0.0000E+00  4.5833E-02  1.2696E-01  4.2555E-02
 44  0.0000E+00  4.8954E-02  0.0000E+00  0.0000E+00  0.0000E+00  0.0000E+00  2.2006E-02  0.0000E+00  0.0000E+00
 45  0.0000E+00  9.4232E-02  2.9225E-01  2.3596E-02  3.9415E-01  2.9752E-01  1.9467E-01  9.4863E-02  1.2993E-01
 46  0.0000E+00  1.1896E-01  0.0000E+00  5.2082E-01  2.0952E-01  0.0000E+00  7.3452E-01  1.0700E+00  0.0000E+00
 47  0.0000E+00  2.7063E-01  0.0000E+00  1.4624E-02  0.0000E+00  0.0000E+00  5.6912E-01  0.0000E+00  5.7610E-02
 48  0.0000E+00  7.3642E-01  9.9105E-01  4.6227E-01  7.4427E+00  3.4938E-01  8.5565E-01  5.6534E+00  2.1581E+00
 49  0.0000E+00  1.9413E+00  2.3799E+00  1.2349E-02  0.0000E+00  2.3143E+00  2.8702E+00  1.3675E+01  9.1417E+00
 50  0.0000E+00  1.8367E+01  1.0233E+01  2.5461E+01  2.8835E+01  7.5449E+00  1.0010E+01  1.8670E+01  1.2167E+01
 51  4.4558E-03  1.0519E-03  1.1699E-03  2.4610E-03  0.0000E+00  7.5549E-04  0.0000E+00  9.7580E-04  2.6075E-03
 52  0.0000E+00  7.3967E-04  1.7122E-04  2.8032E-03  0.0000E+00  7.6871E-04  3.9404E-03  1.9284E-03  3.7453E-03
 53  0.0000E+00  1.1304E-03  3.1181E-03  4.8486E-03  1.5257E-03  1.7441E-03  3.0075E-03  1.5668E-03  1.4864E-03
 54  0.0000E+00  1.6455E-03  0.0000E+00  1.6089E-03  1.7016E-02  2.5058E-03  1.6283E-03  8.4554E-03  8.1546E-03
 55  0.0000E+00  4.8921E-03  2.1380E-02  8.9945E-03  4.1119E-02  9.3441E-04  7.5884E-03  1.7512E-02  1.2717E-02
 56  0.0000E+00  6.5065E-03  0.0000E+00  0.0000E+00  1.1434E-02  2.1182E-02  7.0034E-03  1.3963E-02  2.8476E-03
 57  5.4962E-03  7.7710E-03  4.4798E-02  1.1300E-02  0.0000E+00  1.5340E-02  1.6626E-02  0.0000E+00  0.0000E+00
 58  1.4566E-03  1.1878E-02  6.8064E-02  6.1810E-02  9.6607E-02  4.9648E-02  1.4272E-02  1.7426E-02  0.0000E+00
 59  0.0000E+00  1.9592E-02  0.0000E+00  4.1595E-02  1.8637E-02  0.0000E+00  7.8527E-02  0.0000E+00  1.6132E-01
 60  0.0000E+00  8.0579E-02  1.8360E-01  8.8105E-03  1.8952E-01  3.2300E-02  8.0393E-02  3.8672E-02  0.0000E+00
 61  0.0000E+00  6.5782E+00  3.2978E+00  5.3478E+00  6.6999E+00  4.7191E+00  4.4016E+00  2.1594E+00  3.8850E+00
 62  0.0000E+00  1.8863E-01  6.7179E-01  0.0000E+00  0.0000E+00  1.0004E-01  6.4274E-01  1.3900E+00  0.0000E+00
 63  4.7967E+00  4.6719E-01  0.0000E+00  6.8789E-01  1.3053E+00  4.8758E-01  0.0000E+00  0.0000E+00  1.0400E+00
 64  7.7574E+01  4.2342E+00  1.0728E+01  3.2618E+00  7.4587E+00  1.5604E+01  4.6194E+00  4.8102E+00  6.2807E+00
 65  0.0000E+00  1.9516E+01  1.6916E+01  1.0384E+01  2.4904E+01  1.7102E+01  1.5497E+01  2.0318E+01  1.3067E+01
 66  9.0819E-01  3.8461E+01  4.2972E+01  3.3133E+01  4.0466E+00  3.8515E+01  4.4727E+01  1.4696E+01  3.1154E+01

# AV, chi2 & Mass for <> & i_chain = 1 ...  7 solutions
AV       0.8903     -0.0080      0.0227      0.1571      0.1352     -0.0103      0.1407      0.1251      0.1883
chi2 1.8607E-05  2.6095E-05  2.4943E-05  2.4547E-05  2.4898E-05  2.5458E-05  2.4837E-05  2.4785E-05  2.4774E-05
Mass 7.6560E-14  9.9198E-14  8.6807E-14  8.9429E-14  7.0937E-14  8.3860E-14  9.4833E-14  8.0004E-14  9.3264E-14
  -8.18                                  [v0_min (km/s) before EX0s...]
   0.54                                  [vd_min (km/s) before EX0s...]


## Synthetic spectrum (Best Model) ##l_obs f_obs f_syn wei
 3478    [Nl_obs]
 3741.00   -1.24219   1.04030    0.000
 3742.00   -0.81892   1.03649    0.000
 3743.00   -0.44087   1.02490    0.000
 3744.00   -0.58498   1.00957    0.000
 3745.00   -1.03334   0.98820    0.000
 3746.00   -0.23747   0.96556    0.000
 3747.00    1.19022   0.93936    0.026
 3748.00    2.15651   0.89706    0.026
 3749.00    2.91992   0.85094    0.027
 3750.00    2.58416   0.83717    0.027
 3751.00    1.83344   0.86887    0.026
 3752.00    1.10412   0.91809    0.026
 3753.00    0.38166   0.95424    0.026
 3754.00   -0.77464   0.97392    0.000
 3755.00   -2.04721   0.99453    0.000
 3756.00   -1.96592   1.01171    0.000
 3757.00   -1.58747   1.00783    0.000
 3758.00   -0.72942   1.00117    0.000
 3759.00    0.21235   0.99454    0.024
 3760.00    0.27490   0.99913    0.024
 3761.00    0.22066   1.02288    0.025
 3762.00   -1.10766   1.03378    0.000
 3763.00   -2.55571   1.02878    0.000
 3764.00   -1.87598   1.02292    0.000
 3765.00   -1.07351   1.01147    0.000
 3766.00   -0.70834   0.98465    0.000
 3767.00   -0.36075   0.94991    0.000
 3768.00   -0.88514   0.91350    0.000
 3769.00   -1.33489   0.86707    0.000
 3770.00    0.02831   0.82287    0.022
 3771.00    1.22012   0.82133    0.022
 3772.00    0.16589   0.86690    0.022
 3773.00   -0.74710   0.91610    0.000
 3774.00   -0.42016   0.95355    0.000
 3775.00   -0.05386   0.98856    0.000
 3776.00    0.56760   1.01717    0.021
 3777.00    0.82949   1.03551    0.021
 3778.00   -0.72844   1.04779    0.000
 3779.00   -1.89091   1.06114    0.000
 3780.00   -1.43468   1.07446    0.000
 3781.00   -0.83280   1.08124    0.000
 3782.00    0.26310   1.08355    0.023
 3783.00    0.93627   1.08632    0.023
 3784.00    0.40045   1.08748    0.023
 3785.00    0.15803   1.08007    0.023
 3786.00    0.63251   1.06660    0.023
 3787.00    0.34052   1.05688    0.023
 3788.00   -1.56691   1.04984    0.000
 3789.00   -2.40349   1.03976    0.000
 3790.00   -1.27856   1.02351    0.000
 3791.00   -0.27934   1.00536    0.000
 3792.00    0.51865   0.99227    0.022
 3793.00    1.12060   0.97353    0.022
 3794.00    1.44718   0.93799    0.022
 3795.00    1.58097   0.89029    0.022
 3796.00    1.47647   0.83243    0.022
 3797.00    1.63067   0.77284    0.021
 3798.00    2.06669   0.75102    0.022
 3799.00    1.90322   0.79172    0.022
 3800.00    1.16364   0.86253    0.021
 3801.00    0.30811   0.92287    0.021
 3802.00   -0.64567   0.96545    0.000
 3803.00   -1.07917   0.99836    0.000
 3804.00   -1.12443   1.02027    0.000
 3805.00   -0.81947   1.02907    0.000
 3806.00   -0.28492   1.02844    0.000
 3807.00   -0.00032   1.03467    0.000
 3808.00    0.14084   1.05163    0.020
 3809.00    0.02668   1.06623    0.019
 3810.00   -0.21509   1.07406    0.000
 3811.00    0.11916   1.07471    0.019
 3812.00    0.70250   1.06928    0.020
 3813.00    0.46810   1.05966    0.020
 3814.00   -0.06955   1.05251    0.000
 3815.00   -0.70097   1.04811    0.000
 3816.00   -1.36185   1.04537    0.000
 3817.00   -0.79316   1.04184    0.000
 3818.00    0.09809   1.01692    0.019
 3819.00    0.48702   0.97152    0.019
 3820.00    0.76832   0.95921    0.020
 3821.00    0.12179   0.99563    0.020
 3822.00   -0.68221   1.03120    0.000
 3823.00   -0.44701   1.04017    0.000
 3824.00   -0.07845   1.03075    0.000
 3825.00   -0.03707   1.01814    0.000
 3826.00   -0.02506   1.00944    0.000
 3827.00    0.18373   1.00131    0.020
 3828.00    0.40310   0.98954    0.020
 3829.00   -0.46338   0.97362    0.000
 3830.00   -1.33769   0.95274    0.000
 3831.00   -1.03638   0.92021    0.000
 3832.00   -0.71437   0.87140    0.000
 3833.00    0.06773   0.81145    0.020
 3834.00    0.78918   0.74410    0.020
 3835.00    0.75663   0.69989    0.020
 3836.00    0.75106   0.71767    0.020
 3837.00    0.97353   0.77824    0.020
 3838.00    1.07084   0.83831    0.020
 3839.00    0.38079   0.88741    0.020
 3840.00   -0.22317   0.92532    0.000
 3841.00   -0.40236   0.95667    0.000
 3842.00   -0.52690   0.98661    0.000
 3843.00   -0.43267   1.00828    0.000
 3844.00   -0.23272   1.01960    0.000
 3845.00    0.31868   1.02623    0.019
 3846.00    0.72229   1.03304    0.019
 3847.00    0.71089   1.04114    0.000
 3848.00    0.70601   1.04554    0.000
 3849.00    0.71681   1.04272    0.000
 3850.00    0.84965   1.03948    0.000
 3851.00    1.23559   1.04504    0.000
 3852.00    1.48514   1.05269    0.000
 3853.00    1.48868   1.05285    0.000
 3854.00    1.30885   1.04769    0.000
 3855.00    0.83986   1.04056    0.000
 3856.00    0.48102   1.03397    0.000
 3857.00    0.27468   1.03443    0.000
 3858.00    0.25217   1.03445    0.000
 3859.00    0.45364   1.02883    0.000
 3860.00    0.54132   1.02759    0.000
 3861.00    0.50675   1.03583    0.000
 3862.00    0.07967   1.04600    0.000
 3863.00   -0.71931   1.04946    0.000
 3864.00   -0.51820   1.04732    0.000
 3865.00    0.51840   1.04342    0.000
 3866.00    0.77936   1.03808    0.000
 3867.00    0.46983   1.03028    0.000
 3868.00    0.24652   1.03089    0.000
 3869.00    0.07890   1.03798    0.000
 3870.00    0.00672   1.03318    0.000
 3871.00   -0.01152   1.01662    0.000
 3872.00    0.47745   1.00623    0.000
 3873.00    1.21594   1.01382    0.000
 3874.00    1.26986   1.02693    0.000
 3875.00    1.03269   1.02751    0.000
 3876.00    0.90922   1.01885    0.000
 3877.00    0.82716   1.00960    0.000
 3878.00    0.90269   0.99995    0.000
 3879.00    1.02681   0.99550    0.000
 3880.00    0.92672   0.99252    0.000
 3881.00    0.76906   0.97838    0.017
 3882.00    1.30507   0.95698    0.017
 3883.00    1.98609   0.94031    0.017
 3884.00    2.39498   0.92311    0.018
 3885.00    2.75899   0.88453    0.018
 3886.00    1.97760   0.82763    0.018
 3887.00    1.05435   0.76219    0.018
 3888.00    0.84391   0.69273    0.018
 3889.00    0.69447   0.66254    0.018
 3890.00    1.18275   0.71027    0.018
 3891.00    1.70281   0.79536    0.018
 3892.00    1.74204   0.86496    0.018
 3893.00    1.76566   0.90961    0.018
 3894.00    1.29010   0.93795    0.018
 3895.00    0.81852   0.95753    0.018
 3896.00    0.42813   0.97623    0.018
 3897.00    0.14281   0.99379    0.017
 3898.00    1.09999   0.99961    0.018
 3899.00    1.86356   1.00079    0.018
 3900.00    1.04983   1.00892    0.017
 3901.00    0.32566   1.02151    0.017
 3902.00    0.14848   1.02596    0.017
 3903.00    0.00795   1.02479    0.016
 3904.00    0.04374   1.02623    0.016
 3905.00    0.09310   1.02425    0.015
 3906.00    0.19560   1.02346    0.015
 3907.00    0.22159   1.03220    0.015
 3908.00   -0.00185   1.04384    0.000
 3909.00   -0.19491   1.04989    0.000
 3910.00   -0.30417   1.04985    0.000
 3911.00   -0.30687   1.04780    0.000
 3912.00   -0.05792   1.04665    0.000
 3913.00    0.00781   1.04710    0.017
 3914.00   -0.30039   1.04832    0.000
 3915.00   -0.15249   1.04912    0.000
 3916.00    0.80552   1.04573    0.018
 3917.00    1.52204   1.04003    0.018
 3918.00    1.86334   1.02882    0.018
 3919.00    1.85676   1.01217    0.018
 3920.00    1.37555   0.99878    0.018
 3921.00    0.79441   0.99501    0.018
 3922.00    0.09324   0.99663    0.018
 3923.00   -0.04238   0.99427    0.000
 3924.00    0.42097   0.99307    0.017
 3925.00    1.04163   0.99250    0.017
 3926.00    1.80923   0.98528    0.017
 3927.00    1.99634   0.98316    0.017
 3928.00    1.70537   0.98589    0.017
 3929.00    1.36946   0.98581    0.017
 3930.00    1.00097   0.98329    0.018
 3931.00    1.07354   0.97638    0.018
 3932.00    1.42680   0.96512    0.018
 3933.00    1.53273   0.95071    0.018
 3934.00    1.50102   0.94450    0.018
 3935.00    1.32280   0.95325    0.018
 3936.00    1.07367   0.97124    0.018
 3937.00    0.68993   0.98720    0.018
 3938.00    0.24992   0.99746    0.018
 3939.00    0.06534   1.00499    0.018
 3940.00   -0.02788   1.01067    0.000
 3941.00    0.64905   1.01182    0.018
 3942.00    1.55875   1.01002    0.019
 3943.00    0.61375   1.00513    0.018
 3944.00   -0.79708   0.99943    0.000
 3945.00   -0.35096   1.00384    0.000
 3946.00    0.47384   1.01563    0.018
 3947.00    0.33776   1.01783    0.018
 3948.00    0.04781   1.01355    0.018
 3949.00    1.09425   1.01726    0.018
 3950.00    2.30024   1.02420    0.018
 3951.00    2.38067   1.02471    0.018
 3952.00    2.36944   1.01698    0.019
 3953.00    1.56893   1.01031    0.019
 3954.00    0.73215   1.00937    0.018
 3955.00    0.83209   1.00726    0.018
 3956.00    0.93504   1.00026    0.018
 3957.00    0.57224   0.99493    0.018
 3958.00    0.24946   0.99435    0.018
 3959.00    0.68473   0.98998    0.018
 3960.00    1.05527   0.96913    0.000
 3961.00    0.69632   0.93374    0.000
 3962.00    0.35869   0.91095    0.000
 3963.00    0.18858   0.90125    0.000
 3964.00    0.03679   0.87726    0.000
 3965.00   -0.00637   0.84526    0.000
 3966.00    0.05524   0.81122    0.000
 3967.00    0.60878   0.76130    0.000
 3968.00    1.07207   0.69276    0.000
 3969.00    1.18951   0.62196    0.000
 3970.00    1.19684   0.59446    0.000
 3971.00    0.85223   0.64141    0.000
 3972.00    0.63547   0.72318    0.000
 3973.00    0.76495   0.79126    0.000
 3974.00    0.58284   0.84285    0.000
 3975.00   -0.32275   0.88448    0.000
 3976.00   -0.96061   0.91362    0.000
 3977.00   -1.06072   0.93556    0.000
 3978.00   -0.85964   0.95600    0.000
 3979.00   -0.13171   0.97328    0.000
 3980.00    0.21814   0.98549    0.000
 3981.00   -0.01083   0.98956    0.000
 3982.00   -0.26514   0.98732    0.000
 3983.00   -0.55351   0.98837    0.000
 3984.00   -0.48612   0.99656    0.000
 3985.00    0.00259   1.00537    0.018
 3986.00    0.54123   1.01035    0.018
 3987.00    1.13202   1.01466    0.018
 3988.00    1.00040   1.02159    0.018
 3989.00    0.20340   1.02219    0.018
 3990.00    0.07286   1.01957    0.017
 3991.00    0.48340   1.02230    0.017
 3992.00    0.75654   1.02717    0.017
 3993.00    0.93152   1.02800    0.017
 3994.00    0.65899   1.02084    0.017
 3995.00    0.10587   1.01414    0.017
 3996.00    0.23271   1.01366    0.017
 3997.00    0.73216   1.01245    0.017
 3998.00    1.26253   1.01238    0.017
 3999.00    1.80763   1.02189    0.017
 4000.00    1.60041   1.03194    0.017
 4001.00    1.08398   1.03292    0.017
 4002.00    0.81926   1.03095    0.017
 4003.00    0.64295   1.02782    0.017
 4004.00    0.63621   1.01719    0.017
 4005.00    0.67972   1.00271    0.017
 4006.00    0.51501   0.99972    0.016
 4007.00    0.29915   1.00634    0.016
 4008.00   -0.16196   1.00637    0.000
 4009.00   -0.67183   1.00124    0.000
 4010.00   -0.18261   1.00534    0.000
 4011.00    0.46186   1.01564    0.016
 4012.00    0.67310   1.02214    0.016
 4013.00    0.83452   1.02557    0.016
 4014.00    1.25903   1.02776    0.016
 4015.00    1.70389   1.03022    0.016
 4016.00    1.50640   1.02965    0.016
 4017.00    1.28186   1.02451    0.016
 4018.00    1.01492   1.02383    0.016
 4019.00    0.74869   1.02820    0.016
 4020.00    0.53060   1.02565    0.016
 4021.00    0.32293   1.01656    0.016
 4022.00    0.29879   1.00494    0.016
 4023.00    0.30564   0.98546    0.016
 4024.00    0.64577   0.94756    0.016
 4025.00    0.87109   0.89825    0.016
 4026.00    0.22490   0.87903    0.016
 4027.00   -0.28083   0.91825    0.000
 4028.00    0.02358   0.97324    0.016
 4029.00    0.47351   0.99759    0.016
 4030.00    1.59037   0.99497    0.016
 4031.00    2.33454   0.98861    0.016
 4032.00    1.68069   0.98901    0.016
 4033.00    1.15765   0.99109    0.016
 4034.00    1.04468   0.99498    0.016
 4035.00    1.01430   1.00409    0.016
 4036.00    1.20360   1.01909    0.016
 4037.00    1.34465   1.03158    0.016
 4038.00    1.37550   1.03405    0.016
 4039.00    1.23683   1.02969    0.016
 4040.00    0.76307   1.02114    0.016
 4041.00    0.65425   1.01698    0.016
 4042.00    1.17414   1.01960    0.017
 4043.00    1.38966   1.01551    0.017
 4044.00    1.14605   0.99626    0.016
 4045.00    1.00000   0.97653    0.016
 4046.00    0.98327   0.97556    0.016
 4047.00    0.96635   0.99400    0.016
 4048.00    0.94921   1.01155    0.016
 4049.00    1.07075   1.01842    0.017
 4050.00    1.33507   1.02243    0.017
 4051.00    1.50565   1.02277    0.017
 4052.00    1.59111   1.01756    0.017
 4053.00    1.54658   1.00988    0.016
 4054.00    1.39800   1.00217    0.016
 4055.00    1.14973   0.99674    0.016
 4056.00    0.83125   0.99879    0.016
 4057.00    0.64403   1.00377    0.016
 4058.00    0.53787   1.00397    0.016
 4059.00    0.39906   1.00178    0.016
 4060.00    0.24261   1.00138    0.015
 4061.00    0.47966   0.99990    0.015
 4062.00    0.90113   0.98936    0.016
 4063.00    1.24094   0.97363    0.016
 4064.00    1.54775   0.97246    0.015
 4065.00    1.85837   0.98659    0.015
 4066.00    2.17032   0.98972    0.015
 4067.00    2.06527   0.97307    0.015
 4068.00    1.83913   0.95556    0.015
 4069.00    1.23934   0.94815    0.015
 4070.00    0.54979   0.94561    0.015
 4071.00    0.65163   0.94677    0.015
 4072.00    0.90681   0.95728    0.015
 4073.00    1.25313   0.97826    0.015
 4074.00    1.61319   0.98745    0.015
 4075.00    1.28521   0.97240    0.015
 4076.00    0.88111   0.95559    0.015
 4077.00    1.10338   0.95379    0.015
 4078.00    1.37150   0.96210    0.015
 4079.00    1.40524   0.97440    0.015
 4080.00    1.43000   0.98859    0.015
 4081.00    1.27537   0.99690    0.015
 4082.00    1.12830   0.99453    0.016
 4083.00    1.30378   0.98376    0.016
 4084.00    1.48389   0.97295    0.016
 4085.00    1.74033   0.96945    0.016
 4086.00    1.93899   0.97314    0.016
 4087.00    1.54314   0.97554    0.016
 4088.00    1.16723   0.96416    0.016
 4089.00    0.93767   0.95390    0.016
 4090.00    0.81915   0.95944    0.016
 4091.00    1.32355   0.96273    0.016
 4092.00    1.76474   0.95233    0.000
 4093.00    1.92300   0.94319    0.000
 4094.00    1.92034   0.93241    0.000
 4095.00    1.32664   0.90771    0.000
 4096.00    0.91599   0.87164    0.000
 4097.00    1.06831   0.83634    0.000
 4098.00    1.18651   0.80582    0.000
 4099.00    1.21555   0.76284    0.000
 4100.00    1.27617   0.69140    0.000
 4101.00    1.40773   0.61840    0.000
 4102.00    1.39240   0.60778    0.000
 4103.00    1.09121   0.67244    0.000
 4104.00    1.03989   0.75487    0.000
 4105.00    1.41251   0.81817    0.000
 4106.00    1.77698   0.86249    0.000
 4107.00    2.12932   0.88989    0.000
 4108.00    1.91496   0.90604    0.000
 4109.00    0.96014   0.91564    0.000
 4110.00    0.52599   0.92144    0.000
 4111.00    0.69115   0.92815    0.000
 4112.00    0.75770   0.93845    0.000
 4113.00    0.72416   0.95076    0.015
 4114.00    0.98356   0.95672    0.015
 4115.00    1.50525   0.95185    0.015
 4116.00    1.81824   0.94883    0.014
 4117.00    1.96655   0.95672    0.014
 4118.00    1.83418   0.95523    0.014
 4119.00    1.50703   0.94257    0.014
 4120.00    1.37380   0.93396    0.014
 4121.00    1.35858   0.93585    0.014
 4122.00    1.29999   0.94946    0.021
 4123.00    1.21837   0.96446    0.086
 4124.00    0.94405   0.97370   -1.000
 4125.00    0.58088   0.97957   -1.000
 4126.00    0.43984   0.97649   -1.000
 4127.00    0.38702   0.96640   -1.000
 4128.00    0.43721   0.95939   -1.000
 4129.00    0.52226   0.96022   -1.000
 4130.00    0.77601   0.95858    0.035
 4131.00    1.07776   0.95095    0.015
 4132.00    1.13997   0.94399    0.014
 4133.00    1.14593   0.94604    0.013
 4134.00    0.80251   0.95510    0.014
 4135.00    0.39315   0.96820    0.014
 4136.00    0.56930   0.97761    0.014
 4137.00    0.83096   0.97765    0.013
 4138.00    0.84559   0.97769    0.014
 4139.00    0.83396   0.97964    0.014
 4140.00    0.55731   0.97856    0.014
 4141.00    0.26234   0.96821    0.014
 4142.00    0.94498   0.94064    0.014
 4143.00    1.66133   0.90548    0.014
 4144.00    1.46929   0.90036    0.014
 4145.00    1.28528   0.93082    0.014
 4146.00    1.42630   0.95685    0.014
 4147.00    1.55983   0.96595    0.014
 4148.00    1.57765   0.96712    0.014
 4149.00    1.56017   0.96175    0.014
 4150.00    1.19479   0.95714    0.014
 4151.00    0.85754   0.95783    0.014
 4152.00    0.71991   0.95556    0.014
 4153.00    0.57548   0.95064    0.014
 4154.00    0.39399   0.94956    0.014
 4155.00    0.34804   0.95140    0.014
 4156.00    0.89457   0.95046    0.014
 4157.00    1.26677   0.95268    0.014
 4158.00    1.01194   0.96129    0.014
 4159.00    0.85302   0.96875    0.014
 4160.00    0.98347   0.97060    0.014
 4161.00    1.06910   0.96916    0.014
 4162.00    1.03965   0.96972    0.014
 4163.00    0.92013   0.97017    0.014
 4164.00    0.60168   0.96779    0.014
 4165.00    0.41472   0.96542    0.014
 4166.00    0.47964   0.96214    0.014
 4167.00    0.56316   0.95458    0.014
 4168.00    0.67778   0.95041    0.014
 4169.00    0.65267   0.95441    0.014
 4170.00    0.42287   0.95884    0.014
 4171.00    0.42180   0.95278    0.014
 4172.00    0.71533   0.93809    0.014
 4173.00    0.69491   0.93212    0.014
 4174.00    0.31824   0.93750    0.014
 4175.00    0.20751   0.94448    0.014
 4176.00    0.36295   0.94654    0.014
 4177.00    0.63262   0.94462    0.014
 4178.00    1.00312   0.94353    0.014
 4179.00    1.09230   0.94792    0.014
 4180.00    0.96268   0.95301    0.014
 4181.00    0.94905   0.95119    0.013
 4182.00    1.01474   0.94653    0.013
 4183.00    0.98777   0.94794    0.013
 4184.00    0.90526   0.95243    0.013
 4185.00    1.01001   0.95310    0.013
 4186.00    1.21270   0.94290    0.013
 4187.00    1.29585   0.93104    0.013
 4188.00    1.32478   0.93333    0.013
 4189.00    1.11090   0.94220    0.013
 4190.00    0.80228   0.94523    0.013
 4191.00    1.07225   0.94661    0.013
 4192.00    1.53440   0.95151    0.013
 4193.00    1.48655   0.95880    0.013
 4194.00    1.29654   0.95516    0.013
 4195.00    1.13876   0.94008    0.013
 4196.00    0.98838   0.92464    0.013
 4197.00    0.70622   0.91005    0.013
 4198.00    0.39984   0.88941    0.013
 4199.00    0.13821   0.86919    0.013
 4200.00   -0.11708   0.86785    0.000
 4201.00    0.31799   0.88299    0.013
 4202.00    0.82345   0.90166    0.013
 4203.00    0.90191   0.91992    0.013
 4204.00    0.95254   0.93334    0.013
 4205.00    0.85113   0.94020    0.013
 4206.00    0.74588   0.94751    0.013
 4207.00    1.17282   0.95346    0.013
 4208.00    1.57725   0.95637    0.013
 4209.00    1.32016   0.95330    0.013
 4210.00    1.06005   0.94816    0.013
 4211.00    0.75598   0.94640    0.013
 4212.00    0.49704   0.94549    0.013
 4213.00    0.66473   0.94548    0.013
 4214.00    0.82578   0.94110    0.013
 4215.00    0.94108   0.93005    0.013
 4216.00    1.02045   0.92916    0.013
 4217.00    0.90886   0.94444    0.013
 4218.00    0.85288   0.95687    0.013
 4219.00    1.03436   0.96051    0.013
 4220.00    1.13979   0.96199    0.013
 4221.00    0.97731   0.96087    0.013
 4222.00    0.84312   0.95217    0.013
 4223.00    0.79275   0.93958    0.013
 4224.00    0.70504   0.92545    0.013
 4225.00    0.52308   0.90623    0.013
 4226.00    0.46833   0.88658    0.013
 4227.00    0.68999   0.88360    0.013
 4228.00    0.81644   0.90737    0.013
 4229.00    0.76334   0.93382    0.013
 4230.00    0.71205   0.94732    0.013
 4231.00    0.66371   0.95210    0.012
 4232.00    0.68214   0.94490    0.012
 4233.00    0.79695   0.93279    0.012
 4234.00    0.68011   0.93130    0.012
 4235.00    0.26918   0.93038    0.012
 4236.00    0.14358   0.92412    0.012
 4237.00    0.33723   0.92487    0.012
 4238.00    0.58741   0.93037    0.012
 4239.00    0.89338   0.93213    0.012
 4240.00    0.82086   0.93548    0.012
 4241.00    0.41895   0.94112    0.012
 4242.00    0.57753   0.94224    0.012
 4243.00    1.16581   0.94564    0.012
 4244.00    1.15008   0.95514    0.013
 4245.00    0.72729   0.95809    0.013
 4246.00    0.73554   0.94732    0.013
 4247.00    0.99830   0.93445    0.013
 4248.00    0.77873   0.92847    0.013
 4249.00    0.31084   0.92434    0.013
 4250.00    0.09314   0.91740    0.013
 4251.00   -0.01292   0.91979    0.000
 4252.00    0.18574   0.92921    0.013
 4253.00    0.50124   0.92620    0.013
 4254.00    0.82009   0.91590    0.013
 4255.00    1.14004   0.91705    0.012
 4256.00    1.11768   0.93050    0.012
 4257.00    1.00187   0.94080    0.012
 4258.00    0.44475   0.93426    0.012
 4259.00   -0.21127   0.91915    0.000
 4260.00    0.00951   0.90730    0.012
 4261.00    0.38709   0.90889    0.013
 4262.00    0.55944   0.92629    0.013
 4263.00    0.70372   0.94316    0.013
 4264.00    0.55091   0.94890    0.012
 4265.00    0.36908   0.94703    0.012
 4266.00    0.77323   0.93596    0.012
 4267.00    1.21321   0.91968    0.012
 4268.00    0.68457   0.91687    0.012
 4269.00    0.13269   0.92052    0.012
 4270.00    0.14580   0.91060    0.012
 4271.00    0.16222   0.89230    0.012
 4272.00    0.26634   0.88657    0.012
 4273.00    0.37654   0.89520    0.012
 4274.00    0.57030   0.89712    0.012
 4275.00    0.73971   0.89561    0.012
 4276.00    0.68785   0.90636    0.012
 4277.00    0.62171   0.92307    0.012
 4278.00    0.46043   0.93380    0.012
 4279.00    0.34490   0.93246    0.012
 4280.00    0.46622   0.92171    0.012
 4281.00    0.55070   0.91697    0.012
 4282.00    0.48140   0.91655   -2.000
 4283.00    0.41386   0.91680   -2.000
 4284.00    0.35234   0.91669   -2.000
 4285.00    0.34897   0.91141   -2.000
 4286.00    0.51463   0.90994   -2.000
 4287.00    0.59182   0.91283   -2.000
 4288.00    0.44955   0.90692   -2.000
 4289.00    0.26805   0.89039   -2.000
 4290.00    0.00266   0.88050   -2.000
 4291.00   -0.04878   0.88961   -2.000
 4292.00    0.29703   0.90740   -2.000
 4293.00    0.62987   0.91590   -2.000
 4294.00    0.94170   0.90881   -2.000
 4295.00    1.06629   0.90403   -2.000
 4296.00    0.92450   0.90575   -2.000
 4297.00    0.77150   0.90181   -2.000
 4298.00    0.60448   0.88977    0.012
 4299.00    0.56217   0.87187    0.012
 4300.00    0.65744   0.86366    0.012
 4301.00    0.71279   0.86914    0.012
 4302.00    0.72930   0.87114    0.012
 4303.00    0.63858   0.86864    0.012
 4304.00    0.45584   0.87222    0.012
 4305.00    0.28301   0.87532    0.012
 4306.00    0.11767   0.87221    0.012
 4307.00    0.21055   0.86167    0.012
 4308.00    0.47489   0.85189    0.012
 4309.00    0.54008   0.85408    0.012
 4310.00    0.48945   0.86562    0.012
 4311.00    0.42018   0.87672    0.012
 4312.00    0.34145   0.88401    0.012
 4313.00    0.15847   0.88740    0.012
 4314.00   -0.07026   0.89108    0.000
 4315.00   -0.00265   0.90478    0.000
 4316.00    0.17660   0.92566    0.012
 4317.00    0.21478   0.93569    0.012
 4318.00    0.20785   0.93332    0.012
 4319.00    0.32286   0.92630    0.012
 4320.00    0.47047   0.92002    0.012
 4321.00    0.50986   0.91619    0.012
 4322.00    0.52557   0.91195    0.012
 4323.00    0.85937   0.89613    0.012
 4324.00    1.24849   0.87031    0.012
 4325.00    1.16459   0.84791    0.012
 4326.00    1.01813   0.84572    0.012
 4327.00    0.67933   0.86889    0.012
 4328.00    0.32255   0.89464    0.012
 4329.00    0.54889   0.90258    0.012
 4330.00    0.80858   0.89264    0.000
 4331.00    0.66003   0.88091    0.000
 4332.00    0.50604   0.87450    0.000
 4333.00    0.81953   0.86757    0.000
 4334.00    1.10861   0.85893    0.000
 4335.00    0.81151   0.84465    0.000
 4336.00    0.55464   0.80947    0.000
 4337.00    0.82133   0.74790    0.000
 4338.00    1.06450   0.67868    0.000
 4339.00    1.10219   0.61104    0.000
 4340.00    1.08544   0.56166    0.000
 4341.00    0.71707   0.58018    0.000
 4342.00    0.42027   0.65993    0.000
 4343.00    0.48447   0.72982    0.000
 4344.00    0.56643   0.76886    0.000
 4345.00    0.72083   0.80256    0.000
 4346.00    0.85694   0.83053    0.000
 4347.00    0.93117   0.84611    0.000
 4348.00    1.05118   0.86233    0.000
 4349.00    1.30180   0.87802    0.000
 4350.00    1.42797   0.87504    0.000
 4351.00    1.25072   0.85407    0.012
 4352.00    0.99859   0.84587    0.012
 4353.00    0.58898   0.86404    0.012
 4354.00    0.43341   0.88406    0.012
 4355.00    0.74228   0.89358    0.012
 4356.00    0.91655   0.90268    0.011
 4357.00    0.87573   0.90968    0.012
 4358.00    0.76016   0.90610    0.015
 4359.00    0.53977   0.89797    0.041
 4360.00    0.50432   0.90149   -1.000
 4361.00    0.69704   0.91264   -1.000
 4362.00    0.96324   0.91965   -1.000
 4363.00    1.30933   0.92102   -1.000
 4364.00    1.34148   0.92560   -1.000
 4365.00    1.07247   0.93077   -1.000
 4366.00    0.95043   0.92163    0.042
 4367.00    0.95270   0.90493    0.015
 4368.00    0.88429   0.89941    0.012
 4369.00    0.76324   0.90411    0.012
 4370.00    0.74932   0.90815    0.012
 4371.00    0.80550   0.90933    0.012
 4372.00    0.81472   0.90859    0.012
 4373.00    0.79705   0.90089    0.012
 4374.00    0.70111   0.88673    0.012
 4375.00    0.56612   0.87955    0.012
 4376.00    0.76574   0.88938    0.011
 4377.00    1.10975   0.90763    0.011
 4378.00    1.20911   0.91648    0.011
 4379.00    1.21795   0.91187    0.011
 4380.00    1.16333   0.90588    0.011
 4381.00    1.08881   0.90028    0.012
 4382.00    1.18279   0.87911    0.012
 4383.00    1.32084   0.84604    0.011
 4384.00    1.06658   0.83084    0.011
 4385.00    0.72852   0.84525    0.011
 4386.00    0.64596   0.86331    0.011
 4387.00    0.60661   0.85693    0.011
 4388.00    0.56844   0.84522    0.011
 4389.00    0.53042   0.85544    0.011
 4390.00    0.69664   0.87249    0.011
 4391.00    0.88108   0.88605    0.011
 4392.00    0.89152   0.89813    0.011
 4393.00    0.89269   0.90159    0.011
 4394.00    0.67211   0.89437    0.011
 4395.00    0.45172   0.88849    0.011
 4396.00    0.59965   0.89973    0.011
 4397.00    0.75092   0.91769    0.011
 4398.00    0.97572   0.92051    0.011
 4399.00    1.17998   0.90790    0.011
 4400.00    1.13051   0.89309    0.011
 4401.00    1.07008   0.89186    0.011
 4402.00    0.91754   0.90347    0.011
 4403.00    0.78032   0.89732    0.011
 4404.00    0.73917   0.87155    0.011
 4405.00    0.74843   0.86043    0.011
 4406.00    1.00557   0.87370    0.011
 4407.00    1.22080   0.88376    0.011
 4408.00    1.26871   0.88309    0.011
 4409.00    1.26894   0.89052    0.011
 4410.00    1.11105   0.90594    0.011
 4411.00    1.03365   0.91514    0.011
 4412.00    1.18179   0.92033    0.011
 4413.00    1.22021   0.91594    0.011
 4414.00    0.99564   0.89081    0.011
 4415.00    0.82085   0.86650    0.011
 4416.00    0.74909   0.86794    0.011
 4417.00    0.70648   0.88301    0.011
 4418.00    0.71634   0.89918    0.011
 4419.00    0.71102   0.91455    0.011
 4420.00    0.68180   0.91918    0.011
 4421.00    0.79601   0.91126    0.011
 4422.00    1.10842   0.89720    0.011
 4423.00    1.15330   0.89379    0.011
 4424.00    0.87278   0.90005    0.011
 4425.00    0.59486   0.90280    0.011
 4426.00    0.31971   0.90001    0.011
 4427.00    0.31455   0.89926    0.011
 4428.00    0.56474   0.90386    0.011
 4429.00    0.70308   0.90387    0.011
 4430.00    0.74814   0.89449    0.011
 4431.00    0.70462   0.89259    0.011
 4432.00    0.59607   0.89904    0.011
 4433.00    0.75341   0.89476    0.011
 4434.00    1.08218   0.88086    0.012
 4435.00    1.25659   0.87049    0.012
 4436.00    1.34395   0.87426    0.012
 4437.00    0.95953   0.88853    0.012
 4438.00    0.34351   0.90628    0.011
 4439.00    0.24223   0.91581    0.011
 4440.00    0.35938   0.90708    0.011
 4441.00    0.60225   0.88704    0.012
 4442.00    0.89081   0.87402    0.012
 4443.00    1.05674   0.87423    0.012
 4444.00    1.18497   0.88747    0.012
 4445.00    1.10234   0.90584    0.012
 4446.00    0.96574   0.91220    0.012
 4447.00    1.01267   0.90579    0.011
 4448.00    1.09784   0.90547    0.011
 4449.00    0.93357   0.90845    0.011
 4450.00    0.72832   0.90469    0.011
 4451.00    0.64550   0.90177    0.011
 4452.00    0.57778   0.90128    0.011
 4453.00    0.65155   0.89517    0.011
 4454.00    0.73735   0.88029    0.011
 4455.00    0.60822   0.86801    0.011
 4456.00    0.46849   0.87043    0.011
 4457.00    0.59190   0.87755    0.011
 4458.00    0.72046   0.87777    0.011
 4459.00    0.91006   0.87404    0.011
 4460.00    1.08999   0.87264    0.011
 4461.00    1.07427   0.86823    0.000
 4462.00    1.04985   0.86819    0.000
 4463.00    0.92326   0.88244    0.000
 4464.00    0.83403   0.89326    0.000
 4465.00    1.04785   0.89091    0.000
 4466.00    1.21768   0.88557    0.000
 4467.00    1.11974   0.88244    0.000
 4468.00    0.97678   0.87427    0.000
 4469.00    0.61782   0.85692    0.000
 4470.00    0.36560   0.82961    0.000
 4471.00    0.53028   0.80559    0.000
 4472.00    0.66239   0.82025    0.000
 4473.00    0.68857   0.86748    0.000
 4474.00    0.72725   0.89840    0.000
 4475.00    0.80032   0.90313    0.000
 4476.00    0.92874   0.90691    0.000
 4477.00    1.18757   0.91579    0.000
 4478.00    1.22433   0.91672    0.000
 4479.00    0.80875   0.89924    0.000
 4480.00    0.65378   0.86994    0.000
 4481.00    0.96079   0.85079    0.000
 4482.00    1.05048   0.86005    0.011
 4483.00    0.80313   0.88642    0.011
 4484.00    0.76300   0.90665    0.011
 4485.00    1.00512   0.91613    0.011
 4486.00    1.11789   0.91808    0.011
 4487.00    1.07555   0.91236    0.011
 4488.00    0.92005   0.89819    0.011
 4489.00    0.64492   0.88350    0.011
 4490.00    0.65070   0.88119    0.011
 4491.00    0.91844   0.89099    0.011
 4492.00    0.86899   0.90175    0.011
 4493.00    0.55876   0.90011    0.011
 4494.00    0.42876   0.88652    0.011
 4495.00    0.42918   0.87837    0.011
 4496.00    0.51558   0.88064    0.011
 4497.00    0.65660   0.89006    0.011
 4498.00    0.74462   0.90135    0.011
 4499.00    0.80320   0.90793    0.011
 4500.00    0.75036   0.90416    0.011
 4501.00    0.64369   0.89453    0.011
 4502.00    0.65474   0.89747    0.011
 4503.00    0.71490   0.91532    0.011
 4504.00    0.64930   0.92705    0.011
 4505.00    0.53882   0.92538    0.011
 4506.00    0.60032   0.91821    0.011
 4507.00    0.71367   0.91062    0.011
 4508.00    0.82630   0.90775    0.011
 4509.00    0.93875   0.90988    0.011
 4510.00    0.98380   0.91216    0.011
 4511.00    1.01515   0.90961    0.011
 4512.00    0.85015   0.90194    0.011
 4513.00    0.65382   0.89373    0.011
 4514.00    0.75223   0.88661    0.011
 4515.00    0.88566   0.88562    0.011
 4516.00    0.67159   0.89182    0.011
 4517.00    0.42940   0.89287    0.011
 4518.00    0.60176   0.89070    0.011
 4519.00    0.79297   0.89626    0.010
 4520.00    0.74362   0.90508    0.010
 4521.00    0.69031   0.90898    0.010
 4522.00    0.58560   0.89985    0.011
 4523.00    0.49986   0.88787    0.011
 4524.00    0.77009   0.88559    0.011
 4525.00    1.01148   0.88165    0.011
 4526.00    0.92985   0.87192    0.011
 4527.00    0.84993   0.86195    0.011
 4528.00    0.78337   0.85352    0.010
 4529.00    0.72155   0.85033    0.010
 4530.00    0.68775   0.85660    0.011
 4531.00    0.66399   0.86591    0.011
 4532.00    0.68721   0.87429    0.011
 4533.00    0.72130   0.87046    0.010
 4534.00    0.79689   0.85689    0.011
 4535.00    0.84560   0.85118    0.011
 4536.00    0.80860   0.86423    0.011
 4537.00    0.77241   0.88547    0.011
 4538.00    0.73843   0.88903    0.011
 4539.00    0.69411   0.86919    0.011
 4540.00    0.62584   0.83582    0.011
 4541.00    0.62631   0.81004    0.010
 4542.00    0.76458   0.81788    0.010
 4543.00    0.92749   0.84742    0.010
 4544.00    1.13341   0.86351    0.011
 4545.00    1.16148   0.86668    0.011
 4546.00    0.91776   0.87372    0.010
 4547.00    0.77692   0.87966    0.010
 4548.00    0.77421   0.87554    0.010
 4549.00    0.73216   0.86519    0.010
 4550.00    0.64362   0.86640    0.000
 4551.00    0.72330   0.87493    0.000
 4552.00    0.97833   0.87048    0.000
 4553.00    1.07407   0.86367    0.000
 4554.00    1.02335   0.86323    0.000
 4555.00    1.05606   0.86544    0.000
 4556.00    1.15638   0.87481    0.000
 4557.00    1.10468   0.88941    0.000
 4558.00    0.94455   0.89735    0.000
 4559.00    0.74578   0.89857    0.000
 4560.00    0.52283   0.89798    0.000
 4561.00    0.63310   0.89889    0.000
 4562.00    0.92563   0.89791    0.000
 4563.00    0.91329   0.88675    0.000
 4564.00    0.75601   0.87300    0.000
 4565.00    0.74585   0.86959    0.000
 4566.00    0.79603   0.87699    0.000
 4567.00    0.75307   0.88704    0.000
 4568.00    0.67747   0.89031    0.000
 4569.00    0.72069   0.88987    0.000
 4570.00    0.79903   0.88639    0.000
 4571.00    0.91145   0.87591    0.000
 4572.00    1.03221   0.87462    0.000
 4573.00    1.07682   0.88857    0.000
 4574.00    1.10632   0.89355    0.000
 4575.00    1.09192   0.88918    0.000
 4576.00    1.07073   0.89011    0.000
 4577.00    0.97325   0.89182    0.000
 4578.00    0.86704   0.88633    0.000
 4579.00    0.90170   0.87426    0.000
 4580.00    0.94717   0.86397    0.000
 4581.00    1.01432   0.86387    0.000
 4582.00    1.08237   0.87104    0.000
 4583.00    0.99400   0.87339    0.000
 4584.00    0.90574   0.87045    0.000
 4585.00    0.88090   0.86860    0.000
 4586.00    0.86411   0.86868    0.000
 4587.00    0.98792   0.87507    0.000
 4588.00    1.06665   0.88551    0.000
 4589.00    0.66295   0.89044    0.000
 4590.00    0.35374   0.88291    0.000
 4591.00    0.75877   0.87033    0.000
 4592.00    1.08339   0.86545    0.000
 4593.00    0.94583   0.86895    0.000
 4594.00    0.83160   0.86973    0.000
 4595.00    0.82397   0.86386    0.000
 4596.00    0.85882   0.86111    0.000
 4597.00    1.05261   0.86559    0.000
 4598.00    1.17852   0.87218    0.000
 4599.00    1.09217   0.87535    0.000
 4600.00    0.99622   0.86994    0.000
 4601.00    0.87480   0.86440    0.000
 4602.00    0.83459   0.86660    0.000
 4603.00    0.97943   0.86821    0.000
 4604.00    1.07047   0.86785    0.000
 4605.00    1.05537   0.86733    0.000
 4606.00    0.98715   0.86996    0.000
 4607.00    0.82761   0.87860    0.000
 4608.00    0.77555   0.89085    0.000
 4609.00    0.88532   0.89645    0.000
 4610.00    1.00793   0.88976    0.000
 4611.00    1.14755   0.88207    0.000
 4612.00    1.17891   0.87964    0.000
 4613.00    1.08413   0.87766    0.000
 4614.00    0.94527   0.88051    0.000
 4615.00    0.76112   0.88691    0.000
 4616.00    0.58156   0.88703    0.000
 4617.00    0.40616   0.88641    0.000
 4618.00    0.52634   0.88173    0.000
 4619.00    0.88266   0.87205    0.000
 4620.00    1.07343   0.87399    0.000
 4621.00    1.14785   0.88432    0.000
 4622.00    1.22649   0.88653    0.000
 4623.00    1.30775   0.88606    0.000
 4624.00    1.07260   0.88667    0.000
 4625.00    0.66705   0.88247    0.000
 4626.00    0.55528   0.87898    0.000
 4627.00    0.58093   0.88181    0.000
 4628.00    0.71407   0.88191    0.000
 4629.00    0.89056   0.87385    0.000
 4630.00    0.82176   0.86795    0.000
 4631.00    0.66858   0.86831    0.000
 4632.00    0.70939   0.86873    0.000
 4633.00    0.80640   0.86708    0.000
 4634.00    0.74016   0.86764    0.000
 4635.00    0.63482   0.87005    0.000
 4636.00    0.61245   0.87060    0.000
 4637.00    0.60610   0.86401    0.000
 4638.00    0.65220   0.85519    0.000
 4639.00    0.70618   0.85064    0.000
 4640.00    0.79401   0.85075    0.000
 4641.00    0.88556   0.85652    0.000
 4642.00    0.95267   0.86331    0.000
 4643.00    1.01800   0.86488    0.000
 4644.00    0.73522   0.86232    0.000
 4645.00    0.43927   0.85157    0.000
 4646.00    0.65117   0.82687    0.000
 4647.00    0.85857   0.80897    0.000
 4648.00    0.80367   0.81403    0.000
 4649.00    0.76312   0.82492    0.000
 4650.00    0.95710   0.82951    0.000
 4651.00    1.11459   0.83794    0.000
 4652.00    0.89870   0.85351    0.000
 4653.00    0.68785   0.86114    0.000
 4654.00    0.51383   0.85186    0.000
 4655.00    0.40964   0.84498    0.000
 4656.00    0.69583   0.84896    0.000
 4657.00    0.93197   0.85839    0.000
 4658.00    0.94488   0.87285    0.000
 4659.00    0.94292   0.88541    0.000
 4660.00    0.88653   0.88666    0.000
 4661.00    0.81679   0.87571    0.000
 4662.00    0.70612   0.86217    0.000
 4663.00    0.65001   0.85321    0.000
 4664.00    0.73615   0.84893    0.000
 4665.00    0.78766   0.84364    0.000
 4666.00    0.76153   0.83023    0.000
 4667.00    0.74356   0.81601    0.000
 4668.00    0.74144   0.81677    0.000
 4669.00    0.74079   0.83320    0.000
 4670.00    0.74260   0.85272    0.000
 4671.00    0.85928   0.86425    0.000
 4672.00    1.14639   0.86177    0.000
 4673.00    1.29302   0.85176    0.000
 4674.00    1.25643   0.84826    0.000
 4675.00    1.18632   0.85383    0.000
 4676.00    1.07772   0.86206    0.000
 4677.00    1.05880   0.86341    0.000
 4678.00    1.13077   0.85625    0.000
 4679.00    1.08776   0.84766    0.000
 4680.00    0.94198   0.84221    0.000
 4681.00    0.86382   0.83793    0.000
 4682.00    0.83892   0.83619    0.000
 4683.00    0.79551   0.83338    0.000
 4684.00    0.73930   0.80980    0.000
 4685.00    0.72696   0.77120    0.000
 4686.00    0.74127   0.76601    0.000
 4687.00    0.89652   0.79987    0.000
 4688.00    1.12652   0.83060    0.000
 4689.00    1.12176   0.84328    0.000
 4690.00    1.00897   0.84726    0.000
 4691.00    1.06297   0.84543    0.000
 4692.00    1.18306   0.84723    0.000
 4693.00    1.08952   0.85208    0.000
 4694.00    0.92385   0.85663    0.000
 4695.00    0.78496   0.86247    0.000
 4696.00    0.65369   0.86568    0.000
 4697.00    0.72448   0.85873    0.000
 4698.00    0.84258   0.84205    0.000
 4699.00    0.87879   0.83225    0.000
 4700.00    0.89959   0.83610    0.000
 4701.00    0.86914   0.83891    0.000
 4702.00    0.83124   0.83373    0.000
 4703.00    0.78379   0.83004    0.000
 4704.00    0.73533   0.83525    0.000
 4705.00    0.88536   0.84255    0.000
 4706.00    1.04902   0.84290    0.000
 4707.00    0.81920   0.83836    0.000
 4708.00    0.57599   0.83422    0.000
 4709.00    0.60504   0.83338    0.000
 4710.00    0.63987   0.83988    0.000
 4711.00    0.84908   0.84874    0.000
 4712.00    1.03783   0.83811    0.000
 4713.00    0.91276   0.81975    0.000
 4714.00    0.81682   0.81836    0.000
 4715.00    1.00668   0.83384    0.000
 4716.00    1.16810   0.84919    0.000
 4717.00    1.12853   0.85954    0.000
 4718.00    1.06875   0.86427    0.000
 4719.00    0.89899   0.86911    0.000
 4720.00    0.74614   0.87203    0.000
 4721.00    0.66703   0.86923    0.000
 4722.00    0.64911   0.86339    0.000
 4723.00    0.85075   0.86238    0.000
 4724.00    0.98563   0.86839    0.000
 4725.00    0.91951   0.87205    0.000
 4726.00    0.86573   0.86381    0.000
 4727.00    0.84360   0.84442    0.000
 4728.00    0.84486   0.82943    0.000
 4729.00    0.89768   0.82773    0.000
 4730.00    0.97808   0.83152    0.000
 4731.00    1.11122   0.83604    0.000
 4732.00    1.09822   0.84293    0.000
 4733.00    0.84147   0.84834    0.000
 4734.00    0.66050   0.85076    0.000
 4735.00    0.59035   0.85181    0.000
 4736.00    0.57964   0.84539    0.000
 4737.00    0.64539   0.84200    0.000
 4738.00    0.74320   0.85206    0.000
 4739.00    0.87736   0.85870    0.000
 4740.00    0.89910   0.85330    0.000
 4741.00    0.80853   0.84818    0.000
 4742.00    0.92739   0.85093    0.000
 4743.00    1.23079   0.85645    0.000
 4744.00    1.23556   0.85639    0.000
 4745.00    1.00850   0.85335    0.000
 4746.00    0.97763   0.85718    0.000
 4747.00    1.08069   0.86190    0.000
 4748.00    1.04255   0.86049    0.000
 4749.00    0.91993   0.85910    0.000
 4750.00    0.95851   0.85985    0.000
 4751.00    1.08122   0.85735    0.000
 4752.00    1.07430   0.85099    0.000
 4753.00    1.00871   0.84622    0.000
 4754.00    0.88059   0.84296    0.000
 4755.00    0.72812   0.84191    0.000
 4756.00    0.77466   0.84219    0.000
 4757.00    0.88713   0.84344    0.000
 4758.00    0.87732   0.84643    0.000
 4759.00    0.83351   0.85039    0.000
 4760.00    0.88493   0.85217    0.000
 4761.00    0.95813   0.84553    0.009
 4762.00    0.93061   0.83442    0.009
 4763.00    0.88464   0.82945    0.009
 4764.00    0.94214   0.82708    0.009
 4765.00    1.01421   0.82165    0.009
 4766.00    1.06271   0.81961    0.009
 4767.00    1.10881   0.82606    0.009
 4768.00    1.02137   0.83619    0.009
 4769.00    0.92529   0.84596    0.009
 4770.00    0.72413   0.84968    0.009
 4771.00    0.52075   0.84257    0.009
 4772.00    0.80031   0.83573    0.009
 4773.00    1.07037   0.84018    0.009
 4774.00    1.06501   0.85096    0.009
 4775.00    1.06164   0.85518    0.009
 4776.00    1.08714   0.85275    0.009
 4777.00    1.09501   0.85402    0.009
 4778.00    0.93719   0.85477    0.009
 4779.00    0.78792   0.84980    0.009
 4780.00    0.69727   0.84663    0.009
 4781.00    0.67157   0.84621    0.009
 4782.00    0.98993   0.84000    0.009
 4783.00    1.19019   0.83122    0.009
 4784.00    0.88746   0.83216    0.009
 4785.00    0.67790   0.83549    0.009
 4786.00    0.79576   0.82960    0.009
 4787.00    0.88633   0.82805    0.009
 4788.00    0.89626   0.83281    0.009
 4789.00    0.89767   0.83199    0.010
 4790.00    0.87761   0.83202    0.025
 4791.00    0.85878   0.83599   -1.000
 4792.00    0.84260   0.84073   -1.000
 4793.00    0.85556   0.84892   -1.000
 4794.00    0.92340   0.85891   -1.000
 4795.00    0.98375   0.86281   -1.000
 4796.00    1.03182   0.85860   -1.000
 4797.00    0.98517   0.85068   -1.000
 4798.00    0.80206   0.84149   -1.000
 4799.00    0.73764   0.83316   -1.000
 4800.00    0.82363   0.83217   -1.000
 4801.00    0.94479   0.84092   -1.000
 4802.00    1.10524   0.85101   -1.000
 4803.00    1.14103   0.85307   -1.000
 4804.00    1.05403   0.84608   -1.000
 4805.00    1.04140   0.83760   -1.000
 4806.00    1.09339   0.83481   -1.000
 4807.00    1.07529   0.83251   -1.000
 4808.00    1.00355   0.82959   -1.000
 4809.00    1.05255   0.83248   -1.000
 4810.00    1.18278   0.83800   -1.000
 4811.00    1.18746   0.83995   -1.000
 4812.00    1.11815   0.83768   -1.000
 4813.00    1.03354   0.83536    0.027
 4814.00    0.94106   0.83655    0.011
 4815.00    0.88104   0.83985    0.009
 4816.00    0.83549   0.84398    0.009
 4817.00    0.84344   0.84819    0.009
 4818.00    0.87187   0.84974    0.009
 4819.00    0.91879   0.84927    0.009
 4820.00    0.97172   0.84801    0.009
 4821.00    0.84639   0.84619    0.009
 4822.00    0.67254   0.83845    0.009
 4823.00    0.76946   0.82305    0.009
 4824.00    0.92689   0.81804    0.009
 4825.00    0.98332   0.82892    0.009
 4826.00    1.02175   0.83827    0.009
 4827.00    0.84819   0.83683    0.009
 4828.00    0.64575   0.82905    0.009
 4829.00    0.81069   0.82534    0.009
 4830.00    1.01131   0.82825    0.009
 4831.00    1.03582   0.82556    0.009
 4832.00    1.04964   0.81888    0.009
 4833.00    1.00461   0.82239    0.009
 4834.00    0.95773   0.83081    0.009
 4835.00    0.85643   0.83303    0.009
 4836.00    0.76177   0.83065    0.009
 4837.00    0.84025   0.82939    0.009
 4838.00    0.91549   0.82498    0.009
 4839.00    0.94652   0.81555    0.009
 4840.00    0.97715   0.81012    0.009
 4841.00    1.00412   0.81298    0.009
 4842.00    1.01139   0.81402    0.008
 4843.00    0.88791   0.80936    0.008
 4844.00    0.81558   0.81102    0.009
 4845.00    1.00720   0.81983    0.009
 4846.00    1.15055   0.82236    0.009
 4847.00    1.09296   0.81362    0.009
 4848.00    0.99940   0.79983    0.000
 4849.00    0.78201   0.79394    0.000
 4850.00    0.65075   0.79810    0.000
 4851.00    0.76929   0.79767    0.000
 4852.00    0.88019   0.79042    0.000
 4853.00    0.97214   0.78093    0.000
 4854.00    0.99881   0.76142    0.000
 4855.00    0.88620   0.73480    0.000
 4856.00    0.81161   0.71849    0.000
 4857.00    0.80747   0.70654    0.000
 4858.00    0.75513   0.67451    0.000
 4859.00    0.62477   0.61920    0.000
 4860.00    0.58476   0.55290    0.000
 4861.00    0.67306   0.51122    0.000
 4862.00    0.74309   0.53469    0.000
 4863.00    0.79030   0.60389    0.000
 4864.00    0.76243   0.66202    0.000
 4865.00    0.65190   0.69944    0.000
 4866.00    0.60378   0.72513    0.000
 4867.00    0.61629   0.74145    0.000
 4868.00    0.68926   0.75399    0.000
 4869.00    0.81401   0.76511    0.000
 4870.00    0.91012   0.76163    0.000
 4871.00    0.98462   0.74751    0.000
 4872.00    1.03056   0.74896    0.000
 4873.00    1.05755   0.76848    0.000
 4874.00    1.00210   0.78320    0.000
 4875.00    0.89880   0.78754    0.009
 4876.00    0.86126   0.79261    0.009
 4877.00    0.85698   0.79919    0.009
 4878.00    0.89877   0.80503    0.009
 4879.00    0.96075   0.81555    0.009
 4880.00    0.91910   0.81818    0.009
 4881.00    0.83850   0.80705    0.009
 4882.00    0.70659   0.80233    0.009
 4883.00    0.55833   0.80774    0.009
 4884.00    0.90178   0.80584    0.009
 4885.00    1.37629   0.79495    0.009
 4886.00    1.34204   0.78881    0.009
 4887.00    1.19680   0.79292    0.009
 4888.00    0.98768   0.79888    0.009
 4889.00    0.76748   0.79674    0.009
 4890.00    0.78417   0.78331    0.009
 4891.00    0.83206   0.77238    0.009
 4892.00    0.82940   0.78723    0.009
 4893.00    0.82204   0.81436    0.009
 4894.00    0.97919   0.83196    0.009
 4895.00    1.14568   0.84075    0.009
 4896.00    0.97667   0.84193    0.009
 4897.00    0.80153   0.83970    0.009
 4898.00    0.79308   0.83589    0.009
 4899.00    0.78645   0.82616    0.009
 4900.00    0.82285   0.81792    0.009
 4901.00    0.85151   0.82052    0.009
 4902.00    0.77992   0.82126    0.009
 4903.00    0.72011   0.81427    0.009
 4904.00    0.76266   0.81402    0.009
 4905.00    0.81725   0.82497    0.009
 4906.00    0.94928   0.83352    0.009
 4907.00    1.05616   0.83032    0.009
 4908.00    1.03656   0.81966    0.009
 4909.00    1.01639   0.80748    0.009
 4910.00    0.99393   0.79810    0.009
 4911.00    0.95349   0.79985    0.009
 4912.00    0.85241   0.80951    0.009
 4913.00    0.80898   0.81695    0.009
 4914.00    0.92967   0.82212    0.009
 4915.00    0.98368   0.82853    0.009
 4916.00    0.87545   0.82851    0.009
 4917.00    0.81841   0.81473    0.009
 4918.00    0.86880   0.78891    0.009
 4919.00    0.92435   0.76188    0.009
 4920.00    0.98931   0.74429    0.009
 4921.00    0.84560   0.73957    0.009
 4922.00    0.36911   0.75439    0.009
 4923.00    0.26093   0.77233    0.009
 4924.00    0.66818   0.78163    0.009
 4925.00    0.87977   0.78983    0.009
 4926.00    0.85037   0.80796    0.009
 4927.00    0.87119   0.82050    0.009
 4928.00    0.94652   0.82624    0.009
 4929.00    0.91673   0.83317    0.009
 4930.00    0.78627   0.83501    0.009
 4931.00    0.73406   0.83245    0.009
 4932.00    0.74793   0.82385    0.009
 4933.00    0.76483   0.80629    0.009
 4934.00    0.78400   0.79882    0.009
 4935.00    0.80465   0.80926    0.009
 4936.00    0.82629   0.81338    0.009
 4937.00    0.80018   0.79980    0.009
 4938.00    0.74678   0.78227    0.009
 4939.00    0.74107   0.77878    0.009
 4940.00    0.75910   0.79482    0.000
 4941.00    0.92622   0.81349    0.000
 4942.00    1.15753   0.81986    0.000
 4943.00    1.13539   0.82399    0.000
 4944.00    1.01967   0.82738    0.000
 4945.00    0.87153   0.82247    0.000
 4946.00    0.71324   0.81730    0.000
 4947.00    0.83227   0.82173    0.000
 4948.00    1.02367   0.82735    0.000
 4949.00    1.07801   0.82859    0.000
 4950.00    1.10316   0.82966    0.000
 4951.00    1.02245   0.83191    0.000
 4952.00    0.92390   0.82842    0.000
 4953.00    0.88931   0.82151    0.000
 4954.00    0.86285   0.81829    0.000
 4955.00    0.92431   0.81373    0.000
 4956.00    0.99356   0.79534    0.000
 4957.00    0.92232   0.76614    0.000
 4958.00    0.84368   0.76355    0.000
 4959.00    0.96102   0.79352    0.000
 4960.00    1.08134   0.81691    0.000
 4961.00    1.14109   0.82002    0.000
 4962.00    1.19220   0.81724    0.000
 4963.00    1.05536   0.81796    0.000
 4964.00    0.93663   0.81359    0.000
 4965.00    1.04026   0.80045    0.000
 4966.00    1.13826   0.79261    0.000
 4967.00    1.18913   0.79385    0.000
 4968.00    1.22721   0.79566    0.000
 4969.00    1.18540   0.79839    0.000
 4970.00    1.13855   0.80127    0.000
 4971.00    1.06699   0.80570    0.000
 4972.00    1.00524   0.81226    0.000
 4973.00    0.98254   0.81627    0.000
 4974.00    0.94687   0.81889    0.000
 4975.00    0.86831   0.81812    0.000
 4976.00    0.81404   0.81354    0.000
 4977.00    0.82768   0.80723    0.000
 4978.00    0.81546   0.79788    0.000
 4979.00    0.74140   0.79243    0.000
 4980.00    0.71812   0.79147    0.000
 4981.00    0.79975   0.78172    0.000
 4982.00    0.83971   0.76227    0.000
 4983.00    0.80481   0.75248    0.000
 4984.00    0.80929   0.76010    0.000
 4985.00    0.87562   0.77258    0.000
 4986.00    0.95923   0.78464    0.000
 4987.00    1.06666   0.79836    0.000
 4988.00    1.11729   0.80400    0.000
 4989.00    1.09896   0.79996    0.000
 4990.00    1.02267   0.79342    0.000
 4991.00    0.88437   0.78977    0.000
 4992.00    0.76835   0.79421    0.000
 4993.00    0.67337   0.79566    0.000
 4994.00    0.69650   0.79269    0.000
 4995.00    0.81796   0.79716    0.000
 4996.00    0.91149   0.80187    0.000
 4997.00    0.98456   0.80049    0.000
 4998.00    0.97612   0.79550    0.000
 4999.00    0.91522   0.78392    0.000
 5000.00    0.86562   0.77213    0.000
 5001.00    0.82236   0.76794    0.000
 5002.00    0.81221   0.77001    0.000
 5003.00    0.81826   0.77505    0.000
 5004.00    0.93864   0.77292    0.000
 5005.00    1.10742   0.76081    0.000
 5006.00    1.06229   0.75137    0.000
 5007.00    0.93961   0.76043    0.000
 5008.00    0.86536   0.78016    0.000
 5009.00    0.80596   0.78961    0.000
 5010.00    0.84143   0.78621    0.000
 5011.00    0.90111   0.77770    0.000
 5012.00    0.82251   0.76406    0.000
 5013.00    0.71518   0.75091    0.000
 5014.00    0.68703   0.74012    0.000
 5015.00    0.67185   0.73367    0.000
 5016.00    0.80487   0.74221    0.000
 5017.00    0.95609   0.75233    0.000
 5018.00    0.81660   0.75670    0.000
 5019.00    0.65254   0.76295    0.000
 5020.00    0.73129   0.77214    0.000
 5021.00    0.82191   0.77187    0.000
 5022.00    0.78715   0.76587    0.000
 5023.00    0.75125   0.76939    0.000
 5024.00    0.76388   0.77941    0.000
 5025.00    0.77239   0.78293    0.000
 5026.00    0.69840   0.77950    0.000
 5027.00    0.64237   0.77086    0.000
 5028.00    0.79605   0.77006    0.000
 5029.00    0.92548   0.78136    0.009
 5030.00    0.85921   0.78844    0.008
 5031.00    0.79745   0.79099    0.008
 5032.00    0.76309   0.79738    0.008
 5033.00    0.74009   0.80423    0.009
 5034.00    0.77142   0.79994    0.009
 5035.00    0.82076   0.78136    0.009
 5036.00    0.94027   0.76710    0.009
 5037.00    1.04659   0.77109    0.009
 5038.00    1.11015   0.77296    0.009
 5039.00    1.10685   0.75883    0.009
 5040.00    0.92005   0.73634    0.009
 5041.00    0.80748   0.72435    0.009
 5042.00    0.86945   0.74139    0.009
 5043.00    0.90990   0.77166    0.009
 5044.00    0.90663   0.78837    0.008
 5045.00    0.83883   0.79811    0.008
 5046.00    0.65687   0.80160    0.008
 5047.00    0.57532   0.78898    0.008
 5048.00    0.64920   0.76970    0.008
 5049.00    0.68493   0.76117    0.008
 5050.00    0.66879   0.76438    0.008
 5051.00    0.66379   0.76718    0.008
 5052.00    0.67214   0.77400    0.008
 5053.00    0.69338   0.78573    0.008
 5054.00    0.72824   0.79303    0.008
 5055.00    0.83515   0.78915    0.008
 5056.00    1.00915   0.78517    0.008
 5057.00    0.99250   0.78727    0.008
 5058.00    0.81942   0.79393    0.008
 5059.00    0.79891   0.79550    0.008
 5060.00    0.88861   0.79741    0.008
 5061.00    0.94627   0.80236    0.008
 5062.00    0.98360   0.80315    0.008
 5063.00    0.99256   0.79289    0.008
 5064.00    0.98580   0.77281    0.008
 5065.00    0.95695   0.76073    0.008
 5066.00    0.91745   0.76693    0.008
 5067.00    0.85234   0.77218    0.008
 5068.00    0.77657   0.76910    0.008
 5069.00    0.77022   0.77158    0.008
 5070.00    0.78859   0.77968    0.008
 5071.00    0.87748   0.77767    0.008
 5072.00    0.98758   0.76798    0.008
 5073.00    0.86256   0.76898    0.008
 5074.00    0.67882   0.77545    0.008
 5075.00    0.62232   0.77423    0.008
 5076.00    0.59160   0.77275    0.008
 5077.00    0.60462   0.77625    0.008
 5078.00    0.62459   0.76965    0.008
 5079.00    0.73639   0.74723    0.008
 5080.00    0.85905   0.73472    0.008
 5081.00    0.82639   0.74365    0.008
 5082.00    0.78124   0.75455    0.008
 5083.00    0.71883   0.75675    0.008
 5084.00    0.65563   0.76102    0.008
 5085.00    0.65101   0.77021    0.008
 5086.00    0.64791   0.77501    0.008
 5087.00    0.68617   0.77385    0.008
 5088.00    0.72494   0.77391    0.008
 5089.00    0.77328   0.77705    0.008
 5090.00    0.81693   0.77830    0.008
 5091.00    0.80839   0.77874    0.008
 5092.00    0.79836   0.78331    0.008
 5093.00    0.77676   0.78881    0.008
 5094.00    0.76056   0.78782    0.008
 5095.00    0.77614   0.78062    0.008
 5096.00    0.79601   0.77139    0.008
 5097.00    0.83586   0.76066    0.008
 5098.00    0.83059   0.74798    0.008
 5099.00    0.65333   0.74110    0.008
 5100.00    0.54365   0.75089    0.008
 5101.00    0.64894   0.76761    0.008
 5102.00    0.71598   0.77465    0.008
 5103.00    0.67989   0.77129    0.008
 5104.00    0.70085   0.76616    0.008
 5105.00    0.85372   0.76450    0.008
 5106.00    0.95119   0.76168    0.008
 5107.00    0.93780   0.75454    0.008
 5108.00    0.86160   0.75136    0.008
 5109.00    0.67593   0.75203    0.008
 5110.00    0.60666   0.75084    0.008
 5111.00    0.71491   0.75709    0.008
 5112.00    0.81114   0.76667    0.008
 5113.00    0.89125   0.76909    0.008
 5114.00    0.98243   0.77063    0.008
 5115.00    1.08668   0.77337    0.008
 5116.00    1.10054   0.77704    0.008
 5117.00    1.02034   0.78307    0.008
 5118.00    0.91368   0.78550    0.008
 5119.00    0.78273   0.78140    0.008
 5120.00    0.71894   0.77363    0.008
 5121.00    0.70949   0.76507    0.008
 5122.00    0.77603   0.75638    0.008
 5123.00    0.89668   0.74474    0.008
 5124.00    0.87549   0.73786    0.008
 5125.00    0.76570   0.74110    0.008
 5126.00    0.79302   0.74502    0.008
 5127.00    0.89518   0.74428    0.008
 5128.00    0.89322   0.74253    0.008
 5129.00    0.84187   0.74338    0.008
 5130.00    0.73049   0.74755    0.008
 5131.00    0.59453   0.75469    0.008
 5132.00    0.52692   0.75832    0.008
 5133.00    0.48322   0.75817    0.008
 5134.00    0.57151   0.76184    0.008
 5135.00    0.69873   0.76944    0.008
 5136.00    0.78098   0.76630    0.008
 5137.00    0.85225   0.75445    0.008
 5138.00    0.82487   0.74496    0.008
 5139.00    0.77799   0.73967    0.008
 5140.00    0.75152   0.74702    0.008
 5141.00    0.72819   0.75332    0.008
 5142.00    0.73767   0.74255    0.008
 5143.00    0.75089   0.73790    0.008
 5144.00    0.79233   0.74667    0.008
 5145.00    0.83593   0.74802    0.008
 5146.00    0.87433   0.74151    0.008
 5147.00    0.91253   0.73853    0.008
 5148.00    0.90013   0.74123    0.008
 5149.00    0.88622   0.74775    0.008
 5150.00    0.82594   0.74737    0.008
 5151.00    0.77255   0.74062    0.008
 5152.00    0.83838   0.73707    0.008
 5153.00    0.89608   0.73701    0.008
 5154.00    0.86716   0.73899    0.008
 5155.00    0.83007   0.74543    0.008
 5156.00    0.73150   0.75547    0.008
 5157.00    0.65610   0.76500    0.008
 5158.00    0.71349   0.76945    0.008
 5159.00    0.75024   0.76751    0.008
 5160.00    0.69298   0.76728    0.008
 5161.00    0.65339   0.76472    0.008
 5162.00    0.67967   0.75567    0.008
 5163.00    0.70290   0.74985    0.008
 5164.00    0.71661   0.74336    0.008
 5165.00    0.74215   0.72361    0.008
 5166.00    0.79902   0.69355    0.008
 5167.00    0.79290   0.66843    0.008
 5168.00    0.64355   0.66646    0.008
 5169.00    0.49311   0.68835    0.008
 5170.00    0.34053   0.70730    0.008
 5171.00    0.33570   0.69474    0.008
 5172.00    0.58445   0.66463    0.008
 5173.00    0.69656   0.66290    0.008
 5174.00    0.60332   0.69788    0.008
 5175.00    0.57197   0.73112    0.008
 5176.00    0.62239   0.74203    0.008
 5177.00    0.66092   0.74488    0.008
 5178.00    0.68563   0.74833    0.008
 5179.00    0.70205   0.74658    0.008
 5180.00    0.70997   0.73892    0.008
 5181.00    0.66551   0.72446    0.008
 5182.00    0.57364   0.69558    0.008
 5183.00    0.58864   0.66179    0.008
 5184.00    0.68886   0.65919    0.008
 5185.00    0.72768   0.69500    0.008
 5186.00    0.72342   0.73151    0.008
 5187.00    0.73664   0.74596    0.008
 5188.00    0.76060   0.74566    0.008
 5189.00    0.76188   0.74908    0.008
 5190.00    0.75095   0.75283    0.000
 5191.00    0.84611   0.73583    0.000
 5192.00    0.99079   0.71461    0.000
 5193.00    0.86930   0.71730    0.000
 5194.00    0.64074   0.72966    0.000
 5195.00    0.65891   0.73173    0.000
 5196.00    0.76174   0.73444    0.000
 5197.00    0.86580   0.74266    0.000
 5198.00    0.97021   0.74945    0.000
 5199.00    0.82461   0.75424    0.000
 5200.00    0.61930   0.75529    0.000
 5201.00    0.65634   0.75234    0.000
 5202.00    0.74002   0.74821    0.000
 5203.00    0.76668   0.74148    0.000
 5204.00    0.78481   0.72468    0.000
 5205.00    0.76402   0.70614    0.000
 5206.00    0.73898   0.70261    0.000
 5207.00    0.75941   0.70662    0.000
 5208.00    0.78312   0.70308    0.000
 5209.00    0.86910   0.70574    0.000
 5210.00    0.95740   0.72019    0.000
 5211.00    1.02501   0.73636    0.008
 5212.00    1.08836   0.75041    0.008
 5213.00    1.00034   0.75868    0.008
 5214.00    0.90787   0.75566    0.008
 5215.00    0.74307   0.74251    0.008
 5216.00    0.60262   0.73326    0.008
 5217.00    0.70994   0.73745    0.008
 5218.00    0.81876   0.74993    0.008
 5219.00    0.93842   0.76023    0.008
 5220.00    1.03066   0.76400    0.008
 5221.00    0.97018   0.76557    0.008
 5222.00    0.91306   0.76274    0.008
 5223.00    0.87090   0.75225    0.008
 5224.00    0.82061   0.73559    0.008
 5225.00    0.74060   0.71585    0.008
 5226.00    0.71083   0.69712    0.008
 5227.00    0.83476   0.69460    0.008
 5228.00    0.90142   0.71855    0.008
 5229.00    0.81902   0.74478    0.008
 5230.00    0.75116   0.75489    0.008
 5231.00    0.71582   0.75643    0.008
 5232.00    0.68339   0.74621    0.008
 5233.00    0.65660   0.73176    0.008
 5234.00    0.70543   0.73031    0.008
 5235.00    0.88205   0.73923    0.008
 5236.00    0.90189   0.75298    0.008
 5237.00    0.68954   0.76418    0.008
 5238.00    0.63330   0.76652    0.008
 5239.00    0.78031   0.76363    0.008
 5240.00    0.82982   0.76194    0.008
 5241.00    0.76750   0.76272    0.008
 5242.00    0.75874   0.76115    0.008
 5243.00    0.80417   0.76032    0.008
 5244.00    0.76083   0.76631    0.008
 5245.00    0.63831   0.77045    0.008
 5246.00    0.61141   0.75587    0.008
 5247.00    0.65969   0.73695    0.008
 5248.00    0.75071   0.73456    0.008
 5249.00    0.87128   0.73767    0.008
 5250.00    0.79891   0.73091    0.008
 5251.00    0.60958   0.73052    0.008
 5252.00    0.68870   0.74001    0.008
 5253.00    0.90989   0.74496    0.008
 5254.00    0.88670   0.73983    0.008
 5255.00    0.75128   0.73517    0.008
 5256.00    0.78076   0.74631    0.008
 5257.00    0.87544   0.76382    0.008
 5258.00    0.88899   0.77222    0.008
 5259.00    0.87522   0.76991    0.008
 5260.00    0.88454   0.75943    0.008
 5261.00    0.90040   0.74327    0.008
 5262.00    0.89754   0.72431    0.008
 5263.00    0.89030   0.70672    0.008
 5264.00    0.89320   0.69463    0.008
 5265.00    0.89802   0.68715    0.008
 5266.00    0.85870   0.68965    0.008
 5267.00    0.81300   0.70574    0.008
 5268.00    0.84014   0.70736    0.008
 5269.00    0.87494   0.68112    0.008
 5270.00    0.89539   0.67057    0.008
 5271.00    0.91486   0.69669    0.008
 5272.00    0.89721   0.72348    0.008
 5273.00    0.87833   0.73016    0.008
 5274.00    0.91996   0.72860    0.008
 5275.00    0.95555   0.72418    0.008
 5276.00    0.79532   0.72976    0.008
 5277.00    0.65345   0.75064    0.008
 5278.00    0.79108   0.76508    0.008
 5279.00    0.90447   0.76300    0.008
 5280.00    0.78155   0.75160    0.008
 5281.00    0.66509   0.73995    0.008
 5282.00    0.59412   0.73184    0.008
 5283.00    0.54174   0.72567    0.008
 5284.00    0.59018   0.72834    0.008
 5285.00    0.66232   0.74806    0.008
 5286.00    0.83741   0.76856    0.008
 5287.00    0.98168   0.77292    0.008
 5288.00    1.01567   0.76751    0.008
 5289.00    1.02086   0.76627    0.008
 5290.00    0.93952   0.77099    0.008
 5291.00    0.87368   0.77265    0.008
 5292.00    0.84746   0.76784    0.008
 5293.00    0.81804   0.76174    0.008
 5294.00    0.78156   0.76020    0.008
 5295.00    0.77353   0.75583    0.008
 5296.00    0.81979   0.73924    0.008
 5297.00    0.82895   0.71693    0.008
 5298.00    0.77636   0.70988    0.008
 5299.00    0.74069   0.72542    0.008
 5300.00    0.72972   0.73968    0.008
 5301.00    0.77684   0.73870    0.008
 5302.00    0.89850   0.73879    0.008
 5303.00    0.92630   0.75012    0.008
 5304.00    0.84797   0.76455    0.008
 5305.00    0.78872   0.77133    0.008
 5306.00    0.74852   0.76719    0.008
 5307.00    0.81145   0.75957    0.008
 5308.00    0.96510   0.75986    0.008
 5309.00    0.93932   0.76698    0.008
 5310.00    0.77447   0.77078    0.008
 5311.00    0.70722   0.76891    0.008
 5312.00    0.70647   0.76480    0.008
 5313.00    0.71852   0.76059    0.008
 5314.00    0.73820   0.75852    0.008
 5315.00    0.85516   0.75504    0.008
 5316.00    1.02280   0.74798    0.008
 5317.00    0.98621   0.74579    0.008
 5318.00    0.85737   0.75080    0.008
 5319.00    0.77468   0.75304    0.008
 5320.00    0.70993   0.75072    0.008
 5321.00    0.71150   0.74953    0.008
 5322.00    0.73500   0.74675    0.008
 5323.00    0.74196   0.73737    0.008
 5324.00    0.74433   0.72660    0.008
 5325.00    0.78473   0.72839    0.008
 5326.00    0.83381   0.72784    0.008
 5327.00    0.74707   0.70371    0.008
 5328.00    0.63555   0.67480    0.008
 5329.00    0.61637   0.68229    0.008
 5330.00    0.61015   0.71611    0.008
 5331.00    0.67206   0.73830    0.008
 5332.00    0.74083   0.74059    0.008
 5333.00    0.91101   0.73994    0.008
 5334.00    1.08770   0.74852    0.008
 5335.00    1.06230   0.75647    0.008
 5336.00    1.03104   0.75515    0.008
 5337.00    1.06390   0.75070    0.008
 5338.00    1.09284   0.74734    0.008
 5339.00    1.00961   0.73560    0.008
 5340.00    0.93510   0.71771    0.008
 5341.00    0.98578   0.71616    0.008
 5342.00    1.01810   0.73306    0.008
 5343.00    0.87859   0.74573    0.008
 5344.00    0.75710   0.74694    0.008
 5345.00    0.75860   0.73974    0.008
 5346.00    0.75332   0.73505    0.008
 5347.00    0.71233   0.73698    0.008
 5348.00    0.72547   0.73348    0.008
 5349.00    0.96857   0.72728    0.008
 5350.00    1.12543   0.73400    0.008
 5351.00    0.98000   0.74833    0.008
 5352.00    0.88873   0.75566    0.008
 5353.00    0.95707   0.75620    0.008
 5354.00    0.97492   0.76121    0.008
 5355.00    0.86591   0.76883    0.008
 5356.00    0.80498   0.77090    0.008
 5357.00    0.84811   0.77026    0.008
 5358.00    0.83447   0.76977    0.008
 5359.00    0.71418   0.76888    0.008
 5360.00    0.65421   0.76509    0.008
 5361.00    0.69316   0.75645    0.008
 5362.00    0.73705   0.74813    0.008
 5363.00    0.78804   0.74550    0.008
 5364.00    0.85995   0.74219    0.008
 5365.00    0.95831   0.73691    0.008
 5366.00    1.00677   0.73657    0.008
 5367.00    0.99962   0.73728    0.008
 5368.00    0.95979   0.73496   -2.000
 5369.00    0.88781   0.72436   -2.000
 5370.00    0.90735   0.70539   -2.000
 5371.00    1.00624   0.69528   -2.000
 5372.00    1.01492   0.70880   -2.000
 5373.00    0.95468   0.73511   -2.000
 5374.00    0.96861   0.75187   -2.000
 5375.00    1.03234   0.75729   -2.000
 5376.00    1.09901   0.75414   -2.000
 5377.00    1.16740   0.74923   -2.000
 5378.00    1.08094   0.75085   -2.000
 5379.00    0.91508   0.75277   -2.000
 5380.00    0.96249   0.74886   -2.000
 5381.00    1.10464   0.74403   -2.000
 5382.00    0.99814   0.74011   -2.000
 5383.00    0.79672   0.73641    0.008
 5384.00    0.64542   0.74000    0.008
 5385.00    0.51037   0.74733    0.008
 5386.00    0.59654   0.74842    0.008
 5387.00    0.74277   0.74575    0.007
 5388.00    0.79290   0.74197    0.008
 5389.00    0.82161   0.73467    0.008
 5390.00    0.81150   0.72731    0.008
 5391.00    0.79449   0.72441    0.008
 5392.00    0.79155   0.72391    0.008
 5393.00    0.79053   0.72347    0.008
 5394.00    0.84823   0.72351    0.008
 5395.00    0.91159   0.72154    0.008
 5396.00    0.81152   0.70992    0.008
 5397.00    0.70160   0.69825    0.008
 5398.00    0.92235   0.70799    0.008
 5399.00    1.15000   0.72504    0.008
 5400.00    1.09483   0.72857    0.008
 5401.00    1.04114   0.72842    0.008
 5402.00    1.02584   0.73119    0.008
 5403.00    1.00801   0.72244    0.008
 5404.00    0.95588   0.70045    0.008
 5405.00    0.90786   0.68261    0.008
 5406.00    0.89681   0.68261    0.008
 5407.00    0.88192   0.69682    0.008
 5408.00    0.84162   0.70251    0.008
 5409.00    0.80516   0.68596    0.008
 5410.00    0.78847   0.66219    0.008
 5411.00    0.77394   0.65988    0.008
 5412.00    0.76838   0.68026    0.008
 5413.00    0.75612   0.70357    0.008
 5414.00    0.72089   0.71577    0.008
 5415.00    0.69973   0.72266    0.008
 5416.00    0.71925   0.73425    0.008
 5417.00    0.74731   0.74383    0.008
 5418.00    0.79649   0.74358    0.008
 5419.00    0.86202   0.73707    0.007
 5420.00    0.96236   0.73043    0.008
 5421.00    0.98001   0.73066    0.008
 5422.00    0.84470   0.73544    0.007
 5423.00    0.73864   0.73021    0.007
 5424.00    0.67980   0.71971    0.007
 5425.00    0.65266   0.72438    0.007
 5426.00    0.67042   0.73985    0.007
 5427.00    0.71230   0.74726    0.007
 5428.00    0.78424   0.73395    0.007
 5429.00    0.79752   0.70781    0.007
 5430.00    0.74632   0.70227    0.007
 5431.00    0.67561   0.71777    0.007
 5432.00    0.58597   0.72072    0.007
 5433.00    0.59066   0.71020    0.007
 5434.00    0.67601   0.70212    0.007
 5435.00    0.77128   0.70214    0.007
 5436.00    0.87402   0.70986    0.007
 5437.00    0.91317   0.72292    0.007
 5438.00    0.91024   0.73814    0.007
 5439.00    0.90543   0.74840    0.007
 5440.00    0.89953   0.75174    0.007
 5441.00    0.80310   0.75142    0.007
 5442.00    0.66097   0.75093    0.007
 5443.00    0.62846   0.74910    0.007
 5444.00    0.64386   0.73982    0.007
 5445.00    0.73938   0.72070    0.007
 5446.00    0.86495   0.69900    0.007
 5447.00    0.76751   0.69327    0.007
 5448.00    0.59910   0.71108    0.007
 5449.00    0.60082   0.73029    0.007
 5450.00    0.64776   0.73720    0.007
 5451.00    0.69185   0.73561    0.007
 5452.00    0.73531   0.73040    0.008
 5453.00    0.81033   0.72226    0.008
 5454.00    0.89081   0.70826    0.008
 5455.00    0.95358   0.69327    0.008
 5456.00    1.01402   0.69621    0.008
 5457.00    0.99853   0.71717    0.008
 5458.00    0.97602   0.73466    0.008
 5459.00    0.97043   0.73769    0.008
 5460.00    0.96578   0.73127    0.008
 5461.00    0.95226   0.72273    0.008
 5462.00    0.93936   0.71284    0.008
 5463.00    1.01157   0.70589    0.008
 5464.00    1.07878   0.71282    0.007
 5465.00    1.02859   0.72310    0.008
 5466.00    0.97788   0.72391    0.008
 5467.00    0.92042   0.72417    0.008
 5468.00    0.86073   0.72809    0.008
 5469.00    0.78174   0.72641    0.007
 5470.00    0.72077   0.72017    0.007
 5471.00    0.77541   0.71895    0.007
 5472.00    0.80983   0.71834    0.007
 5473.00    0.74293   0.71143    0.008
 5474.00    0.69543   0.70818    0.008
 5475.00    0.72663   0.70482    0.007
 5476.00    0.76116   0.68980    0.007
 5477.00    0.80694   0.68400    0.007
 5478.00    0.84299   0.70203   -2.000
 5479.00    0.85142   0.71867   -2.000
 5480.00    0.80976   0.71426   -2.000
 5481.00    0.64647   0.70094   -2.000
 5482.00    0.59443   0.70007   -2.000
 5483.00    0.77544   0.71075   -2.000
 5484.00    0.96041   0.72333   -2.000
 5485.00    1.15257   0.73123   -2.000
 5486.00    1.58870   0.72602   -2.000
 5487.00    2.41317   0.71288   -2.000
 5488.00    2.84071   0.70872   -2.000
 5489.00    2.71377   0.71449   -2.000
 5490.00    2.34057   0.71802   -2.000
 5491.00    1.66464   0.72121   -2.000
 5492.00    0.95035   0.72283   -2.000
 5493.00    0.19449   0.71762   -2.000
 5494.00   -0.01806   0.71553   -2.000
 5495.00    0.28872   0.71995   -2.000
 5496.00    0.54571   0.71837   -2.000
 5497.00    0.76074   0.71061   -2.000
 5498.00    0.79249   0.71424   -2.000
 5499.00    0.68824   0.72597   -2.000
 5500.00    0.64678   0.72473   -2.000
 5501.00    0.64626   0.71210   -2.000
 5502.00    0.69547   0.70565    0.007
 5503.00    0.77306   0.70889    0.008
 5504.00    0.82221   0.71270    0.008
 5505.00    0.85725   0.70900    0.008
 5506.00    0.81814   0.69979    0.008
 5507.00    0.74718   0.70039    0.008
 5508.00    0.66172   0.71247    0.008
 5509.00    0.57091   0.71705    0.008
 5510.00    0.64369   0.71389    0.008
 5511.00    0.76753   0.70593    0.007
 5512.00    0.82188   0.69540    0.007
 5513.00    0.85815   0.69202    0.007
 5514.00    0.87403   0.69639    0.007
 5515.00    0.88558   0.70255    0.007
 5516.00    0.81390   0.70823    0.007
 5517.00    0.72824   0.71457    0.007
 5518.00    0.85194   0.72393    0.007
 5519.00    1.00216   0.72882    0.007
 5520.00    1.05415   0.72656    0.007
 5521.00    1.09748   0.72353    0.007
 5522.00    1.02523   0.72279    0.007
 5523.00    0.94693   0.72323    0.007
 5524.00    0.94699   0.72199    0.007
 5525.00    0.94778   0.71702    0.007
 5526.00    0.89352   0.70894    0.007
 5527.00    0.84058   0.69720    0.007
 5528.00    0.81612   0.68873    0.007
 5529.00    0.78586   0.69625    0.007
 5530.00    0.68476   0.71197    0.007
 5531.00    0.59814   0.71873    0.007
 5532.00    0.63215   0.71688    0.007
 5533.00    0.67010   0.71376    0.007
 5534.00    0.73255   0.70976    0.007
 5535.00    0.80399   0.70616    0.007
 5536.00    0.91938   0.70869    0.007
 5537.00    0.98135   0.71242    0.007
 5538.00    0.83121   0.71285    0.007
 5539.00    0.71561   0.71674    0.007
 5540.00    0.71399   0.72331    0.007
 5541.00    0.70484   0.72586    0.007
 5542.00    0.67472   0.72078    0.007
 5543.00    0.67142   0.71326    0.007
 5544.00    0.73210   0.71195    0.007
 5545.00    0.82083   0.71344    0.007
 5546.00    0.96735   0.71271    0.007
 5547.00    1.03205   0.71614    0.007
 5548.00    0.95003   0.72427    0.007
 5549.00    0.87271   0.72847    0.007
 5550.00    0.80275   0.72856    0.007
 5551.00    0.76925   0.72733    0.007
 5552.00    0.78594   0.72323    0.007
 5553.00    0.80630   0.71648    0.007
 5554.00    0.83111   0.71139    0.007
 5555.00    0.89057   0.71241    0.007
 5556.00    0.98702   0.71585    0.007
 5557.00    0.95148   0.71535    0.007
 5558.00    0.79153   0.71379    0.007
 5559.00    0.66648   0.71495    0.007
 5560.00    0.57045   0.71492    0.007
 5561.00    0.60231   0.71208    0.007
 5562.00    0.72775   0.70693    0.007
 5563.00    0.77707   0.70339    0.007
 5564.00    0.77750   0.70419    0.007
 5565.00    0.77054   0.70288    0.007
 5566.00    0.75944   0.69923    0.007
 5567.00    0.79237   0.70008    0.007
 5568.00    0.84684   0.70155    0.007
 5569.00    0.82987   0.69902    0.007
 5570.00    0.78272   0.70094    0.007
 5571.00    0.73533   0.70638    0.007
 5572.00    0.68787   0.70057    0.007
 5573.00    0.74499   0.69519    0.007
 5574.00    0.83412   0.70386    0.007
 5575.00    0.85028   0.71008    0.007
 5576.00    0.84786   0.70875    0.007
 5577.00    0.81789   0.71041    0.007
 5578.00    0.78221   0.71122    0.007
 5579.00    0.81084   0.71044    0.007
 5580.00    0.84996   0.71248    0.007
 5581.00    0.85996   0.71078    0.007
 5582.00    0.86641   0.70664    0.007
 5583.00    0.80533   0.70670    0.007
 5584.00    0.73859   0.70515    0.007
 5585.00    0.78690   0.69655    0.007
 5586.00    0.84078   0.68242    0.007
 5587.00    0.79807   0.66922    0.007
 5588.00    0.75572   0.66523    0.007
 5589.00    0.82046   0.66977    0.007
 5590.00    0.88204   0.67813    0.007
 5591.00    0.88086   0.68059    0.007
 5592.00    0.88192   0.67845    0.007
 5593.00    0.90891   0.67875    0.007
 5594.00    0.92883   0.68531    0.007
 5595.00    0.89193   0.69656    0.007
 5596.00    0.86608   0.70870    0.007
 5597.00    0.90699   0.70622    0.007
 5598.00    0.94431   0.69259    0.007
 5599.00    0.96452   0.68647    0.007
 5600.00    0.97160   0.68542    0.007
 5601.00    0.92767   0.68026    0.007
 5602.00    0.87432   0.67610    0.007
 5603.00    0.79052   0.68068    0.007
 5604.00    0.71327   0.69596    0.007
 5605.00    0.65394   0.71055    0.007
 5606.00    0.61795   0.71761    0.007
 5607.00    0.63670   0.71881    0.007
 5608.00    0.63493   0.71704    0.007
 5609.00    0.59152   0.71482    0.007
 5610.00    0.60847   0.71445    0.007
 5611.00    0.73200   0.71690    0.007
 5612.00    0.77579   0.71974    0.007
 5613.00    0.69639   0.71502    0.007
 5614.00    0.67471   0.69495    0.007
 5615.00    0.73135   0.67055    0.007
 5616.00    0.73423   0.66918    0.007
 5617.00    0.67288   0.68617    0.007
 5618.00    0.64611   0.69517    0.007
 5619.00    0.65577   0.69408    0.007
 5620.00    0.75177   0.69476    0.007
 5621.00    0.92801   0.70089    0.007
 5622.00    0.94458   0.70438    0.007
 5623.00    0.83034   0.69609    0.007
 5624.00    0.72519   0.67998    0.007
 5625.00    0.62659   0.67467    0.007
 5626.00    0.66993   0.68475    0.007
 5627.00    0.80310   0.69405    0.007
 5628.00    0.86687   0.69886    0.007
 5629.00    0.89226   0.70523    0.007
 5630.00    0.83432   0.71039    0.007
 5631.00    0.73628   0.71104    0.007
 5632.00    0.77169   0.70888    0.007
 5633.00    0.86252   0.70525    0.007
 5634.00    0.88280   0.70099    0.007
 5635.00    0.87801   0.69672    0.007
 5636.00    0.91475   0.69159    0.007
 5637.00    0.96395   0.68724    0.007
 5638.00    0.99548   0.68817    0.007
 5639.00    1.02261   0.69194    0.007
 5640.00    1.01429   0.69076    0.007
 5641.00    0.99882   0.68546    0.007
 5642.00    0.80504   0.68627    0.007
 5643.00    0.58304   0.69066    0.007
 5644.00    0.57233   0.69282    0.007
 5645.00    0.58650   0.69452    0.007
 5646.00    0.66227   0.69634    0.007
 5647.00    0.74296   0.69828    0.007
 5648.00    0.79233   0.69770    0.007
 5649.00    0.84031   0.69453    0.007
 5650.00    0.76020   0.69413    0.007
 5651.00    0.68031   0.69916    0.007
 5652.00    0.68207   0.70428    0.007
 5653.00    0.68882   0.70247    0.007
 5654.00    0.78761   0.69377    0.007
 5655.00    0.87349   0.68875    0.007
 5656.00    0.81644   0.69174    0.007
 5657.00    0.76630   0.68465    0.007
 5658.00    0.76971   0.66582    0.007
 5659.00    0.77294   0.66371    0.007
 5660.00    0.77510   0.67933    0.006
 5661.00    0.76984   0.68426    0.006
 5662.00    0.73002   0.67814    0.006
 5663.00    0.71814   0.67906    0.006
 5664.00    0.81243   0.68950    0.006
 5665.00    0.87698   0.69652    0.006
 5666.00    0.84717   0.69423    0.006
 5667.00    0.80799   0.68761    0.006
 5668.00    0.74362   0.68513    0.006
 5669.00    0.71472   0.68762    0.006
 5670.00    0.76768   0.69012    0.006
 5671.00    0.81716   0.69322    0.006
 5672.00    0.85968   0.69994    0.006
 5673.00    0.90236   0.70693    0.007
 5674.00    0.94534   0.70644    0.007
 5675.00    0.98845   0.70135    0.007
 5676.00    1.03175   0.70188    0.007
 5677.00    1.04936   0.70517    0.007
 5678.00    1.03258   0.70199    0.007
 5679.00    0.97985   0.69644    0.007
 5680.00    0.88477   0.69548    0.007
 5681.00    0.82244   0.69344    0.007
 5682.00    0.79412   0.68510    0.007
 5683.00    0.76411   0.68095    0.007
 5684.00    0.73255   0.68657    0.007
 5685.00    0.69863   0.69098    0.007
 5686.00    0.66279   0.68659    0.007
 5687.00    0.67404   0.67929    0.007
 5688.00    0.71875   0.67812    0.007
 5689.00    0.76633   0.68390    0.007
 5690.00    0.81570   0.69183    0.007
 5691.00    0.84376   0.69727    0.007
 5692.00    0.86020   0.70185    0.007
 5693.00    0.86079   0.70298    0.006
 5694.00    0.85389   0.69933    0.007
 5695.00    0.81886   0.69525    0.007
 5696.00    0.77236   0.69474    0.007
 5697.00    0.80114   0.69288    0.007
 5698.00    0.85617   0.68742    0.007
 5699.00    0.79063   0.68470    0.007
 5700.00    0.68962   0.68236    0.007
 5701.00    0.71593   0.67602    0.007
 5702.00    0.77325   0.67406    0.007
 5703.00    0.77920   0.67992    0.006
 5704.00    0.77504   0.68583    0.006
 5705.00    0.73347   0.68369    0.006
 5706.00    0.68616   0.67518    0.006
 5707.00    0.68823   0.66810    0.006
 5708.00    0.69589   0.66169    0.006
 5709.00    0.77322   0.65702    0.006
 5710.00    0.85582   0.65977    0.006
 5711.00    0.92821   0.66264    0.006
 5712.00    1.00018   0.66611    0.006
 5713.00    0.97437   0.67826    0.006
 5714.00    0.94688   0.68828    0.006
 5715.00    0.88140   0.69163    0.006
 5716.00    0.81894   0.69397    0.006
 5717.00    0.80822   0.69412    0.006
 5718.00    0.79696   0.69354    0.006
 5719.00    0.77986   0.69629    0.006
 5720.00    0.76183   0.69880    0.006
 5721.00    0.73687   0.70065    0.006
 5722.00    0.71544   0.70365    0.006
 5723.00    0.71422   0.70501    0.006
 5724.00    0.72279   0.70379    0.006
 5725.00    0.77582   0.70139    0.006
 5726.00    0.82296   0.69473    0.007
 5727.00    0.84815   0.68738    0.007
 5728.00    0.87921   0.68982    0.007
 5729.00    0.92853   0.69744    0.007
 5730.00    0.92817   0.69638    0.007
 5731.00    0.79650   0.68767    0.007
 5732.00    0.71311   0.68582    0.007
 5733.00    0.73927   0.69348    0.007
 5734.00    0.77698   0.69976    0.007
 5735.00    0.83739   0.70076    0.007
 5736.00    0.84570   0.69841    0.007
 5737.00    0.76476   0.69511    0.006
 5738.00    0.70221   0.69312    0.006
 5739.00    0.66726   0.69215    0.006
 5740.00    0.69396   0.69233    0.000
 5741.00    0.80194   0.69256    0.000
 5742.00    0.80924   0.69163    0.000
 5743.00    0.69962   0.69005    0.000
 5744.00    0.66301   0.69380    0.000
 5745.00    0.70116   0.69978    0.000
 5746.00    0.75632   0.70018    0.000
 5747.00    0.82685   0.69116    0.000
 5748.00    0.89484   0.68259    0.000
 5749.00    0.96082   0.68633    0.000
 5750.00    0.99457   0.69542    0.000
 5751.00    1.00577   0.69588    0.000
 5752.00    1.00923   0.68531    0.000
 5753.00    1.00793   0.67229    0.000
 5754.00    0.94512   0.66837    0.000
 5755.00    0.84931   0.67838    0.000
 5756.00    0.79082   0.69226    0.000
 5757.00    0.74972   0.69943    0.000
 5758.00    0.79892   0.69999    0.000
 5759.00    0.88438   0.69456    0.000
 5760.00    0.91605   0.68520    0.000
 5761.00    0.92929   0.67557    0.000
 5762.00    0.91895   0.66894    0.000
 5763.00    0.90182   0.67147    0.000
 5764.00    0.84100   0.68526    0.000
 5765.00    0.76978   0.69661    0.000
 5766.00    0.78252   0.69926    0.000
 5767.00    0.81136   0.69905    0.000
 5768.00    0.80866   0.69815    0.000
 5769.00    0.80126   0.69598    0.000
 5770.00    0.73434   0.69403    0.000
 5771.00    0.66094   0.69144    0.000
 5772.00    0.66218   0.68819    0.000
 5773.00    0.66877   0.68729    0.000
 5774.00    0.77446   0.68622    0.000
 5775.00    0.88380   0.68586    0.000
 5776.00    0.92231   0.68922    0.000
 5777.00    0.96120   0.69218    0.000
 5778.00    1.02416   0.69084    0.000
 5779.00    1.07827   0.68387    0.000
 5780.00    0.98978   0.66992    0.000
 5781.00    0.90615   0.65621    0.000
 5782.00    0.87170   0.65420    0.000
 5783.00    0.83863   0.65909    0.000
 5784.00    0.81548   0.65844    0.000
 5785.00    0.79393   0.65452    0.000
 5786.00    0.78120   0.66054    0.000
 5787.00    0.77365   0.67328    0.000
 5788.00    0.78908   0.68104    0.000
 5789.00    0.80189   0.68339    0.000
 5790.00    0.80512   0.67933    0.000
 5791.00    0.81291   0.67436   -2.000
 5792.00    0.83463   0.67776   -2.000
 5793.00    0.87225   0.68418   -2.000
 5794.00    0.95114   0.68922   -2.000
 5795.00    0.98847   0.69324   -2.000
 5796.00    0.93309   0.69022   -2.000
 5797.00    0.90878   0.68002   -2.000
 5798.00    0.94460   0.67553   -2.000
 5799.00    0.92331   0.68288   -2.000
 5800.00    0.80569   0.68826   -2.000
 5801.00    0.72338   0.68896   -2.000
 5802.00    0.69327   0.69069   -2.000
 5803.00    0.70057   0.69110   -2.000
 5804.00    0.75648   0.68406   -2.000
 5805.00    0.84469   0.67905   -2.000
 5806.00    0.96991   0.68006   -2.000
 5807.00    0.99172   0.68329   -2.000
 5808.00    0.90913   0.68542   -2.000
 5809.00    0.84306   0.68640   -2.000
 5810.00    0.79168   0.68693   -2.000
 5811.00    0.76930   0.68500    0.000
 5812.00    0.76967   0.68313    0.000
 5813.00    0.76642   0.68397    0.000
 5814.00    0.76067   0.68473    0.000
 5815.00    0.82195   0.67843    0.000
 5816.00    0.92379   0.67366    0.000
 5817.00    0.93220   0.67810    0.000
 5818.00    0.89128   0.68807    0.000
 5819.00    0.86996   0.69391    0.000
 5820.00    0.85761   0.69508    0.000
 5821.00    0.82919   0.69448    0.000
 5822.00    0.79444   0.69226    0.000
 5823.00    0.81325   0.68983    0.000
 5824.00    0.85007   0.69038    0.000
 5825.00    0.89440   0.69464    0.000
 5826.00    0.94085   0.69694    0.000
 5827.00    0.91978   0.69543    0.000
 5828.00    0.88298   0.69297    0.000
 5829.00    0.84177   0.69315    0.000
 5830.00    0.79973   0.69343    0.000
 5831.00    0.76992   0.69182    0.000
 5832.00    0.74187   0.69093    0.000
 5833.00    0.74778   0.68968    0.000
 5834.00    0.75724   0.68556    0.000
 5835.00    0.76697   0.68332    0.000
 5836.00    0.77672   0.68641    0.000
 5837.00    0.77804   0.68737    0.000
 5838.00    0.77909   0.68380    0.000
 5839.00    0.82084   0.68397    0.000
 5840.00    0.85873   0.68950    0.000
 5841.00    0.77425   0.69383    0.000
 5842.00    0.69513   0.69472    0.000
 5843.00    0.69691   0.69366    0.000
 5844.00    0.70470   0.69101    0.000
 5845.00    0.77075   0.68709    0.000
 5846.00    0.83889   0.68218    0.000
 5847.00    0.92172   0.67782    0.000
 5848.00    0.97832   0.67701    0.000
 5849.00    0.89320   0.67928    0.000
 5850.00    0.81048   0.68100    0.000
 5851.00    0.73816   0.67858    0.000
 5852.00    0.69682   0.67100    0.000
 5853.00    0.76603   0.66355    0.000
 5854.00    0.80517   0.66433    0.000
 5855.00    0.75424   0.66897    0.000
 5856.00    0.73589   0.66487    0.000
 5857.00    0.80068   0.65311    0.000
 5858.00    0.86464   0.64939    0.000
 5859.00    0.92677   0.65791    0.000
 5860.00    0.94997   0.66739    0.000
 5861.00    0.89907   0.67198    0.000
 5862.00    0.86327   0.67025    0.000
 5863.00    0.85258   0.66923    0.000
 5864.00    0.85421   0.67261    0.000
 5865.00    0.87380   0.67354    0.000
 5866.00    0.88055   0.66831    0.000
 5867.00    0.87086   0.66560    0.000
 5868.00    0.87151   0.67126    0.000
 5869.00    0.88381   0.67817    0.000
 5870.00    0.90230   0.68122    0.000
 5871.00    0.92696   0.68011    0.000
 5872.00    0.93709   0.67571    0.000
 5873.00    0.93447   0.66938    0.000
 5874.00    0.93956   0.65128    0.000
 5875.00    0.95063   0.63174    0.000
 5876.00    0.96986   0.62893    0.000
 5877.00    0.99465   0.64463    0.000
 5878.00    0.98685   0.66425    0.000
 5879.00    0.95961   0.66338    0.000
 5880.00    0.89002   0.65908    0.000
 5881.00    0.79841   0.66018    0.000
 5882.00    0.74491   0.66433    0.000
 5883.00    0.70859   0.66295    0.000
 5884.00    0.68347   0.65911    0.000
 5885.00    0.66269   0.65972    0.000
 5886.00    0.67927   0.66013    0.000
 5887.00    0.70817   0.64977    0.000
 5888.00    0.71750   0.61843    0.000
 5889.00    0.72142   0.57109    0.000
 5890.00    0.69404   0.54583    0.000
 5891.00    0.65954   0.56793    0.000
 5892.00    0.67855   0.60376    0.000
 5893.00    0.70729   0.62038    0.000
 5894.00    0.73463   0.61443    0.000
 5895.00    0.76177   0.58615    0.000
 5896.00    0.75570   0.56805    0.000
 5897.00    0.74629   0.59069    0.000
 5898.00    0.78970   0.62356    0.000
 5899.00    0.83647   0.63902    0.000
 5900.00    0.87793   0.64790    0.000
 5901.00    0.91911   0.65618    0.006
 5902.00    0.91839   0.65950    0.006
 5903.00    0.91487   0.66094    0.006
 5904.00    0.83235   0.66159    0.006
 5905.00    0.75282   0.65918    0.006
 5906.00    0.71590   0.65748    0.006
 5907.00    0.67860   0.66050    0.006
 5908.00    0.63786   0.66441    0.006
 5909.00    0.60821   0.66521    0.006
 5910.00    0.65387   0.66536    0.006
 5911.00    0.69714   0.66785    0.006
 5912.00    0.72788   0.66721    0.006
 5913.00    0.73857   0.65930    0.006
 5914.00    0.66443   0.64974    0.006
 5915.00    0.60837   0.64756    0.006
 5916.00    0.61554   0.65039    0.006
 5917.00    0.63829   0.65597    0.006
 5918.00    0.70683   0.66088    0.006
 5919.00    0.74182   0.66333    0.006
 5920.00    0.69273   0.66540    0.006
 5921.00    0.66948   0.66418    0.006
 5922.00    0.70206   0.66088    0.006
 5923.00    0.72068   0.66108    0.006
 5924.00    0.71312   0.66370    0.006
 5925.00    0.71338   0.66580    0.006
 5926.00    0.72643   0.66734    0.006
 5927.00    0.75604   0.66531    0.006
 5928.00    0.80943   0.66002    0.006
 5929.00    0.83895   0.65412    0.006
 5930.00    0.83835   0.65163    0.006
 5931.00    0.82814   0.65783    0.006
 5932.00    0.80724   0.66523    0.006
 5933.00    0.77474   0.66384    0.006
 5934.00    0.73087   0.65589    0.006
 5935.00    0.72904   0.65295    0.006
 5936.00    0.76360   0.65870    0.006
 5937.00    0.77340   0.66412    0.006
 5938.00    0.76432   0.66671    0.006
 5939.00    0.76382   0.66721    0.006
 5940.00    0.76909   0.66193    0.006
 5941.00    0.76774   0.65398    0.006
 5942.00    0.76252   0.65290    0.006
 5943.00    0.74734   0.65746    0.006
 5944.00    0.72708   0.66226    0.006
 5945.00    0.69179   0.66624    0.006
 5946.00    0.64985   0.66781    0.006
 5947.00    0.66764   0.66373    0.006
 5948.00    0.70820   0.65505    0.006
 5949.00    0.73970   0.65054    0.006
 5950.00    0.76827   0.65547    0.006
 5951.00    0.71425   0.66011    0.006
 5952.00    0.63786   0.65487    0.006
 5953.00    0.56189   0.64983    0.006
 5954.00    0.48602   0.65456    0.006
 5955.00    0.54926   0.65858    0.006
 5956.00    0.63713   0.65357    0.006
 5957.00    0.70320   0.64853    0.006
 5958.00    0.76632   0.65042    0.006
 5959.00    0.74585   0.65665    0.006
 5960.00    0.71734   0.66285    0.006
 5961.00    0.70024   0.66652    0.006
 5962.00    0.68382   0.66763    0.006
 5963.00    0.66033   0.66692    0.006
 5964.00    0.63660   0.66510    0.006
 5965.00    0.60331   0.66099    0.006
 5966.00    0.57341   0.65828    0.006
 5967.00    0.62983   0.66193    0.006
 5968.00    0.68584   0.66597    0.006
 5969.00    0.73616   0.66737    0.006
 5970.00    0.77890   0.66889    0.006
 5971.00    0.75373   0.67002    0.006
 5972.00    0.72455   0.66950    0.006
 5973.00    0.66896   0.66821    0.006
 5974.00    0.61825   0.66487    0.006
 5975.00    0.59261   0.65794    0.006
 5976.00    0.58591   0.65022    0.006
 5977.00    0.65765   0.64689    0.006
 5978.00    0.71895   0.64792    0.006
 5979.00    0.74446   0.65286    0.006
 5980.00    0.74926   0.65953    0.006
 5981.00    0.69425   0.66228    0.006
 5982.00    0.66502   0.65807    0.006
 5983.00    0.69929   0.64818    0.006
 5984.00    0.73384   0.63914    0.006
 5985.00    0.76897   0.64105    0.006
 5986.00    0.79249   0.64954    0.006
 5987.00    0.79461   0.65366    0.006
 5988.00    0.78361   0.65541    0.006
 5989.00    0.75148   0.65846    0.006
 5990.00    0.74915   0.65905    0.006
 5991.00    0.78897   0.65577    0.006
 5992.00    0.84243   0.65531    0.006
 5993.00    0.91286   0.66106    0.006
 5994.00    0.91053   0.66549    0.006
 5995.00    0.82839   0.66393    0.006
 5996.00    0.72776   0.65776    0.006
 5997.00    0.60923   0.65062    0.006
 5998.00    0.55540   0.64799    0.006
 5999.00    0.55677   0.65113    0.006
 6000.00    0.56624   0.65548    0.006
 6001.00    0.58180   0.65605    0.006
 6002.00    0.60443   0.65119    0.006
 6003.00    0.63173   0.64775    0.006
 6004.00    0.67217   0.65162    0.006
 6005.00    0.72021   0.65398    0.006
 6006.00    0.77834   0.64890    0.006
 6007.00    0.84156   0.63998    0.006
 6008.00    0.84184   0.63400    0.006
 6009.00    0.81468   0.64114    0.006
 6010.00    0.76248   0.65454    0.006
 6011.00    0.70090   0.65779    0.006
 6012.00    0.67109   0.65029    0.006
 6013.00    0.65138   0.64285    0.006
 6014.00    0.61055   0.64425    0.006
 6015.00    0.56413   0.64814    0.006
 6016.00    0.56735   0.64567    0.006
 6017.00    0.58133   0.64367    0.006
 6018.00    0.56379   0.64614    0.006
 6019.00    0.54081   0.64480    0.006
 6020.00    0.60055   0.63987    0.006
 6021.00    0.67107   0.63925    0.006
 6022.00    0.67250   0.64244    0.006
 6023.00    0.66758   0.64479    0.006
 6024.00    0.66449   0.64612    0.006
 6025.00    0.66151   0.65073    0.005
 6026.00    0.63740   0.65351    0.005
 6027.00    0.61338   0.65235    0.006
 6028.00    0.64359   0.65496    0.006
 6029.00    0.67630   0.65906    0.006
 6030.00    0.76726   0.65906    0.006
 6031.00    0.84985   0.65807    0.006
 6032.00    0.82570   0.65981    0.006
 6033.00    0.80206   0.66206    0.006
 6034.00    0.78288   0.66194    0.006
 6035.00    0.76870   0.66122    0.006
 6036.00    0.78649   0.66124    0.006
 6037.00    0.79657   0.66141    0.006
 6038.00    0.76817   0.66070    0.006
 6039.00    0.73624   0.65822    0.006
 6040.00    0.69004   0.65585    0.006
 6041.00    0.67530   0.65517    0.006
 6042.00    0.76627   0.65547    0.006
 6043.00    0.84281   0.65877    0.006
 6044.00    0.87845   0.66250    0.006
 6045.00    0.88049   0.66344    0.006
 6046.00    0.80113   0.66342    0.006
 6047.00    0.72868   0.66360    0.006
 6048.00    0.67065   0.66257    0.006
 6049.00    0.62711   0.66146    0.006
 6050.00    0.60990   0.66322    0.006
 6051.00    0.60360   0.66414    0.006
 6052.00    0.61460   0.66111    0.006
 6053.00    0.64627   0.65637    0.006
 6054.00    0.70675   0.65348    0.006
 6055.00    0.75058   0.65121    0.006
 6056.00    0.77395   0.64844    0.006
 6057.00    0.76808   0.64857    0.006
 6058.00    0.73057   0.65205    0.006
 6059.00    0.70408   0.65621    0.006
 6060.00    0.68811   0.65871    0.006
 6061.00    0.65752   0.65799    0.006
 6062.00    0.61463   0.65430    0.006
 6063.00    0.60632   0.64910    0.006
 6064.00    0.62365   0.64220    0.006
 6065.00    0.65056   0.63527    0.006
 6066.00    0.68371   0.63943    0.006
 6067.00    0.67490   0.65328    0.006
 6068.00    0.64219   0.66221    0.006
 6069.00    0.66216   0.66374    0.006
 6070.00    0.70825   0.66278    0.006
 6071.00    0.77006   0.66301    0.006
 6072.00    0.83861   0.66421    0.006
 6073.00    0.84203   0.66439    0.006
 6074.00    0.82152   0.66375    0.006
 6075.00    0.80321   0.66215    0.006
 6076.00    0.78558   0.65877    0.006
 6077.00    0.79103   0.65338    0.006
 6078.00    0.80246   0.64620    0.006
 6079.00    0.80655   0.64399    0.006
 6080.00    0.80908   0.64706    0.006
 6081.00    0.76415   0.64521    0.006
 6082.00    0.71129   0.64015    0.006
 6083.00    0.65362   0.64153    0.006
 6084.00    0.59534   0.64525    0.005
 6085.00    0.57815   0.64442    0.005
 6086.00    0.56457   0.64425    0.005
 6087.00    0.52089   0.64772    0.005
 6088.00    0.47566   0.65012    0.005
 6089.00    0.49136   0.64599    0.005
 6090.00    0.50806   0.63912    0.005
 6091.00    0.51679   0.63770    0.005
 6092.00    0.52632   0.63984    0.005
 6093.00    0.55292   0.64159    0.005
 6094.00    0.58114   0.64618    0.006
 6095.00    0.62909   0.65235    0.006
 6096.00    0.67515   0.65208    0.006
 6097.00    0.70555   0.64847    0.006
 6098.00    0.72586   0.64924    0.006
 6099.00    0.68372   0.65308    0.006
 6100.00    0.64172   0.65356    0.006
 6101.00    0.60037   0.64238    0.006
 6102.00    0.57247   0.62066    0.006
 6103.00    0.59784   0.61185    0.006
 6104.00    0.61696   0.62800    0.006
 6105.00    0.61550   0.64487    0.006
 6106.00    0.60418   0.64874    0.006
 6107.00    0.56541   0.64551    0.006
 6108.00    0.54941   0.64353    0.006
 6109.00    0.58760   0.64800    0.006
 6110.00    0.61717   0.65065    0.006
 6111.00    0.62904   0.64629    0.006
 6112.00    0.63107   0.64469    0.006
 6113.00    0.61551   0.64988    0.006
 6114.00    0.62181   0.65425    0.005
 6115.00    0.66237   0.65213    0.005
 6116.00    0.68091   0.64572    0.005
 6117.00    0.66922   0.64453    0.005
 6118.00    0.62671   0.64720    0.005
 6119.00    0.54692   0.64323    0.005
 6120.00    0.52216   0.63313    0.005
 6121.00    0.55609   0.62165    0.005
 6122.00    0.59141   0.61421    0.005
 6123.00    0.62804   0.62325    0.006
 6124.00    0.61863   0.63951    0.006
 6125.00    0.57103   0.64387    0.006
 6126.00    0.53976   0.64028    0.006
 6127.00    0.52041   0.63679    0.006
 6128.00    0.52130   0.63456    0.006
 6129.00    0.53516   0.63652    0.006
 6130.00    0.55635   0.64284    0.006
 6131.00    0.58165   0.64790    0.006
 6132.00    0.59604   0.64962    0.006
 6133.00    0.60510   0.64913    0.006
 6134.00    0.62467   0.64282    0.006
 6135.00    0.64867   0.62668    0.006
 6136.00    0.64051   0.60366    0.006
 6137.00    0.62075   0.58982    0.006
 6138.00    0.59466   0.60306    0.006
 6139.00    0.56664   0.63041    0.006
 6140.00    0.54129   0.64243    0.006
 6141.00    0.51662   0.63427    0.006
 6142.00    0.52432   0.62772    0.006
 6143.00    0.53869   0.63619    0.006
 6144.00    0.56024   0.64708    0.006
 6145.00    0.58295   0.64982    0.005
 6146.00    0.63889   0.64798    0.005
 6147.00    0.69887   0.64428    0.005
 6148.00    0.70173   0.63841    0.005
 6149.00    0.69982   0.63291    0.005
 6150.00    0.67280   0.63070    0.005
 6151.00    0.64457   0.63313    0.005
 6152.00    0.64987   0.63847    0.005
 6153.00    0.65600   0.64093    0.005
 6154.00    0.68134   0.63567    0.005
 6155.00    0.70639   0.63030    0.006
 6156.00    0.72582   0.63170    0.006
 6157.00    0.73607   0.63331    0.006
 6158.00    0.64033   0.63233    0.006
 6159.00    0.55219   0.62869    0.006
 6160.00    0.52482   0.61506    0.006
 6161.00    0.50407   0.59082    0.006
 6162.00    0.52316   0.57497    0.006
 6163.00    0.53364   0.58051    0.006
 6164.00    0.50318   0.59756    0.006
 6165.00    0.47567   0.61098    0.006
 6166.00    0.45958   0.61684    0.006
 6167.00    0.45657   0.62046    0.006
 6168.00    0.49574   0.61514    0.006
 6169.00    0.52376   0.59914    0.006
 6170.00    0.52131   0.59388    0.006
 6171.00    0.52655   0.60821    0.006
 6172.00    0.54979   0.62178    0.006
 6173.00    0.57099   0.62276    0.006
 6174.00    0.58804   0.62232    0.005
 6175.00    0.59089   0.62379    0.005
 6176.00    0.56874   0.62248    0.005
 6177.00    0.54135   0.62185    0.005
 6178.00    0.50591   0.62677    0.005
 6179.00    0.49686   0.62962    0.005
 6180.00    0.52357   0.62765    0.005
 6181.00    0.54752   0.62935    0.005
 6182.00    0.56818   0.63308    0.005
 6183.00    0.58263   0.63338    0.005
 6184.00    0.59056   0.63238    0.006
 6185.00    0.59011   0.62990    0.006
 6186.00    0.58188   0.62341    0.006
 6187.00    0.56843   0.61742    0.006
 6188.00    0.55069   0.61565    0.006
 6189.00    0.54369   0.61530    0.006
 6190.00    0.54443   0.60835    0.006
 6191.00    0.57444   0.59524    0.006
 6192.00    0.62294   0.59608    0.006
 6193.00    0.78890   0.61271    0.006
 6194.00    1.01972   0.62436    0.006
 6195.00    1.37848   0.62754    0.006
 6196.00    1.79867   0.62998   -2.000
 6197.00    1.89226   0.63160   -2.000
 6198.00    1.85047   0.62662   -2.000
 6199.00    1.48089   0.61562   -2.000
 6200.00    0.99512   0.60994   -2.000
 6201.00    0.53178   0.61657   -2.000
 6202.00    0.07514   0.62687   -2.000
 6203.00    0.02708   0.63109   -2.000
 6204.00    0.08052   0.63032   -2.000
 6205.00    0.24101   0.62921   -2.000
 6206.00    0.42307   0.62986   -2.000
 6207.00    0.49008   0.63048   -2.000
 6208.00    0.53895   0.63029    0.006
 6209.00    0.54712   0.62942    0.006
 6210.00    0.55053   0.62672    0.006
 6211.00    0.58094   0.62294    0.006
 6212.00    0.61350   0.61712    0.006
 6213.00    0.66858   0.60586    0.006
 6214.00    0.72466   0.59601    0.006
 6215.00    0.74280   0.59441    0.006
 6216.00    0.75958   0.59926    0.006
 6217.00    0.73116   0.60732    0.006
 6218.00    0.70346   0.61010    0.006
 6219.00    0.68891   0.60378    0.006
 6220.00    0.67802   0.59917    0.006
 6221.00    0.70747   0.60263    0.006
 6222.00    0.72956   0.60931    0.006
 6223.00    0.69476   0.61229    0.006
 6224.00    0.65684   0.61057    0.006
 6225.00    0.60073   0.61096    0.006
 6226.00    0.55988   0.61341    0.006
 6227.00    0.58982   0.61407    0.006
 6228.00    0.61752   0.61187    0.006
 6229.00    0.63673   0.60212    0.006
 6230.00    0.65002   0.58680    0.006
 6231.00    0.64460   0.58088    0.005
 6232.00    0.62493   0.58859    0.005
 6233.00    0.56700   0.59926    0.005
 6234.00    0.51841   0.61161    0.005
 6235.00    0.49132   0.62093    0.005
 6236.00    0.48039   0.62134    0.005
 6237.00    0.50167   0.61551    0.005
 6238.00    0.51163   0.60828    0.005
 6239.00    0.50195   0.60114    0.005
 6240.00    0.51012   0.59625    0.005
 6241.00    0.54538   0.59841    0.005
 6242.00    0.56917   0.59868    0.006
 6243.00    0.57761   0.59176    0.006
 6244.00    0.56865   0.59027    0.006
 6245.00    0.53920   0.59337    0.005
 6246.00    0.49983   0.59507    0.005
 6247.00    0.45017   0.60199    0.006
 6248.00    0.40818   0.61197    0.006
 6249.00    0.37320   0.61572    0.006
 6250.00    0.37121   0.61375    0.006
 6251.00    0.39581   0.60607    0.006
 6252.00    0.45647   0.59388    0.006
 6253.00    0.54269   0.58756    0.006
 6254.00    0.59701   0.58907    0.006
 6255.00    0.63148   0.59105    0.006
 6256.00    0.68077   0.58798    0.005
 6257.00    0.73814   0.58130    0.006
 6258.00    0.84882   0.57711    0.006
 6259.00    0.98470   0.58248    0.006
 6260.00    1.01720   0.59490    0.006
 6261.00    1.00757   0.60279    0.007
 6262.00    0.82368   0.60927    0.007
 6263.00    0.57915   0.61567    0.007
 6264.00    0.41991   0.61299    0.007
 6265.00    0.28568   0.60423    0.007
 6266.00    0.34326   0.60373    0.006
 6267.00    0.44744   0.60991    0.006
 6268.00    0.50709   0.61097    0.006
 6269.00    0.55801   0.60728    0.005
 6270.00    0.57294   0.60608    0.005
 6271.00    0.58236   0.60844    0.005
 6272.00    0.61344   0.61238    0.006
 6273.00    0.64695   0.61461    0.006
 6274.00    0.66470   0.61368    0.006
 6275.00    0.68125   0.61305    0.006
 6276.00    0.65674   0.61372    0.006
 6277.00    0.63059   0.61325    0.005
 6278.00    0.60665   0.61165    0.006
 6279.00    0.58331   0.60727    0.006
 6280.00    0.58334   0.60022    0.000
 6281.00    0.58379   0.59879    0.000
 6282.00    0.59143   0.60389    0.000
 6283.00    0.59953   0.61007    0.000
 6284.00    0.61254   0.61385    0.000
 6285.00    0.61916   0.61331    0.000
 6286.00    0.57816   0.61390    0.000
 6287.00    0.53947   0.61838    0.000
 6288.00    0.51397   0.62257    0.000
 6289.00    0.49764   0.62342    0.000
 6290.00    0.52279   0.61870    0.000
 6291.00    0.55108   0.61249    0.000
 6292.00    0.59104   0.60956    0.000
 6293.00    0.61711   0.60918    0.000
 6294.00    0.60003   0.61182    0.000
 6295.00    0.59354   0.61185    0.000
 6296.00    0.61494   0.60442    0.000
 6297.00    0.63530   0.59729    0.000
 6298.00    0.65331   0.59845    0.000
 6299.00    0.65989   0.60359    0.000
 6300.00    0.64408   0.60313    0.000
 6301.00    0.63323   0.59593    0.000
 6302.00    0.63087   0.59249    0.000
 6303.00    0.63531   0.59858    0.000
 6304.00    0.64995   0.60567    0.000
 6305.00    0.65232   0.60697    0.000
 6306.00    0.63856   0.60870    0.000
 6307.00    0.62677   0.61548    0.000
 6308.00    0.61726   0.62026    0.000
 6309.00    0.58568   0.61776    0.000
 6310.00    0.53154   0.61095    0.000
 6311.00    0.50030   0.60511    0.000
 6312.00    0.48971   0.60416    0.000
 6313.00    0.48230   0.60589    0.000
 6314.00    0.47742   0.60227    0.000
 6315.00    0.46978   0.59612    0.000
 6316.00    0.46020   0.59691    0.000
 6317.00    0.46964   0.59646    0.000
 6318.00    0.49074   0.58964    0.000
 6319.00    0.50541   0.59105    0.000
 6320.00    0.51664   0.60087    0.000
 6321.00    0.54584   0.60599    0.005
 6322.00    0.58340   0.60552    0.005
 6323.00    0.57858   0.60782    0.005
 6324.00    0.55679   0.61353    0.005
 6325.00    0.51769   0.61638    0.005
 6326.00    0.47268   0.61580    0.005
 6327.00    0.43481   0.61367    0.005
 6328.00    0.39899   0.61406    0.005
 6329.00    0.42240   0.61557    0.005
 6330.00    0.45986   0.61297    0.005
 6331.00    0.53399   0.61234    0.005
 6332.00    0.61514   0.61666    0.005
 6333.00    0.64197   0.61892    0.005
 6334.00    0.66075   0.61186    0.005
 6335.00    0.66065   0.59705    0.005
 6336.00    0.65850   0.58909    0.005
 6337.00    0.64732   0.59465    0.005
 6338.00    0.63550   0.60264    0.005
 6339.00    0.60503   0.60590    0.005
 6340.00    0.57387   0.61062    0.005
 6341.00    0.53835   0.61456    0.005
 6342.00    0.50405   0.61080    0.005
 6343.00    0.51361   0.60143    0.005
 6344.00    0.52433   0.59529    0.005
 6345.00    0.55350   0.59822    0.005
 6346.00    0.58124   0.60257    0.005
 6347.00    0.59450   0.60494    0.005
 6348.00    0.60635   0.60877    0.005
 6349.00    0.60808   0.61380    0.005
 6350.00    0.60607   0.61540    0.005
 6351.00    0.58335   0.61585    0.005
 6352.00    0.55513   0.61593    0.005
 6353.00    0.50257   0.61189    0.005
 6354.00    0.46861   0.60353    0.005
 6355.00    0.50224   0.59848    0.005
 6356.00    0.53486   0.60115    0.005
 6357.00    0.56439   0.60129    0.005
 6358.00    0.58637   0.59283    0.005
 6359.00    0.58878   0.58624    0.005
 6360.00    0.57201   0.58630    0.005
 6361.00    0.51252   0.58478    0.006
 6362.00    0.47081   0.58120    0.006
 6363.00    0.46343   0.58251    0.006
 6364.00    0.46248   0.58902    0.006
 6365.00    0.47238   0.59548    0.006
 6366.00    0.49883   0.60028    0.006
 6367.00    0.54972   0.60573    0.005
 6368.00    0.58907   0.61114    0.005
 6369.00    0.61346   0.61107    0.005
 6370.00    0.62748   0.60632    0.005
 6371.00    0.62964   0.60611    0.005
 6372.00    0.62098   0.61202    0.005
 6373.00    0.60141   0.61746    0.005
 6374.00    0.59923   0.61751    0.005
 6375.00    0.61251   0.61536    0.005
 6376.00    0.60254   0.61543    0.005
 6377.00    0.57435   0.61447    0.005
 6378.00    0.53368   0.60942    0.005
 6379.00    0.48439   0.60538    0.005
 6380.00    0.46535   0.60486    0.005
 6381.00    0.46456   0.60603    0.005
 6382.00    0.47015   0.60911    0.005
 6383.00    0.47909   0.61031    0.005
 6384.00    0.51528   0.60800    0.005
 6385.00    0.56393   0.60783    0.005
 6386.00    0.57368   0.61162    0.005
 6387.00    0.56812   0.61430    0.005
 6388.00    0.57590   0.61377    0.005
 6389.00    0.58815   0.61332    0.005
 6390.00    0.62037   0.61383    0.005
 6391.00    0.65822   0.61110    0.005
 6392.00    0.65586   0.60017    0.005
 6393.00    0.64417   0.58742    0.005
 6394.00    0.61302   0.58831    0.005
 6395.00    0.57824   0.60201    0.005
 6396.00    0.52382   0.61276    0.005
 6397.00    0.46657   0.61559    0.006
 6398.00    0.50053   0.60989    0.005
 6399.00    0.54398   0.59370    0.005
 6400.00    0.59257   0.58035    0.005
 6401.00    0.64149   0.58917    0.005
 6402.00    0.63449   0.60717    0.005
 6403.00    0.62566   0.61466    0.005
 6404.00    0.61249   0.61488    0.005
 6405.00    0.59871   0.61246    0.005
 6406.00    0.56575   0.60686    0.005
 6407.00    0.53656   0.59871    0.005
 6408.00    0.56381   0.59503    0.005
 6409.00    0.58650   0.60154    0.005
 6410.00    0.56507   0.60518    0.005
 6411.00    0.55090   0.59864    0.005
 6412.00    0.58745   0.59606    0.005
 6413.00    0.62262   0.60076    0.005
 6414.00    0.65039   0.60363    0.006
 6415.00    0.67139   0.60567    0.006
 6416.00    0.66314   0.60906    0.005
 6417.00    0.64321   0.60968    0.005
 6418.00    0.58166   0.60622    0.005
 6419.00    0.52922   0.59848    0.005
 6420.00    0.50401   0.58893    0.005
 6421.00    0.50415   0.58699    0.005
 6422.00    0.56881   0.59769    0.005
 6423.00    0.62263   0.61100    0.005
 6424.00    0.65267   0.61452    0.005
 6425.00    0.64534   0.61266    0.005
 6426.00    0.56696   0.61369    0.005
 6427.00    0.50414   0.61707    0.005
 6428.00    0.46713   0.61684    0.005
 6429.00    0.47196   0.60877    0.005
 6430.00    0.53764   0.59451    0.006
 6431.00    0.57889   0.58670    0.006
 6432.00    0.58891   0.59309    0.005
 6433.00    0.58660   0.60377    0.005
 6434.00    0.57043   0.61034    0.005
 6435.00    0.56498   0.61304    0.005
 6436.00    0.57019   0.61283    0.005
 6437.00    0.57366   0.60700    0.005
 6438.00    0.57561   0.59416    0.005
 6439.00    0.57286   0.58669    0.005
 6440.00    0.56648   0.59678    0.005
 6441.00    0.57120   0.61163    0.005
 6442.00    0.58345   0.61750    0.005
 6443.00    0.55585   0.61749    0.005
 6444.00    0.50454   0.61680    0.005
 6445.00    0.50061   0.61803    0.005
 6446.00    0.52127   0.62018    0.005
 6447.00    0.53690   0.61801    0.005
 6448.00    0.55026   0.60472    0.005
 6449.00    0.52754   0.58197    0.005
 6450.00    0.49086   0.57012    0.005
 6451.00    0.44272   0.58178    0.005
 6452.00    0.39080   0.59934    0.005
 6453.00    0.38493   0.60872    0.005
 6454.00    0.39176   0.60787    0.005
 6455.00    0.43523   0.59940    0.005
 6456.00    0.48700   0.59507    0.005
 6457.00    0.49065   0.60196    0.005
 6458.00    0.48556   0.61253    0.005
 6459.00    0.52056   0.61849    0.005
 6460.00    0.56114   0.61715    0.005
 6461.00    0.56068   0.60556    0.005
 6462.00    0.55611   0.58684    0.005
 6463.00    0.55157   0.58092    0.005
 6464.00    0.54703   0.59278    0.006
 6465.00    0.54965   0.60449    0.005
 6466.00    0.55241   0.60985    0.005
 6467.00    0.53766   0.61240    0.005
 6468.00    0.52626   0.61190    0.005
 6469.00    0.60777   0.60765    0.005
 6470.00    0.68202   0.60275    0.005
 6471.00    0.65359   0.59890    0.005
 6472.00    0.62191   0.60054    0.005
 6473.00    0.56011   0.60674    0.005
 6474.00    0.49968   0.60704    0.006
 6475.00    0.44849   0.60208    0.005
 6476.00    0.40352   0.60252    0.005
 6477.00    0.39115   0.60749    0.005
 6478.00    0.39019   0.60860    0.005
 6479.00    0.43737   0.60758    0.005
 6480.00    0.47687   0.60450    0.005
 6481.00    0.48960   0.59502    0.005
 6482.00    0.50693   0.58494    0.005
 6483.00    0.53780   0.58517    0.005
 6484.00    0.56510   0.59384    0.005
 6485.00    0.58351   0.60112    0.005
 6486.00    0.59802   0.60391    0.005
 6487.00    0.60414   0.60500    0.005
 6488.00    0.60340   0.60556    0.005
 6489.00    0.58982   0.60330    0.005
 6490.00    0.56226   0.59794    0.005
 6491.00    0.51188   0.59311    0.005
 6492.00    0.45471   0.58737    0.005
 6493.00    0.38779   0.57259    0.005
 6494.00    0.36566   0.55119    0.005
 6495.00    0.39999   0.54078    0.005
 6496.00    0.43412   0.54544    0.005
 6497.00    0.46802   0.55553    0.005
 6498.00    0.48764   0.56441    0.005
 6499.00    0.49326   0.56937    0.005
 6500.00    0.47114   0.57714    0.005
 6501.00    0.42505   0.58673    0.005
 6502.00    0.42010   0.59224    0.005
 6503.00    0.44648   0.59535    0.005
 6504.00    0.47288   0.59791    0.005
 6505.00    0.49929   0.60038    0.005
 6506.00    0.51236   0.60210    0.005
 6507.00    0.51762   0.60035    0.005
 6508.00    0.52421   0.59636    0.005
 6509.00    0.53149   0.59527    0.005
 6510.00    0.54705   0.59844    0.005
 6511.00    0.56628   0.60129    0.005
 6512.00    0.54774   0.60134    0.005
 6513.00    0.51485   0.60086    0.005
 6514.00    0.51888   0.59902    0.005
 6515.00    0.53482   0.59419    0.005
 6516.00    0.57602   0.58986    0.005
 6517.00    0.62405   0.58739    0.006
 6518.00    0.60475   0.58484    0.005
 6519.00    0.57054   0.58594    0.005
 6520.00    0.56606   0.59319    0.005
 6521.00    0.56681   0.59886    0.005
 6522.00    0.57375   0.59981    0.005
 6523.00    0.58151   0.59867    0.005
 6524.00    0.55565   0.59875    0.005
 6525.00    0.52658   0.59766    0.005
 6526.00    0.50199   0.59180    0.005
 6527.00    0.47767   0.58630    0.005
 6528.00    0.51710   0.58817    0.000
 6529.00    0.55801   0.59404    0.000
 6530.00    0.58201   0.59687    0.000
 6531.00    0.60398   0.59442    0.000
 6532.00    0.57477   0.58925    0.000
 6533.00    0.54786   0.58691    0.000
 6534.00    0.55175   0.59070    0.000
 6535.00    0.55466   0.59706    0.000
 6536.00    0.54889   0.59888    0.000
 6537.00    0.54563   0.59584    0.000
 6538.00    0.55887   0.59500    0.000
 6539.00    0.56700   0.59910    0.000
 6540.00    0.54901   0.60173    0.000
 6541.00    0.54124   0.59856    0.000
 6542.00    0.57560   0.59323    0.000
 6543.00    0.61250   0.58922    0.000
 6544.00    0.65804   0.58550    0.000
 6545.00    0.67360   0.57848    0.000
 6546.00    0.60282   0.57030    0.000
 6547.00    0.52795   0.57091    0.000
 6548.00    0.44303   0.57840    0.000
 6549.00    0.38068   0.58232    0.000
 6550.00    0.36618   0.58004    0.000
 6551.00    0.36912   0.57464    0.000
 6552.00    0.40418   0.56988    0.000
 6553.00    0.44663   0.56479    0.000
 6554.00    0.50099   0.55606    0.000
 6555.00    0.53191   0.54684    0.000
 6556.00    0.52971   0.54173    0.000
 6557.00    0.53974   0.53908    0.000
 6558.00    0.56495   0.53187    0.000
 6559.00    0.61883   0.51841    0.000
 6560.00    0.70411   0.49626    0.000
 6561.00    0.76520   0.45694    0.000
 6562.00    0.80291   0.40505    0.000
 6563.00    0.77879   0.38587    0.000
 6564.00    0.70199   0.42745    0.000
 6565.00    0.63405   0.48567    0.000
 6566.00    0.57277   0.52316    0.000
 6567.00    0.52966   0.54281    0.000
 6568.00    0.49854   0.55016    0.000
 6569.00    0.47320   0.55025    0.000
 6570.00    0.45119   0.55329    0.000
 6571.00    0.44028   0.55876    0.000
 6572.00    0.43496   0.55896    0.000
 6573.00    0.45265   0.55507    0.000
 6574.00    0.48035   0.55306    0.000
 6575.00    0.49527   0.55703    0.000
 6576.00    0.50542   0.56735    0.000
 6577.00    0.51910   0.57735    0.000
 6578.00    0.53389   0.58222    0.000
 6579.00    0.57036   0.58158    0.000
 6580.00    0.61255   0.57753    0.000
 6581.00    0.63982   0.57372    0.000
 6582.00    0.66387   0.57548    0.000
 6583.00    0.67509   0.58085    0.000
 6584.00    0.68411   0.58345    0.000
 6585.00    0.64176   0.58336    0.000
 6586.00    0.59274   0.58181    0.000
 6587.00    0.53285   0.58413    0.000
 6588.00    0.47198   0.58930    0.000
 6589.00    0.48497   0.59171    0.000
 6590.00    0.50204   0.59080    0.000
 6591.00    0.51528   0.58361    0.000
 6592.00    0.52812   0.56801    0.000
 6593.00    0.51196   0.55526    0.000
 6594.00    0.49750   0.55981    0.000
 6595.00    0.52220   0.57439    0.000
 6596.00    0.54405   0.58196    0.000
 6597.00    0.52973   0.58093    0.000
 6598.00    0.51157   0.57799    0.000
 6599.00    0.46045   0.57930    0.000
 6600.00    0.42197   0.58607    0.000
 6601.00    0.46401   0.59194    0.000
 6602.00    0.49805   0.59259    0.000
 6603.00    0.49227   0.58965    0.000
 6604.00    0.47300   0.58501    0.000
 6605.00    0.39924   0.58090    0.000
 6606.00    0.34209   0.57874    0.000
 6607.00    0.34054   0.57615    0.000
 6608.00    0.35650   0.57095    0.000
 6609.00    0.42197   0.56787    0.005
 6610.00    0.48255   0.57434    0.005
 6611.00    0.53130   0.58535    0.005
 6612.00    0.56162   0.58948    0.005
 6613.00    0.55352   0.58626    0.005
 6614.00    0.55222   0.58453    0.005
 6615.00    0.56325   0.58887    0.005
 6616.00    0.57603   0.59163    0.006
 6617.00    0.59158   0.58957    0.006
 6618.00    0.59120   0.58828    0.006
 6619.00    0.56864   0.58987    0.006
 6620.00    0.53649   0.59200    0.006
 6621.00    0.49261   0.59246    0.005
 6622.00    0.47145   0.59042    0.005
 6623.00    0.47482   0.58439    0.005
 6624.00    0.48324   0.57642    0.005
 6625.00    0.49645   0.57350    0.005
 6626.00    0.51883   0.57843    0.005
 6627.00    0.54889   0.58285    0.005
 6628.00    0.59089   0.58324    0.005
 6629.00    0.64172   0.58208    0.005
 6630.00    0.62724   0.58028    0.005
 6631.00    0.57036   0.57775    0.005
 6632.00    0.52030   0.57293    0.005
 6633.00    0.47413   0.56596    0.005
 6634.00    0.46580   0.56391    0.005
 6635.00    0.47619   0.57058    0.006
 6636.00    0.41442   0.57925    0.006
 6637.00    0.32176   0.58339    0.006
 6638.00    0.27441   0.58287    0.005
 6639.00    0.24366   0.57966    0.005
 6640.00    0.28184   0.57851    0.005
 6641.00    0.34141   0.58179    0.006
 6642.00    0.38592   0.58047    0.006
 6643.00    0.42652   0.57191    0.006
 6644.00    0.45650   0.56939    0.005
 6645.00    0.48424   0.57609    0.005
 6646.00    0.48608   0.58041    0.005
 6647.00    0.48361   0.57943    0.005
 6648.00    0.48907   0.57899    0.005
 6649.00    0.49552   0.58099    0.005
 6650.00    0.49588   0.58195    0.005
 6651.00    0.49570   0.58012    0.005
 6652.00    0.47888   0.57810    0.005
 6653.00    0.46121   0.57779    0.005
 6654.00    0.49178   0.57843    0.005
 6655.00    0.52269   0.57947    0.005
 6656.00    0.51721   0.57928    0.005
 6657.00    0.51029   0.57851    0.005
 6658.00    0.47313   0.57892    0.005
 6659.00    0.44022   0.57828    0.006
 6660.00    0.45859   0.57588    0.006
 6661.00    0.47754   0.57299    0.006
 6662.00    0.50125   0.56780    0.006
 6663.00    0.51763   0.56093    0.006
 6664.00    0.48870   0.56106    0.006
 6665.00    0.46660   0.56680    0.006
 6666.00    0.47771   0.56907    0.006
 6667.00    0.48886   0.56844    0.006
 6668.00    0.50020   0.56975    0.006
 6669.00    0.51038   0.57423    0.005
 6670.00    0.51671   0.57884    0.005
 6671.00    0.50566   0.58073    0.005
 6672.00    0.44634   0.58003    0.005
 6673.00    0.40364   0.57932    0.005
 6674.00    0.40044   0.57937    0.005
 6675.00    0.38912   0.57834    0.005
 6676.00    0.36110   0.56968    0.005
 6677.00    0.35682   0.55123    0.005
 6678.00    0.39493   0.53909    0.005
 6679.00    0.44053   0.54647    0.005
 6680.00    0.49786   0.56178    0.006
 6681.00    0.53497   0.56771    0.006
 6682.00    0.54437   0.56790    0.006
 6683.00    0.55768   0.56980    0.006
 6684.00    0.57571   0.57217    0.006
 6685.00    0.59405   0.57366    0.006
 6686.00    0.61270   0.57396    0.006
 6687.00    0.58066   0.57348    0.006
 6688.00    0.50102   0.57264    0.006
 6689.00    0.45750   0.57394    0.006
 6690.00    0.44388   0.57592    0.006
 6691.00    0.45191   0.57626    0.005
 6692.00    0.47570   0.57592    0.005
 6693.00    0.49534   0.57571    0.005
 6694.00    0.51232   0.57402    0.005
 6695.00    0.51619   0.56873    0.005
 6696.00    0.51272   0.56228    0.000
 6697.00    0.50107   0.56099    0.000
 6698.00    0.48545   0.56431    0.000
 6699.00    0.43196   0.56936    0.000
 6700.00    0.36254   0.57451    0.000
 6701.00    0.39576   0.57596    0.000
 6702.00    0.46595   0.57322    0.000
 6703.00    0.50163   0.56830    0.000
 6704.00    0.52681   0.56460    0.000
 6705.00    0.51729   0.56551    0.000
 6706.00    0.49899   0.56859    0.000
 6707.00    0.49699   0.56983    0.000
 6708.00    0.49834   0.57038    0.000
 6709.00    0.49685   0.57068    0.000
 6710.00    0.49489   0.56848    0.000
 6711.00    0.48729   0.56730    0.000
 6712.00    0.47901   0.56728    0.000
 6713.00    0.49322   0.56475    0.000
 6714.00    0.50931   0.56140    0.000
 6715.00    0.57151   0.55725    0.000
 6716.00    0.63590   0.55104    0.000
 6717.00    0.64555   0.54601    0.000
 6718.00    0.65327   0.54917    0.000
 6719.00    0.59552   0.55936    0.000
 6720.00    0.53909   0.56534    0.000
 6721.00    0.50852   0.56459    0.000
 6722.00    0.47632   0.56411    0.000
 6723.00    0.42538   0.56762    0.000
 6724.00    0.37442   0.56985    0.000
 6725.00    0.32334   0.56655    0.000
 6726.00    0.28490   0.56239    0.000
 6727.00    0.32236   0.56318    0.000
 6728.00    0.37276   0.56637    0.000
 6729.00    0.48444   0.56805    0.000
 6730.00    0.55650   0.56916    0.000
 6731.00    0.47546   0.56962    0.000
 6732.00    0.41308   0.56833    0.000
 6733.00    0.41078   0.56644    0.000
 6734.00    0.42655   0.56610    0.000
 6735.00    0.49158   0.56772    0.000
 6736.00    0.55835   0.56923    0.000
 6737.00    0.62920   0.56646    0.000
 6738.00    0.66562   0.56127    0.000
 6739.00    0.63251   0.55896    0.000
 6740.00    0.61422   0.56115    0.000
 6741.00    0.62199   0.56345    0.000
 6742.00    0.62212   0.56103    0.000
 6743.00    0.61048   0.55704    0.000
 6744.00    0.56241   0.55841    0.000
 6745.00    0.46507   0.56143    0.000
 6746.00    0.36965   0.56147    0.000
 6747.00    0.27653   0.56015    0.000
 6748.00    0.27915   0.55845    0.000
 6749.00    0.38228   0.55646    0.000
 6750.00    0.46427   0.55534    0.000
 6751.00    0.52670   0.55747    0.000
 6752.00    0.54639   0.55795    0.000
 6753.00    0.53118   0.55640    0.007
 6754.00    0.51190   0.55880    0.007
 6755.00    0.48969   0.56224    0.007
 6756.00    0.52724   0.56466    0.007
 6757.00    0.60249   0.56790    0.007
 6758.00    0.55280   0.57061    0.007
 6759.00    0.43427   0.57161    0.007
 6760.00    0.41138   0.57157    0.007
 6761.00    0.43433   0.56997    0.007
 6762.00    0.48013   0.56789    0.007
 6763.00    0.53537   0.56822    0.007
 6764.00    0.57784   0.56927    0.007
 6765.00    0.61579   0.56757    0.007
 6766.00    0.68052   0.56211    0.007
 6767.00    0.75325   0.55623    0.007
 6768.00    0.81646   0.55573    0.007
 6769.00    0.87731   0.55951    0.007
 6770.00    0.85396   0.56015    0.007
 6771.00    0.81371   0.55767    0.007
 6772.00    0.71459   0.55904    0.007
 6773.00    0.60621   0.56414    0.007
 6774.00    0.53302   0.56869    0.006
 6775.00    0.46393   0.57116    0.006
 6776.00    0.36702   0.57198    0.006
 6777.00    0.26791   0.57132    0.007
 6778.00    0.43575   0.57114    0.007
 6779.00    0.61521   0.57233    0.007
 6780.00    0.52026   0.57184    0.007
 6781.00    0.42491   0.56845    0.007
 6782.00    0.44476   0.56178    0.007
 6783.00    0.46388   0.55392    0.007
 6784.00    0.46959   0.54933    0.007
 6785.00    0.47656   0.54993    0.007
 6786.00    0.49719   0.55340    0.006
 6787.00    0.52363   0.55854    0.006
 6788.00    0.59462   0.56340    0.006
 6789.00    0.64282   0.56385    0.006
 6790.00    0.55808   0.56272    0.007
 6791.00    0.48344   0.56346    0.007
 6792.00    0.45548   0.56324    0.007
 6793.00    0.47641   0.55961    0.006
 6794.00    0.68224   0.55708    0.007
 6795.00    0.80489   0.55761    0.007
 6796.00    0.66488   0.55843    0.007
 6797.00    0.56273   0.56032    0.007
 6798.00    0.56192   0.56202    0.007
 6799.00    0.58794   0.56270    0.007
 6800.00    0.67557   0.56394    0.007
 6801.00    0.67926   0.56531    0.007
 6802.00    0.51602   0.56552    0.007
 6803.00    0.41074   0.56349    0.007
 6804.00    0.40589   0.56138    0.007
 6805.00    0.39765   0.56204    0.007
 6806.00    0.38426   0.56176    0.007
 6807.00    0.40478   0.56036    0.007
 6808.00    0.47050   0.56132    0.007
 6809.00    0.49281   0.56102    0.007
 6810.00    0.46416   0.55916    0.006
 6811.00    0.49131   0.56051    0.007
 6812.00    0.57620   0.56282    0.007
 6813.00    0.59806   0.56184    0.007
 6814.00    0.56235   0.55843    0.007
 6815.00    0.51067   0.55650    0.007
 6816.00    0.44613   0.56025    0.007
 6817.00    0.51881   0.56518    0.007
 6818.00    0.68864   0.56525    0.007
 6819.00    0.66000   0.56160    0.007
 6820.00    0.50809   0.55878    0.007
 6821.00    0.46802   0.56018    0.007
 6822.00    0.48865   0.56455    0.007
 6823.00    0.48170   0.56770    0.007
 6824.00    0.46173   0.56828    0.007
 6825.00    0.50841   0.56771    0.007
 6826.00    0.58220   0.56582    0.007
 6827.00    0.52078   0.56110    0.007
 6828.00    0.41242   0.55560    0.007
 6829.00    0.32524   0.55555    0.007
 6830.00    0.24424   0.56065    0.007
 6831.00    0.33983   0.56431    0.007
 6832.00    0.47819   0.56371    0.007
 6833.00    0.52160   0.56224    0.007
 6834.00    0.54642   0.56394    0.007
 6835.00    0.46759   0.56635    0.007
 6836.00    0.37295   0.56544    0.007
 6837.00    0.39694   0.56174    0.007
 6838.00    0.43424   0.55729    0.007
 6839.00    0.45755   0.55189    0.007
 6840.00    0.47983   0.54651    0.007
 6841.00    0.39894   0.54186    0.007
 6842.00    0.31395   0.54103    0.007
 6843.00    0.40998   0.54610    0.007
 6844.00    0.50488   0.55394    0.007
 6845.00    0.50519   0.55963    0.007
 6846.00    0.50830   0.56103    0.007
 6847.00    0.55868   0.56096    0.007
 6848.00    0.60452   0.56153    0.007
 6849.00    0.60291   0.56137    0.007
 6850.00    0.58100   0.56049    0.007
 6851.00    0.40828   0.56042    0.007
 6852.00    0.27596   0.56110    0.007
 6853.00    0.37264   0.56005    0.007
 6854.00    0.46854   0.55375    0.007
 6855.00    0.56091   0.54630    0.007
 6856.00    0.62211   0.54605    0.007
 6857.00    0.56792   0.54995    0.007
 6858.00    0.50776   0.55214    0.007
 6859.00    0.42909   0.55326    0.007
 6860.00    0.39003   0.55064    0.007
 6861.00    0.45519   0.54508    0.007
 6862.00    0.47169   0.54572    0.007
 6863.00    0.37820   0.55453    0.007
 6864.00    0.37174   0.56171    0.007
 6865.00    0.53565   0.56130    0.007
 6866.00    0.57764   0.55638    0.007
 6867.00    0.41159   0.54999    0.007
 6868.00    0.33092   0.54569    0.007
 6869.00    0.37789   0.54843    0.007
 6870.00    0.42784   0.55427    0.007
 6871.00    0.48171   0.55417    0.007
 6872.00    0.49311   0.54990    0.007
 6873.00    0.45536   0.54947    0.007
 6874.00    0.44173   0.55174    0.007
 6875.00    0.45271   0.55232    0.007
 6876.00    0.45274   0.55306    0.007
 6877.00    0.44290   0.55639    0.007
 6878.00    0.46086   0.55958    0.007
 6879.00    0.50086   0.55948    0.007
 6880.00    0.51795   0.55638    0.007
 6881.00    0.51905   0.55109    0.007
 6882.00    0.52877   0.54594    0.007
 6883.00    0.54376   0.54581    0.007
 6884.00    0.53477   0.55105    0.007
 6885.00    0.51297   0.55427    0.007
 6886.00    0.47985   0.55332    0.007
 6887.00    0.44149   0.55412    0.007
 6888.00    0.46918   0.55711    0.007
 6889.00    0.52327   0.55808    0.007
 6890.00    0.45031   0.55817    0.007
 6891.00    0.33405   0.55969    0.007
 6892.00    0.32955   0.55936    0.007
 6893.00    0.35709   0.55778    0.007
 6894.00    0.40453   0.55763    0.007
 6895.00    0.45667   0.55740    0.007
 6896.00    0.42208   0.55655    0.007
 6897.00    0.37095   0.55784    0.007
 6898.00    0.34269   0.56044    0.007
 6899.00    0.31781   0.56015    0.007
 6900.00    0.43947   0.55740    0.007
 6901.00    0.57694   0.55795    0.007
 6902.00    0.59854   0.56188    0.007
 6903.00    0.61196   0.56352    0.007
 6904.00    0.58595   0.56158    0.007
 6905.00    0.55854   0.55977    0.007
 6906.00    0.47537   0.56123    0.007
 6907.00    0.39434   0.56441    0.007
 6908.00    0.39342   0.56518    0.007
 6909.00    0.39561   0.56478    0.007
 6910.00    0.44689   0.56417    0.007
 6911.00    0.48419   0.56210    0.007
 6912.00    0.38149   0.55897    0.007
 6913.00    0.30148   0.55462    0.007
 6914.00    0.38450   0.55048    0.007
 6915.00    0.46172   0.55117    0.007
 6916.00    0.50691   0.55357    0.007
 6917.00    0.53379   0.55366    0.007
 6918.00    0.47999   0.55590    0.007
 6919.00    0.44138   0.55963    0.007
 6920.00    0.45780   0.56288    0.007
 6921.00    0.44866   0.56494    0.007
 6922.00    0.36179   0.56412    0.007
 6923.00    0.32346   0.55927    0.007
 6924.00    0.41060   0.55114    0.007
 6925.00    0.46794   0.54624    0.007
 6926.00    0.45904   0.54793    0.007
 6927.00    0.43875   0.55375    0.007
 6928.00    0.39650   0.55827    0.007
 6929.00    0.35602   0.55992    0.007
 6930.00    0.31850   0.56002    0.007
 6931.00    0.33861   0.55893    0.007
 6932.00    0.44362   0.55555    0.007
 6933.00    0.45556   0.55176    0.007
 6934.00    0.34700   0.55356    0.007
 6935.00    0.30475   0.55851    0.007
 6936.00    0.33815   0.56003    0.007
 6937.00    0.35003   0.55875    0.007
 6938.00    0.34026   0.55835    0.007
 6939.00    0.34827   0.56048    0.007
 6940.00    0.37205   0.56334    0.007
 6941.00    0.41501   0.56400    0.007
 6942.00    0.47294   0.56100    0.007
 6943.00    0.48025   0.55537    0.007
 6944.00    0.45274   0.54857    0.007
 6945.00    0.48316   0.54452    0.007
 6946.00    0.54848   0.54865    0.007
 6947.00    0.53825   0.55636    0.007
 6948.00    0.48826   0.56031    0.007
 6949.00    0.46134   0.56125    0.007
 6950.00    0.44496   0.55902    0.007
 6951.00    0.41710   0.55395    0.007
 6952.00    0.38474   0.55104    0.007
 6953.00    0.42140   0.55058    0.007
 6954.00    0.48115   0.55036    0.007
 6955.00    0.48358   0.55266    0.007
 6956.00    0.46989   0.55709    0.007
 6957.00    0.46005   0.55970    0.007
 6958.00    0.45110   0.55968    0.007
 6959.00    0.40738   0.55935    0.007
 6960.00    0.35721   0.55961    0.007
 6961.00    0.18643   0.56078    0.007
 6962.00   -0.00162   0.56203    0.000
 6963.00    0.27002   0.56289    0.007
 6964.00    0.58928   0.56265    0.007
 6965.00    0.61109   0.55985    0.007
 6966.00    0.61308   0.55776    0.007
 6967.00    0.41448   0.56055    0.007
 6968.00    0.20952   0.56535    0.007
 6969.00    0.27859   0.56597    0.007
 6970.00    0.34511   0.56199    0.007
 6971.00    0.33343   0.55779    0.007
 6972.00    0.32513   0.55931    0.007
 6973.00    0.36707   0.56366    0.007
 6974.00    0.40841   0.56219    0.007
 6975.00    0.44386   0.55581    0.007
 6976.00    0.47594   0.54919    0.007
 6977.00    0.48456   0.54062    0.007
 6978.00    0.47622   0.52987    0.007
 6979.00    0.37683   0.52801    0.007
 6980.00    0.32465   0.53950    0.007
 6981.00    0.47584   0.55257    0.007
 6982.00    0.58762   0.55975    0.007
 6983.00    0.55944   0.56377    0.007
 6984.00    0.52572   0.56496    0.007
 6985.00    0.47541   0.56416    0.007
 6986.00    0.44655   0.56354    0.007
 6987.00    0.47217   0.56251    0.007
 6988.00    0.49755   0.55941    0.007
 6989.00    0.52239   0.55523    0.007
 6990.00    0.49959   0.55462    0.007
 6991.00    0.38644   0.55883    0.007
 6992.00    0.35438   0.56325    0.007
 6993.00    0.45659   0.56379    0.007
 6994.00    0.46246   0.56093    0.007
 6995.00    0.32847   0.55962    0.007
 6996.00    0.28915   0.56158    0.007
 6997.00    0.37068   0.56284    0.007
 6998.00    0.44063   0.55923    0.007
 6999.00    0.49757   0.55151    0.007
 7000.00    0.49829   0.54696    0.007
 7001.00    0.44323   0.55103    0.007
 7002.00    0.42837   0.55738    0.007
 7003.00    0.44867   0.55738    0.007
 7004.00    0.42320   0.55179    0.007
 7005.00    0.36246   0.54798    0.007
 7006.00    0.34808   0.54889    0.007
 7007.00    0.36513   0.55192    0.007
 7008.00    0.41752   0.55540    0.007
 7009.00    0.49091   0.55850    0.007
 7010.00    0.49651   0.55831    0.007
 7011.00    0.46700   0.55531    0.007
 7012.00    0.43957   0.55511    0.007
 7013.00    0.41308   0.55734    0.007
 7014.00    0.39060   0.55543    0.007
 7015.00    0.36966   0.54472    0.007
 7016.00    0.39609   0.53264    0.007
 7017.00    0.43806   0.53435    0.007
 7018.00    0.42847   0.54900    0.007
 7019.00    0.40471   0.56049    0.007
 7020.00    0.36009   0.56388    0.007
 7021.00    0.31075   0.56298    0.007
 7022.00    0.51333   0.55759    0.007
 7023.00    0.76142   0.54827    0.007
 7024.00    0.59246   0.54242    0.007
 7025.00    0.36573   0.54509    0.007
 7026.00    0.39360   0.55193    0.007
 7027.00    0.44674   0.55546    0.007
 7028.00    0.53347   0.55608    0.007
 7029.00    0.62229   0.55728    0.007
 7030.00    0.45864   0.55911    0.007
 7031.00    0.28821   0.55959    0.008
 7032.00    0.21981   0.55788    0.007
 7033.00    0.15724   0.55626    0.007
 7034.00    0.25509   0.55607    0.007
 7035.00    0.34767   0.55788    0.007
 7036.00    0.36642   0.56013    0.007
 7037.00    0.38484   0.55517    0.007
 7038.00    0.40022   0.54518    0.007
 7039.00    0.40087   0.54610    0.007
 7040.00    0.30224   0.55954    0.007
 7041.00    0.22876   0.57145    0.007
 7042.00    0.28667   0.57586    0.007
 7043.00    0.33876   0.57447    0.007
 7044.00    0.36635   0.56838    0.007
 7045.00    0.39814   0.56282    0.007
 7046.00    0.44454   0.56396    0.007
 7047.00    0.46762   0.56994    0.008
 7048.00    0.42243   0.57487    0.008
 7049.00    0.42201   0.57601    0.008
 7050.00    0.53333   0.57349   -2.000
 7051.00    0.59550   0.56727   -2.000
 7052.00    0.55196   0.55581   -2.000
 7053.00    0.51756   0.54418   -2.000
 7054.00    0.50023   0.53901   -2.000
 7055.00    0.50252   0.53995   -2.000
 7056.00    0.53683   0.54489   -2.000
 7057.00    0.49178   0.54970   -2.000
 7058.00    0.33321   0.54917   -2.000
 7059.00    0.28868   0.54230   -2.000
 7060.00    0.38765   0.53543   -2.000
 7061.00    0.48625   0.53525   -2.000
 7062.00    0.58445   0.53900   -2.000
 7063.00    0.65163   0.54230   -2.000
 7064.00    0.68846   0.54574   -2.000
 7065.00    0.31872   0.54629   -2.000
 7066.00   -0.40173   0.54056   -2.000
 7067.00   -0.38776   0.53253   -2.000
 7068.00    0.18420   0.52719   -2.000
 7069.00    0.61811   0.52989   -2.000
 7070.00    0.95983   0.53995   -2.000
 7071.00    0.86504   0.54803   -2.000
 7072.00    0.51495   0.54970   -2.000
 7073.00    0.34283   0.54955   -2.000
 7074.00    0.26143   0.54968   -2.000
 7075.00    0.23568   0.54883   -2.000
 7076.00    0.23450   0.54773   -2.000
 7077.00    0.36485   0.54815   -2.000
 7078.00    0.54507   0.54999   -2.000
 7079.00    0.65490   0.55117   -2.000
 7080.00    0.74208   0.55265   -2.000
 7081.00    0.69303   0.55331   -2.000
 7082.00    0.60730   0.54819   -2.000
 7083.00    0.49749   0.53714   -2.000
 7084.00    0.38237   0.52550   -2.000
 7085.00    0.44894   0.52148   -2.000
 7086.00    0.54745   0.52589   -2.000
 7087.00    0.49302   0.52796   -2.000
 7088.00    0.41811   0.52540   -2.000
 7089.00    0.41507   0.52280   -2.000
 7090.00    0.41886   0.52057   -2.000
 7091.00    0.42727   0.52087   -2.000
 7092.00    0.43595   0.52304   -2.000
 7093.00    0.24337   0.52302   -2.000
 7094.00    0.04851   0.52327   -2.000
 7095.00    0.21941   0.52357   -2.000
 7096.00    0.38499   0.52380   -2.000
 7097.00    0.41849   0.52507   -2.000
 7098.00    0.45164   0.52822   -2.000
 7099.00    0.48023   0.53346   -2.000
 7100.00    0.50789   0.53513   -2.000
 7101.00    0.52729   0.53299   -2.000
 7102.00    0.53095   0.52915   -2.000
 7103.00    0.43182   0.52818   -2.000
 7104.00    0.32673   0.53200   -2.000
 7105.00    0.19134   0.53577   -2.000
 7106.00    0.11763   0.53394   -2.000
 7107.00    0.29777   0.53000   -2.000
 7108.00    0.40210   0.52966   -2.000
 7109.00    0.24802   0.53087   -2.000
 7110.00    0.16302   0.52764   -2.000
 7111.00    0.27650   0.52259   -2.000
 7112.00    0.35814   0.52261   -2.000
 7113.00    0.36168   0.52758   -2.000
 7114.00    0.30204   0.53169   -2.000
 7115.00    0.10870   0.53318   -2.000
 7116.00    0.02628   0.53426   -2.000
 7117.00    0.14782   0.53424   -2.000
 7118.00    0.26638   0.53327   -2.000
 7119.00    0.38019   0.53239   -2.000
 7120.00    0.55260   0.53112   -2.000
 7121.00    0.80763   0.52908   -2.000
 7122.00    0.95340   0.52686   -2.000
 7123.00    0.96364   0.52860   -2.000
 7124.00   -0.56957   0.53140   -2.000
 7125.00   -3.79025   0.52792   -2.000
 7126.00   -3.91294   0.52204   -2.000
 7127.00   -1.04805   0.52047   -2.000
 7128.00    0.28714   0.52234   -2.000
 7129.00    0.32150   0.52035   -2.000
 7130.00    0.37087   0.51301   -2.000
 7131.00    0.43147   0.50936   -2.000
 7132.00    0.54706   0.51400   -2.000
 7133.00    0.69885   0.52104   -2.000
 7134.00    0.73469   0.52656   -2.000
 7135.00    0.70376   0.52892   -2.000
 7136.00    0.53467   0.52932   -2.000
 7137.00    0.29625   0.53078   -2.000
 7138.00    0.28287   0.52929   -2.000
 7139.00    0.36722   0.52462   -2.000
 7140.00    0.37147   0.52427   -2.000
 7141.00    0.34588   0.52865   -2.000
 7142.00    0.34368   0.53069   -2.000
 7143.00    0.34887   0.52952   -2.000
 7144.00    0.34706   0.52861   -2.000
 7145.00    0.34340   0.52821   -2.000
 7146.00    0.39436   0.52667   -2.000
 7147.00    0.45709   0.52047   -2.000
 7148.00    0.45417   0.51261   -2.000
 7149.00    0.44003   0.51360   -2.000
 7150.00    0.18057   0.52035   -2.000
 7151.00   -0.11065   0.52526   -2.000
 7152.00    0.10691   0.53066   -2.000
 7153.00    0.37066   0.53544   -2.000
 7154.00    0.52965   0.53462   -2.000
 7155.00    0.68290   0.53057   -2.000
 7156.00    0.32012   0.53152   -2.000
 7157.00   -0.04469   0.53717   -2.000
 7158.00    0.39265   0.53771   -2.000
 7159.00    0.82524   0.53235   -2.000
 7160.00    1.15012   0.52841   -2.000
 7161.00    1.43170   0.52951   -2.000
 7162.00    1.16786   0.53227   -2.000
 7163.00    0.91359   0.52777   -2.000
 7164.00    0.74095   0.51633   -2.000
 7165.00    0.58861   0.50981   -2.000
 7166.00    0.56492   0.51632   -2.000
 7167.00    0.51180   0.52805   -2.000
 7168.00    0.31253   0.53467   -2.000
 7169.00    0.16904   0.53456   -2.000
 7170.00    0.25011   0.53254   -2.000
 7171.00    0.33398   0.53401   -2.000
 7172.00    0.42720   0.53812   -2.000
 7173.00    0.46388   0.53994   -2.000
 7174.00    0.34106   0.53752   -2.000
 7175.00    0.26587   0.53231   -2.000
 7176.00    0.30556   0.52789   -2.000
 7177.00    0.38866   0.53015   -2.000
 7178.00    0.56214   0.53535   -2.000
 7179.00    0.67079   0.53244   -2.000
 7180.00    0.66205   0.52189   -2.000
 7181.00    0.63250   0.51474   -2.000
 7182.00    0.56998   0.51944   -2.000
 7183.00    0.43563   0.53135   -2.000
 7184.00    0.20146   0.53762   -2.000
 7185.00    0.13707   0.53545   -2.000
 7186.00    0.28026   0.52799   -2.000
 7187.00    0.40724   0.51774   -2.000
 7188.00    0.51673   0.51187   -2.000
 7189.00    0.50290   0.51379   -2.000
 7190.00    0.37181   0.52016   -2.000
 7191.00    0.32574   0.52623   -2.000
 7192.00    0.35095   0.52576   -2.000
 7193.00    0.38329   0.52241   -2.000
 7194.00    0.42089   0.52405   -2.000
 7195.00    0.30453   0.52885   -2.000
 7196.00    0.08836   0.52870   -2.000
 7197.00    0.22319   0.52490   -2.000
 7198.00    0.55715   0.52557   -2.000
 7199.00    0.10808   0.52951   -2.000
 7200.00   -0.72768   0.53041   -2.000
 7201.00   -0.81189   0.52688   -2.000
 7202.00   -0.57517   0.52443   -2.000
 7203.00   -0.38434   0.52893   -2.000
 7204.00   -0.21030   0.53568   -2.000
 7205.00    0.09678   0.53546   -2.000
 7206.00    0.44507   0.52487   -2.000
 7207.00    0.41153   0.51121   -2.000
 7208.00    0.27945   0.50812   -2.000
 7209.00    0.34778   0.51587   -2.000
 7210.00    0.45827   0.52669   -2.000
 7211.00    0.50510   0.53530   -2.000
 7212.00    0.54136   0.53568   -2.000
 7213.00    0.49777   0.53040   -2.000
 7214.00    0.44420   0.52628   -2.000
 7215.00    0.30092   0.52544   -2.000
 7216.00    0.14986   0.52784   -2.000
 7217.00    0.32072   0.53332   -2.000
 7218.00    0.50794   0.53758   -2.000
