###################################################################
## OUTPUT of StarlightChains_v04.for    [Cid@UFSC - 01/Apr/2007] ##
###################################################################

## Some input info
KUG0210-078._27_23.txt                   [arq_obs]
Base.CB07.vall.4m                        [arq_base]
Masks.EmLines.NEW.gm                     [arq_masks]
StCv04.C11.config                        [arq_config]
   66                                    [N_base]
    0                                    [N_YAV_components = # of components with extra extinction!]
    0                                    [i_FitPowerLaw (1/0 = Yes/No)]
-9.99                                    [alpha_PowerLaw]
CCM                                      [red_law_option]
 1.458241                                [q_norm = A(l_norm)/A(V)]

## (Re)Sampling Parameters
 3741.00                                 [l_ini (A)]
 7218.00                                 [l_fin (A)]
    1.00                                 [dl    (A)]     (OBS: dl_cushion =    50.00 A)

## Normalization info
 4020.00                                 [l_norm (A) - for base]
 4010.00                                 [llow_norm (A) - window for f_obs]
 4060.00                                 [lupp_norm (A) - window for f_obs]
1.045642E-17                             [fobs_norm (in input units)]

## S/N
 3691.00                                 [llow_SN (A) - window for S/N]
 7268.00                                 [lupp_SN (A) - window for S/N]
   4.760                                 [S/N in S/N window]
   4.048                                 [S/N in norm. window]
   0.014                                 [S/N_err in S/N window]
   0.012                                 [S/N_err in norm. window]
  1.0000                                 [fscale_chi2]

## etc...
    -2007343                             [idum_orig]
  2418                                   [NOl_eff]
  2402                                   [Nl_eff]
    16    NSIGMA                         [Ntot_cliped & clip_method]
  1854720                                [Nglobal_steps]
   7                                     [N_chains]
  43                                     [NEX0s_base = N_base in EX0s-fits]
 0   0   1       16   2.0   1.737E+03    [Clip-Bug, RC-Crash & Burn-In warning-flags, n_censored_weights, wei_nsig_threshold & wei_limit]
    62     61.535     61.133      0.402  [idt_all, wdt_TotTime, wdt_UsrTime & wdt_SysTime (sec)]

## Synthesis Results - Best model ##

 2.11508E-05                             [chi2/Nl_eff]
    20.19423                             [adev (%)]

   110.48286                             [sum-of-x (%)]
 1.32098E-17                             [Flux_tot (units of input spectrum!)]
 1.06032E-12                             [Mini_tot (???)]
 5.27680E-13                             [Mcor_tot (???)]

-294.64                                  [v0_min  (km/s)]
 463.73                                  [vd_min  (km/s)]
 0.0998                                  [AV_min  (mag)]
 0.0000                                  [YAV_min (mag)]

# j     x_j(%)      Mini_j(%)     Mcor_j(%)     age_j(yr)     Z_j      (L/M)_j    YAV?  Mstars   component_j        a/Fe...       SSP_chi2r SSP_adev(%)   SSP_AV   SSP_x(%)
  1      0.0000     0.0000E+00    0.0000E+00    1.000000E+06  0.00400  1.094E-02    0   1.0000   age020_m42            0.0000     2.2135E-05    22.0505   3.5085    92.4762
  2      0.0000     0.0000E+00    0.0000E+00    3.160000E+06  0.00400  4.007E-02    0   0.9999   age045_m42            0.0000     2.2286E-05    21.5361   2.7575    99.6382
  3      0.0000     0.0000E+00    0.0000E+00    5.010000E+06  0.00400  2.539E-02    0   0.9488   age055_m42            0.0000     2.2147E-05    21.7587   3.0912    96.7795
  4      0.0000     0.0000E+00    0.0000E+00    6.610000E+06  0.00400  2.620E-02    0   0.9220   age061_m42            0.0000     2.2389E-05    21.5366   2.6858    99.7775
  5      0.0000     0.0000E+00    0.0000E+00    1.000000E+07  0.00400  1.322E-02    0   0.8862   age070_m42            0.0000     2.2459E-05    22.4057   2.4369   100.5755
  6      0.0000     0.0000E+00    0.0000E+00    1.445000E+07  0.00400  7.883E-03    0   0.8571   age078_m42            0.0000     2.2403E-05    22.4863   2.7671    97.9570
  7      2.7120     5.8240E-03    9.5658E-03    2.512000E+07  0.00400  5.251E-03    0   0.8174   age090_m42            0.0000     2.2571E-05    22.5703   2.3104   100.9790
  8      1.2981     4.0115E-03    6.3284E-03    4.000000E+07  0.00400  3.649E-03    0   0.7851   age104_m42            0.0000     2.2546E-05    22.2915   2.0769   102.0826
  9      0.8397     3.0563E-03    4.6853E-03    5.500000E+07  0.00400  3.098E-03    0   0.7629   age110_m42            0.0000     2.2724E-05    21.7365   2.2107   102.8549
 10      0.0000     0.0000E+00    0.0000E+00    1.015200E+08  0.00400  2.228E-03    0   0.7207   age116_m42            0.0000     2.3018E-05    21.3775   2.2181   103.5393
 11      0.0000     0.0000E+00    0.0000E+00    2.861200E+08  0.00400  1.093E-03    0   0.6648   age125_m42            0.0000     2.3447E-05    21.7261   1.6489   106.3562
 12      0.0559     9.5538E-04    1.2219E-03    5.088000E+08  0.00400  6.597E-04    0   0.6365   age130_m42            0.0000     2.3799E-05    20.9862   1.6224   107.9933
 13      0.0000     0.0000E+00    0.0000E+00    1.434000E+09  0.00400  2.132E-04    0   0.5798   age139_m42            0.0000     2.3281E-05    20.0880   0.6396   110.6386
 14      0.0000     0.0000E+00    0.0000E+00    4.250000E+09  0.00400  5.895E-05    0   0.5377   age158_m42            0.0000     2.2436E-05    19.6325   0.1805   107.1780
 15      0.0000     0.0000E+00    0.0000E+00    7.500000E+09  0.00400  3.510E-05    0   0.5212   age171_m42            0.0000     2.2568E-05    19.4076  -0.0187   106.8727
 16      0.0000     0.0000E+00    0.0000E+00    1.300000E+10  0.00400  2.005E-05    0   0.5034   age193_m42            0.0000     2.2768E-05    19.2827  -0.1947   106.6509
 17      6.0326     4.4607E+00    4.4520E+00    1.800000E+10  0.00400  1.525E-05    0   0.4967   age213_m42            0.0000     2.2676E-05    19.3392  -0.2137   106.0334
 18      0.0000     0.0000E+00    0.0000E+00    1.000000E+06  0.00800  1.238E-02    0   1.0000   age020_m52            0.0000     2.2137E-05    22.0492   3.5048    92.6633
 19      7.6225     2.7961E-03    5.5994E-03    3.160000E+06  0.00800  3.074E-02    0   0.9966   age045_m52            0.0000     2.2138E-05    21.9579   3.4272    93.5430
 20      0.0000     0.0000E+00    0.0000E+00    5.010000E+06  0.00800  2.668E-02    0   0.9443   age055_m52            0.0000     2.2124E-05    21.8284   3.1781    95.7746
 21      3.0249     1.5969E-03    2.9447E-03    6.610000E+06  0.00800  2.136E-02    0   0.9177   age061_m52            0.0000     2.1817E-05    22.0011   1.9372   101.7716
 22      0.0000     0.0000E+00    0.0000E+00    1.000000E+07  0.00800  1.215E-02    0   0.8827   age070_m52            0.0000     2.2561E-05    22.8779   2.6269    99.9001
 23      0.0000     0.0000E+00    0.0000E+00    1.445000E+07  0.00800  8.717E-03    0   0.8552   age078_m52            0.0000     2.2417E-05    22.4326   2.7310    99.3683
 24      0.0000     0.0000E+00    0.0000E+00    2.512000E+07  0.00800  5.592E-03    0   0.8162   age090_m52            0.0000     2.2658E-05    22.6178   2.3747   102.1456
 25      7.3270     2.1207E-02    3.3413E-02    4.000000E+07  0.00800  3.896E-03    0   0.7841   age104_m52            0.0000     2.2732E-05    22.2838   2.2742   103.4065
 26      0.0000     0.0000E+00    0.0000E+00    1.015200E+08  0.00800  2.148E-03    0   0.7226   age116_m52            0.0000     2.2898E-05    21.6514   2.1929   104.0417
 27      0.0000     0.0000E+00    0.0000E+00    2.861200E+08  0.00800  9.925E-04    0   0.6683   age125_m52            0.0000     2.3769E-05    20.9295   1.6859   109.0761
 28      1.6519     5.9305E-02    7.3145E-02    9.047900E+08  0.00800  3.141E-04    0   0.6138   age135_m52            0.0000     2.3990E-05    19.9349   0.8536   114.9397
 29      0.0000     0.0000E+00    0.0000E+00    1.434000E+09  0.00800  1.719E-04    0   0.5853   age139_m52            0.0000     2.3014E-05    19.9125   0.2735   112.5496
 30      0.0000     0.0000E+00    0.0000E+00    2.500000E+09  0.00800  7.872E-05    0   0.5600   age150_m52            0.0000     2.2796E-05    19.2746  -0.0163   110.5754
 31      0.0000     0.0000E+00    0.0000E+00    4.250000E+09  0.00800  4.336E-05    0   0.5426   age158_m52            0.0000     2.2780E-05    19.2633  -0.0325   109.5753
 32      0.0000     0.0000E+00    0.0000E+00    6.250000E+09  0.00800  3.159E-05    0   0.5319   age166_m52            0.0000     2.3244E-05    19.0117  -0.2531   110.3067
 33      1.0248     8.4910E-01    8.6554E-01    1.300000E+10  0.00800  1.361E-05    0   0.5073   age193_m52            0.0000     2.3948E-05    18.7470  -0.7458   110.5420
 34      2.0240     2.3087E+00    2.3149E+00    1.800000E+10  0.00800  9.886E-06    0   0.4990   age213_m52            0.0000     2.4736E-05    18.8012  -0.8780   110.9105
 35      0.0000     0.0000E+00    0.0000E+00    1.000000E+06  0.02000  1.544E-02    0   1.0000   age020_m62            0.0000     2.2158E-05    22.0715   3.5012    92.8636
 36      0.0528     1.5817E-05    3.1332E-05    3.160000E+06  0.02000  3.762E-02    0   0.9858   age045_m62            0.0000     2.2156E-05    22.0212   3.4405    93.6836
 37      1.0589     3.6226E-04    6.8003E-04    5.010000E+06  0.02000  3.296E-02    0   0.9342   age055_m62            0.0000     2.2199E-05    21.5410   3.0421    98.3258
 38      0.0000     0.0000E+00    0.0000E+00    8.710000E+06  0.02000  1.154E-02    0   0.8861   age067_m62            0.0000     2.3960E-05    26.0121   2.1368   100.0162
 39      0.0000     0.0000E+00    0.0000E+00    1.445000E+07  0.02000  7.663E-03    0   0.8472   age078_m62            0.0000     2.2782E-05    23.7125   2.2875   101.4364
 40      0.2680     6.6692E-04    1.0854E-03    2.512000E+07  0.02000  4.532E-03    0   0.8099   age090_m62            0.0000     2.3003E-05    23.9087   2.2779   101.1561
 41      0.0000     0.0000E+00    0.0000E+00    5.500000E+07  0.02000  2.733E-03    0   0.7595   age110_m62            0.0000     2.2624E-05    22.2647   2.2587   102.6113
 42      0.0000     0.0000E+00    0.0000E+00    1.609000E+08  0.02000  1.369E-03    0   0.6985   age120_m62            0.0000     2.3380E-05    21.3297   2.0664   106.6814
 43      0.0000     0.0000E+00    0.0000E+00    2.861200E+08  0.02000  9.013E-04    0   0.6714   age125_m62            0.0000     2.4199E-05    20.6716   1.7988   110.4519
 44      2.9679     6.6562E-02    8.6255E-02    5.088000E+08  0.02000  5.028E-04    0   0.6449   age130_m62            0.0000     2.4692E-05    19.8314   1.3895   114.6628
 45      0.3721     1.7280E-02    2.1455E-02    9.047900E+08  0.02000  2.428E-04    0   0.6179   age135_m62            0.0000     2.3675E-05    19.5206   0.7879   114.6565
 46      0.0000     0.0000E+00    0.0000E+00    1.434000E+09  0.02000  1.263E-04    0   0.5908   age139_m62            0.0000     2.3102E-05    19.3298   0.3365   113.2934
 47      0.0000     0.0000E+00    0.0000E+00    2.500000E+09  0.02000  5.985E-05    0   0.5673   age150_m62            0.0000     2.3089E-05    19.0211  -0.0539   112.7645
 48      0.0000     0.0000E+00    0.0000E+00    4.250000E+09  0.02000  3.271E-05    0   0.5468   age158_m62            0.0000     2.3764E-05    18.8424  -0.3899   113.0311
 49      0.0000     0.0000E+00    0.0000E+00    1.000000E+10  0.02000  1.360E-05    0   0.5167   age181_m62            0.0000     2.5224E-05    18.8751  -0.7759   114.0424
 50     18.4725     2.9239E+01    2.9453E+01    1.800000E+10  0.02000  7.124E-06    0   0.5013   age213_m62            0.0000     2.6530E-05    18.8909  -1.0000   113.8304
 51      0.0000     0.0000E+00    0.0000E+00    1.000000E+06  0.05000  2.592E-02    0   0.9998   age020_m72            0.0000     2.2249E-05    22.1652   3.4966    92.7571
 52     14.6626     3.4126E-03    6.5671E-03    3.160000E+06  0.05000  4.845E-02    0   0.9577   age045_m72            0.0000     2.2159E-05    21.8026   3.3126    95.3131
 53      0.0000     0.0000E+00    0.0000E+00    5.010000E+06  0.05000  3.072E-02    0   0.9147   age055_m72            0.0000     2.2625E-05    23.2201   2.8558    98.2240
 54      0.2521     1.9536E-04    3.4848E-04    6.610000E+06  0.05000  1.455E-02    0   0.8877   age061_m72            0.0000     2.5986E-05    28.6514   2.1819   100.0007
 55      3.4100     4.2376E-03    7.2583E-03    1.000000E+07  0.05000  9.074E-03    0   0.8524   age070_m72            0.0000     2.3138E-05    23.9828   3.0229    98.0812
 56      0.0000     0.0000E+00    0.0000E+00    2.512000E+07  0.05000  4.250E-03    0   0.7902   age090_m72            0.0000     2.3053E-05    23.3632   2.7237   100.1890
 57      7.2549     2.6501E-02    4.0566E-02    4.000000E+07  0.05000  3.087E-03    0   0.7618   age104_m72            0.0000     2.3279E-05    23.4577   2.4944   101.8714
 58      0.0000     0.0000E+00    0.0000E+00    1.015200E+08  0.05000  1.700E-03    0   0.7096   age116_m72            0.0000     2.3469E-05    21.8762   2.2172   105.8139
 59      0.0475     7.2586E-04    9.6746E-04    2.861200E+08  0.05000  7.384E-04    0   0.6633   age125_m72            0.0000     2.4512E-05    20.1661   1.6489   112.7162
 60      0.0000     0.0000E+00    0.0000E+00    5.088000E+08  0.05000  3.819E-04    0   0.6372   age130_m72            0.0000     2.4021E-05    19.4916   1.1286   115.7859
 61      2.2856     1.5378E-01    1.8880E-01    9.047900E+08  0.05000  1.676E-04    0   0.6110   age135_m72            0.0000     2.3417E-05    19.0925   0.4019   115.1216
 62      0.0000     0.0000E+00    0.0000E+00    1.434000E+09  0.05000  8.837E-05    0   0.5874   age139_m72            0.0000     2.3522E-05    19.0212  -0.0634   114.7820
 63      0.1082     2.8834E-02    3.2434E-02    2.500000E+09  0.05000  4.233E-05    0   0.5598   age150_m72            0.0000     2.4010E-05    18.8550  -0.4043   114.6171
 64      0.0000     0.0000E+00    0.0000E+00    6.250000E+09  0.05000  1.435E-05    0   0.5249   age166_m72            0.0000     2.5351E-05    19.0044  -0.8847   114.0808
 65      1.5347     2.6572E+00    2.6889E+00    1.300000E+10  0.05000  6.513E-06    0   0.5036   age193_m72            0.0000     2.7446E-05    17.3881  -1.0000   110.4014
 66     24.1215     6.0084E+01    5.9702E+01    1.800000E+10  0.05000  4.527E-06    0   0.4945   age213_m72            0.0000     2.9649E-05    17.1062  -1.0000   105.1407


## Synthesis Results - Average & Chains ##

# j      x_j: min, <> & last-chain-values for 1 ...  7 chains
  1      0.0000      1.3811      0.0000      0.0000      0.5483      0.2087      0.0570      0.2332      0.0000
  2      0.0000      0.8808      1.2263      0.4708      0.0000      0.0000      0.2518      0.2888      2.5041
  3      0.0000      2.8912      1.7546      2.3387      6.0487      6.2302      6.2214      6.4567      0.0000
  4      0.0000      0.6992      0.0000      0.5531      0.5869      0.5969      0.4384      0.0559      0.0000
  5      0.0000      0.9400      1.6612      0.4931      1.0497      0.5128      0.0000      0.0000      0.0000
  6      0.0000      2.6239      2.5324      1.7133      3.3422      4.1491      5.2133      5.3448      0.0000
  7      2.7120      0.9348      0.0000      1.1902      0.4164      0.0000      0.0000      0.0000      2.8131
  8      1.2981      2.1510      0.0000      2.8590      2.4027      2.0248      3.4330      3.5783      1.7746
  9      0.8397      1.0965      2.9206      1.7068      0.0000      1.2310      0.0000      0.0000      3.8942
 10      0.0000      0.9628      0.0000      0.4482      0.0000      0.8357      0.4615      0.0966      3.9243
 11      0.0000      0.9551      0.0000      0.3828      0.0000      0.0000      0.5816      0.6264      0.0000
 12      0.0559      1.0464      3.1510      0.0000      0.0000      0.0000      0.0000      0.0000      1.3990
 13      0.0000      1.0912      2.8174      1.3391      0.0000      1.3263      0.3405      0.0346      0.0000
 14      0.0000      1.1746      2.6280      0.5209      0.5074      1.6062      0.8808      0.3869      1.4713
 15      0.0000      1.0227      7.4792      0.0000      1.1286      0.6290      0.0352      0.0041      2.5538
 16      0.0000      1.0362      0.0498      0.2224      0.9081      2.1509      0.1916      0.4977      0.0000
 17      6.0326      1.1738      0.0000      4.2384      1.5194      0.9784      0.0598      0.0000      4.9417
 18      0.0000      1.1245      0.0000      0.5089      0.5487      0.2602      0.7516      0.1755      0.0000
 19      7.6225      0.9158      6.0350      0.0000      1.5249      0.2284      0.0609      0.6096      3.2113
 20      0.0000      2.5499      1.5124      2.3378      3.9140      3.4568      2.8604      3.6537      2.3303
 21      3.0249      1.1049      2.0218      0.8144      0.3238      0.6038      1.1817      2.1186      0.6522
 22      0.0000      1.0185      0.0000      0.1849      1.6823      0.8646      0.0275      0.4373      0.0000
 23      0.0000      0.8317      0.0000      1.4396      0.0000      0.0000      0.1873      0.2712      0.0000
 24      0.0000      1.4611      0.8492      0.3291      0.2138      0.3849      1.3641      1.4223      1.6807
 25      7.3270      1.0002      0.4196      0.6838      0.9180      0.0000      1.1838      0.0000      1.4213
 26      0.0000      2.1117      2.6806      2.8798      2.0396      3.1472      3.8088      3.7536      0.3367
 27      0.0000      1.0845      4.9775      1.5843      0.7569      0.1724      1.0560      0.0036      0.0000
 28      1.6519      0.7709      0.5200      0.0130      0.0000      0.5844      0.0000      0.0000      0.5800
 29      0.0000      1.0084      2.8549      1.4191      0.5556      0.0202      0.5660      0.0000      0.0000
 30      0.0000      1.3531      0.0000      3.8978      1.0199      0.1081      0.1816      0.0460      1.8788
 31      0.0000      1.1735      1.6818      1.6228      1.9346      0.2716      0.0000      0.2599      2.8679
 32      0.0000      1.0865      0.0000      2.1097      0.0000      1.1600      0.3749      0.8710      2.1180
 33      1.0248      0.9445      1.5245      1.1362      1.0006      0.4803      0.5069      0.2136      2.3990
 34      2.0240      2.2875      2.3343      2.3221      2.6323      2.6367      3.2154      2.8725      1.2136
 35      0.0000      1.0720      0.0000      4.9160      0.0785      0.0000      1.1150      0.2716      1.0941
 36      0.0528      1.6385      0.0315      2.4214      1.6571      3.1900      2.2329      0.6143      1.7264
 37      1.0589      1.4650      0.0116      0.1427      0.0377      0.6594      0.3682      0.0000      1.8520
 38      0.0000      1.7802      0.0000      2.1343      2.7372      2.5154      3.4236      2.6719      0.3927
 39      0.0000      0.7833      0.0000      1.0780      0.0000      0.2264      0.0000      0.1486      0.0000
 40      0.2680      0.8702      1.7777      0.7950      0.0000      0.7139      0.5524      0.5524      2.3867
 41      0.0000      1.0144      1.0081      0.3685      1.1523      0.5529      0.6377      0.7586      0.0000
 42      0.0000      0.9825      1.8263      1.3005      0.3383      1.4997      0.3898      0.1270      0.0000
 43      0.0000      0.8925      1.0652      0.5282      0.0000      1.2813      0.0000      0.2970      0.3910
 44      2.9679      0.8528      3.8079      0.4198      0.0000      0.9755      0.7787      0.2839      2.9481
 45      0.3721      0.6474      1.4528      0.0000      0.6030      0.0000      0.3743      0.0000      0.8793
 46      0.0000      0.9466      0.0874      1.4123      0.5457      0.4694      0.3944      0.0000      1.1877
 47      0.0000      0.8258      2.9208      0.0000      0.7179      2.0077      0.0000      0.0000      1.5728
 48      0.0000      0.7350      0.6268      0.7919      0.0000      0.0467      0.0000      0.0000      0.0000
 49      0.0000      1.3000      0.3180      2.9586      2.1221      1.4692      3.0222      2.7741      0.0000
 50     18.4725      1.0184      4.2314      2.1598      0.2736      0.0000      0.0513      0.2672      1.5849
 51      0.0000      1.2025      0.0000      1.3911      0.3174      0.0671      0.6004      2.1408      0.4824
 52     14.6626      1.0986      0.7645      0.0927      0.3490      0.0000      0.5593      0.1045      4.4012
 53      0.0000      0.7685      0.0000      0.0000      0.6384      0.2277      0.9021      0.0473      0.0000
 54      0.2521      0.7241      2.1851      0.8878      0.0000      0.2411      0.6376      0.7410      0.8607
 55      3.4100      0.9106      0.6635      0.0788      1.3094      0.1130      0.0000      0.2645      1.5335
 56      0.0000      3.2349      0.0000      2.2545      5.7306      5.5366      5.8257      6.6540      1.2654
 57      7.2549      1.0324      0.7452      1.3306      0.0317      0.0046      0.0123      0.0000      1.9528
 58      0.0000      1.1854      0.0000      0.0000      0.3861      0.7568      1.5679      1.6996      2.1927
 59      0.0475      0.8629      0.0000      0.4625      0.7271      0.0000      0.1326      0.0668      1.3393
 60      0.0000      1.0187      0.0000      0.0000      0.0000      1.0328      0.2435      0.0000      3.6190
 61      2.2856      1.2218      2.2415      0.8447      1.0982      0.9197      0.1296      0.1033      1.9370
 62      0.0000      0.8598      0.0000      0.9831      1.8078      0.9606      1.2685      0.0000      1.1683
 63      0.1082      1.0359      2.7950      0.2108      0.0000      2.1114      0.4467      1.9452      2.2265
 64      0.0000      3.7416      1.0954      4.9051      9.3867      6.2915      8.0094      8.8236      1.5828
 65      1.5347      3.4623      4.1480      5.9900      7.7522      8.0746      9.8264     10.2648      5.0329
 66     24.1215      5.5372      3.7850      5.5564     10.8575      9.7862      9.7383     12.3142      4.8432

# j      m_j: min, <> & last-chain-values for 1 ...  7 chains
  1  0.0000E+00  8.5030E-03  0.0000E+00  0.0000E+00  1.9588E-03  8.1580E-04  2.1094E-04  7.5970E-04  0.0000E+00
  2  0.0000E+00  1.4804E-03  1.9891E-03  6.0106E-04  0.0000E+00  0.0000E+00  2.5456E-04  2.5675E-04  3.8506E-03
  3  0.0000E+00  7.2772E-03  4.2617E-03  4.4717E-03  8.8341E-03  9.9570E-03  9.4182E-03  8.5974E-03  0.0000E+00
  4  0.0000E+00  1.6573E-03  0.0000E+00  9.9592E-04  8.0725E-04  8.9836E-04  6.2501E-04  7.0130E-05  0.0000E+00
  5  0.0000E+00  4.2443E-03  7.2382E-03  1.6913E-03  2.7501E-03  1.4701E-03  0.0000E+00  0.0000E+00  0.0000E+00
  6  0.0000E+00  1.9216E-02  1.7896E-02  9.5311E-03  1.4203E-02  1.9293E-02  2.2962E-02  2.0707E-02  0.0000E+00
  7  9.5658E-03  9.8011E-03  0.0000E+00  9.4801E-03  2.5336E-03  0.0000E+00  0.0000E+00  0.0000E+00  2.6984E-02
  8  6.3284E-03  3.1172E-02  0.0000E+00  3.1474E-02  2.0204E-02  1.8631E-02  2.9922E-02  2.7433E-02  2.3529E-02
  9  4.6853E-03  1.8188E-02  4.6748E-02  2.1506E-02  0.0000E+00  1.2964E-02  0.0000E+00  0.0000E+00  5.9093E-02
 10  0.0000E+00  2.0977E-02  0.0000E+00  7.4173E-03  0.0000E+00  1.1561E-02  6.0476E-03  1.1133E-03  7.8223E-02
 11  0.0000E+00  3.9130E-02  0.0000E+00  1.1912E-02  0.0000E+00  0.0000E+00  1.4331E-02  1.3576E-02  0.0000E+00
 12  1.2219E-03  6.8001E-02  1.9761E-01  0.0000E+00  0.0000E+00  0.0000E+00  0.0000E+00  0.0000E+00  8.3177E-02
 13  0.0000E+00  1.9987E-01  4.9801E-01  1.8634E-01  0.0000E+00  1.5426E-01  3.7508E-02  3.3569E-03  0.0000E+00
 14  0.0000E+00  7.2163E-01  1.5581E+00  2.4310E-01  1.8088E-01  6.2657E-01  3.2547E-01  1.2575E-01  8.2697E-01
 15  0.0000E+00  1.0229E+00  7.2186E+00  0.0000E+00  6.5496E-01  3.9945E-01  2.1199E-02  2.1598E-03  2.3368E+00
 16  0.0000E+00  1.7523E+00  8.1226E-02  2.8571E-01  8.9106E-01  2.3095E+00  1.9487E-01  4.4527E-01  0.0000E+00
 17  4.4520E+00  2.5752E+00  0.0000E+00  7.0634E+00  1.9342E+00  1.3629E+00  7.8923E-02  0.0000E+00  9.9183E+00
 18  0.0000E+00  6.1182E-03  0.0000E+00  2.1033E-03  1.7323E-03  8.9885E-04  2.4595E-03  5.0513E-04  0.0000E+00
 19  5.5994E-03  1.9998E-03  1.2717E-02  0.0000E+00  1.9322E-03  3.1670E-04  7.9920E-05  7.0418E-04  6.4155E-03
 20  0.0000E+00  6.0788E-03  3.4793E-03  4.2337E-03  5.4142E-03  5.2325E-03  4.1012E-03  4.6079E-03  5.0823E-03
 21  2.9447E-03  3.1975E-03  5.6458E-03  1.7903E-03  5.4370E-04  1.1095E-03  2.0568E-03  3.2433E-03  1.7268E-03
 22  0.0000E+00  4.9838E-03  0.0000E+00  6.8715E-04  4.7768E-03  2.6865E-03  8.1000E-05  1.1320E-03  0.0000E+00
 23  0.0000E+00  5.4962E-03  0.0000E+00  7.2266E-03  0.0000E+00  0.0000E+00  7.4455E-04  9.4799E-04  0.0000E+00
 24  0.0000E+00  1.4364E-02  8.0567E-03  2.4581E-03  1.2198E-03  2.4030E-03  8.0657E-03  7.3969E-03  1.5117E-02
 25  3.3413E-02  1.3559E-02  5.4887E-03  7.0415E-03  7.2210E-03  0.0000E+00  9.6518E-03  0.0000E+00  1.7627E-02
 26  0.0000E+00  4.7849E-02  5.8614E-02  4.9569E-02  2.6816E-02  4.5279E-02  5.1905E-02  4.4994E-02  6.9796E-03
 27  0.0000E+00  4.9188E-02  2.1785E-01  5.4584E-02  1.9918E-02  4.9643E-03  2.8807E-02  8.5496E-05  0.0000E+00
 28  7.3145E-02  1.0147E-01  6.6046E-02  1.3001E-03  0.0000E+00  4.8837E-02  0.0000E+00  0.0000E+00  6.9838E-02
 29  0.0000E+00  2.3126E-01  6.3183E-01  2.4724E-01  7.3938E-02  2.9430E-03  7.8069E-02  0.0000E+00  0.0000E+00
 30  0.0000E+00  6.4836E-01  0.0000E+00  1.4188E+00  2.8356E-01  3.2897E-02  5.2338E-02  1.1663E-02  8.2360E-01
 31  0.0000E+00  9.8910E-01  1.3679E+00  1.0390E+00  9.4617E-01  1.4536E-01  0.0000E+00  1.1587E-01  2.2115E+00
 32  0.0000E+00  1.2322E+00  0.0000E+00  1.8175E+00  0.0000E+00  8.3535E-01  2.5574E-01  5.2259E-01  2.1976E+00
 33  8.6554E-01  2.3714E+00  3.6935E+00  2.1669E+00  1.4576E+00  7.6571E-01  7.6537E-01  2.8369E-01  5.5101E+00
 34  2.3149E+00  7.7771E+00  7.6585E+00  5.9972E+00  5.1928E+00  5.6918E+00  6.5748E+00  5.1663E+00  3.7746E+00
 35  0.0000E+00  4.6766E-03  0.0000E+00  1.6291E-02  1.9880E-04  0.0000E+00  2.9254E-03  6.2687E-04  4.3664E-03
 36  3.1332E-05  2.8919E-03  5.3645E-05  3.2465E-03  1.6971E-03  3.5749E-03  2.3703E-03  5.7356E-04  2.7877E-03
 37  6.8003E-04  2.7968E-03  2.1446E-05  2.0700E-04  4.1715E-05  7.9936E-04  4.2274E-04  0.0000E+00  3.2347E-03
 38  0.0000E+00  9.2072E-03  0.0000E+00  8.3854E-03  8.2143E-03  8.2604E-03  1.0650E-02  7.3104E-03  1.8581E-03
 39  0.0000E+00  5.8326E-03  0.0000E+00  6.0978E-03  0.0000E+00  1.0706E-03  0.0000E+00  5.8553E-04  0.0000E+00
 40  1.0854E-03  1.0475E-02  2.0649E-02  7.2693E-03  0.0000E+00  5.4564E-03  3.9994E-03  3.5176E-03  2.6283E-02
 41  0.0000E+00  1.8988E-02  1.8208E-02  5.2404E-03  1.2515E-02  6.5711E-03  7.1790E-03  7.5115E-03  0.0000E+00
 42  0.0000E+00  3.3766E-02  6.0567E-02  3.3950E-02  6.7469E-03  3.2726E-02  8.0574E-03  2.3081E-03  0.0000E+00
 43  0.0000E+00  4.4781E-02  5.1574E-02  2.0132E-02  0.0000E+00  4.0820E-02  0.0000E+00  7.8838E-03  1.7947E-02
 44  8.6255E-02  7.3670E-02  3.1745E-01  2.7552E-02  0.0000E+00  5.3512E-02  4.0459E-02  1.2974E-02  2.3301E-01
 45  2.1455E-02  1.1097E-01  2.4031E-01  0.0000E+00  5.9979E-02  0.0000E+00  3.8587E-02  0.0000E+00  1.3789E-01
 46  0.0000E+00  2.9826E-01  2.6580E-02  3.3802E-01  9.9769E-02  9.3901E-02  7.4745E-02  0.0000E+00  3.4235E-01
 47  0.0000E+00  5.2724E-01  1.7995E+00  0.0000E+00  2.6595E-01  8.1388E-01  0.0000E+00  0.0000E+00  9.1868E-01
 48  0.0000E+00  8.2756E-01  6.8103E-01  6.7737E-01  0.0000E+00  3.3371E-02  0.0000E+00  0.0000E+00  0.0000E+00
 49  0.0000E+00  3.3266E+00  7.8521E-01  5.7513E+00  3.1511E+00  2.3873E+00  4.6514E+00  3.7555E+00  0.0000E+00
 50  2.9453E+01  4.8267E+00  1.9353E+01  7.7762E+00  7.5248E-01  0.0000E+00  1.4636E-01  6.7005E-01  6.8724E+00
 51  0.0000E+00  3.1241E-03  0.0000E+00  2.7456E-03  4.7847E-04  1.1066E-04  9.3810E-04  2.9423E-03  1.1467E-03
 52  6.5671E-03  1.4626E-03  9.8220E-04  9.3781E-05  2.6964E-04  0.0000E+00  4.4786E-04  7.3632E-05  5.3609E-03
 53  0.0000E+00  1.5412E-03  0.0000E+00  0.0000E+00  7.4296E-04  2.8995E-04  1.0881E-03  5.0160E-05  0.0000E+00
 54  3.4848E-04  2.9755E-03  8.6650E-03  2.7714E-03  0.0000E+00  6.2902E-04  1.5759E-03  1.6109E-03  3.2359E-03
 55  7.2583E-03  5.7613E-03  4.0511E-03  3.7882E-04  4.8074E-03  4.5402E-04  0.0000E+00  8.8519E-04  8.8770E-03
 56  0.0000E+00  4.0511E-02  0.0000E+00  2.1448E-02  4.1642E-02  4.4026E-02  4.3879E-02  4.4083E-02  1.4498E-02
 57  4.0566E-02  1.7160E-02  1.1952E-02  1.6802E-02  3.0571E-04  4.8115E-05  1.2265E-04  0.0000E+00  2.9696E-02
 58  0.0000E+00  3.3327E-02  0.0000E+00  0.0000E+00  6.2983E-03  1.3510E-02  2.6512E-02  2.5279E-02  5.6400E-02
 59  9.6746E-04  5.2209E-02  0.0000E+00  2.1257E-02  2.5529E-02  0.0000E+00  4.8241E-03  2.1382E-03  7.4137E-02
 60  0.0000E+00  1.1448E-01  0.0000E+00  0.0000E+00  0.0000E+00  7.3695E-02  1.6457E-02  0.0000E+00  3.7208E-01
 61  1.8880E-01  3.0002E-01  5.3115E-01  1.5756E-01  1.5647E-01  1.4339E-01  1.9136E-02  1.3415E-02  4.3514E-01
 62  0.0000E+00  3.8495E-01  0.0000E+00  3.3435E-01  4.6965E-01  2.7309E-01  3.4157E-01  0.0000E+00  4.7855E-01
 63  3.2434E-02  9.2269E-01  2.4025E+00  1.4261E-01  0.0000E+00  1.1942E+00  2.3934E-01  9.1660E-01  1.8145E+00
 64  0.0000E+00  9.2184E+00  2.6043E+00  9.1803E+00  1.3419E+01  9.8422E+00  1.1868E+01  1.1500E+01  3.5677E+00
 65  2.6889E+00  1.8032E+01  2.0847E+01  2.3698E+01  2.3427E+01  2.6702E+01  3.0780E+01  2.8281E+01  2.3980E+01
 66  5.9702E+01  4.0740E+01  2.6873E+01  3.1055E+01  4.6353E+01  4.5718E+01  4.3093E+01  4.7930E+01  3.2600E+01

# AV, chi2 & Mass for <> & i_chain = 1 ...  7 solutions
AV       0.0998      0.6865      0.9251      0.8160      0.6877      0.7689      0.7818      0.6729      0.7395
chi2 2.1151E-05  3.1257E-05  2.5119E-05  2.5879E-05  2.5952E-05  2.5915E-05  2.5692E-05  2.5913E-05  2.3999E-05
Mass 5.2768E-13  3.9035E-13  5.5733E-13  6.1148E-13  6.7377E-13  6.8673E-13  7.3763E-13  7.2446E-13  4.5815E-13
-294.64                                  [v0_min (km/s) before EX0s...]
 463.73                                  [vd_min (km/s) before EX0s...]


## Synthetic spectrum (Best Model) ##l_obs f_obs f_syn wei
 3478    [Nl_obs]
 3741.00    0.65418   0.65989    0.000
 3742.00    0.77636   0.65830    0.000
 3743.00    0.94529   0.65680    0.000
 3744.00    0.59313   0.65656    0.000
 3745.00   -0.06265   0.65929    0.000
 3746.00    0.55191   0.66379    0.037
 3747.00    1.81156   0.66920    0.037
 3748.00    2.02768   0.67712    0.037
 3749.00    1.78492   0.68484    0.038
 3750.00    1.07582   0.69260    0.037
 3751.00    0.19065   0.69988    0.036
 3752.00    0.68710   0.70786    0.037
 3753.00    1.62633   0.71568    0.037
 3754.00    1.37617   0.72205    0.036
 3755.00    0.80728   0.72760    0.034
 3756.00    0.54304   0.73082    0.034
 3757.00    0.34567   0.73165    0.034
 3758.00    0.13975   0.73105    0.034
 3759.00   -0.06766   0.73087    0.000
 3760.00    0.18075   0.72997    0.043
 3761.00    0.48971   0.72893    0.066
 3762.00   -0.08218   0.72896    0.000
 3763.00   -0.73685   0.72948    0.000
 3764.00   -0.85687   0.73000    0.000
 3765.00   -0.94603   0.73255    0.000
 3766.00   -0.05911   0.73858    0.000
 3767.00    0.84305   0.74561    0.032
 3768.00    0.78380   0.75377    0.032
 3769.00    0.71367   0.76390    0.031
 3770.00    0.37912   0.77533    0.031
 3771.00    0.10167   0.78693    0.031
 3772.00    0.57235   0.79851    0.031
 3773.00    0.94584   0.81092    0.031
 3774.00    0.46618   0.82211    0.030
 3775.00    0.03448   0.83056    0.030
 3776.00   -0.08617   0.83735    0.000
 3777.00   -0.02218   0.84181    0.000
 3778.00    0.97632   0.84416    0.030
 3779.00    1.73877   0.84290    0.031
 3780.00    1.53506   0.83847    0.031
 3781.00    1.35211   0.83223    0.032
 3782.00    1.23956   0.82271    0.032
 3783.00    1.07471   0.81152    0.032
 3784.00    0.76029   0.79869    0.032
 3785.00    0.60825   0.78534    0.032
 3786.00    0.85293   0.77070    0.032
 3787.00    1.13199   0.75504    0.033
 3788.00    1.48348   0.74080    0.035
 3789.00    1.43324   0.72768    0.035
 3790.00    0.64711   0.71692    0.033
 3791.00    0.24082   0.70759    0.032
 3792.00    0.44253   0.70131    0.032
 3793.00    0.91271   0.69828    0.032
 3794.00    1.75999   0.69834    0.033
 3795.00    1.74272   0.70186    0.032
 3796.00    0.65686   0.70798    0.031
 3797.00    0.14136   0.71738    0.030
 3798.00    0.24726   0.72760    0.030
 3799.00    0.71948   0.73881    0.031
 3800.00    1.54372   0.75062    0.032
 3801.00    1.60512   0.76250    0.032
 3802.00    1.02010   0.77383    0.031
 3803.00    0.38699   0.78329    0.030
 3804.00   -0.28201   0.79144    0.000
 3805.00   -0.36502   0.79685    0.000
 3806.00   -0.06389   0.79939    0.000
 3807.00    0.10503   0.79896    0.028
 3808.00    0.19808   0.79642    0.028
 3809.00    0.37637   0.79262    0.029
 3810.00    0.59726   0.78769    0.029
 3811.00    0.68588   0.78169    0.029
 3812.00    0.71731   0.77410    0.029
 3813.00    0.72687   0.76424    0.029
 3814.00    0.72832   0.75383    0.029
 3815.00    0.56139   0.74444    0.029
 3816.00    0.34153   0.73543    0.029
 3817.00    0.03663   0.72684    0.029
 3818.00   -0.29058   0.71761    0.000
 3819.00    0.11567   0.70800    0.028
 3820.00    0.67907   0.69693    0.028
 3821.00    0.64809   0.68576    0.029
 3822.00    0.51623   0.67625    0.029
 3823.00    0.03527   0.66646    0.029
 3824.00   -0.49049   0.65636    0.000
 3825.00    0.09756   0.64568    0.029
 3826.00    0.78560   0.63529    0.030
 3827.00    0.78384   0.62622    0.031
 3828.00    0.74502   0.61855    0.033
 3829.00    0.61381   0.61310    0.031
 3830.00    0.47958   0.61050    0.030
 3831.00    0.24595   0.61073    0.030
 3832.00    0.02523   0.61331    0.030
 3833.00    0.09126   0.61858    0.029
 3834.00    0.18386   0.62626    0.029
 3835.00    0.60677   0.63682    0.029
 3836.00    0.95677   0.65016    0.030
 3837.00    0.69051   0.66484    0.030
 3838.00    0.42789   0.68046    0.029
 3839.00    0.18812   0.69522    0.029
 3840.00    0.09773   0.71010    0.029
 3841.00    0.74444   0.72467    0.029
 3842.00    1.24321   0.73716    0.029
 3843.00    1.14978   0.74884    0.029
 3844.00    1.07670   0.75813    0.029
 3845.00    1.07127   0.76542    0.029
 3846.00    1.08503   0.77176    0.029
 3847.00    1.15268   0.77584    0.000
 3848.00    1.01609   0.77914    0.000
 3849.00    0.38891   0.78075    0.000
 3850.00   -0.01899   0.78108    0.000
 3851.00    0.02787   0.78197    0.000
 3852.00    0.18952   0.78214    0.000
 3853.00    0.55821   0.78259    0.000
 3854.00    0.72587   0.78195    0.000
 3855.00    0.57649   0.78142    0.000
 3856.00    0.43405   0.78179    0.000
 3857.00    0.30122   0.78193    0.000
 3858.00    0.24088   0.78317    0.000
 3859.00    0.26884   0.78322    0.000
 3860.00    0.40776   0.78246    0.000
 3861.00    0.66586   0.78147    0.000
 3862.00    0.71926   0.78142    0.000
 3863.00    0.57868   0.78191    0.000
 3864.00    0.76584   0.78092    0.000
 3865.00    1.22677   0.77900    0.000
 3866.00    1.33230   0.77579    0.000
 3867.00    1.17643   0.77264    0.000
 3868.00    1.02291   0.77008    0.000
 3869.00    0.87090   0.76728    0.000
 3870.00    0.76704   0.76351    0.000
 3871.00    0.69040   0.75802    0.000
 3872.00    0.73921   0.75156    0.000
 3873.00    0.84973   0.74548    0.000
 3874.00    0.85563   0.73871    0.000
 3875.00    0.81703   0.73152    0.000
 3876.00    0.75125   0.72426    0.000
 3877.00    0.67556   0.71532    0.000
 3878.00    0.97608   0.70695    0.000
 3879.00    1.39258   0.69956    0.000
 3880.00    1.25990   0.69412    0.000
 3881.00    0.98623   0.69042    0.027
 3882.00    0.84595   0.68607    0.027
 3883.00    0.73355   0.68449    0.026
 3884.00    0.61422   0.68614    0.027
 3885.00    0.49374   0.69107    0.027
 3886.00    0.43846   0.69820    0.027
 3887.00    0.39126   0.70563    0.026
 3888.00    0.65575   0.71617    0.026
 3889.00    0.94691   0.72710    0.027
 3890.00    0.89263   0.73967    0.027
 3891.00    0.82114   0.75352    0.027
 3892.00    1.16072   0.76714    0.027
 3893.00    1.49420   0.78150    0.027
 3894.00    0.99848   0.79259    0.027
 3895.00    0.53359   0.80415    0.026
 3896.00    0.69943   0.81500    0.026
 3897.00    0.85390   0.82583    0.026
 3898.00    0.87387   0.83726    0.026
 3899.00    0.85160   0.84473    0.025
 3900.00    0.48524   0.85298    0.025
 3901.00    0.22512   0.86061    0.024
 3902.00    0.61399   0.86804    0.024
 3903.00    0.93634   0.87572    0.024
 3904.00    0.93865   0.88067    0.023
 3905.00    0.92692   0.88567    0.023
 3906.00    0.86019   0.88903    0.023
 3907.00    0.81046   0.89035    0.023
 3908.00    0.81613   0.89199    0.024
 3909.00    0.87547   0.89132    0.024
 3910.00    1.08282   0.88828    0.025
 3911.00    1.17777   0.88416    0.025
 3912.00    1.00729   0.87759    0.025
 3913.00    0.87450   0.87091    0.026
 3914.00    0.81861   0.86222    0.026
 3915.00    0.75723   0.85158    0.026
 3916.00    0.68611   0.84098    0.027
 3917.00    0.48180   0.82840    0.027
 3918.00    0.07058   0.81691    0.026
 3919.00    0.03493   0.80433    0.026
 3920.00    0.51172   0.79094    0.026
 3921.00    0.92193   0.77789    0.026
 3922.00    1.25216   0.76397    0.027
 3923.00    1.36682   0.75246    0.027
 3924.00    1.25320   0.74104    0.026
 3925.00    1.08051   0.73096    0.025
 3926.00    0.85264   0.72278    0.026
 3927.00    0.90830   0.71495    0.026
 3928.00    1.19747   0.71052    0.026
 3929.00    1.35625   0.70815    0.026
 3930.00    1.42050   0.70848    0.026
 3931.00    1.26602   0.71194    0.026
 3932.00    0.97233   0.71659    0.026
 3933.00    0.61227   0.72383    0.026
 3934.00    0.21527   0.73277    0.026
 3935.00    0.15097   0.74332    0.026
 3936.00    0.24773   0.75571    0.025
 3937.00    0.70774   0.76807    0.026
 3938.00    1.31961   0.78059    0.027
 3939.00    1.38028   0.79309    0.027
 3940.00    1.24379   0.80527    0.027
 3941.00    0.90681   0.81741    0.026
 3942.00    0.50923   0.82862    0.026
 3943.00    0.65713   0.83754    0.026
 3944.00    0.94204   0.84455    0.027
 3945.00    1.13595   0.85063    0.027
 3946.00    1.31131   0.85529    0.026
 3947.00    1.29972   0.85782    0.027
 3948.00    1.25820   0.85639    0.027
 3949.00    1.09163   0.85205    0.027
 3950.00    0.91014   0.84671    0.027
 3951.00    0.84960   0.83816    0.027
 3952.00    0.79892   0.82532    0.027
 3953.00    1.05821   0.80971    0.027
 3954.00    1.33174   0.79272    0.027
 3955.00    1.11082   0.77453    0.027
 3956.00    0.88145   0.75356    0.026
 3957.00    0.53923   0.72954    0.027
 3958.00    0.22775   0.70644    0.027
 3959.00    0.49863   0.68582    0.027
 3960.00    0.72917   0.66608    0.000
 3961.00    0.50516   0.64786    0.000
 3962.00    0.29750   0.63192    0.000
 3963.00    0.21832   0.62057    0.000
 3964.00    0.14217   0.61513    0.000
 3965.00    0.08398   0.61375    0.000
 3966.00    0.00331   0.61754    0.000
 3967.00   -0.18293   0.62644    0.000
 3968.00   -0.29653   0.63994    0.000
 3969.00   -0.13174   0.65806    0.000
 3970.00    0.05227   0.67887    0.000
 3971.00    0.29771   0.70321    0.000
 3972.00    0.56202   0.72910    0.000
 3973.00    0.87748   0.75528    0.000
 3974.00    1.08618   0.78268    0.000
 3975.00    1.04702   0.80832    0.000
 3976.00    1.10579   0.83390    0.000
 3977.00    1.36126   0.85727    0.000
 3978.00    1.49333   0.87730    0.000
 3979.00    1.40955   0.89794    0.000
 3980.00    1.13312   0.91484    0.000
 3981.00    0.56176   0.93027    0.026
 3982.00    0.22059   0.94425    0.026
 3983.00    0.18900   0.95436    0.026
 3984.00    0.43208   0.96587    0.026
 3985.00    1.00043   0.97406    0.026
 3986.00    1.18933   0.98060    0.025
 3987.00    0.98202   0.98771    0.025
 3988.00    1.04716   0.99227    0.025
 3989.00    1.36324   0.99796    0.025
 3990.00    1.40784   1.00169    0.025
 3991.00    1.23201   1.00384    0.025
 3992.00    1.12525   1.00698    0.025
 3993.00    1.06784   1.00946    0.025
 3994.00    1.20854   1.01215    0.025
 3995.00    1.47347   1.01415    0.025
 3996.00    1.48375   1.01482    0.026
 3997.00    1.35447   1.01586    0.025
 3998.00    1.24659   1.01794    0.025
 3999.00    1.14889   1.02016    0.025
 4000.00    1.23247   1.02161    0.025
 4001.00    1.39054   1.02221    0.026
 4002.00    1.12201   1.02402    0.025
 4003.00    0.70363   1.02752    0.025
 4004.00    0.69955   1.03165    0.025
 4005.00    0.81822   1.03429    0.025
 4006.00    0.81302   1.03654    0.025
 4007.00    0.77740   1.04064    0.025
 4008.00    1.09190   1.04444    0.025
 4009.00    1.47602   1.04893    0.026
 4010.00    1.63915   1.05189    0.026
 4011.00    1.76795   1.05345    0.026
 4012.00    1.47769   1.05574    0.025
 4013.00    1.13926   1.05586    0.025
 4014.00    1.05541   1.05659    0.025
 4015.00    0.99125   1.05628    0.025
 4016.00    1.13886   1.05306    0.025
 4017.00    1.29538   1.05026    0.025
 4018.00    1.16661   1.04677    0.025
 4019.00    1.02997   1.04379    0.024
 4020.00    0.66282   1.04017    0.024
 4021.00    0.33996   1.03336    0.025
 4022.00    0.79775   1.02843    0.025
 4023.00    1.22368   1.02604    0.025
 4024.00    1.30678   1.02342    0.025
 4025.00    1.39895   1.02087    0.025
 4026.00    1.55999   1.01593    0.024
 4027.00    1.64725   1.01393    0.024
 4028.00    1.30896   1.01680    0.024
 4029.00    1.00000   1.01755    0.024
 4030.00    0.82549   1.01806    0.024
 4031.00    0.64287   1.01689    0.023
 4032.00    0.42982   1.01747    0.023
 4033.00    0.37193   1.02324    0.023
 4034.00    0.80048   1.02495    0.023
 4035.00    1.23543   1.02397    0.023
 4036.00    1.68740   1.02197    0.023
 4037.00    1.97889   1.02073    0.024
 4038.00    1.90395   1.02479    0.024
 4039.00    1.74740   1.02554    0.024
 4040.00    1.42951   1.02197    0.024
 4041.00    1.09063   1.01916    0.024
 4042.00    0.71559   1.01817    0.024
 4043.00    0.48523   1.02108    0.024
 4044.00    0.47315   1.02269    0.024
 4045.00    0.58975   1.02030    0.024
 4046.00    0.87693   1.01896    0.024
 4047.00    0.93372   1.01989    0.024
 4048.00    0.72151   1.02002    0.024
 4049.00    0.62949   1.01880    0.024
 4050.00    0.66120   1.01652    0.024
 4051.00    0.61301   1.01461    0.024
 4052.00    0.49228   1.01389    0.024
 4053.00    0.49102   1.00961    0.024
 4054.00    0.58539   1.00343    0.024
 4055.00    0.70870   1.00060    0.025
 4056.00    0.85238   1.00002    0.025
 4057.00    1.07023   0.99763    0.025
 4058.00    1.33390   0.99223    0.025
 4059.00    1.03650   0.98714    0.025
 4060.00    0.43636   0.98651    0.024
 4061.00    0.68823   0.98932    0.024
 4062.00    1.33940   0.98700    0.024
 4063.00    1.21249   0.98263    0.024
 4064.00    0.77122   0.98347    0.024
 4065.00    0.78276   0.98616    0.024
 4066.00    0.95043   0.98912    0.024
 4067.00    0.90368   0.98728    0.024
 4068.00    0.79467   0.98456    0.024
 4069.00    0.88204   0.99000    0.024
 4070.00    1.01659   0.99523    0.024
 4071.00    0.93007   0.99785    0.024
 4072.00    0.80071   0.99953    0.024
 4073.00    1.10503   1.00041    0.024
 4074.00    1.47470   1.00696    0.024
 4075.00    1.12506   1.01403    0.023
 4076.00    0.69586   1.01818    0.023
 4077.00    0.57157   1.02316    0.023
 4078.00    0.46960   1.02626    0.024
 4079.00    0.59873   1.03012    0.023
 4080.00    0.73669   1.03435    0.023
 4081.00    0.85969   1.03523    0.023
 4082.00    0.98536   1.03585    0.023
 4083.00    1.21447   1.03371    0.023
 4084.00    1.42653   1.02999    0.023
 4085.00    1.35777   1.02557    0.023
 4086.00    1.28306   1.01619    0.023
 4087.00    1.14703   1.00596    0.023
 4088.00    0.99956   0.99409    0.023
 4089.00    0.76802   0.98151    0.023
 4090.00    0.56827   0.96989    0.023
 4091.00    0.54686   0.95365    0.023
 4092.00    0.57346   0.93715    0.000
 4093.00    0.81489   0.92425    0.000
 4094.00    0.94928   0.91389    0.000
 4095.00    0.69052   0.90576    0.000
 4096.00    0.52724   0.89720    0.000
 4097.00    0.65765   0.88968    0.000
 4098.00    0.77276   0.88808    0.000
 4099.00    0.84791   0.89180    0.000
 4100.00    0.85392   0.89583    0.000
 4101.00    0.70466   0.90094    0.000
 4102.00    0.68346   0.90822    0.000
 4103.00    0.91142   0.91718    0.000
 4104.00    1.03579   0.92910    0.000
 4105.00    0.98436   0.93981    0.000
 4106.00    0.90728   0.94913    0.000
 4107.00    0.79207   0.95974    0.000
 4108.00    0.67494   0.96945    0.000
 4109.00    0.55532   0.97794    0.000
 4110.00    0.73922   0.98539    0.000
 4111.00    1.27250   0.99108    0.000
 4112.00    1.44326   0.99640    0.000
 4113.00    1.24602   1.00167    0.023
 4114.00    1.09303   1.00366    0.023
 4115.00    0.97966   1.00505    0.023
 4116.00    0.69228   1.00765    0.023
 4117.00    0.26761   1.00823    0.023
 4118.00    0.33944   1.00861    0.023
 4119.00    0.75583   1.00716    0.023
 4120.00    0.79327   1.00536    0.023
 4121.00    0.60011   1.00619    0.023
 4122.00    0.67031   1.00435    0.023
 4123.00    0.88042   1.00137    0.023
 4124.00    0.99035   0.99985    0.023
 4125.00    1.05408   0.99767    0.023
 4126.00    1.11582   0.99744    0.023
 4127.00    1.17676   0.99634    0.024
 4128.00    1.08447   0.99282    0.023
 4129.00    0.94031   0.99264    0.023
 4130.00    0.96354   0.99135    0.023
 4131.00    1.03440   0.99039    0.023
 4132.00    1.14645   0.99116    0.023
 4133.00    1.26818   0.98782    0.023
 4134.00    1.30647   0.98590    0.023
 4135.00    1.32901   0.98452    0.022
 4136.00    1.16989   0.98302    0.022
 4137.00    0.98424   0.98308    0.022
 4138.00    0.81593   0.97982    0.022
 4139.00    0.64947   0.97567    0.022
 4140.00    0.71093   0.97396    0.022
 4141.00    0.78816   0.97494    0.022
 4142.00    0.59922   0.97548    0.022
 4143.00    0.40111   0.97407    0.022
 4144.00    0.63272   0.97306    0.022
 4145.00    0.86250   0.97314    0.022
 4146.00    1.00321   0.97644    0.022
 4147.00    1.12693   0.97935    0.022
 4148.00    0.98799   0.98078    0.021
 4149.00    0.84264   0.98392    0.021
 4150.00    0.63415   0.98649    0.021
 4151.00    0.45653   0.99051    0.021
 4152.00    0.49817   0.99410    0.022
 4153.00    0.57483   0.99689    0.022
 4154.00    0.84272   1.00123    0.021
 4155.00    1.05257   1.00340    0.021
 4156.00    1.00880   1.00590    0.021
 4157.00    0.94822   1.00733    0.022
 4158.00    0.82719   1.00772    0.021
 4159.00    0.73263   1.00943    0.021
 4160.00    0.71798   1.00722    0.021
 4161.00    0.66560   1.00518    0.021
 4162.00    0.51633   1.00396    0.021
 4163.00    0.48890   0.99965    0.021
 4164.00    0.73064   0.99683    0.021
 4165.00    0.98409   0.99303    0.021
 4166.00    1.25998   0.98901    0.021
 4167.00    1.32685   0.98725    0.021
 4168.00    1.04441   0.98225    0.021
 4169.00    0.79104   0.97847    0.021
 4170.00    0.58027   0.97796    0.021
 4171.00    0.41868   0.97709    0.021
 4172.00    0.32043   0.97714    0.021
 4173.00    0.35881   0.97647    0.021
 4174.00    0.55225   0.97569    0.022
 4175.00    0.57304   0.97757    0.022
 4176.00    0.42106   0.98094    0.022
 4177.00    0.44929   0.98279    0.022
 4178.00    0.63661   0.98377    0.022
 4179.00    0.63656   0.98543    0.022
 4180.00    0.49080   0.98756    0.021
 4181.00    0.47670   0.99165    0.021
 4182.00    0.55265   0.99267    0.021
 4183.00    0.76590   0.99056    0.021
 4184.00    1.06144   0.99164    0.022
 4185.00    0.96477   0.99316    0.022
 4186.00    0.66295   0.99343    0.022
 4187.00    0.60280   0.99118    0.022
 4188.00    0.65228   0.98826    0.022
 4189.00    0.78747   0.98785    0.021
 4190.00    0.95610   0.98694    0.021
 4191.00    0.93095   0.98504    0.021
 4192.00    0.84145   0.98210    0.022
 4193.00    1.13587   0.98145    0.022
 4194.00    1.53729   0.98250    0.023
 4195.00    1.29245   0.98189    0.022
 4196.00    0.89935   0.98404    0.022
 4197.00    0.74234   0.98553    0.022
 4198.00    0.62872   0.98659    0.022
 4199.00    0.63103   0.99196    0.022
 4200.00    0.64973   0.99589    0.021
 4201.00    0.87035   1.00034    0.021
 4202.00    1.11157   1.00545    0.021
 4203.00    0.96711   1.00693    0.021
 4204.00    0.79752   1.01236    0.021
 4205.00    0.88187   1.01816    0.021
 4206.00    0.97362   1.01900    0.021
 4207.00    0.81469   1.02190    0.021
 4208.00    0.65856   1.02393    0.021
 4209.00    0.58458   1.02477    0.021
 4210.00    0.51908   1.02594    0.021
 4211.00    0.57714   1.02247    0.021
 4212.00    0.65312   1.02017    0.021
 4213.00    0.89847   1.02025    0.020
 4214.00    1.13706   1.01579    0.020
 4215.00    1.32919   1.00975    0.020
 4216.00    1.46750   1.00531    0.020
 4217.00    1.31977   1.00071    0.020
 4218.00    1.20388   0.99597    0.020
 4219.00    1.22394   0.99109    0.019
 4220.00    1.20354   0.98496    0.019
 4221.00    1.04053   0.98139    0.019
 4222.00    1.00622   0.98019    0.019
 4223.00    1.35299   0.97686    0.020
 4224.00    1.49426   0.97761    0.020
 4225.00    1.11696   0.98101    0.019
 4226.00    0.84692   0.98220    0.019
 4227.00    0.80999   0.98656    0.019
 4228.00    0.78679   0.99078    0.019
 4229.00    0.78950   0.99585    0.018
 4230.00    0.77788   1.00458    0.018
 4231.00    0.74268   1.01010    0.018
 4232.00    0.77285   1.01639    0.018
 4233.00    0.89737   1.02394    0.018
 4234.00    0.90534   1.02856    0.018
 4235.00    0.76532   1.03346    0.018
 4236.00    0.74325   1.03794    0.018
 4237.00    0.85313   1.04244    0.017
 4238.00    0.91615   1.04475    0.017
 4239.00    0.93294   1.04505    0.018
 4240.00    0.98504   1.04667    0.018
 4241.00    1.06789   1.04588    0.018
 4242.00    1.15471   1.04424    0.018
 4243.00    1.24457   1.04026    0.018
 4244.00    1.21369   1.03643    0.018
 4245.00    1.10144   1.03730    0.018
 4246.00    1.11152   1.03275    0.019
 4247.00    1.19381   1.02709    0.019
 4248.00    1.28175   1.02564    0.019
 4249.00    1.37261   1.02367    0.019
 4250.00    1.30698   1.02398    0.020
 4251.00    1.17153   1.02174    0.020
 4252.00    1.23269   1.02031    0.020
 4253.00    1.36923   1.02464    0.019
 4254.00    1.27382   1.02476    0.019
 4255.00    1.10281   1.02392    0.019
 4256.00    1.02175   1.02529    0.019
 4257.00    0.96525   1.02585    0.019
 4258.00    1.24696   1.02882    0.019
 4259.00    1.60447   1.02770    0.019
 4260.00    1.43801   1.02340    0.019
 4261.00    1.17784   1.02329    0.019
 4262.00    0.91444   1.02057    0.019
 4263.00    0.65060   1.01655    0.019
 4264.00    1.12979   1.01326    0.020
 4265.00    1.68156   1.00814    0.020
 4266.00    1.51809   1.00781    0.020
 4267.00    1.31087   1.00419    0.020
 4268.00    1.20200   0.99768    0.019
 4269.00    1.09595   0.99981    0.019
 4270.00    1.02312   0.99917    0.019
 4271.00    0.95413   0.99847    0.019
 4272.00    0.98651   1.00098    0.019
 4273.00    1.00790   0.99881    0.019
 4274.00    0.87820   1.00273    0.019
 4275.00    0.75853   1.00522    0.020
 4276.00    0.72995   1.00188    0.019
 4277.00    0.73032   1.00532    0.019
 4278.00    0.92345   1.00491    0.019
 4279.00    1.06797   1.00154    0.020
 4280.00    0.96079   1.00268    0.020
 4281.00    0.93611   0.99827    0.020
 4282.00    1.25577   0.99222   -2.000
 4283.00    1.45297   0.98958   -2.000
 4284.00    1.22740   0.98372   -2.000
 4285.00    1.01695   0.97835   -2.000
 4286.00    0.85040   0.97397   -2.000
 4287.00    0.72315   0.96395   -2.000
 4288.00    0.69335   0.95825   -2.000
 4289.00    0.67521   0.95454   -2.000
 4290.00    0.68202   0.94260   -2.000
 4291.00    0.71280   0.93523   -2.000
 4292.00    0.78810   0.92826   -2.000
 4293.00    0.92298   0.91814   -2.000
 4294.00    1.15446   0.91449   -2.000
 4295.00    1.24838   0.90511   -2.000
 4296.00    1.14660   0.89640   -2.000
 4297.00    0.95031   0.89618   -2.000
 4298.00    0.63572   0.89062    0.020
 4299.00    0.57612   0.88763    0.020
 4300.00    0.79777   0.88896    0.020
 4301.00    0.85183   0.88935    0.020
 4302.00    0.74283   0.89607    0.019
 4303.00    0.59709   0.90347    0.019
 4304.00    0.41984   0.91121    0.019
 4305.00    0.28753   0.92436    0.019
 4306.00    0.18919   0.93814    0.019
 4307.00    0.35662   0.95167    0.019
 4308.00    0.70055   0.96603    0.019
 4309.00    0.83062   0.98299    0.019
 4310.00    0.83632   0.99808    0.018
 4311.00    0.80765   1.00989    0.018
 4312.00    0.76157   1.02466    0.018
 4313.00    0.82370   1.03576    0.018
 4314.00    0.93332   1.04316    0.018
 4315.00    1.07853   1.05135    0.018
 4316.00    1.23715   1.05445    0.018
 4317.00    1.21293   1.05819    0.018
 4318.00    1.13026   1.06029    0.018
 4319.00    1.08894   1.05693    0.018
 4320.00    1.05868   1.05936    0.018
 4321.00    1.20893   1.06039    0.019
 4322.00    1.39868   1.05544    0.019
 4323.00    1.10662   1.05386    0.018
 4324.00    0.73074   1.05159    0.018
 4325.00    0.95112   1.04751    0.018
 4326.00    1.25036   1.04368    0.019
 4327.00    1.35051   1.03811    0.019
 4328.00    1.43206   1.03490    0.018
 4329.00    1.32027   1.03147    0.018
 4330.00    1.19743   1.02228    0.000
 4331.00    1.24693   1.01524    0.000
 4332.00    1.29758   1.01167    0.000
 4333.00    1.01906   1.00336    0.000
 4334.00    0.76540   0.99819    0.000
 4335.00    1.10873   0.99927    0.000
 4336.00    1.41980   0.99629    0.000
 4337.00    1.31102   0.99490    0.000
 4338.00    1.18813   0.99947    0.000
 4339.00    0.94197   1.00307    0.000
 4340.00    0.74077   1.00753    0.000
 4341.00    0.82996   1.01383    0.000
 4342.00    0.92984   1.02291    0.000
 4343.00    1.08369   1.03471    0.000
 4344.00    1.22307   1.04023    0.000
 4345.00    1.30336   1.04606    0.000
 4346.00    1.35011   1.06073    0.000
 4347.00    1.28338   1.07106    0.000
 4348.00    1.25249   1.07555    0.000
 4349.00    1.32389   1.08537    0.000
 4350.00    1.33378   1.09750    0.000
 4351.00    1.19369   1.10497    0.018
 4352.00    1.06275   1.10871    0.018
 4353.00    0.95105   1.11543    0.018
 4354.00    0.87222   1.12629    0.018
 4355.00    0.85347   1.13260    0.019
 4356.00    0.87390   1.13408    0.018
 4357.00    0.95694   1.13956    0.018
 4358.00    1.06588   1.14639    0.018
 4359.00    1.21115   1.14715    0.018
 4360.00    1.25780   1.14442    0.018
 4361.00    1.18276   1.14428    0.018
 4362.00    1.20928   1.14565    0.019
 4363.00    1.34623   1.14201    0.019
 4364.00    1.40791   1.13579    0.019
 4365.00    1.39738   1.13219    0.019
 4366.00    1.26838   1.12752    0.019
 4367.00    1.03918   1.11934    0.019
 4368.00    0.83914   1.10983    0.019
 4369.00    0.66081   1.10212    0.019
 4370.00    0.63882   1.09648    0.018
 4371.00    0.71911   1.08853    0.018
 4372.00    0.79574   1.07831    0.018
 4373.00    0.87027   1.06948    0.018
 4374.00    0.95723   1.06280    0.018
 4375.00    1.05040   1.05493    0.018
 4376.00    1.25405   1.04479    0.018
 4377.00    1.50538   1.03742    0.019
 4378.00    1.34815   1.03510    0.019
 4379.00    1.03975   1.03424    0.019
 4380.00    1.08990   1.03029    0.019
 4381.00    1.25249   1.02847    0.019
 4382.00    1.23516   1.03219    0.018
 4383.00    1.17076   1.03416    0.018
 4384.00    0.98920   1.03629    0.018
 4385.00    0.78260   1.04147    0.018
 4386.00    0.70297   1.04809    0.018
 4387.00    0.64481   1.05574    0.018
 4388.00    0.82616   1.05978    0.018
 4389.00    1.03810   1.06586    0.018
 4390.00    1.01608   1.07448    0.018
 4391.00    0.97317   1.07729    0.018
 4392.00    0.93195   1.08153    0.018
 4393.00    0.89082   1.08462    0.018
 4394.00    1.13851   1.08369    0.018
 4395.00    1.38804   1.08832    0.018
 4396.00    1.32758   1.08949    0.018
 4397.00    1.25862   1.08514    0.018
 4398.00    1.00280   1.08614    0.018
 4399.00    0.78895   1.08839    0.018
 4400.00    1.09366   1.08908    0.018
 4401.00    1.35901   1.08832    0.018
 4402.00    1.29318   1.08892    0.018
 4403.00    1.21715   1.09567    0.018
 4404.00    1.07712   1.09797    0.018
 4405.00    0.95866   1.09717    0.019
 4406.00    0.94630   1.10487    0.018
 4407.00    0.98180   1.11002    0.018
 4408.00    1.20834   1.11093    0.018
 4409.00    1.33340   1.11690    0.018
 4410.00    1.12193   1.12256    0.018
 4411.00    0.94965   1.12767    0.018
 4412.00    0.88712   1.13111    0.018
 4413.00    0.88720   1.13326    0.018
 4414.00    1.03734   1.13932    0.018
 4415.00    1.12557   1.14010    0.018
 4416.00    1.08570   1.13881    0.018
 4417.00    1.02965   1.14319    0.018
 4418.00    0.94447   1.14469    0.018
 4419.00    0.98430   1.14412    0.018
 4420.00    1.22090   1.14346    0.018
 4421.00    1.30359   1.14457    0.018
 4422.00    1.17358   1.14667    0.018
 4423.00    1.08523   1.14234    0.018
 4424.00    1.04755   1.14167    0.018
 4425.00    1.06808   1.14438    0.018
 4426.00    1.15102   1.14193    0.018
 4427.00    1.11437   1.14231    0.018
 4428.00    0.96462   1.14239    0.018
 4429.00    0.95905   1.14310    0.018
 4430.00    1.07372   1.14739    0.018
 4431.00    1.10234   1.14631    0.018
 4432.00    1.06777   1.14837    0.018
 4433.00    1.08301   1.15392    0.019
 4434.00    1.13036   1.15336    0.019
 4435.00    1.13407   1.15673    0.019
 4436.00    1.11315   1.16115    0.019
 4437.00    1.12141   1.16080    0.019
 4438.00    1.14399   1.16613    0.019
 4439.00    1.11712   1.16945    0.018
 4440.00    1.06927   1.16656    0.018
 4441.00    1.10850   1.16972    0.018
 4442.00    1.17937   1.17055    0.018
 4443.00    0.82256   1.16593    0.018
 4444.00    0.33424   1.16525    0.018
 4445.00    0.52159   1.16114    0.018
 4446.00    0.88192   1.15652    0.018
 4447.00    0.93693   1.15463    0.018
 4448.00    0.92831   1.14572    0.018
 4449.00    0.93555   1.14025    0.018
 4450.00    0.94541   1.13982    0.018
 4451.00    1.02301   1.13070    0.018
 4452.00    1.10896   1.12434    0.018
 4453.00    1.24774   1.12581    0.018
 4454.00    1.39102   1.12156    0.018
 4455.00    1.30303   1.11750    0.017
 4456.00    1.20362   1.11960    0.017
 4457.00    1.05776   1.12090    0.017
 4458.00    0.91421   1.12272    0.017
 4459.00    0.96228   1.12541    0.017
 4460.00    1.01194   1.12922    0.017
 4461.00    1.09390   1.13628    0.000
 4462.00    1.16579   1.14112    0.000
 4463.00    1.11945   1.14655    0.000
 4464.00    1.07938   1.15585    0.000
 4465.00    1.09030   1.16219    0.000
 4466.00    1.10213   1.16813    0.000
 4467.00    1.11952   1.17667    0.000
 4468.00    1.15138   1.18369    0.000
 4469.00    1.25269   1.18909    0.000
 4470.00    1.30992   1.19413    0.000
 4471.00    1.19499   1.19963    0.000
 4472.00    1.13269   1.20391    0.000
 4473.00    1.24146   1.20722    0.000
 4474.00    1.34952   1.21134    0.000
 4475.00    1.45560   1.21387    0.000
 4476.00    1.49785   1.21570    0.000
 4477.00    1.38970   1.21761    0.000
 4478.00    1.27188   1.21828    0.000
 4479.00    1.13437   1.21883    0.000
 4480.00    1.05577   1.21842    0.000
 4481.00    1.08161   1.21809    0.000
 4482.00    1.10883   1.21945    0.017
 4483.00    1.13821   1.21884    0.017
 4484.00    1.18726   1.21758    0.018
 4485.00    1.26308   1.21892    0.017
 4486.00    1.20982   1.21961    0.017
 4487.00    1.00179   1.22066    0.017
 4488.00    0.96582   1.22330    0.017
 4489.00    1.11175   1.22562    0.017
 4490.00    1.22706   1.22955    0.017
 4491.00    1.31381   1.23247    0.017
 4492.00    1.31618   1.23607    0.017
 4493.00    1.24920   1.24427    0.017
 4494.00    1.20123   1.24953    0.017
 4495.00    1.16700   1.25393    0.017
 4496.00    1.14528   1.26191    0.017
 4497.00    1.13152   1.26742    0.017
 4498.00    1.14122   1.27243    0.017
 4499.00    1.16397   1.27778    0.017
 4500.00    1.25890   1.28199    0.017
 4501.00    1.38871   1.28657    0.017
 4502.00    1.38325   1.28749    0.017
 4503.00    1.32135   1.28848    0.017
 4504.00    1.40587   1.29022    0.017
 4505.00    1.54263   1.28773    0.017
 4506.00    1.68263   1.28668    0.017
 4507.00    1.82360   1.28451    0.017
 4508.00    1.79261   1.28001    0.017
 4509.00    1.71855   1.27701    0.017
 4510.00    1.41798   1.27105    0.017
 4511.00    1.07137   1.26676    0.017
 4512.00    1.17147   1.26146    0.017
 4513.00    1.34282   1.25208    0.017
 4514.00    1.47106   1.24812    0.017
 4515.00    1.59417   1.24071    0.017
 4516.00    1.51455   1.23020    0.017
 4517.00    1.41853   1.22557    0.017
 4518.00    1.47466   1.21613    0.017
 4519.00    1.53771   1.20722    0.017
 4520.00    1.53099   1.20267    0.017
 4521.00    1.52074   1.19334    0.017
 4522.00    1.37410   1.18770    0.017
 4523.00    1.23130   1.18358    0.017
 4524.00    1.16048   1.17734    0.017
 4525.00    1.09755   1.17541    0.017
 4526.00    1.12305   1.17318    0.017
 4527.00    1.15644   1.17264    0.017
 4528.00    1.25161   1.17388    0.017
 4529.00    1.31798   1.17427    0.017
 4530.00    1.21409   1.17843    0.017
 4531.00    1.12973   1.18091    0.017
 4532.00    1.13680   1.18362    0.017
 4533.00    1.14128   1.19014    0.017
 4534.00    1.13588   1.19297    0.017
 4535.00    1.11913   1.19689    0.017
 4536.00    1.06616   1.20113    0.017
 4537.00    1.06199   1.20311    0.017
 4538.00    1.18972   1.20869    0.017
 4539.00    1.26843   1.20901    0.017
 4540.00    1.23357   1.20949    0.017
 4541.00    1.26758   1.21599    0.017
 4542.00    1.43966   1.21454    0.017
 4543.00    1.49149   1.21508    0.017
 4544.00    1.33339   1.22058    0.017
 4545.00    1.27125   1.21912    0.017
 4546.00    1.35573   1.22190    0.016
 4547.00    1.40307   1.22661    0.016
 4548.00    1.40056   1.22707    0.017
 4549.00    1.36097   1.23241    0.017
 4550.00    1.27755   1.23501    0.000
 4551.00    1.27865   1.23728    0.000
 4552.00    1.36785   1.24457    0.000
 4553.00    1.49004   1.24571    0.000
 4554.00    1.64257   1.24943    0.000
 4555.00    1.66136   1.25587    0.000
 4556.00    1.57177   1.25616    0.000
 4557.00    1.44033   1.26125    0.000
 4558.00    1.27903   1.26389    0.000
 4559.00    1.24484   1.26289    0.000
 4560.00    1.29021   1.26950    0.000
 4561.00    1.32993   1.26913    0.000
 4562.00    1.36658   1.26722    0.000
 4563.00    1.36767   1.27303    0.000
 4564.00    1.35186   1.26990    0.000
 4565.00    1.37668   1.26824    0.000
 4566.00    1.41815   1.27181    0.000
 4567.00    1.40243   1.26649    0.000
 4568.00    1.36666   1.26576    0.000
 4569.00    1.31612   1.26689    0.000
 4570.00    1.26122   1.26033    0.000
 4571.00    1.36351   1.26092    0.000
 4572.00    1.50431   1.26017    0.000
 4573.00    1.47381   1.25261    0.000
 4574.00    1.40937   1.25385    0.000
 4575.00    1.30168   1.25249    0.000
 4576.00    1.18729   1.24561    0.000
 4577.00    1.29693   1.24759    0.000
 4578.00    1.43220   1.24660    0.000
 4579.00    1.32268   1.24112    0.000
 4580.00    1.19437   1.24322    0.000
 4581.00    1.14139   1.24218    0.000
 4582.00    1.09154   1.23856    0.000
 4583.00    1.27474   1.24129    0.000
 4584.00    1.45197   1.23930    0.000
 4585.00    1.28636   1.23663    0.000
 4586.00    1.13113   1.24035    0.000
 4587.00    1.15721   1.23785    0.000
 4588.00    1.19382   1.23598    0.000
 4589.00    1.34318   1.23945    0.000
 4590.00    1.46132   1.23681    0.000
 4591.00    1.34345   1.23694    0.000
 4592.00    1.25506   1.24064    0.000
 4593.00    1.33602   1.23929    0.000
 4594.00    1.40873   1.24174    0.000
 4595.00    1.44372   1.24572    0.000
 4596.00    1.45757   1.24646    0.000
 4597.00    1.39235   1.25110    0.000
 4598.00    1.36926   1.25607    0.000
 4599.00    1.47794   1.25959    0.000
 4600.00    1.53452   1.26490    0.000
 4601.00    1.45282   1.27056    0.000
 4602.00    1.40632   1.27641    0.000
 4603.00    1.44004   1.28067    0.000
 4604.00    1.47322   1.28652    0.000
 4605.00    1.50534   1.29317    0.000
 4606.00    1.49713   1.29498    0.000
 4607.00    1.41959   1.30077    0.000
 4608.00    1.42038   1.30683    0.000
 4609.00    1.53910   1.30600    0.000
 4610.00    1.56471   1.31108    0.000
 4611.00    1.46712   1.31510    0.000
 4612.00    1.43146   1.31299    0.000
 4613.00    1.46798   1.31729    0.000
 4614.00    1.58993   1.31818    0.000
 4615.00    1.79967   1.31533    0.000
 4616.00    1.83886   1.31868    0.000
 4617.00    1.72345   1.31671    0.000
 4618.00    1.63327   1.31344    0.000
 4619.00    1.56323   1.31570    0.000
 4620.00    1.36949   1.31187    0.000
 4621.00    1.08879   1.30754    0.000
 4622.00    1.14654   1.30796    0.000
 4623.00    1.41296   1.30332    0.000
 4624.00    1.51266   1.29725    0.000
 4625.00    1.52258   1.29565    0.000
 4626.00    1.52014   1.29132    0.000
 4627.00    1.51192   1.28345    0.000
 4628.00    1.53434   1.27958    0.000
 4629.00    1.56912   1.27569    0.000
 4630.00    1.63046   1.26686    0.000
 4631.00    1.70094   1.26174    0.000
 4632.00    1.70967   1.25800    0.000
 4633.00    1.70051   1.24957    0.000
 4634.00    1.65082   1.24483    0.000
 4635.00    1.59142   1.24077    0.000
 4636.00    1.47713   1.23404    0.000
 4637.00    1.35225   1.23152    0.000
 4638.00    1.35820   1.22713    0.000
 4639.00    1.38378   1.22293    0.000
 4640.00    1.35880   1.22393    0.000
 4641.00    1.32825   1.22035    0.000
 4642.00    1.41091   1.21900    0.000
 4643.00    1.50180   1.22298    0.000
 4644.00    1.47352   1.22101    0.000
 4645.00    1.44074   1.22252    0.000
 4646.00    1.39331   1.22821    0.000
 4647.00    1.34414   1.22774    0.000
 4648.00    1.23306   1.23075    0.000
 4649.00    1.13361   1.23596    0.000
 4650.00    1.22445   1.23598    0.000
 4651.00    1.30563   1.23889    0.000
 4652.00    1.28795   1.24193    0.000
 4653.00    1.28826   1.24103    0.000
 4654.00    1.41998   1.24247    0.000
 4655.00    1.53049   1.24259    0.000
 4656.00    1.52243   1.23987    0.000
 4657.00    1.49581   1.23952    0.000
 4658.00    1.38634   1.23763    0.000
 4659.00    1.29279   1.23347    0.000
 4660.00    1.25754   1.23226    0.000
 4661.00    1.22747   1.23029    0.000
 4662.00    1.21328   1.22625    0.000
 4663.00    1.19456   1.22577    0.000
 4664.00    1.16401   1.22524    0.000
 4665.00    1.19063   1.22231    0.000
 4666.00    1.34540   1.22329    0.000
 4667.00    1.44900   1.22449    0.000
 4668.00    1.45323   1.22286    0.000
 4669.00    1.42099   1.22499    0.000
 4670.00    1.32699   1.22727    0.000
 4671.00    1.33001   1.22640    0.000
 4672.00    1.47698   1.22870    0.000
 4673.00    1.52307   1.23117    0.000
 4674.00    1.43758   1.23051    0.000
 4675.00    1.40251   1.23235    0.000
 4676.00    1.42538   1.23435    0.000
 4677.00    1.46339   1.23346    0.000
 4678.00    1.51674   1.23499    0.000
 4679.00    1.49536   1.23647    0.000
 4680.00    1.40719   1.23499    0.000
 4681.00    1.39667   1.23640    0.000
 4682.00    1.44731   1.23761    0.000
 4683.00    1.48656   1.23552    0.000
 4684.00    1.51790   1.23670    0.000
 4685.00    1.42047   1.23753    0.000
 4686.00    1.24483   1.23471    0.000
 4687.00    1.29605   1.23512    0.000
 4688.00    1.46756   1.23528    0.000
 4689.00    1.43275   1.23210    0.000
 4690.00    1.30301   1.23131    0.000
 4691.00    1.26967   1.23062    0.000
 4692.00    1.27451   1.22758    0.000
 4693.00    1.32532   1.22564    0.000
 4694.00    1.39164   1.22454    0.000
 4695.00    1.37072   1.22240    0.000
 4696.00    1.32506   1.22012    0.000
 4697.00    1.28703   1.21971    0.000
 4698.00    1.25080   1.21915    0.000
 4699.00    1.20573   1.21755    0.000
 4700.00    1.15899   1.21894    0.000
 4701.00    1.28385   1.22035    0.000
 4702.00    1.43367   1.22038    0.000
 4703.00    1.27916   1.22424    0.000
 4704.00    1.09249   1.22742    0.000
 4705.00    1.05349   1.22936    0.000
 4706.00    1.02463   1.23544    0.000
 4707.00    1.17972   1.23973    0.000
 4708.00    1.34108   1.24330    0.000
 4709.00    1.32274   1.25052    0.000
 4710.00    1.30406   1.25475    0.000
 4711.00    1.28353   1.25854    0.000
 4712.00    1.26217   1.26516    0.000
 4713.00    1.22830   1.26829    0.000
 4714.00    1.19113   1.27066    0.000
 4715.00    1.12161   1.27491    0.000
 4716.00    1.08211   1.27614    0.000
 4717.00    1.25490   1.27604    0.000
 4718.00    1.42251   1.27750    0.000
 4719.00    1.56193   1.27699    0.000
 4720.00    1.65352   1.27423    0.000
 4721.00    1.53669   1.27381    0.000
 4722.00    1.42520   1.27276    0.000
 4723.00    1.33289   1.26841    0.000
 4724.00    1.27791   1.26814    0.000
 4725.00    1.33531   1.26820    0.000
 4726.00    1.36424   1.26360    0.000
 4727.00    1.32026   1.26516    0.000
 4728.00    1.30107   1.26736    0.000
 4729.00    1.33656   1.26363    0.000
 4730.00    1.34312   1.26762    0.000
 4731.00    1.29440   1.27176    0.000
 4732.00    1.26857   1.26925    0.000
 4733.00    1.28093   1.27507    0.000
 4734.00    1.31091   1.27994    0.000
 4735.00    1.36665   1.27825    0.000
 4736.00    1.33677   1.28457    0.000
 4737.00    1.19682   1.28877    0.000
 4738.00    1.18367   1.28725    0.000
 4739.00    1.31415   1.29262    0.000
 4740.00    1.28405   1.29502    0.000
 4741.00    1.09351   1.29311    0.000
 4742.00    1.07381   1.29649    0.000
 4743.00    1.20463   1.29656    0.000
 4744.00    1.30101   1.29382    0.000
 4745.00    1.37064   1.29476    0.000
 4746.00    1.42333   1.29272    0.000
 4747.00    1.46445   1.28916    0.000
 4748.00    1.40771   1.28773    0.000
 4749.00    1.29242   1.28429    0.000
 4750.00    1.26768   1.28045    0.000
 4751.00    1.29022   1.27723    0.000
 4752.00    1.34493   1.27327    0.000
 4753.00    1.41420   1.27001    0.000
 4754.00    1.32135   1.26612    0.000
 4755.00    1.16537   1.26265    0.000
 4756.00    1.26893   1.26091    0.000
 4757.00    1.45849   1.25762    0.000
 4758.00    1.44032   1.25556    0.000
 4759.00    1.36440   1.25607    0.000
 4760.00    1.25557   1.25442    0.000
 4761.00    1.13920   1.25430    0.015
 4762.00    1.17532   1.25704    0.015
 4763.00    1.23936   1.25737    0.015
 4764.00    1.17571   1.25903    0.015
 4765.00    1.09407   1.26313    0.015
 4766.00    1.31422   1.26471    0.015
 4767.00    1.56497   1.26734    0.015
 4768.00    1.36972   1.27147    0.015
 4769.00    1.14564   1.27285    0.015
 4770.00    1.23424   1.27525    0.015
 4771.00    1.33218   1.27850    0.015
 4772.00    1.37359   1.27836    0.015
 4773.00    1.41144   1.27960    0.015
 4774.00    1.34646   1.28212    0.015
 4775.00    1.28625   1.28016    0.015
 4776.00    1.29492   1.28003    0.015
 4777.00    1.31161   1.28287    0.015
 4778.00    1.40375   1.27996    0.015
 4779.00    1.46965   1.27897    0.015
 4780.00    1.35591   1.28328    0.015
 4781.00    1.27667   1.28081    0.015
 4782.00    1.38021   1.27970    0.015
 4783.00    1.46033   1.28576    0.015
 4784.00    1.44073   1.28476    0.015
 4785.00    1.38171   1.28389    0.014
 4786.00    1.18418   1.29086    0.014
 4787.00    1.04618   1.29142    0.014
 4788.00    1.08407   1.29058    0.014
 4789.00    1.10613   1.29697    0.014
 4790.00    1.08837   1.29843    0.014
 4791.00    1.12280   1.29709    0.014
 4792.00    1.27040   1.30174    0.014
 4793.00    1.34869   1.30332    0.014
 4794.00    1.29651   1.30117    0.014
 4795.00    1.27513   1.30380    0.014
 4796.00    1.30436   1.30523    0.014
 4797.00    1.32102   1.30243    0.014
 4798.00    1.31957   1.30360    0.015
 4799.00    1.34839   1.30513    0.015
 4800.00    1.41554   1.30229    0.015
 4801.00    1.44698   1.30285    0.015
 4802.00    1.43853   1.30494    0.015
 4803.00    1.40267   1.30268    0.015
 4804.00    1.33982   1.30313    0.015
 4805.00    1.34981   1.30597    0.015
 4806.00    1.42308   1.30452    0.014
 4807.00    1.42541   1.30479    0.014
 4808.00    1.37347   1.30809    0.014
 4809.00    1.35286   1.30707    0.014
 4810.00    1.35334   1.30662    0.015
 4811.00    1.33675   1.30976    0.014
 4812.00    1.31010   1.30840    0.014
 4813.00    1.38079   1.30671    0.014
 4814.00    1.50148   1.30919    0.014
 4815.00    1.42069   1.30684    0.014
 4816.00    1.25019   1.30387    0.014
 4817.00    1.23769   1.30555    0.014
 4818.00    1.28562   1.30211    0.014
 4819.00    1.28504   1.29837    0.014
 4820.00    1.26869   1.29950    0.014
 4821.00    1.38173   1.29540    0.014
 4822.00    1.53000   1.29163    0.014
 4823.00    1.53184   1.29251    0.014
 4824.00    1.50096   1.28844    0.014
 4825.00    1.39330   1.28516    0.014
 4826.00    1.27195   1.28576    0.014
 4827.00    1.33334   1.28235    0.014
 4828.00    1.41962   1.27970    0.014
 4829.00    1.38889   1.27955    0.014
 4830.00    1.34679   1.27712    0.014
 4831.00    1.32939   1.27500    0.014
 4832.00    1.31348   1.27339    0.014
 4833.00    1.37378   1.27184    0.014
 4834.00    1.43480   1.27000    0.014
 4835.00    1.26183   1.26616    0.014
 4836.00    1.09773   1.26492    0.014
 4837.00    1.16528   1.26297    0.014
 4838.00    1.23675   1.25613    0.014
 4839.00    1.36181   1.25428    0.014
 4840.00    1.46251   1.25164    0.014
 4841.00    1.34296   1.24114    0.014
 4842.00    1.25403   1.23755    0.014
 4843.00    1.36824   1.23382    0.014
 4844.00    1.43955   1.21945    0.014
 4845.00    1.28950   1.21330    0.014
 4846.00    1.14648   1.20882    0.014
 4847.00    1.03269   1.19143    0.014
 4848.00    0.96729   1.18274    0.000
 4849.00    1.06854   1.17883    0.000
 4850.00    1.17072   1.16080    0.000
 4851.00    1.27563   1.15072    0.000
 4852.00    1.34855   1.14929    0.000
 4853.00    1.34227   1.13411    0.000
 4854.00    1.32558   1.12453    0.000
 4855.00    1.28665   1.12701    0.000
 4856.00    1.20837   1.11803    0.000
 4857.00    1.05715   1.11088    0.000
 4858.00    0.98786   1.11715    0.000
 4859.00    1.05119   1.11613    0.000
 4860.00    1.09444   1.11266    0.000
 4861.00    1.10917   1.12081    0.000
 4862.00    1.09386   1.12721    0.000
 4863.00    1.04101   1.12794    0.000
 4864.00    1.04548   1.13535    0.000
 4865.00    1.11306   1.14650    0.000
 4866.00    1.14172   1.15133    0.000
 4867.00    1.13258   1.15601    0.000
 4868.00    1.14701   1.16815    0.000
 4869.00    1.18161   1.17637    0.000
 4870.00    1.21071   1.17788    0.000
 4871.00    1.23565   1.18747    0.000
 4872.00    1.16364   1.19777    0.000
 4873.00    1.02736   1.19715    0.000
 4874.00    0.96180   1.20206    0.000
 4875.00    0.93730   1.21292    0.014
 4876.00    1.05612   1.21216    0.014
 4877.00    1.24743   1.21228    0.014
 4878.00    1.21825   1.22273    0.014
 4879.00    1.09253   1.22394    0.014
 4880.00    1.12073   1.22098    0.014
 4881.00    1.20679   1.23095    0.014
 4882.00    1.19464   1.23559    0.014
 4883.00    1.15117   1.23180    0.014
 4884.00    1.20092   1.24165    0.014
 4885.00    1.27553   1.24989    0.014
 4886.00    1.24099   1.24680    0.014
 4887.00    1.18263   1.25643    0.014
 4888.00    1.06069   1.26696    0.014
 4889.00    0.92773   1.26472    0.014
 4890.00    1.05959   1.27302    0.014
 4891.00    1.22632   1.28373    0.014
 4892.00    1.22729   1.28166    0.014
 4893.00    1.21286   1.28707    0.014
 4894.00    1.35952   1.29585    0.014
 4895.00    1.51531   1.29342    0.014
 4896.00    1.45586   1.29488    0.014
 4897.00    1.39157   1.30032    0.014
 4898.00    1.33532   1.29747    0.014
 4899.00    1.28664   1.29511    0.014
 4900.00    1.41768   1.29670    0.015
 4901.00    1.53960   1.29349    0.015
 4902.00    1.54378   1.28839    0.015
 4903.00    1.54247   1.28644    0.015
 4904.00    1.49343   1.28283    0.014
 4905.00    1.43327   1.27674    0.014
 4906.00    1.30162   1.27252    0.014
 4907.00    1.21812   1.26817    0.014
 4908.00    1.37678   1.26256    0.014
 4909.00    1.48597   1.25831    0.015
 4910.00    1.39378   1.25332    0.015
 4911.00    1.30159   1.24914    0.015
 4912.00    1.20939   1.24754    0.014
 4913.00    1.15976   1.24281    0.014
 4914.00    1.23134   1.24058    0.014
 4915.00    1.29519   1.24368    0.014
 4916.00    1.34026   1.24024    0.014
 4917.00    1.35670   1.23967    0.014
 4918.00    1.31304   1.24794    0.014
 4919.00    1.28622   1.24618    0.014
 4920.00    1.29012   1.24595    0.014
 4921.00    1.25881   1.25796    0.014
 4922.00    1.17135   1.25773    0.014
 4923.00    1.13366   1.25666    0.014
 4924.00    1.16564   1.26947    0.014
 4925.00    1.23529   1.26963    0.014
 4926.00    1.35134   1.26748    0.014
 4927.00    1.39848   1.27931    0.014
 4928.00    1.37080   1.27907    0.014
 4929.00    1.36335   1.27635    0.014
 4930.00    1.37526   1.28707    0.014
 4931.00    1.39353   1.28662    0.014
 4932.00    1.41716   1.28406    0.014
 4933.00    1.36872   1.29415    0.014
 4934.00    1.26669   1.29424    0.014
 4935.00    1.24320   1.29227    0.014
 4936.00    1.27100   1.30187    0.014
 4937.00    1.26866   1.30284    0.014
 4938.00    1.24909   1.30117    0.014
 4939.00    1.33201   1.30936    0.014
 4940.00    1.46595   1.31018    0.000
 4941.00    1.44554   1.30800    0.000
 4942.00    1.35866   1.31379    0.000
 4943.00    1.39677   1.31261    0.000
 4944.00    1.48102   1.30910    0.000
 4945.00    1.43840   1.31269    0.000
 4946.00    1.35608   1.30838    0.000
 4947.00    1.33093   1.30261    0.000
 4948.00    1.32069   1.30506    0.000
 4949.00    1.30164   1.29989    0.000
 4950.00    1.28071   1.29264    0.000
 4951.00    1.29729   1.29354    0.000
 4952.00    1.32020   1.28934    0.000
 4953.00    1.28398   1.28260    0.000
 4954.00    1.24025   1.28217    0.000
 4955.00    1.33269   1.28001    0.000
 4956.00    1.43720   1.27537    0.000
 4957.00    1.46869   1.27414    0.000
 4958.00    1.49633   1.27402    0.000
 4959.00    1.53732   1.27167    0.000
 4960.00    1.57772   1.27020    0.000
 4961.00    1.55227   1.27094    0.000
 4962.00    1.52528   1.26973    0.000
 4963.00    1.46506   1.26846    0.000
 4964.00    1.40556   1.26849    0.000
 4965.00    1.35505   1.26651    0.000
 4966.00    1.30700   1.26567    0.000
 4967.00    1.27953   1.26416    0.000
 4968.00    1.24907   1.25967    0.000
 4969.00    1.19994   1.25895    0.000
 4970.00    1.18480   1.25665    0.000
 4971.00    1.33638   1.24918    0.000
 4972.00    1.47623   1.24793    0.000
 4973.00    1.56937   1.24670    0.000
 4974.00    1.61588   1.23767    0.000
 4975.00    1.50815   1.23541    0.000
 4976.00    1.40960   1.23648    0.000
 4977.00    1.33669   1.22851    0.000
 4978.00    1.26743   1.22641    0.000
 4979.00    1.20690   1.22949    0.000
 4980.00    1.15628   1.22337    0.000
 4981.00    1.12615   1.22263    0.000
 4982.00    1.15122   1.22635    0.000
 4983.00    1.27546   1.22111    0.000
 4984.00    1.33437   1.22246    0.000
 4985.00    1.29063   1.22579    0.000
 4986.00    1.22981   1.21991    0.000
 4987.00    1.14543   1.22215    0.000
 4988.00    1.11894   1.22378    0.000
 4989.00    1.16272   1.21649    0.000
 4990.00    1.26145   1.21821    0.000
 4991.00    1.41901   1.21743    0.000
 4992.00    1.47453   1.20824    0.000
 4993.00    1.43371   1.20860    0.000
 4994.00    1.38373   1.20659    0.000
 4995.00    1.32612   1.19633    0.000
 4996.00    1.33401   1.19519    0.000
 4997.00    1.38991   1.19319    0.000
 4998.00    1.39491   1.18238    0.000
 4999.00    1.36714   1.18002    0.000
 5000.00    1.38819   1.17984    0.000
 5001.00    1.43672   1.17035    0.000
 5002.00    1.37745   1.16730    0.000
 5003.00    1.26537   1.16831    0.000
 5004.00    1.22173   1.16083    0.000
 5005.00    1.20707   1.15852    0.000
 5006.00    1.32423   1.16032    0.000
 5007.00    1.48920   1.15524    0.000
 5008.00    1.41483   1.15504    0.000
 5009.00    1.26704   1.15823    0.000
 5010.00    1.31933   1.15527    0.000
 5011.00    1.42269   1.15653    0.000
 5012.00    1.38252   1.16208    0.000
 5013.00    1.31252   1.16163    0.000
 5014.00    1.28557   1.16281    0.000
 5015.00    1.26566   1.17049    0.000
 5016.00    1.20977   1.17284    0.000
 5017.00    1.14947   1.17343    0.000
 5018.00    1.07879   1.18205    0.000
 5019.00    1.00724   1.18581    0.000
 5020.00    1.14890   1.18556    0.000
 5021.00    1.30099   1.19356    0.000
 5022.00    1.18258   1.19747    0.000
 5023.00    1.06249   1.19657    0.000
 5024.00    1.09518   1.20152    0.000
 5025.00    1.13184   1.20465    0.000
 5026.00    1.24809   1.20440    0.000
 5027.00    1.34395   1.20464    0.000
 5028.00    1.20149   1.20540    0.000
 5029.00    1.09445   1.20704    0.013
 5030.00    1.27329   1.20389    0.013
 5031.00    1.41814   1.20233    0.013
 5032.00    1.35693   1.20595    0.013
 5033.00    1.29481   1.20150    0.014
 5034.00    1.22831   1.19964    0.013
 5035.00    1.17770   1.20560    0.013
 5036.00    1.18904   1.20178    0.013
 5037.00    1.21090   1.20027    0.013
 5038.00    1.26686   1.20854    0.013
 5039.00    1.27144   1.20828    0.013
 5040.00    1.13496   1.20687    0.013
 5041.00    1.05898   1.21436    0.013
 5042.00    1.12526   1.21808    0.013
 5043.00    1.17373   1.21786    0.013
 5044.00    1.18598   1.22301    0.013
 5045.00    1.22469   1.22888    0.013
 5046.00    1.31021   1.23106    0.013
 5047.00    1.36052   1.23442    0.013
 5048.00    1.35633   1.23931    0.013
 5049.00    1.32604   1.24280    0.013
 5050.00    1.26027   1.24507    0.013
 5051.00    1.24998   1.24692    0.013
 5052.00    1.30608   1.25004    0.013
 5053.00    1.29904   1.25138    0.013
 5054.00    1.22538   1.24956    0.013
 5055.00    1.24020   1.25162    0.013
 5056.00    1.33739   1.25183    0.013
 5057.00    1.35460   1.24637    0.013
 5058.00    1.30619   1.24675    0.013
 5059.00    1.26331   1.24642    0.013
 5060.00    1.22443   1.23823    0.013
 5061.00    1.20507   1.23575    0.013
 5062.00    1.19808   1.23671    0.013
 5063.00    1.27746   1.22971    0.013
 5064.00    1.40472   1.22292    0.013
 5065.00    1.32666   1.22325    0.013
 5066.00    1.14959   1.22066    0.013
 5067.00    1.08514   1.21230    0.013
 5068.00    1.06758   1.20923    0.013
 5069.00    1.15952   1.21053    0.013
 5070.00    1.29046   1.20583    0.013
 5071.00    1.31549   1.19965    0.013
 5072.00    1.30867   1.20115    0.013
 5073.00    1.25865   1.20246    0.013
 5074.00    1.19785   1.19673    0.013
 5075.00    1.23019   1.19569    0.013
 5076.00    1.28141   1.20082    0.013
 5077.00    1.29216   1.20021    0.013
 5078.00    1.29649   1.19870    0.013
 5079.00    1.31243   1.20357    0.013
 5080.00    1.32975   1.20628    0.013
 5081.00    1.30348   1.20610    0.013
 5082.00    1.27371   1.20973    0.013
 5083.00    1.19352   1.21271    0.013
 5084.00    1.11106   1.21319    0.013
 5085.00    1.16605   1.21565    0.012
 5086.00    1.22203   1.21742    0.012
 5087.00    1.24576   1.21709    0.012
 5088.00    1.26760   1.21805    0.013
 5089.00    1.25434   1.21872    0.012
 5090.00    1.23974   1.21700    0.012
 5091.00    1.21018   1.21549    0.013
 5092.00    1.19247   1.21524    0.013
 5093.00    1.26711   1.21339    0.013
 5094.00    1.32342   1.21051    0.013
 5095.00    1.27177   1.20976    0.013
 5096.00    1.24861   1.20872    0.013
 5097.00    1.35844   1.20750    0.013
 5098.00    1.45879   1.20674    0.013
 5099.00    1.52297   1.20412    0.013
 5100.00    1.52664   1.20506    0.013
 5101.00    1.33785   1.20683    0.013
 5102.00    1.19046   1.20268    0.012
 5103.00    1.15471   1.20447    0.013
 5104.00    1.13827   1.20923    0.013
 5105.00    1.16647   1.20440    0.013
 5106.00    1.19324   1.20562    0.013
 5107.00    1.21718   1.21197    0.013
 5108.00    1.22681   1.20762    0.013
 5109.00    1.21151   1.20666    0.013
 5110.00    1.20006   1.21179    0.013
 5111.00    1.19449   1.20878    0.013
 5112.00    1.22512   1.20522    0.013
 5113.00    1.30425   1.20729    0.013
 5114.00    1.33513   1.20629    0.013
 5115.00    1.30905   1.20034    0.013
 5116.00    1.26499   1.19835    0.013
 5117.00    1.20222   1.19980    0.013
 5118.00    1.18208   1.19332    0.013
 5119.00    1.20106   1.18797    0.013
 5120.00    1.29558   1.19151    0.013
 5121.00    1.45123   1.18725    0.013
 5122.00    1.40101   1.18031    0.013
 5123.00    1.20424   1.18435    0.013
 5124.00    1.17184   1.18299    0.013
 5125.00    1.24211   1.17562    0.013
 5126.00    1.22092   1.17921    0.013
 5127.00    1.14979   1.18124    0.013
 5128.00    1.13213   1.17342    0.013
 5129.00    1.13984   1.17490    0.013
 5130.00    1.12948   1.18009    0.013
 5131.00    1.11173   1.17178    0.013
 5132.00    1.16353   1.17054    0.013
 5133.00    1.23965   1.17764    0.013
 5134.00    1.19809   1.16868    0.013
 5135.00    1.12184   1.16558    0.013
 5136.00    1.10200   1.17473    0.013
 5137.00    1.09593   1.16669    0.013
 5138.00    1.15243   1.16102    0.013
 5139.00    1.22130   1.17016    0.013
 5140.00    1.22788   1.16628    0.013
 5141.00    1.22485   1.15974    0.012
 5142.00    1.18836   1.16558    0.013
 5143.00    1.14806   1.16556    0.013
 5144.00    1.23259   1.16078    0.013
 5145.00    1.32664   1.16284    0.013
 5146.00    1.15286   1.16391    0.013
 5147.00    0.96805   1.16018    0.012
 5148.00    0.96941   1.15861    0.012
 5149.00    0.97579   1.15912    0.012
 5150.00    1.12889   1.15521    0.012
 5151.00    1.26442   1.14894    0.013
 5152.00    1.09558   1.14737    0.013
 5153.00    0.94137   1.14314    0.013
 5154.00    0.94278   1.13120    0.013
 5155.00    0.96208   1.12529    0.013
 5156.00    1.11602   1.12127    0.013
 5157.00    1.24977   1.10643    0.013
 5158.00    1.26790   1.09571    0.013
 5159.00    1.27965   1.09168    0.013
 5160.00    1.26232   1.07857    0.013
 5161.00    1.26372   1.06514    0.013
 5162.00    1.33501   1.06038    0.013
 5163.00    1.36526   1.05274    0.013
 5164.00    1.26747   1.04152    0.013
 5165.00    1.18623   1.03778    0.013
 5166.00    1.14879   1.03690    0.013
 5167.00    1.10691   1.02970    0.013
 5168.00    1.05490   1.02635    0.013
 5169.00    1.00852   1.03207    0.013
 5170.00    0.97322   1.03226    0.013
 5171.00    0.94578   1.02890    0.013
 5172.00    0.93185   1.03586    0.013
 5173.00    0.94288   1.04287    0.013
 5174.00    0.99144   1.04201    0.013
 5175.00    1.06297   1.04677    0.013
 5176.00    1.16484   1.05657    0.013
 5177.00    1.27580   1.05935    0.013
 5178.00    1.39732   1.06218    0.013
 5179.00    1.38981   1.07227    0.013
 5180.00    1.24992   1.07830    0.012
 5181.00    1.19340   1.08201    0.012
 5182.00    1.21233   1.09347    0.012
 5183.00    1.14853   1.09890    0.012
 5184.00    1.01876   1.10067    0.012
 5185.00    0.98443   1.11488    0.012
 5186.00    1.01707   1.12043    0.012
 5187.00    1.07876   1.11547    0.012
 5188.00    1.15835   1.12800    0.012
 5189.00    1.24080   1.13792    0.012
 5190.00    1.32480   1.12918    0.000
 5191.00    1.28167   1.13472    0.000
 5192.00    1.17919   1.14759    0.000
 5193.00    1.21229   1.14030    0.000
 5194.00    1.29992   1.13837    0.000
 5195.00    1.27786   1.15034    0.000
 5196.00    1.21814   1.14709    0.000
 5197.00    1.23704   1.13962    0.000
 5198.00    1.27865   1.14887    0.000
 5199.00    1.31207   1.15110    0.000
 5200.00    1.34353   1.14135    0.000
 5201.00    1.34615   1.14711    0.000
 5202.00    1.34322   1.15535    0.000
 5203.00    1.28335   1.14829    0.000
 5204.00    1.21498   1.15054    0.000
 5205.00    1.23250   1.16151    0.000
 5206.00    1.25944   1.16056    0.000
 5207.00    1.20551   1.16170    0.000
 5208.00    1.14575   1.17037    0.000
 5209.00    1.13877   1.17323    0.000
 5210.00    1.13377   1.17541    0.000
 5211.00    1.22012   1.18063    0.013
 5212.00    1.30327   1.18296    0.013
 5213.00    1.25451   1.18657    0.013
 5214.00    1.21247   1.19048    0.012
 5215.00    1.27943   1.18971    0.013
 5216.00    1.33420   1.19340    0.013
 5217.00    1.26485   1.19860    0.013
 5218.00    1.20854   1.19564    0.013
 5219.00    1.24709   1.19663    0.013
 5220.00    1.29656   1.20424    0.013
 5221.00    1.40681   1.20252    0.013
 5222.00    1.48164   1.19995    0.013
 5223.00    1.39883   1.21033    0.013
 5224.00    1.31772   1.21335    0.013
 5225.00    1.24279   1.20828    0.013
 5226.00    1.16877   1.21912    0.013
 5227.00    1.09756   1.22739    0.013
 5228.00    1.08476   1.22205    0.013
 5229.00    1.22394   1.22918    0.013
 5230.00    1.25869   1.24006    0.013
 5231.00    1.05988   1.23722    0.013
 5232.00    1.01918   1.23821    0.013
 5233.00    1.28493   1.24860    0.013
 5234.00    1.38760   1.25022    0.013
 5235.00    1.21460   1.24584    0.013
 5236.00    1.14991   1.25193    0.012
 5237.00    1.24563   1.25610    0.012
 5238.00    1.28979   1.24918    0.012
 5239.00    1.26683   1.24961    0.012
 5240.00    1.28653   1.25467    0.012
 5241.00    1.35516   1.24874    0.012
 5242.00    1.33508   1.24283    0.012
 5243.00    1.22527   1.24657    0.012
 5244.00    1.16313   1.24439    0.012
 5245.00    1.14350   1.23415    0.012
 5246.00    1.19183   1.23341    0.012
 5247.00    1.29359   1.23334    0.012
 5248.00    1.32589   1.22378    0.012
 5249.00    1.31017   1.21980    0.012
 5250.00    1.28692   1.21727    0.012
 5251.00    1.25911   1.20772    0.012
 5252.00    1.25556   1.20376    0.012
 5253.00    1.26484   1.20124    0.012
 5254.00    1.31089   1.18891    0.012
 5255.00    1.37381   1.18127    0.012
 5256.00    1.38521   1.18316    0.012
 5257.00    1.37623   1.17338    0.012
 5258.00    1.37005   1.16059    0.012
 5259.00    1.36482   1.16522    0.012
 5260.00    1.32381   1.16196    0.012
 5261.00    1.27268   1.14686    0.012
 5262.00    1.23038   1.15354    0.013
 5263.00    1.19014   1.16225    0.013
 5264.00    1.10616   1.14988    0.013
 5265.00    1.01399   1.15252    0.013
 5266.00    0.97591   1.17110    0.013
 5267.00    0.94565   1.16899    0.013
 5268.00    0.87634   1.16623    0.013
 5269.00    0.80291   1.18565    0.013
 5270.00    0.91794   1.19641    0.013
 5271.00    1.04582   1.19592    0.013
 5272.00    1.15109   1.21016    0.013
 5273.00    1.25561   1.22405    0.013
 5274.00    1.12124   1.22720    0.013
 5275.00    0.99300   1.23713    0.013
 5276.00    1.06997   1.25050    0.013
 5277.00    1.14449   1.25698    0.013
 5278.00    1.18170   1.26184    0.013
 5279.00    1.22065   1.26952    0.013
 5280.00    1.27655   1.27768    0.013
 5281.00    1.32838   1.28250    0.013
 5282.00    1.35164   1.28426    0.013
 5283.00    1.37312   1.28811    0.013
 5284.00    1.38499   1.29450    0.013
 5285.00    1.39463   1.29602    0.013
 5286.00    1.39456   1.29401    0.013
 5287.00    1.38777   1.29747    0.013
 5288.00    1.35694   1.30012    0.013
 5289.00    1.32641   1.29718    0.013
 5290.00    1.29677   1.29873    0.013
 5291.00    1.27310   1.30224    0.013
 5292.00    1.26465   1.29932    0.013
 5293.00    1.27199   1.29901    0.013
 5294.00    1.31409   1.30544    0.013
 5295.00    1.37577   1.30565    0.013
 5296.00    1.47482   1.30273    0.013
 5297.00    1.52391   1.30945    0.013
 5298.00    1.48981   1.31473    0.013
 5299.00    1.43743   1.31280    0.013
 5300.00    1.35837   1.31641    0.013
 5301.00    1.31024   1.32153    0.012
 5302.00    1.30179   1.32076    0.012
 5303.00    1.33811   1.32250    0.012
 5304.00    1.42504   1.32606    0.012
 5305.00    1.45303   1.32352    0.012
 5306.00    1.42222   1.32144    0.012
 5307.00    1.42027   1.32379    0.012
 5308.00    1.44370   1.32085    0.012
 5309.00    1.43136   1.31422    0.012
 5310.00    1.39131   1.31308    0.012
 5311.00    1.38788   1.31012    0.012
 5312.00    1.40941   1.30053    0.012
 5313.00    1.44133   1.29477    0.012
 5314.00    1.47945   1.29276    0.012
 5315.00    1.46835   1.28449    0.012
 5316.00    1.43163   1.27478    0.012
 5317.00    1.38486   1.27280    0.012
 5318.00    1.33357   1.26939    0.012
 5319.00    1.37217   1.25989    0.012
 5320.00    1.44570   1.25685    0.012
 5321.00    1.40621   1.25757    0.012
 5322.00    1.32935   1.25107    0.012
 5323.00    1.34243   1.24697    0.012
 5324.00    1.38045   1.25112    0.012
 5325.00    1.37942   1.25058    0.012
 5326.00    1.36949   1.24643    0.012
 5327.00    1.26458   1.25006    0.012
 5328.00    1.14234   1.25411    0.012
 5329.00    1.13803   1.25601    0.012
 5330.00    1.15027   1.26010    0.012
 5331.00    1.16424   1.26199    0.012
 5332.00    1.17838   1.26541    0.012
 5333.00    1.21155   1.27137    0.012
 5334.00    1.24594   1.27335    0.012
 5335.00    1.30636   1.27554    0.012
 5336.00    1.36735   1.28193    0.012
 5337.00    1.34412   1.28574    0.013
 5338.00    1.32040   1.28646    0.013
 5339.00    1.28289   1.29375    0.012
 5340.00    1.24885   1.30072    0.012
 5341.00    1.26470   1.30090    0.012
 5342.00    1.28218   1.30777    0.012
 5343.00    1.31495   1.31521    0.012
 5344.00    1.33655   1.31471    0.012
 5345.00    1.28204   1.31994    0.012
 5346.00    1.23709   1.32780    0.012
 5347.00    1.24260   1.32823    0.012
 5348.00    1.25077   1.32957    0.012
 5349.00    1.27021   1.33559    0.012
 5350.00    1.29567   1.33763    0.012
 5351.00    1.34217   1.33652    0.012
 5352.00    1.38028   1.33832    0.012
 5353.00    1.39369   1.33870    0.012
 5354.00    1.41967   1.33629    0.012
 5355.00    1.47720   1.33453    0.012
 5356.00    1.49940   1.33200    0.012
 5357.00    1.44514   1.32927    0.012
 5358.00    1.44774   1.32623    0.012
 5359.00    1.55716   1.32059    0.012
 5360.00    1.58584   1.31750    0.012
 5361.00    1.48208   1.31745    0.012
 5362.00    1.44610   1.31249    0.012
 5363.00    1.50761   1.30926    0.012
 5364.00    1.47399   1.31059    0.012
 5365.00    1.32003   1.30654    0.012
 5366.00    1.22290   1.30391    0.012
 5367.00    1.18912   1.30748    0.012
 5368.00    1.26322   1.30598   -2.000
 5369.00    1.44339   1.30215   -2.000
 5370.00    1.48990   1.30623   -2.000
 5371.00    1.42051   1.30887   -2.000
 5372.00    1.28514   1.30602   -2.000
 5373.00    1.09937   1.30966   -2.000
 5374.00    1.08040   1.31140   -2.000
 5375.00    1.17343   1.30551   -2.000
 5376.00    1.27722   1.30732   -2.000
 5377.00    1.38734   1.31030   -2.000
 5378.00    1.37999   1.30253   -2.000
 5379.00    1.31240   1.29931   -2.000
 5380.00    1.30511   1.30310   -2.000
 5381.00    1.32460   1.29593   -2.000
 5382.00    1.38697   1.28742   -2.000
 5383.00    1.46570   1.29127    0.012
 5384.00    1.44152   1.28647    0.012
 5385.00    1.38397   1.27164    0.012
 5386.00    1.35342   1.27213    0.012
 5387.00    1.33019   1.27426    0.012
 5388.00    1.34267   1.26007    0.012
 5389.00    1.36310   1.25340    0.012
 5390.00    1.30132   1.25933    0.012
 5391.00    1.22493   1.25188    0.012
 5392.00    1.22654   1.23964    0.012
 5393.00    1.23874   1.24361    0.012
 5394.00    1.24847   1.24359    0.012
 5395.00    1.25796   1.23232    0.012
 5396.00    1.25084   1.23455    0.012
 5397.00    1.24272   1.24111    0.012
 5398.00    1.23622   1.23409    0.012
 5399.00    1.22992   1.23253    0.012
 5400.00    1.25052   1.24170    0.012
 5401.00    1.27074   1.24232    0.012
 5402.00    1.28104   1.23951    0.012
 5403.00    1.29260   1.24591    0.012
 5404.00    1.32124   1.25121    0.012
 5405.00    1.35231   1.25239    0.012
 5406.00    1.40528   1.25971    0.012
 5407.00    1.44033   1.26663    0.012
 5408.00    1.35697   1.26634    0.012
 5409.00    1.27963   1.27089    0.011
 5410.00    1.23332   1.27996    0.012
 5411.00    1.20508   1.28220    0.012
 5412.00    1.25185   1.28229    0.011
 5413.00    1.29593   1.28712    0.011
 5414.00    1.33078   1.29035    0.011
 5415.00    1.34325   1.29126    0.011
 5416.00    1.29094   1.29424    0.011
 5417.00    1.27391   1.29288    0.011
 5418.00    1.34399   1.28994    0.011
 5419.00    1.39401   1.29349    0.011
 5420.00    1.40130   1.29394    0.011
 5421.00    1.39558   1.28934    0.011
 5422.00    1.36577   1.28962    0.011
 5423.00    1.33096   1.29115    0.011
 5424.00    1.28806   1.28663    0.011
 5425.00    1.30277   1.28692    0.011
 5426.00    1.39914   1.29284    0.012
 5427.00    1.39785   1.28696    0.012
 5428.00    1.27478   1.28227    0.011
 5429.00    1.22789   1.29136    0.011
 5430.00    1.26474   1.29319    0.011
 5431.00    1.30243   1.28746    0.012
 5432.00    1.34095   1.29023    0.012
 5433.00    1.36047   1.29519    0.012
 5434.00    1.36375   1.29113    0.012
 5435.00    1.33015   1.28937    0.012
 5436.00    1.26879   1.29619    0.012
 5437.00    1.28790   1.29541    0.012
 5438.00    1.36027   1.29098    0.012
 5439.00    1.41801   1.29392    0.012
 5440.00    1.46728   1.29471    0.012
 5441.00    1.41573   1.29057    0.012
 5442.00    1.31330   1.28961    0.012
 5443.00    1.31333   1.28928    0.012
 5444.00    1.35814   1.28401    0.012
 5445.00    1.36418   1.28204    0.012
 5446.00    1.35567   1.28492    0.012
 5447.00    1.33399   1.28224    0.012
 5448.00    1.30811   1.27959    0.012
 5449.00    1.33284   1.28216    0.012
 5450.00    1.37103   1.27937    0.012
 5451.00    1.41368   1.27328    0.012
 5452.00    1.45730   1.27685    0.012
 5453.00    1.40987   1.27824    0.012
 5454.00    1.34671   1.26947    0.012
 5455.00    1.31095   1.27071    0.012
 5456.00    1.27878   1.28001    0.012
 5457.00    1.26970   1.27428    0.012
 5458.00    1.26276   1.26493    0.011
 5459.00    1.30407   1.27313    0.011
 5460.00    1.34809   1.27612    0.011
 5461.00    1.38155   1.26138    0.011
 5462.00    1.41349   1.26221    0.011
 5463.00    1.31323   1.27454    0.011
 5464.00    1.22122   1.26390    0.011
 5465.00    1.32290   1.25300    0.011
 5466.00    1.41664   1.26609    0.011
 5467.00    1.40856   1.26771    0.011
 5468.00    1.39413   1.25009    0.011
 5469.00    1.32490   1.25323    0.011
 5470.00    1.27296   1.26681    0.011
 5471.00    1.33191   1.25497    0.011
 5472.00    1.37192   1.24700    0.011
 5473.00    1.31694   1.26325    0.011
 5474.00    1.27072   1.26267    0.011
 5475.00    1.26003   1.24802    0.011
 5476.00    1.25054   1.25806    0.011
 5477.00    1.24514   1.27118    0.011
 5478.00    1.24068   1.25982   -2.000
 5479.00    1.23889   1.25654   -2.000
 5480.00    1.23614   1.27237   -2.000
 5481.00    1.23103   1.27063   -2.000
 5482.00    1.59449   1.26209   -2.000
 5483.00    2.73007   1.27451   -2.000
 5484.00    3.16281   1.28062   -2.000
 5485.00    2.31562   1.26865   -2.000
 5486.00    1.41308   1.27119   -2.000
 5487.00    0.42242   1.28320   -2.000
 5488.00   -0.07961   1.27621   -2.000
 5489.00    0.10094   1.27093   -2.000
 5490.00    0.40840   1.28116   -2.000
 5491.00    0.87188   1.28044   -2.000
 5492.00    1.38281   1.27099   -2.000
 5493.00    1.94515   1.27450   -2.000
 5494.00    2.02278   1.27852   -2.000
 5495.00    1.63708   1.27111   -2.000
 5496.00    1.45909   1.26918   -2.000
 5497.00    1.45617   1.27330   -2.000
 5498.00    1.43270   1.27087   -2.000
 5499.00    1.39399   1.26792   -2.000
 5500.00    1.35190   1.26829   -2.000
 5501.00    1.30762   1.26729   -2.000
 5502.00    1.19773   1.26693    0.011
 5503.00    1.05040   1.26800    0.011
 5504.00    1.09883   1.26575    0.011
 5505.00    1.24454   1.26536    0.011
 5506.00    1.31355   1.27031    0.011
 5507.00    1.34960   1.27084    0.011
 5508.00    1.33347   1.26887    0.018
 5509.00    1.29812   1.27220    0.091
 5510.00    1.26636   1.27505   -1.000
 5511.00    1.23572   1.27398   -1.000
 5512.00    1.21975   1.27457   -1.000
 5513.00    1.20761   1.27922   -1.000
 5514.00    1.17953   1.28189   -1.000
 5515.00    1.14808   1.28051   -1.000
 5516.00    1.18678   1.28155    0.025
 5517.00    1.23727   1.28605    0.012
 5518.00    1.27101   1.28689    0.011
 5519.00    1.30264   1.28326    0.011
 5520.00    1.30010   1.28520    0.011
 5521.00    1.29454   1.29120    0.011
 5522.00    1.30692   1.28993    0.011
 5523.00    1.32023   1.28654    0.011
 5524.00    1.35913   1.29168    0.011
 5525.00    1.39701   1.29519    0.011
 5526.00    1.32117   1.28923    0.011
 5527.00    1.25280   1.29017    0.011
 5528.00    1.34539   1.29915    0.011
 5529.00    1.42564   1.29931    0.011
 5530.00    1.35536   1.29532    0.011
 5531.00    1.29343   1.30040    0.011
 5532.00    1.30123   1.30668    0.011
 5533.00    1.31925   1.30356    0.011
 5534.00    1.40088   1.30293    0.011
 5535.00    1.45893   1.31039    0.012
 5536.00    1.40171   1.31312    0.012
 5537.00    1.35206   1.31007    0.012
 5538.00    1.33238   1.31236    0.012
 5539.00    1.31469   1.31906    0.012
 5540.00    1.30353   1.31872    0.012
 5541.00    1.28930   1.31504    0.011
 5542.00    1.26648   1.31842    0.012
 5543.00    1.28499   1.32190    0.012
 5544.00    1.40214   1.31832    0.012
 5545.00    1.45749   1.31649    0.012
 5546.00    1.38542   1.31963    0.011
 5547.00    1.33736   1.31919    0.011
 5548.00    1.33236   1.31550    0.011
 5549.00    1.32732   1.31445    0.011
 5550.00    1.32221   1.31358    0.011
 5551.00    1.33722   1.31111    0.011
 5552.00    1.37993   1.30918    0.011
 5553.00    1.43157   1.30565    0.011
 5554.00    1.49402   1.30301    0.011
 5555.00    1.46319   1.30435    0.011
 5556.00    1.33269   1.30072    0.011
 5557.00    1.28353   1.29372    0.011
 5558.00    1.31104   1.29560    0.011
 5559.00    1.34293   1.29778    0.011
 5560.00    1.37845   1.28851    0.011
 5561.00    1.38209   1.28521    0.011
 5562.00    1.36240   1.29362    0.011
 5563.00    1.35796   1.28871    0.011
 5564.00    1.36332   1.27825    0.011
 5565.00    1.37115   1.28514    0.011
 5566.00    1.38037   1.28912    0.011
 5567.00    1.40296   1.27755    0.011
 5568.00    1.43209   1.27645    0.011
 5569.00    1.44582   1.28540    0.011
 5570.00    1.45305   1.27822    0.011
 5571.00    1.41575   1.26922    0.011
 5572.00    1.36234   1.27565    0.011
 5573.00    1.30539   1.27577    0.011
 5574.00    1.24735   1.26591    0.011
 5575.00    1.23604   1.26535    0.011
 5576.00    1.23663   1.26837    0.011
 5577.00    1.26304   1.26139    0.011
 5578.00    1.29480   1.25487    0.011
 5579.00    1.27360   1.25635    0.011
 5580.00    1.24375   1.25539    0.012
 5581.00    1.27629   1.25065    0.012
 5582.00    1.31645   1.24840    0.012
 5583.00    1.31056   1.24928    0.012
 5584.00    1.30080   1.24836    0.011
 5585.00    1.34445   1.24338    0.011
 5586.00    1.39067   1.24268    0.011
 5587.00    1.32503   1.24795    0.011
 5588.00    1.25813   1.24922    0.011
 5589.00    1.21626   1.24569    0.011
 5590.00    1.17400   1.24920    0.011
 5591.00    1.12401   1.25557    0.011
 5592.00    1.08104   1.25270    0.011
 5593.00    1.11954   1.25224    0.011
 5594.00    1.16088   1.26145    0.011
 5595.00    1.22502   1.26599    0.011
 5596.00    1.27168   1.26315    0.011
 5597.00    1.21279   1.26823    0.011
 5598.00    1.15323   1.27556    0.011
 5599.00    1.09045   1.27229    0.011
 5600.00    1.06166   1.27190    0.011
 5601.00    1.16492   1.27962    0.011
 5602.00    1.26590   1.28167    0.011
 5603.00    1.35948   1.27859    0.011
 5604.00    1.40355   1.28278    0.011
 5605.00    1.31201   1.28598    0.011
 5606.00    1.26053   1.27912    0.011
 5607.00    1.30308   1.27771    0.011
 5608.00    1.35579   1.28286    0.011
 5609.00    1.42908   1.28098    0.011
 5610.00    1.46029   1.27708    0.011
 5611.00    1.41716   1.27917    0.011
 5612.00    1.38658   1.27944    0.011
 5613.00    1.37538   1.27445    0.011
 5614.00    1.35910   1.27383    0.011
 5615.00    1.33591   1.27515    0.011
 5616.00    1.27449   1.27323    0.011
 5617.00    1.16739   1.27365    0.011
 5618.00    1.13472   1.27456    0.011
 5619.00    1.18045   1.27345    0.011
 5620.00    1.21839   1.27428    0.011
 5621.00    1.24908   1.27576    0.011
 5622.00    1.26286   1.27415    0.011
 5623.00    1.26280   1.27418    0.011
 5624.00    1.24796   1.27772    0.011
 5625.00    1.22246   1.27689    0.011
 5626.00    1.23007   1.27550    0.011
 5627.00    1.25862   1.27860    0.011
 5628.00    1.30994   1.27877    0.011
 5629.00    1.37386   1.27641    0.011
 5630.00    1.33853   1.27824    0.011
 5631.00    1.25546   1.28003    0.011
 5632.00    1.27109   1.27677    0.011
 5633.00    1.32773   1.27686    0.011
 5634.00    1.36860   1.27962    0.011
 5635.00    1.40387   1.27672    0.011
 5636.00    1.34082   1.27552    0.011
 5637.00    1.24829   1.27934    0.011
 5638.00    1.29153   1.27813    0.011
 5639.00    1.36859   1.27335    0.011
 5640.00    1.35220   1.27640    0.010
 5641.00    1.31693   1.27869    0.010
 5642.00    1.23553   1.27202    0.010
 5643.00    1.14682   1.27199    0.011
 5644.00    1.16602   1.27879    0.010
 5645.00    1.19793   1.27437    0.010
 5646.00    1.24753   1.26677    0.010
 5647.00    1.29854   1.27305    0.011
 5648.00    1.34330   1.27662    0.011
 5649.00    1.38778   1.26596    0.011
 5650.00    1.36684   1.26530    0.011
 5651.00    1.34432   1.27575    0.011
 5652.00    1.28119   1.27170    0.011
 5653.00    1.22345   1.26263    0.011
 5654.00    1.26502   1.27000    0.011
 5655.00    1.30489   1.27635    0.011
 5656.00    1.32589   1.26834    0.011
 5657.00    1.34380   1.26858    0.011
 5658.00    1.33783   1.27862    0.011
 5659.00    1.33143   1.27779    0.011
 5660.00    1.32250   1.27400    0.011
 5661.00    1.30285   1.28080    0.011
 5662.00    1.23328   1.28538    0.011
 5663.00    1.20075   1.28305    0.011
 5664.00    1.30906   1.28735    0.011
 5665.00    1.38426   1.29311    0.011
 5666.00    1.35440   1.29071    0.011
 5667.00    1.32716   1.29156    0.011
 5668.00    1.30700   1.29856    0.011
 5669.00    1.30614   1.29849    0.011
 5670.00    1.34979   1.29547    0.011
 5671.00    1.38847   1.30059    0.011
 5672.00    1.41720   1.30418    0.011
 5673.00    1.43382   1.29869    0.011
 5674.00    1.42937   1.29743    0.011
 5675.00    1.40963   1.30315    0.011
 5676.00    1.36661   1.30305    0.011
 5677.00    1.35163   1.29824    0.011
 5678.00    1.37417   1.29850    0.011
 5679.00    1.36804   1.30129    0.011
 5680.00    1.32812   1.29879    0.011
 5681.00    1.32808   1.29522    0.011
 5682.00    1.36946   1.29566    0.011
 5683.00    1.37437   1.29794    0.011
 5684.00    1.34587   1.29644    0.011
 5685.00    1.30797   1.29106    0.011
 5686.00    1.26247   1.28985    0.010
 5687.00    1.23886   1.29231    0.010
 5688.00    1.23081   1.28978    0.010
 5689.00    1.24609   1.28320    0.010
 5690.00    1.27592   1.28423    0.010
 5691.00    1.29429   1.28672    0.010
 5692.00    1.30642   1.27882    0.010
 5693.00    1.34455   1.27255    0.010
 5694.00    1.39498   1.27676    0.011
 5695.00    1.41869   1.27664    0.011
 5696.00    1.43149   1.26741    0.011
 5697.00    1.47814   1.26682    0.011
 5698.00    1.53659   1.27179    0.011
 5699.00    1.53038   1.26631    0.011
 5700.00    1.50515   1.26063    0.011
 5701.00    1.43052   1.26658    0.011
 5702.00    1.34386   1.27001    0.011
 5703.00    1.34670   1.26492    0.011
 5704.00    1.36716   1.26690    0.011
 5705.00    1.34093   1.27444    0.011
 5706.00    1.30753   1.27469    0.011
 5707.00    1.29663   1.27384    0.011
 5708.00    1.28828   1.28125    0.011
 5709.00    1.34828   1.28798    0.011
 5710.00    1.41346   1.28852    0.011
 5711.00    1.35662   1.29153    0.011
 5712.00    1.29483   1.29910    0.011
 5713.00    1.30021   1.30425    0.011
 5714.00    1.30763   1.30522    0.010
 5715.00    1.37753   1.30858    0.010
 5716.00    1.44103   1.31555    0.010
 5717.00    1.39438   1.31903    0.010
 5718.00    1.35461   1.31779    0.010
 5719.00    1.38758   1.32085    0.010
 5720.00    1.42011   1.32808    0.010
 5721.00    1.44931   1.32852    0.010
 5722.00    1.46810   1.32522    0.010
 5723.00    1.42746   1.32913    0.010
 5724.00    1.39799   1.33389    0.010
 5725.00    1.41927   1.33027    0.010
 5726.00    1.42555   1.32874    0.010
 5727.00    1.37606   1.33419    0.010
 5728.00    1.34022   1.33491    0.010
 5729.00    1.34688   1.33038    0.010
 5730.00    1.35749   1.33093    0.010
 5731.00    1.37855   1.33416    0.010
 5732.00    1.37696   1.33235    0.010
 5733.00    1.32394   1.33046    0.010
 5734.00    1.29307   1.33147    0.010
 5735.00    1.30571   1.33099    0.011
 5736.00    1.34076   1.32960    0.011
 5737.00    1.41419   1.32965    0.011
 5738.00    1.43666   1.32919    0.011
 5739.00    1.38267   1.32741    0.011
 5740.00    1.38846   1.32718    0.000
 5741.00    1.47309   1.32642    0.000
 5742.00    1.49568   1.32421    0.000
 5743.00    1.44624   1.32420    0.000
 5744.00    1.39935   1.32542    0.000
 5745.00    1.35508   1.32338    0.000
 5746.00    1.35537   1.32027    0.000
 5747.00    1.39592   1.32126    0.000
 5748.00    1.40698   1.32260    0.000
 5749.00    1.39455   1.32093    0.000
 5750.00    1.39523   1.31992    0.000
 5751.00    1.40509   1.32171    0.000
 5752.00    1.38944   1.32135    0.000
 5753.00    1.35813   1.31882    0.000
 5754.00    1.33250   1.31974    0.000
 5755.00    1.30991   1.32318    0.000
 5756.00    1.28256   1.32334    0.000
 5757.00    1.25299   1.32093    0.000
 5758.00    1.24371   1.32177    0.000
 5759.00    1.24259   1.32338    0.000
 5760.00    1.25008   1.32149    0.000
 5761.00    1.26051   1.31912    0.000
 5762.00    1.34047   1.32136    0.000
 5763.00    1.44045   1.32300    0.000
 5764.00    1.46130   1.31910    0.000
 5765.00    1.46330   1.31550    0.000
 5766.00    1.47144   1.31639    0.000
 5767.00    1.48075   1.31544    0.000
 5768.00    1.52192   1.30922    0.000
 5769.00    1.56783   1.30717    0.000
 5770.00    1.52402   1.30915    0.000
 5771.00    1.47044   1.30544    0.000
 5772.00    1.53279   1.29791    0.000
 5773.00    1.60345   1.29742    0.000
 5774.00    1.54280   1.29980    0.000
 5775.00    1.47730   1.29509    0.000
 5776.00    1.46727   1.29116    0.000
 5777.00    1.45888   1.29358    0.000
 5778.00    1.50081   1.29359    0.000
 5779.00    1.53603   1.28958    0.000
 5780.00    1.46355   1.29087    0.000
 5781.00    1.39297   1.29544    0.000
 5782.00    1.34176   1.29626    0.000
 5783.00    1.29746   1.29680    0.000
 5784.00    1.30325   1.29925    0.000
 5785.00    1.30666   1.30145    0.000
 5786.00    1.29684   1.30538    0.000
 5787.00    1.28343   1.31062    0.000
 5788.00    1.25417   1.31187    0.000
 5789.00    1.23358   1.31361    0.000
 5790.00    1.24460   1.32029    0.000
 5791.00    1.26603   1.32292   -2.000
 5792.00    1.31927   1.32185   -2.000
 5793.00    1.35461   1.32779   -2.000
 5794.00    1.34350   1.33507   -2.000
 5795.00    1.32844   1.33241   -2.000
 5796.00    1.30456   1.33017   -2.000
 5797.00    1.29831   1.33800   -2.000
 5798.00    1.32613   1.34203   -2.000
 5799.00    1.36319   1.33774   -2.000
 5800.00    1.41582   1.33963   -2.000
 5801.00    1.46016   1.34639   -2.000
 5802.00    1.49224   1.34432   -2.000
 5803.00    1.48896   1.33948   -2.000
 5804.00    1.43971   1.34413   -2.000
 5805.00    1.41349   1.34993   -2.000
 5806.00    1.41361   1.34686   -2.000
 5807.00    1.43512   1.34462   -2.000
 5808.00    1.47821   1.34973   -2.000
 5809.00    1.46767   1.35201   -2.000
 5810.00    1.40937   1.34818   -2.000
 5811.00    1.39578   1.34877    0.000
 5812.00    1.41729   1.35501    0.000
 5813.00    1.41556   1.35547    0.000
 5814.00    1.39782   1.35128    0.000
 5815.00    1.44412   1.35332    0.000
 5816.00    1.52917   1.35938    0.000
 5817.00    1.50911   1.35856    0.000
 5818.00    1.43354   1.35511    0.000
 5819.00    1.40268   1.35885    0.000
 5820.00    1.39232   1.36281    0.000
 5821.00    1.38803   1.35897    0.000
 5822.00    1.38614   1.35626    0.000
 5823.00    1.39057   1.36208    0.000
 5824.00    1.39714   1.36435    0.000
 5825.00    1.44215   1.35822    0.000
 5826.00    1.49802   1.35706    0.000
 5827.00    1.42704   1.36251    0.000
 5828.00    1.32652   1.36125    0.000
 5829.00    1.28989   1.35474    0.000
 5830.00    1.26521   1.35623    0.000
 5831.00    1.33163   1.35992    0.000
 5832.00    1.41119   1.35452    0.000
 5833.00    1.43593   1.34867    0.000
 5834.00    1.45494   1.35112    0.000
 5835.00    1.35743   1.35188    0.000
 5836.00    1.25204   1.34468    0.000
 5837.00    1.23889   1.34089    0.000
 5838.00    1.22879   1.34274    0.000
 5839.00    1.28900   1.33947    0.000
 5840.00    1.34897   1.33140    0.000
 5841.00    1.40003   1.32928    0.000
 5842.00    1.44704   1.33048    0.000
 5843.00    1.43303   1.32521    0.000
 5844.00    1.42057   1.31790    0.000
 5845.00    1.42331   1.31605    0.000
 5846.00    1.42777   1.31572    0.000
 5847.00    1.44437   1.31085    0.000
 5848.00    1.45081   1.30731    0.000
 5849.00    1.40240   1.30669    0.000
 5850.00    1.35954   1.30442    0.000
 5851.00    1.34073   1.30059    0.000
 5852.00    1.31687   1.29946    0.000
 5853.00    1.27498   1.29963    0.000
 5854.00    1.23845   1.29819    0.000
 5855.00    1.21795   1.29745    0.000
 5856.00    1.21341   1.29670    0.000
 5857.00    1.24961   1.29613    0.000
 5858.00    1.28537   1.29680    0.000
 5859.00    1.32014   1.29784    0.000
 5860.00    1.33857   1.29554    0.000
 5861.00    1.32588   1.29400    0.000
 5862.00    1.32362   1.29578    0.000
 5863.00    1.33866   1.29488    0.000
 5864.00    1.34195   1.29081    0.000
 5865.00    1.32811   1.28914    0.000
 5866.00    1.32100   1.28836    0.000
 5867.00    1.32249   1.28290    0.000
 5868.00    1.32859   1.27755    0.000
 5869.00    1.33988   1.27563    0.000
 5870.00    1.32633   1.27080    0.000
 5871.00    1.28805   1.26076    0.000
 5872.00    1.25204   1.25224    0.000
 5873.00    1.21801   1.24699    0.000
 5874.00    1.23763   1.24002    0.000
 5875.00    1.29876   1.22933    0.000
 5876.00    1.32994   1.21773    0.000
 5877.00    1.34076   1.20827    0.000
 5878.00    1.33810   1.19994    0.000
 5879.00    1.32741   1.18913    0.000
 5880.00    1.33033   1.18054    0.000
 5881.00    1.34032   1.17679    0.000
 5882.00    1.34227   1.16724    0.000
 5883.00    1.34060   1.15244    0.000
 5884.00    1.30472   1.14898    0.000
 5885.00    1.25557   1.15370    0.000
 5886.00    1.26549   1.14801    0.000
 5887.00    1.29490   1.13981    0.000
 5888.00    1.24734   1.14465    0.000
 5889.00    1.17849   1.14931    0.000
 5890.00    1.14676   1.14493    0.000
 5891.00    1.12347   1.15068    0.000
 5892.00    1.15229   1.16605    0.000
 5893.00    1.19059   1.16787    0.000
 5894.00    1.18616   1.16517    0.000
 5895.00    1.17576   1.17920    0.000
 5896.00    1.17980   1.19479    0.000
 5897.00    1.18528   1.19652    0.000
 5898.00    1.14868   1.20249    0.000
 5899.00    1.10940   1.21809    0.000
 5900.00    1.11979   1.22497    0.000
 5901.00    1.13191   1.22550    0.009
 5902.00    1.23892   1.23626    0.009
 5903.00    1.34256   1.24857    0.009
 5904.00    1.35127   1.25021    0.009
 5905.00    1.35877   1.25204    0.009
 5906.00    1.34886   1.26129    0.009
 5907.00    1.34142   1.26771    0.009
 5908.00    1.35703   1.26732    0.010
 5909.00    1.37513   1.26995    0.010
 5910.00    1.41018   1.27606    0.010
 5911.00    1.43893   1.27881    0.010
 5912.00    1.43461   1.27803    0.010
 5913.00    1.42299   1.27949    0.010
 5914.00    1.38047   1.28361    0.010
 5915.00    1.33480   1.28598    0.010
 5916.00    1.27809   1.28506    0.010
 5917.00    1.23864   1.28439    0.010
 5918.00    1.24996   1.28794    0.009
 5919.00    1.26386   1.29077    0.009
 5920.00    1.28425   1.28871    0.010
 5921.00    1.30832   1.28721    0.010
 5922.00    1.34036   1.29151    0.010
 5923.00    1.36907   1.29391    0.010
 5924.00    1.39154   1.28941    0.010
 5925.00    1.40815   1.28881    0.009
 5926.00    1.41517   1.29542    0.009
 5927.00    1.42082   1.29605    0.009
 5928.00    1.42450   1.28902    0.009
 5929.00    1.43315   1.29015    0.009
 5930.00    1.44809   1.29808    0.009
 5931.00    1.43317   1.29593    0.009
 5932.00    1.38499   1.28876    0.009
 5933.00    1.35239   1.29303    0.009
 5934.00    1.33506   1.29985    0.009
 5935.00    1.33255   1.29358    0.009
 5936.00    1.34286   1.28795    0.009
 5937.00    1.35970   1.29579    0.009
 5938.00    1.38153   1.30011    0.009
 5939.00    1.39040   1.29148    0.010
 5940.00    1.39059   1.28883    0.010
 5941.00    1.40241   1.29778    0.009
 5942.00    1.42104   1.29840    0.009
 5943.00    1.39149   1.29007    0.009
 5944.00    1.33729   1.29183    0.009
 5945.00    1.32466   1.30035    0.009
 5946.00    1.33046   1.29748    0.009
 5947.00    1.32439   1.29073    0.009
 5948.00    1.31381   1.29563    0.009
 5949.00    1.31169   1.30248    0.009
 5950.00    1.31231   1.29906    0.009
 5951.00    1.36172   1.29543    0.009
 5952.00    1.42434   1.30060    0.009
 5953.00    1.44485   1.30475    0.009
 5954.00    1.45602   1.30278    0.009
 5955.00    1.44238   1.30210    0.009
 5956.00    1.42435   1.30585    0.009
 5957.00    1.37828   1.30793    0.009
 5958.00    1.32842   1.30717    0.009
 5959.00    1.30503   1.30689    0.009
 5960.00    1.28418   1.30860    0.009
 5961.00    1.30267   1.31038    0.009
 5962.00    1.32352   1.30986    0.009
 5963.00    1.31371   1.30830    0.009
 5964.00    1.30354   1.30899    0.009
 5965.00    1.35860   1.31099    0.009
 5966.00    1.41288   1.30902    0.009
 5967.00    1.44761   1.30558    0.009
 5968.00    1.47788   1.30673    0.009
 5969.00    1.44807   1.30874    0.009
 5970.00    1.41901   1.30474    0.009
 5971.00    1.39677   1.30094    0.009
 5972.00    1.37472   1.30349    0.009
 5973.00    1.35394   1.30475    0.009
 5974.00    1.34026   1.29936    0.009
 5975.00    1.36303   1.29692    0.009
 5976.00    1.37163   1.30128    0.009
 5977.00    1.32160   1.30109    0.009
 5978.00    1.28814   1.29479    0.009
 5979.00    1.31139   1.29505    0.009
 5980.00    1.33092   1.30058    0.009
 5981.00    1.33970   1.29819    0.009
 5982.00    1.34163   1.29219    0.011
 5983.00    1.32667   1.29527    0.027
 5984.00    1.31391   1.30062   -1.000
 5985.00    1.30583   1.29622   -1.000
 5986.00    1.30529   1.29135   -1.000
 5987.00    1.31867   1.29579   -1.000
 5988.00    1.33444   1.29900   -1.000
 5989.00    1.35407   1.29424   -1.000
 5990.00    1.35878   1.29161   -1.000
 5991.00    1.34235   1.29429   -1.000
 5992.00    1.33143   1.29398   -1.000
 5993.00    1.32735   1.29072   -1.000
 5994.00    1.31083   1.29085    0.037
 5995.00    1.28063   1.29156    0.012
 5996.00    1.23694   1.28843    0.009
 5997.00    1.18019   1.28648    0.009
 5998.00    1.16986   1.28769    0.009
 5999.00    1.19915   1.28646    0.009
 6000.00    1.23742   1.28410    0.009
 6001.00    1.28244   1.28460    0.009
 6002.00    1.30521   1.28330    0.009
 6003.00    1.31328   1.27981    0.009
 6004.00    1.31695   1.28173    0.009
 6005.00    1.31807   1.28546    0.009
 6006.00    1.27447   1.28127    0.009
 6007.00    1.20834   1.27643    0.009
 6008.00    1.19908   1.28203    0.009
 6009.00    1.21461   1.28739    0.009
 6010.00    1.25226   1.28178    0.009
 6011.00    1.29818   1.27916    0.009
 6012.00    1.30379   1.28745    0.009
 6013.00    1.29660   1.29104    0.009
 6014.00    1.28872   1.28521    0.009
 6015.00    1.28065   1.28741    0.009
 6016.00    1.23875   1.29695    0.009
 6017.00    1.18951   1.29740    0.009
 6018.00    1.17087   1.29324    0.009
 6019.00    1.15750   1.29978    0.009
 6020.00    1.17731   1.30827    0.009
 6021.00    1.20147   1.30619    0.009
 6022.00    1.20284   1.30525    0.009
 6023.00    1.20212   1.31352    0.009
 6024.00    1.22027   1.31889    0.009
 6025.00    1.23948   1.31607    0.009
 6026.00    1.27245   1.31827    0.009
 6027.00    1.30528   1.32582    0.009
 6028.00    1.29367   1.32763    0.009
 6029.00    1.28270   1.32584    0.009
 6030.00    1.28676   1.32958    0.009
 6031.00    1.29323   1.33440    0.009
 6032.00    1.33033   1.33376    0.009
 6033.00    1.35958   1.33369    0.009
 6034.00    1.32123   1.33744    0.009
 6035.00    1.29063   1.33899    0.009
 6036.00    1.30959   1.33691    0.009
 6037.00    1.32455   1.33840    0.009
 6038.00    1.31950   1.34144    0.009
 6039.00    1.31530   1.33999    0.009
 6040.00    1.31454   1.33796    0.009
 6041.00    1.31008   1.34007    0.009
 6042.00    1.29321   1.34140    0.009
 6043.00    1.28580   1.33805    0.009
 6044.00    1.30525   1.33650    0.009
 6045.00    1.33204   1.33870    0.009
 6046.00    1.37659   1.33884    0.009
 6047.00    1.40573   1.33505    0.009
 6048.00    1.40266   1.33366    0.009
 6049.00    1.40809   1.33575    0.009
 6050.00    1.42896   1.33544    0.009
 6051.00    1.44340   1.33201    0.009
 6052.00    1.44764   1.33090    0.009
 6053.00    1.42781   1.33341    0.009
 6054.00    1.37444   1.33368    0.009
 6055.00    1.33060   1.33066    0.009
 6056.00    1.29847   1.32973    0.009
 6057.00    1.27985   1.33243    0.009
 6058.00    1.27585   1.33321    0.009
 6059.00    1.27934   1.33020    0.009
 6060.00    1.28997   1.32933    0.009
 6061.00    1.29790   1.33228    0.009
 6062.00    1.30356   1.33363    0.009
 6063.00    1.31036   1.33157    0.009
 6064.00    1.31800   1.32979    0.009
 6065.00    1.32545   1.33051    0.009
 6066.00    1.33278   1.33213    0.009
 6067.00    1.34269   1.33137    0.009
 6068.00    1.35407   1.32774    0.009
 6069.00    1.36895   1.32619    0.009
 6070.00    1.38557   1.32879    0.009
 6071.00    1.38529   1.32824    0.009
 6072.00    1.37777   1.32145    0.009
 6073.00    1.36887   1.31902    0.009
 6074.00    1.35946   1.32397    0.009
 6075.00    1.36273   1.32243    0.009
 6076.00    1.36994   1.31320    0.009
 6077.00    1.35615   1.31210    0.009
 6078.00    1.33691   1.31845    0.009
 6079.00    1.33504   1.31553    0.009
 6080.00    1.33685   1.30632    0.009
 6081.00    1.35577   1.30690    0.009
 6082.00    1.37755   1.31281    0.009
 6083.00    1.36344   1.30933    0.009
 6084.00    1.34481   1.30186    0.009
 6085.00    1.34059   1.30387    0.009
 6086.00    1.33763   1.30840    0.009
 6087.00    1.31826   1.30471    0.009
 6088.00    1.29805   1.29992    0.009
 6089.00    1.29750   1.30269    0.009
 6090.00    1.29728   1.30590    0.009
 6091.00    1.29545   1.30349    0.009
 6092.00    1.29371   1.29992    0.009
 6093.00    1.29394   1.30070    0.009
 6094.00    1.29212   1.30445    0.009
 6095.00    1.26556   1.30555    0.009
 6096.00    1.24579   1.30161    0.009
 6097.00    1.28244   1.29844    0.009
 6098.00    1.31676   1.30233    0.009
 6099.00    1.33658   1.30686    0.009
 6100.00    1.35199   1.30505    0.009
 6101.00    1.34592   1.30028    0.009
 6102.00    1.33192   1.30110    0.009
 6103.00    1.28653   1.30612    0.009
 6104.00    1.24535   1.30621    0.009
 6105.00    1.21802   1.30111    0.009
 6106.00    1.20685   1.30047    0.009
 6107.00    1.24065   1.30424    0.009
 6108.00    1.26128   1.30367    0.009
 6109.00    1.25054   1.29975    0.009
 6110.00    1.24862   1.29966    0.009
 6111.00    1.26486   1.30082    0.009
 6112.00    1.28344   1.29727    0.009
 6113.00    1.30622   1.29481    0.009
 6114.00    1.32005   1.29769    0.009
 6115.00    1.31984   1.29682    0.009
 6116.00    1.31841   1.28934    0.009
 6117.00    1.31529   1.28857    0.009
 6118.00    1.30074   1.29414    0.009
 6119.00    1.27238   1.29131    0.009
 6120.00    1.23966   1.28369    0.009
 6121.00    1.20229   1.28525    0.009
 6122.00    1.18121   1.28934    0.009
 6123.00    1.17545   1.28404    0.009
 6124.00    1.18012   1.27890    0.009
 6125.00    1.19345   1.28394    0.009
 6126.00    1.23850   1.28651    0.009
 6127.00    1.30671   1.27841    0.009
 6128.00    1.33132   1.27522    0.009
 6129.00    1.32798   1.28385    0.009
 6130.00    1.31265   1.28584    0.009
 6131.00    1.29060   1.27490    0.009
 6132.00    1.27847   1.27233    0.009
 6133.00    1.27118   1.28354    0.009
 6134.00    1.26737   1.28682    0.009
 6135.00    1.26502   1.27650    0.009
 6136.00    1.28289   1.27263    0.009
 6137.00    1.30804   1.28102    0.009
 6138.00    1.32134   1.28434    0.009
 6139.00    1.33101   1.27684    0.009
 6140.00    1.32431   1.27195    0.009
 6141.00    1.31345   1.27562    0.009
 6142.00    1.34757   1.27810    0.009
 6143.00    1.39099   1.27233    0.009
 6144.00    1.37870   1.26480    0.009
 6145.00    1.35736   1.26481    0.009
 6146.00    1.35752   1.26788    0.009
 6147.00    1.36028   1.26201    0.009
 6148.00    1.34151   1.25086    0.009
 6149.00    1.32094   1.25002    0.009
 6150.00    1.29242   1.25503    0.009
 6151.00    1.26353   1.24670    0.009
 6152.00    1.26206   1.23254    0.009
 6153.00    1.26088   1.23485    0.009
 6154.00    1.25394   1.24288    0.009
 6155.00    1.24805   1.23173    0.009
 6156.00    1.26265   1.21669    0.009
 6157.00    1.27556   1.22384    0.009
 6158.00    1.26892   1.23415    0.009
 6159.00    1.25973   1.22170    0.009
 6160.00    1.23006   1.20976    0.009
 6161.00    1.19966   1.22207    0.009
 6162.00    1.16483   1.23162    0.009
 6163.00    1.13509   1.21824    0.009
 6164.00    1.12952   1.21211    0.009
 6165.00    1.12195   1.22723    0.009
 6166.00    1.10658   1.23296    0.009
 6167.00    1.09749   1.22161    0.009
 6168.00    1.10868   1.22251    0.009
 6169.00    1.12090   1.23559    0.009
 6170.00    1.13593   1.23525    0.009
 6171.00    1.15085   1.22808    0.009
 6172.00    1.16547   1.23430    0.009
 6173.00    1.18302   1.24174    0.009
 6174.00    1.20648   1.23667    0.009
 6175.00    1.21928   1.23507    0.009
 6176.00    1.21329   1.24298    0.009
 6177.00    1.20432   1.24295    0.009
 6178.00    1.19076   1.23600    0.009
 6179.00    1.19955   1.24038    0.009
 6180.00    1.23859   1.24788    0.009
 6181.00    1.26401   1.24099    0.009
 6182.00    1.27317   1.23389    0.009
 6183.00    1.25470   1.24330    0.009
 6184.00    1.20718   1.24996    0.009
 6185.00    1.18626   1.23933    0.009
 6186.00    1.19001   1.23359    0.009
 6187.00    1.22211   1.24539    0.009
 6188.00    1.27740   1.25064    0.009
 6189.00    1.30356   1.23956    0.009
 6190.00    1.30875   1.23551    0.009
 6191.00    1.27607   1.24649    0.009
 6192.00    1.21945   1.25016    0.009
 6193.00    1.15434   1.24071    0.009
 6194.00    1.08454   1.23792    0.009
 6195.00    1.09498   1.24590    0.009
 6196.00    1.14395   1.24739   -2.000
 6197.00    1.10605   1.23996   -2.000
 6198.00    1.03213   1.23792   -2.000
 6199.00    0.87181   1.24229   -2.000
 6200.00    0.68087   1.24133   -2.000
 6201.00    0.71226   1.23502   -2.000
 6202.00    0.81018   1.23296   -2.000
 6203.00    1.02284   1.23452   -2.000
 6204.00    1.26400   1.23214   -2.000
 6205.00    1.37850   1.22624   -2.000
 6206.00    1.46749   1.22324   -2.000
 6207.00    1.39224   1.22376   -2.000
 6208.00    1.29108   1.22205    0.009
 6209.00    1.24958   1.21631    0.009
 6210.00    1.21506   1.21215    0.009
 6211.00    1.21721   1.21266    0.009
 6212.00    1.22227   1.21222    0.009
 6213.00    1.23929   1.20729    0.009
 6214.00    1.25683   1.20340    0.009
 6215.00    1.24722   1.20426    0.009
 6216.00    1.23685   1.20411    0.009
 6217.00    1.20500   1.20002    0.009
 6218.00    1.17521   1.19811    0.008
 6219.00    1.18308   1.19955    0.008
 6220.00    1.18916   1.19843    0.008
 6221.00    1.17569   1.19471    0.009
 6222.00    1.16021   1.19475    0.009
 6223.00    1.12916   1.19665    0.009
 6224.00    1.10632   1.19549    0.009
 6225.00    1.13147   1.19227    0.009
 6226.00    1.15101   1.19252    0.009
 6227.00    1.14457   1.19471    0.009
 6228.00    1.14334   1.19365    0.009
 6229.00    1.16191   1.18981    0.009
 6230.00    1.18645   1.18964    0.009
 6231.00    1.22990   1.19265    0.009
 6232.00    1.25779   1.19151    0.009
 6233.00    1.24392   1.18681    0.009
 6234.00    1.22603   1.18700    0.009
 6235.00    1.19888   1.18992    0.009
 6236.00    1.18635   1.18758    0.009
 6237.00    1.20293   1.18395    0.009
 6238.00    1.20713   1.18510    0.009
 6239.00    1.18985   1.18628    0.009
 6240.00    1.18772   1.18329    0.008
 6241.00    1.20863   1.18202    0.008
 6242.00    1.21899   1.18370    0.008
 6243.00    1.21526   1.18250    0.008
 6244.00    1.20360   1.17937    0.008
 6245.00    1.18262   1.18160    0.008
 6246.00    1.17593   1.18489    0.008
 6247.00    1.18408   1.18132    0.009
 6248.00    1.18126   1.17822    0.009
 6249.00    1.16842   1.18422    0.009
 6250.00    1.16737   1.18916    0.009
 6251.00    1.17583   1.18379    0.009
 6252.00    1.18224   1.18193    0.009
 6253.00    1.18720   1.19152    0.009
 6254.00    1.19073   1.19670    0.009
 6255.00    1.19336   1.19023    0.009
 6256.00    1.20161   1.19013    0.009
 6257.00    1.21290   1.20148    0.009
 6258.00    1.22370   1.20611    0.009
 6259.00    1.23427   1.20018    0.009
 6260.00    1.18751   1.20162    0.010
 6261.00    1.11740   1.21242    0.011
 6262.00    1.04883   1.21581    0.011
 6263.00    0.98079   1.21112    0.011
 6264.00    1.03939   1.21361    0.011
 6265.00    1.13513   1.22268    0.011
 6266.00    1.20124   1.22451    0.010
 6267.00    1.26014   1.22081    0.010
 6268.00    1.24995   1.22379    0.009
 6269.00    1.22619   1.23101    0.009
 6270.00    1.17621   1.23174    0.009
 6271.00    1.12221   1.22853    0.008
 6272.00    1.12541   1.23119    0.008
 6273.00    1.13507   1.23694    0.008
 6274.00    1.17810   1.23723    0.008
 6275.00    1.22364   1.23409    0.008
 6276.00    1.27261   1.23596    0.009
 6277.00    1.32172   1.24072    0.009
 6278.00    1.30258   1.24055    0.009
 6279.00    1.28280   1.23676    0.009
 6280.00    1.25750   1.23789    0.000
 6281.00    1.23390   1.24257    0.000
 6282.00    1.23915   1.24190    0.000
 6283.00    1.24482   1.23667    0.000
 6284.00    1.25489   1.23685    0.000
 6285.00    1.26334   1.24208    0.000
 6286.00    1.25969   1.24168    0.000
 6287.00    1.25792   1.23517    0.000
 6288.00    1.26690   1.23395    0.000
 6289.00    1.26962   1.23953    0.000
 6290.00    1.24400   1.24024    0.000
 6291.00    1.22426   1.23368    0.000
 6292.00    1.22638   1.23107    0.000
 6293.00    1.22011   1.23620    0.000
 6294.00    1.18782   1.23845    0.000
 6295.00    1.14881   1.23342    0.000
 6296.00    1.09210   1.22953    0.000
 6297.00    1.06581   1.23280    0.000
 6298.00    1.10840   1.23690    0.000
 6299.00    1.15151   1.23468    0.000
 6300.00    1.19564   1.22925    0.000
 6301.00    1.22353   1.22996    0.000
 6302.00    1.22364   1.23636    0.000
 6303.00    1.21571   1.23709    0.000
 6304.00    1.19575   1.22980    0.000
 6305.00    1.16823   1.22820    0.000
 6306.00    1.13078   1.23684    0.000
 6307.00    1.12293   1.24007    0.000
 6308.00    1.14941   1.23157    0.000
 6309.00    1.17152   1.22822    0.000
 6310.00    1.18917   1.23832    0.000
 6311.00    1.22071   1.24357    0.000
 6312.00    1.26478   1.23481    0.000
 6313.00    1.28628   1.23023    0.000
 6314.00    1.28984   1.24063    0.000
 6315.00    1.25776   1.24751    0.000
 6316.00    1.20079   1.23961    0.000
 6317.00    1.17410   1.23379    0.000
 6318.00    1.16599   1.24292    0.000
 6319.00    1.16325   1.25108    0.000
 6320.00    1.16338   1.24487    0.000
 6321.00    1.15687   1.23759    0.008
 6322.00    1.14727   1.24440    0.008
 6323.00    1.15281   1.25353    0.008
 6324.00    1.16442   1.24904    0.008
 6325.00    1.18167   1.24020    0.008
 6326.00    1.20084   1.24442    0.008
 6327.00    1.22568   1.25417    0.008
 6328.00    1.25215   1.25101    0.008
 6329.00    1.26487   1.24105    0.008
 6330.00    1.27432   1.24355    0.008
 6331.00    1.30575   1.25345    0.008
 6332.00    1.34138   1.25063    0.009
 6333.00    1.32917   1.24026    0.009
 6334.00    1.30986   1.24236    0.009
 6335.00    1.27379   1.25181    0.009
 6336.00    1.23591   1.24815    0.009
 6337.00    1.23663   1.23805    0.009
 6338.00    1.24011   1.24096    0.009
 6339.00    1.24922   1.24926    0.009
 6340.00    1.25853   1.24376    0.009
 6341.00    1.25486   1.23450    0.009
 6342.00    1.25080   1.23895    0.009
 6343.00    1.23454   1.24561    0.009
 6344.00    1.21854   1.23792    0.008
 6345.00    1.20681   1.22995    0.008
 6346.00    1.19698   1.23633    0.008
 6347.00    1.20630   1.24143    0.008
 6348.00    1.21383   1.23206    0.008
 6349.00    1.20838   1.22590    0.008
 6350.00    1.20343   1.23426    0.008
 6351.00    1.20119   1.23842    0.008
 6352.00    1.19901   1.22865    0.008
 6353.00    1.19703   1.22480    0.008
 6354.00    1.19669   1.23485    0.008
 6355.00    1.20230   1.23876    0.008
 6356.00    1.20387   1.23003    0.009
 6357.00    1.19308   1.22859    0.009
 6358.00    1.19288   1.23949    0.009
 6359.00    1.22009   1.24347    0.009
 6360.00    1.23261   1.23666    0.009
 6361.00    1.21239   1.23714    0.009
 6362.00    1.19525   1.24757    0.009
 6363.00    1.18407   1.25128    0.009
 6364.00    1.18577   1.24665    0.009
 6365.00    1.20917   1.24821    0.009
 6366.00    1.21790   1.25659    0.009
 6367.00    1.20498   1.25932    0.009
 6368.00    1.18971   1.25678    0.009
 6369.00    1.17140   1.25869    0.009
 6370.00    1.17123   1.26375    0.009
 6371.00    1.19179   1.26485    0.009
 6372.00    1.23630   1.26436    0.009
 6373.00    1.30497   1.26624    0.008
 6374.00    1.32761   1.26736    0.008
 6375.00    1.30934   1.26676    0.008
 6376.00    1.28073   1.26841    0.008
 6377.00    1.24402   1.26999    0.008
 6378.00    1.23634   1.26731    0.008
 6379.00    1.24865   1.26572    0.008
 6380.00    1.26635   1.26957    0.008
 6381.00    1.28731   1.27045    0.008
 6382.00    1.28086   1.26466    0.008
 6383.00    1.25996   1.26340    0.009
 6384.00    1.25241   1.26933    0.009
 6385.00    1.25098   1.26880    0.009
 6386.00    1.26324   1.26093    0.009
 6387.00    1.28089   1.26147    0.009
 6388.00    1.28052   1.26907    0.009
 6389.00    1.27410   1.26640    0.009
 6390.00    1.27534   1.25752    0.009
 6391.00    1.27874   1.26089    0.009
 6392.00    1.29181   1.26941    0.009
 6393.00    1.30714   1.26425    0.009
 6394.00    1.26874   1.25541    0.009
 6395.00    1.22033   1.26161    0.009
 6396.00    1.20637   1.27013    0.009
 6397.00    1.19736   1.26298    0.009
 6398.00    1.18827   1.25497    0.009
 6399.00    1.17917   1.26288    0.009
 6400.00    1.18249   1.27054    0.008
 6401.00    1.18664   1.26269    0.008
 6402.00    1.20830   1.25606    0.008
 6403.00    1.23054   1.26401    0.008
 6404.00    1.19305   1.27027    0.008
 6405.00    1.15728   1.26338    0.009
 6406.00    1.17494   1.25844    0.009
 6407.00    1.19474   1.26485    0.009
 6408.00    1.24654   1.26947    0.009
 6409.00    1.29177   1.26485    0.009
 6410.00    1.27344   1.26186    0.009
 6411.00    1.25421   1.26594    0.009
 6412.00    1.22861   1.26873    0.009
 6413.00    1.20649   1.26670    0.009
 6414.00    1.20308   1.26595    0.009
 6415.00    1.20384   1.26793    0.009
 6416.00    1.22259   1.26852    0.009
 6417.00    1.23835   1.26838    0.009
 6418.00    1.24347   1.27017    0.009
 6419.00    1.24614   1.27099    0.009
 6420.00    1.24151   1.26906    0.009
 6421.00    1.24025   1.26957    0.008
 6422.00    1.24758   1.27390    0.008
 6423.00    1.25613   1.27459    0.008
 6424.00    1.26739   1.27024    0.008
 6425.00    1.27533   1.27041    0.008
 6426.00    1.27695   1.27673    0.008
 6427.00    1.26902   1.27775    0.008
 6428.00    1.24525   1.27161    0.008
 6429.00    1.21976   1.27121    0.009
 6430.00    1.19177   1.27851    0.009
 6431.00    1.18046   1.27953    0.009
 6432.00    1.19049   1.27250    0.009
 6433.00    1.20738   1.27204    0.009
 6434.00    1.23199   1.27932    0.009
 6435.00    1.24552   1.27957    0.009
 6436.00    1.24804   1.27242    0.009
 6437.00    1.23594   1.27255    0.009
 6438.00    1.21103   1.27933    0.009
 6439.00    1.19486   1.27842    0.009
 6440.00    1.18543   1.27144    0.009
 6441.00    1.19534   1.27249    0.009
 6442.00    1.21839   1.27903    0.009
 6443.00    1.25232   1.27731    0.009
 6444.00    1.29273   1.27042    0.009
 6445.00    1.32527   1.27209    0.009
 6446.00    1.35373   1.27906    0.009
 6447.00    1.34143   1.27740    0.009
 6448.00    1.31081   1.27031    0.009
 6449.00    1.27107   1.27191    0.009
 6450.00    1.22781   1.27979    0.009
 6451.00    1.20742   1.27908    0.009
 6452.00    1.19456   1.27152    0.008
 6453.00    1.21698   1.27232    0.008
 6454.00    1.24912   1.28104    0.008
 6455.00    1.23450   1.28159    0.008
 6456.00    1.20928   1.27349    0.008
 6457.00    1.16898   1.27302    0.008
 6458.00    1.12594   1.28204    0.009
 6459.00    1.17162   1.28354    0.009
 6460.00    1.22965   1.27496    0.009
 6461.00    1.28241   1.27318    0.009
 6462.00    1.33464   1.28175    0.009
 6463.00    1.31565   1.28340    0.009
 6464.00    1.29216   1.27436    0.009
 6465.00    1.23719   1.27160    0.009
 6466.00    1.18142   1.27919    0.009
 6467.00    1.15745   1.28002    0.009
 6468.00    1.13517   1.27033    0.009
 6469.00    1.15976   1.26705    0.009
 6470.00    1.18477   1.27357    0.009
 6471.00    1.21575   1.27279    0.009
 6472.00    1.24516   1.26210    0.009
 6473.00    1.25995   1.25872    0.009
 6474.00    1.27260   1.26451    0.009
 6475.00    1.27077   1.26197    0.009
 6476.00    1.27015   1.25012    0.009
 6477.00    1.27585   1.24682    0.009
 6478.00    1.28491   1.25247    0.008
 6479.00    1.30813   1.24894    0.008
 6480.00    1.32153   1.23642    0.008
 6481.00    1.30064   1.23327    0.009
 6482.00    1.27888   1.23936    0.009
 6483.00    1.25458   1.23638    0.009
 6484.00    1.23627   1.22450    0.008
 6485.00    1.23299   1.22162    0.009
 6486.00    1.22946   1.22841    0.009
 6487.00    1.22542   1.22761    0.009
 6488.00    1.21970   1.21809    0.009
 6489.00    1.21086   1.21576    0.009
 6490.00    1.21658   1.22300    0.009
 6491.00    1.24608   1.22521    0.009
 6492.00    1.26933   1.21934    0.009
 6493.00    1.28361   1.21781    0.009
 6494.00    1.28505   1.22480    0.009
 6495.00    1.27030   1.22952    0.009
 6496.00    1.24349   1.22735    0.009
 6497.00    1.20328   1.22666    0.009
 6498.00    1.16954   1.23266    0.009
 6499.00    1.14216   1.23847    0.009
 6500.00    1.11299   1.23879    0.008
 6501.00    1.08228   1.23864    0.008
 6502.00    1.09506   1.24337    0.008
 6503.00    1.14092   1.24887    0.008
 6504.00    1.19274   1.24990    0.008
 6505.00    1.24855   1.24980    0.008
 6506.00    1.28540   1.25357    0.008
 6507.00    1.31114   1.25808    0.009
 6508.00    1.32844   1.25845    0.009
 6509.00    1.34143   1.25795    0.009
 6510.00    1.33241   1.26126    0.009
 6511.00    1.31365   1.26487    0.009
 6512.00    1.32788   1.26418    0.009
 6513.00    1.35465   1.26312    0.009
 6514.00    1.35580   1.26613    0.009
 6515.00    1.34867   1.26906    0.009
 6516.00    1.34498   1.26771    0.009
 6517.00    1.34222   1.26637    0.009
 6518.00    1.28943   1.26880    0.009
 6519.00    1.22555   1.27080    0.009
 6520.00    1.18643   1.26935    0.008
 6521.00    1.15167   1.26836    0.008
 6522.00    1.19207   1.26988    0.008
 6523.00    1.24259   1.27017    0.008
 6524.00    1.26747   1.26856    0.008
 6525.00    1.28990   1.26857    0.008
 6526.00    1.29237   1.26925    0.008
 6527.00    1.29365   1.26695    0.008
 6528.00    1.31485   1.26430    0.000
 6529.00    1.33634   1.26542    0.000
 6530.00    1.32636   1.26588    0.000
 6531.00    1.31589   1.26061    0.000
 6532.00    1.29317   1.25548    0.000
 6533.00    1.26892   1.25715    0.000
 6534.00    1.22408   1.25829    0.000
 6535.00    1.18388   1.25039    0.000
 6536.00    1.18497   1.24151    0.000
 6537.00    1.19175   1.24276    0.000
 6538.00    1.23585   1.24540    0.000
 6539.00    1.27227   1.23586    0.000
 6540.00    1.26946   1.22267    0.000
 6541.00    1.26405   1.22269    0.000
 6542.00    1.24794   1.22751    0.000
 6543.00    1.24369   1.21771    0.000
 6544.00    1.28002   1.20065    0.000
 6545.00    1.30048   1.19922    0.000
 6546.00    1.27523   1.20684    0.000
 6547.00    1.25470   1.19842    0.000
 6548.00    1.24573   1.17898    0.000
 6549.00    1.25465   1.17646    0.000
 6550.00    1.30146   1.18725    0.000
 6551.00    1.33327   1.18201    0.000
 6552.00    1.33740   1.16252    0.000
 6553.00    1.32801   1.15960    0.000
 6554.00    1.29684   1.17323    0.000
 6555.00    1.26031   1.17247    0.000
 6556.00    1.21623   1.15561    0.000
 6557.00    1.18916   1.15310    0.000
 6558.00    1.18323   1.16819    0.000
 6559.00    1.19043   1.17185    0.000
 6560.00    1.21198   1.15979    0.000
 6561.00    1.27362   1.15841    0.000
 6562.00    1.37399   1.17276    0.000
 6563.00    1.51118   1.17928    0.000
 6564.00    1.67974   1.17287    0.000
 6565.00    1.78625   1.17305    0.000
 6566.00    1.84621   1.18463    0.000
 6567.00    1.80963   1.19157    0.000
 6568.00    1.70943   1.19017    0.000
 6569.00    1.59424   1.19193    0.000
 6570.00    1.47039   1.19945    0.000
 6571.00    1.34785   1.20465    0.000
 6572.00    1.22596   1.20676    0.000
 6573.00    1.19616   1.20981    0.000
 6574.00    1.20642   1.21310    0.000
 6575.00    1.23592   1.21537    0.000
 6576.00    1.27260   1.21936    0.000
 6577.00    1.29099   1.22338    0.000
 6578.00    1.30359   1.22320    0.000
 6579.00    1.28509   1.22235    0.000
 6580.00    1.25836   1.22699    0.000
 6581.00    1.27716   1.23181    0.000
 6582.00    1.30581   1.22938    0.000
 6583.00    1.39986   1.22601    0.000
 6584.00    1.50514   1.23060    0.000
 6585.00    1.59290   1.23612    0.000
 6586.00    1.67837   1.23272    0.000
 6587.00    1.62966   1.22782    0.000
 6588.00    1.56869   1.23214    0.000
 6589.00    1.52104   1.23815    0.000
 6590.00    1.47412   1.23462    0.000
 6591.00    1.42400   1.22920    0.000
 6592.00    1.37373   1.23343    0.000
 6593.00    1.31696   1.23966    0.000
 6594.00    1.26081   1.23629    0.000
 6595.00    1.21893   1.23100    0.000
 6596.00    1.17820   1.23540    0.000
 6597.00    1.15196   1.24165    0.000
 6598.00    1.13219   1.23835    0.000
 6599.00    1.16790   1.23331    0.000
 6600.00    1.20061   1.23789    0.000
 6601.00    1.21425   1.24414    0.000
 6602.00    1.22423   1.24092    0.000
 6603.00    1.21601   1.23590    0.000
 6604.00    1.20637   1.24023    0.000
 6605.00    1.19096   1.24629    0.000
 6606.00    1.18070   1.24320    0.000
 6607.00    1.18765   1.23804    0.000
 6608.00    1.19206   1.24156    0.000
 6609.00    1.18932   1.24702    0.009
 6610.00    1.19413   1.24412    0.009
 6611.00    1.21719   1.23886    0.009
 6612.00    1.24419   1.24118    0.009
 6613.00    1.27938   1.24559    0.009
 6614.00    1.29374   1.24295    0.009
 6615.00    1.27031   1.23786    0.009
 6616.00    1.27262   1.23878    0.009
 6617.00    1.31576   1.24194    0.009
 6618.00    1.33627   1.23992    0.009
 6619.00    1.32528   1.23532    0.009
 6620.00    1.31067   1.23473    0.009
 6621.00    1.29163   1.23675    0.009
 6622.00    1.27760   1.23604    0.009
 6623.00    1.26900   1.23249    0.009
 6624.00    1.27568   1.23034    0.009
 6625.00    1.29692   1.23113    0.009
 6626.00    1.28921   1.23228    0.009
 6627.00    1.25718   1.23061    0.009
 6628.00    1.22270   1.22712    0.009
 6629.00    1.18641   1.22624    0.009
 6630.00    1.17837   1.22904    0.009
 6631.00    1.18867   1.22994    0.009
 6632.00    1.17888   1.22590    0.009
 6633.00    1.15767   1.22290    0.009
 6634.00    1.14848   1.22625    0.009
 6635.00    1.14523   1.22978    0.009
 6636.00    1.19547   1.22618    0.009
 6637.00    1.26858   1.22115    0.009
 6638.00    1.29531   1.22379    0.009
 6639.00    1.30503   1.22910    0.009
 6640.00    1.25082   1.22650    0.009
 6641.00    1.17677   1.22017    0.009
 6642.00    1.19063   1.22147    0.009
 6643.00    1.22725   1.22727    0.009
 6644.00    1.25788   1.22568    0.009
 6645.00    1.28726   1.21905    0.009
 6646.00    1.26442   1.21905    0.009
 6647.00    1.23289   1.22428    0.009
 6648.00    1.22803   1.22347    0.009
 6649.00    1.22652   1.21738    0.009
 6650.00    1.17655   1.21640    0.009
 6651.00    1.12236   1.22052    0.009
 6652.00    1.11932   1.22048    0.009
 6653.00    1.11891   1.21558    0.009
 6654.00    1.14214   1.21374    0.009
 6655.00    1.16568   1.21635    0.009
 6656.00    1.18050   1.21734    0.009
 6657.00    1.19445   1.21442    0.009
 6658.00    1.19017   1.21172    0.009
 6659.00    1.18480   1.21232    0.009
 6660.00    1.16617   1.21445    0.009
 6661.00    1.15210   1.21412    0.009
 6662.00    1.17571   1.21097    0.009
 6663.00    1.19586   1.20950    0.009
 6664.00    1.19461   1.21214    0.009
 6665.00    1.19153   1.21421    0.009
 6666.00    1.17952   1.21154    0.009
 6667.00    1.16860   1.20831    0.009
 6668.00    1.16197   1.21025    0.009
 6669.00    1.15531   1.21404    0.009
 6670.00    1.14852   1.21300    0.009
 6671.00    1.15132   1.20892    0.009
 6672.00    1.18074   1.20907    0.009
 6673.00    1.21787   1.21330    0.009
 6674.00    1.27329   1.21445    0.009
 6675.00    1.30479   1.21079    0.009
 6676.00    1.28716   1.20891    0.009
 6677.00    1.26370   1.21209    0.009
 6678.00    1.22983   1.21490    0.009
 6679.00    1.20776   1.21258    0.009
 6680.00    1.20414   1.20947    0.009
 6681.00    1.20154   1.21098    0.009
 6682.00    1.20031   1.21413    0.009
 6683.00    1.20300   1.21335    0.009
 6684.00    1.21042   1.21013    0.009
 6685.00    1.23126   1.20968    0.009
 6686.00    1.26638   1.21184    0.009
 6687.00    1.29375   1.21229    0.009
 6688.00    1.31385   1.21004    0.009
 6689.00    1.29677   1.20821    0.009
 6690.00    1.24891   1.20851    0.009
 6691.00    1.25301   1.20932    0.009
 6692.00    1.29496   1.20865    0.009
 6693.00    1.28638   1.20639    0.009
 6694.00    1.24545   1.20449    0.009
 6695.00    1.18371   1.20481    0.009
 6696.00    1.11031   1.20575    0.000
 6697.00    1.09306   1.20385    0.000
 6698.00    1.10317   1.20003    0.000
 6699.00    1.12884   1.19929    0.000
 6700.00    1.16105   1.20179    0.000
 6701.00    1.18391   1.20105    0.000
 6702.00    1.20341   1.19596    0.000
 6703.00    1.18850   1.19369    0.000
 6704.00    1.16311   1.19737    0.000
 6705.00    1.19425   1.19861    0.000
 6706.00    1.23971   1.19326    0.000
 6707.00    1.24636   1.18931    0.000
 6708.00    1.24502   1.19327    0.000
 6709.00    1.20041   1.19688    0.000
 6710.00    1.14879   1.19252    0.000
 6711.00    1.14635   1.18723    0.000
 6712.00    1.14986   1.19056    0.000
 6713.00    1.18590   1.19621    0.000
 6714.00    1.22463   1.19355    0.000
 6715.00    1.26238   1.18752    0.000
 6716.00    1.30008   1.18946    0.000
 6717.00    1.37965   1.19641    0.000
 6718.00    1.45710   1.19590    0.000
 6719.00    1.38225   1.18942    0.000
 6720.00    1.30809   1.18925    0.000
 6721.00    1.24723   1.19659    0.000
 6722.00    1.19142   1.19828    0.000
 6723.00    1.19364   1.19167    0.000
 6724.00    1.18889   1.18915    0.000
 6725.00    1.12855   1.19577    0.000
 6726.00    1.08149   1.19931    0.000
 6727.00    1.11407   1.19335    0.000
 6728.00    1.15375   1.18891    0.000
 6729.00    1.22705   1.19390    0.000
 6730.00    1.29528   1.19841    0.000
 6731.00    1.34394   1.19385    0.000
 6732.00    1.37597   1.18889    0.000
 6733.00    1.35449   1.19176    0.000
 6734.00    1.33670   1.19595    0.000
 6735.00    1.32894   1.19334    0.000
 6736.00    1.31924   1.18934    0.000
 6737.00    1.30500   1.19059    0.000
 6738.00    1.27984   1.19365    0.000
 6739.00    1.23258   1.19308    0.000
 6740.00    1.18892   1.19060    0.000
 6741.00    1.15156   1.19100    0.000
 6742.00    1.11987   1.19347    0.000
 6743.00    1.09688   1.19391    0.000
 6744.00    1.09625   1.19255    0.000
 6745.00    1.12585   1.19337    0.000
 6746.00    1.15365   1.19565    0.000
 6747.00    1.17931   1.19583    0.000
 6748.00    1.18328   1.19486    0.000
 6749.00    1.16448   1.19668    0.000
 6750.00    1.17620   1.19957    0.000
 6751.00    1.21616   1.19902    0.000
 6752.00    1.20629   1.19716    0.000
 6753.00    1.15573   1.19941    0.010
 6754.00    1.15273   1.20353    0.010
 6755.00    1.18389   1.20282    0.011
 6756.00    1.14774   1.19969    0.011
 6757.00    1.06915   1.20125    0.011
 6758.00    1.11428   1.20593    0.011
 6759.00    1.22760   1.20605    0.011
 6760.00    1.26921   1.20257    0.011
 6761.00    1.27647   1.20251    0.011
 6762.00    1.32243   1.20639    0.011
 6763.00    1.38441   1.20776    0.011
 6764.00    1.37897   1.20498    0.011
 6765.00    1.34969   1.20322    0.011
 6766.00    1.39061   1.20555    0.011
 6767.00    1.45249   1.20766    0.011
 6768.00    1.39501   1.20590    0.011
 6769.00    1.30797   1.20321    0.010
 6770.00    1.25087   1.20378    0.010
 6771.00    1.19978   1.20570    0.010
 6772.00    1.21537   1.20531    0.010
 6773.00    1.24143   1.20311    0.010
 6774.00    1.20251   1.20197    0.010
 6775.00    1.15602   1.20267    0.010
 6776.00    1.17108   1.20354    0.010
 6777.00    1.19099   1.20280    0.010
 6778.00    1.15257   1.20074    0.011
 6779.00    1.11161   1.19993    0.011
 6780.00    1.13808   1.20120    0.011
 6781.00    1.16595   1.20195    0.011
 6782.00    1.22651   1.20040    0.011
 6783.00    1.27965   1.19866    0.011
 6784.00    1.19866   1.19928    0.010
 6785.00    1.12376   1.20099    0.010
 6786.00    1.11565   1.20092    0.010
 6787.00    1.11287   1.19913    0.010
 6788.00    1.15115   1.19857    0.010
 6789.00    1.19018   1.20058    0.010
 6790.00    1.23361   1.20208    0.010
 6791.00    1.26304   1.20049    0.010
 6792.00    1.22772   1.19883    0.010
 6793.00    1.21321   1.20112    0.010
 6794.00    1.27735   1.20395    0.010
 6795.00    1.32359   1.20229    0.010
 6796.00    1.31334   1.19971    0.010
 6797.00    1.30379   1.20219    0.010
 6798.00    1.29615   1.20586    0.010
 6799.00    1.27189   1.20441    0.010
 6800.00    1.20942   1.20111    0.010
 6801.00    1.17797   1.20283    0.010
 6802.00    1.20822   1.20734    0.010
 6803.00    1.21757   1.20734    0.010
 6804.00    1.19071   1.20328    0.010
 6805.00    1.16143   1.20297    0.010
 6806.00    1.12848   1.20801    0.010
 6807.00    1.12382   1.21039    0.010
 6808.00    1.15687   1.20652    0.010
 6809.00    1.18340   1.20346    0.010
 6810.00    1.20230   1.20757    0.010
 6811.00    1.20268   1.21238    0.010
 6812.00    1.18391   1.20993    0.010
 6813.00    1.15355   1.20466    0.010
 6814.00    1.11262   1.20656    0.010
 6815.00    1.12489   1.21263    0.010
 6816.00    1.17997   1.21252    0.010
 6817.00    1.18875   1.20632    0.010
 6818.00    1.16475   1.20486    0.010
 6819.00    1.19631   1.21053    0.010
 6820.00    1.26239   1.21335    0.010
 6821.00    1.28794   1.20808    0.010
 6822.00    1.29150   1.20335    0.010
 6823.00    1.27368   1.20665    0.010
 6824.00    1.24580   1.21136    0.010
 6825.00    1.23552   1.20874    0.010
 6826.00    1.23241   1.20234    0.010
 6827.00    1.19253   1.20205    0.010
 6828.00    1.13987   1.20673    0.010
 6829.00    1.12853   1.20735    0.010
 6830.00    1.12927   1.20156    0.010
 6831.00    1.13758   1.19812    0.010
 6832.00    1.14771   1.20131    0.010
 6833.00    1.13873   1.20441    0.010
 6834.00    1.12601   1.20094    0.010
 6835.00    1.15285   1.19591    0.010
 6836.00    1.18572   1.19659    0.010
 6837.00    1.23388   1.20049    0.010
 6838.00    1.28374   1.19988    0.010
 6839.00    1.24607   1.19484    0.010
 6840.00    1.20185   1.19282    0.010
 6841.00    1.24715   1.19609    0.010
 6842.00    1.29601   1.19815    0.010
 6843.00    1.24918   1.19435    0.010
 6844.00    1.20319   1.19034    0.010
 6845.00    1.21652   1.19218    0.010
 6846.00    1.22672   1.19526    0.010
 6847.00    1.18396   1.19304    0.010
 6848.00    1.14852   1.18950    0.010
 6849.00    1.18968   1.19013    0.010
 6850.00    1.23342   1.19240    0.010
 6851.00    1.29631   1.19170    0.010
 6852.00    1.34332   1.18914    0.010
 6853.00    1.30041   1.18864    0.010
 6854.00    1.26134   1.19081    0.010
 6855.00    1.23968   1.19213    0.010
 6856.00    1.21604   1.18960    0.010
 6857.00    1.18509   1.18689    0.010
 6858.00    1.14929   1.18925    0.010
 6859.00    1.09850   1.19338    0.010
 6860.00    1.07864   1.19183    0.010
 6861.00    1.14015   1.18793    0.010
 6862.00    1.19266   1.18952    0.010
 6863.00    1.22480   1.19438    0.010
 6864.00    1.23990   1.19457    0.010
 6865.00    1.22165   1.19188    0.010
 6866.00    1.18330   1.19246    0.010
 6867.00    1.11067   1.19608    0.010
 6868.00    1.08714   1.19799    0.010
 6869.00    1.13701   1.19757    0.010
 6870.00    1.14448   1.19733    0.010
 6871.00    1.09628   1.19888    0.010
 6872.00    1.09166   1.20168    0.010
 6873.00    1.13749   1.20356    0.010
 6874.00    1.15113   1.20362    0.010
 6875.00    1.13192   1.20366    0.010
 6876.00    1.14424   1.20614    0.010
 6877.00    1.18494   1.20905    0.010
 6878.00    1.17987   1.21039    0.010
 6879.00    1.13849   1.21083    0.010
 6880.00    1.16528   1.21169    0.009
 6881.00    1.23964   1.21313    0.009
 6882.00    1.29701   1.21595    0.009
 6883.00    1.34399   1.21864    0.009
 6884.00    1.31782   1.21784    0.009
 6885.00    1.25257   1.21661    0.009
 6886.00    1.23577   1.21997    0.009
 6887.00    1.24143   1.22489    0.010
 6888.00    1.20738   1.22398    0.010
 6889.00    1.15746   1.22033    0.010
 6890.00    1.15407   1.22211    0.010
 6891.00    1.16655   1.22813    0.010
 6892.00    1.16891   1.22918    0.010
 6893.00    1.16838   1.22485    0.010
 6894.00    1.15319   1.22365    0.010
 6895.00    1.13452   1.22834    0.010
 6896.00    1.16900   1.23179    0.010
 6897.00    1.21362   1.22854    0.010
 6898.00    1.23905   1.22494    0.010
 6899.00    1.26165   1.22731    0.010
 6900.00    1.23080   1.23160    0.010
 6901.00    1.19418   1.22998    0.010
 6902.00    1.16525   1.22549    0.010
 6903.00    1.13686   1.22555    0.010
 6904.00    1.12938   1.22952    0.009
 6905.00    1.12265   1.22961    0.009
 6906.00    1.10702   1.22538    0.009
 6907.00    1.09287   1.22431    0.010
 6908.00    1.13134   1.22708    0.010
 6909.00    1.16561   1.22732    0.010
 6910.00    1.13353   1.22427    0.010
 6911.00    1.10194   1.22372    0.010
 6912.00    1.07539   1.22549    0.010
 6913.00    1.05637   1.22481    0.010
 6914.00    1.09145   1.22214    0.010
 6915.00    1.12398   1.22224    0.010
 6916.00    1.14244   1.22444    0.010
 6917.00    1.14477   1.22377    0.010
 6918.00    1.07598   1.22074    0.010
 6919.00    1.02940   1.22075    0.009
 6920.00    1.06330   1.22372    0.009
 6921.00    1.09509   1.22372    0.009
 6922.00    1.12045   1.22006    0.009
 6923.00    1.13850   1.21952    0.009
 6924.00    1.13764   1.22349    0.009
 6925.00    1.11501   1.22465    0.009
 6926.00    1.04398   1.22082    0.009
 6927.00    1.00461   1.21903    0.009
 6928.00    1.02623   1.22266    0.009
 6929.00    1.04643   1.22519    0.009
 6930.00    1.06425   1.22245    0.009
 6931.00    1.05949   1.21970    0.010
 6932.00    1.02148   1.22211    0.010
 6933.00    1.02723   1.22515    0.010
 6934.00    1.08964   1.22354    0.010
 6935.00    1.11229   1.22099    0.010
 6936.00    1.08956   1.22271    0.010
 6937.00    1.10183   1.22554    0.010
 6938.00    1.14932   1.22473    0.010
 6939.00    1.17326   1.22280    0.010
 6940.00    1.17630   1.22380    0.010
 6941.00    1.16946   1.22635    0.010
 6942.00    1.15490   1.22642    0.009
 6943.00    1.14496   1.22501    0.009
 6944.00    1.13818   1.22585    0.009
 6945.00    1.13982   1.22837    0.009
 6946.00    1.14653   1.22856    0.009
 6947.00    1.16163   1.22691    0.009
 6948.00    1.18115   1.22844    0.009
 6949.00    1.16069   1.23169    0.009
 6950.00    1.12200   1.23149    0.010
 6951.00    1.10518   1.22887    0.010
 6952.00    1.09694   1.23057    0.010
 6953.00    1.10964   1.23483    0.010
 6954.00    1.12934   1.23440    0.010
 6955.00    1.17314   1.23043    0.010
 6956.00    1.22370   1.23132    0.010
 6957.00    1.16336   1.23659    0.010
 6958.00    1.07736   1.23701    0.010
 6959.00    1.07502   1.23174    0.010
 6960.00    1.08821   1.23021    0.010
 6961.00    1.13989   1.23578    0.010
 6962.00    1.19707   1.23877    0.009
 6963.00    1.20251   1.23367    0.009
 6964.00    1.20259   1.22903    0.009
 6965.00    1.25442   1.23325    0.009
 6966.00    1.30970   1.23847    0.009
 6967.00    1.22620   1.23453    0.009
 6968.00    1.13826   1.22835    0.010
 6969.00    1.14510   1.23110    0.010
 6970.00    1.15059   1.23705    0.010
 6971.00    1.11464   1.23519    0.010
 6972.00    1.07946   1.22978    0.010
 6973.00    1.05581   1.23082    0.010
 6974.00    1.03723   1.23570    0.010
 6975.00    1.06729   1.23625    0.010
 6976.00    1.09320   1.23309    0.010
 6977.00    1.09021   1.23272    0.010
 6978.00    1.08603   1.23576    0.010
 6979.00    1.07540   1.23674    0.010
 6980.00    1.05873   1.23459    0.010
 6981.00    1.01601   1.23469    0.010
 6982.00    0.99210   1.23754    0.010
 6983.00    1.03494   1.23760    0.010
 6984.00    1.05888   1.23492    0.009
 6985.00    1.02644   1.23558    0.009
 6986.00    1.02389   1.23907    0.009
 6987.00    1.09726   1.23866    0.009
 6988.00    1.14317   1.23487    0.009
 6989.00    1.12904   1.23480    0.009
 6990.00    1.11575   1.23859    0.010
 6991.00    1.10405   1.23880    0.010
 6992.00    1.12274   1.23414    0.010
 6993.00    1.19173   1.23220    0.010
 6994.00    1.21953   1.23626    0.010
 6995.00    1.18755   1.23791    0.010
 6996.00    1.17855   1.23285    0.010
 6997.00    1.19889   1.22943    0.010
 6998.00    1.21087   1.23361    0.010
 6999.00    1.21345   1.23654    0.010
 7000.00    1.18473   1.23181    0.010
 7001.00    1.12495   1.22749    0.010
 7002.00    1.08618   1.23129    0.010
 7003.00    1.06580   1.23570    0.010
 7004.00    1.02384   1.23164    0.010
 7005.00    0.96526   1.22551    0.010
 7006.00    0.93779   1.22842    0.009
 7007.00    0.93140   1.23569    0.009
 7008.00    0.96297   1.23397    0.010
 7009.00    1.01708   1.22600    0.010
 7010.00    1.01341   1.22667    0.010
 7011.00    0.97982   1.23577    0.010
 7012.00    1.00114   1.23747    0.010
 7013.00    1.04712   1.23008    0.010
 7014.00    1.13583   1.22799    0.010
 7015.00    1.24102   1.23600    0.010
 7016.00    1.19919   1.24149    0.010
 7017.00    1.10911   1.23664    0.010
 7018.00    1.03281   1.23099    0.010
 7019.00    0.96030   1.23599    0.010
 7020.00    1.03417   1.24499    0.010
 7021.00    1.14113   1.24484    0.010
 7022.00    1.11957   1.23872    0.010
 7023.00    1.07478   1.23949    0.010
 7024.00    1.04118   1.24728    0.010
 7025.00    1.00912   1.25071    0.010
 7026.00    0.98705   1.24700    0.010
 7027.00    0.96596   1.24420    0.010
 7028.00    0.98331   1.24843    0.010
 7029.00    1.00308   1.25461    0.010
 7030.00    1.07132   1.25416    0.010
 7031.00    1.14065   1.24909    0.010
 7032.00    1.13277   1.24884    0.010
 7033.00    1.12506   1.25383    0.010
 7034.00    1.12179   1.25519    0.010
 7035.00    1.11758   1.25157    0.010
 7036.00    1.10025   1.24914    0.010
 7037.00    1.08101   1.25025    0.010
 7038.00    1.04416   1.25066    0.011
 7039.00    1.01273   1.24764    0.011
 7040.00    1.01789   1.24371    0.010
 7041.00    1.02166   1.24256    0.010
 7042.00    1.01821   1.24239    0.010
 7043.00    1.03540   1.23877    0.010
 7044.00    1.13945   1.23411    0.010
 7045.00    1.23031   1.23190    0.010
 7046.00    1.27531   1.23031    0.010
 7047.00    1.27971   1.22588    0.010
 7048.00    1.16530   1.22010    0.010
 7049.00    1.09176   1.21765    0.010
 7050.00    1.12025   1.21772   -2.000
 7051.00    1.13687   1.21487   -2.000
 7052.00    1.12798   1.20787   -2.000
 7053.00    1.14693   1.20354   -2.000
 7054.00    1.21786   1.20436   -2.000
 7055.00    1.24879   1.20374   -2.000
 7056.00    1.21448   1.19799   -2.000
 7057.00    1.16190   1.19325   -2.000
 7058.00    1.08318   1.19372   -2.000
 7059.00    1.04851   1.19462   -2.000
 7060.00    1.06927   1.19147   -2.000
 7061.00    1.07551   1.18605   -2.000
 7062.00    1.06565   1.18484   -2.000
 7063.00    1.09385   1.18722   -2.000
 7064.00    1.15927   1.18617   -2.000
 7065.00    1.17796   1.18140   -2.000
 7066.00    1.15634   1.17988   -2.000
 7067.00    1.10743   1.18122   -2.000
 7068.00    1.03779   1.17927   -2.000
 7069.00    1.01486   1.17506   -2.000
 7070.00    1.02314   1.17378   -2.000
 7071.00    1.10134   1.17468   -2.000
 7072.00    1.22043   1.17263   -2.000
 7073.00    1.28279   1.16761   -2.000
 7074.00    1.31623   1.16533   -2.000
 7075.00    1.29899   1.16683   -2.000
 7076.00    1.25937   1.16574   -2.000
 7077.00    1.20333   1.15878   -2.000
 7078.00    1.14106   1.15387   -2.000
 7079.00    1.15551   1.15660   -2.000
 7080.00    1.19467   1.15811   -2.000
 7081.00    1.24419   1.15232   -2.000
 7082.00    1.29649   1.14520   -2.000
 7083.00    1.23454   1.14530   -2.000
 7084.00    1.14737   1.14910   -2.000
 7085.00    1.08478   1.14805   -2.000
 7086.00    1.02651   1.14020   -2.000
 7087.00    1.06867   1.13656   -2.000
 7088.00    1.12429   1.14119   -2.000
 7089.00    1.09205   1.14439   -2.000
 7090.00    1.05147   1.13940   -2.000
 7091.00    0.98874   1.13267   -2.000
 7092.00    0.92472   1.13490   -2.000
 7093.00    0.91052   1.14079   -2.000
 7094.00    0.89857   1.14102   -2.000
 7095.00    1.02576   1.13408   -2.000
 7096.00    1.14727   1.13128   -2.000
 7097.00    1.12767   1.13648   -2.000
 7098.00    1.10413   1.14140   -2.000
 7099.00    1.02812   1.13789   -2.000
 7100.00    0.96302   1.13188   -2.000
 7101.00    0.99461   1.13320   -2.000
 7102.00    1.02392   1.13858   -2.000
 7103.00    1.03830   1.13962   -2.000
 7104.00    1.05547   1.13454   -2.000
 7105.00    1.08689   1.13161   -2.000
 7106.00    1.09607   1.13367   -2.000
 7107.00    1.01372   1.13723   -2.000
 7108.00    0.95856   1.13678   -2.000
 7109.00    0.99612   1.13285   -2.000
 7110.00    1.02672   1.12987   -2.000
 7111.00    1.03734   1.13087   -2.000
 7112.00    1.02576   1.13440   -2.000
 7113.00    0.95969   1.13380   -2.000
 7114.00    0.92104   1.12864   -2.000
 7115.00    0.94040   1.12447   -2.000
 7116.00    0.94551   1.12792   -2.000
 7117.00    0.92442   1.13308   -2.000
 7118.00    0.97369   1.13000   -2.000
 7119.00    1.13600   1.12171   -2.000
 7120.00    1.23847   1.12070   -2.000
 7121.00    1.25658   1.12897   -2.000
 7122.00    1.21199   1.13137   -2.000
 7123.00    1.08964   1.12276   -2.000
 7124.00    1.10528   1.11669   -2.000
 7125.00    1.27176   1.12336   -2.000
 7126.00    1.22965   1.13066   -2.000
 7127.00    0.98636   1.12689   -2.000
 7128.00    0.86706   1.11877   -2.000
 7129.00    0.85318   1.12006   -2.000
 7130.00    0.88609   1.12943   -2.000
 7131.00    0.95405   1.13061   -2.000
 7132.00    0.96077   1.12235   -2.000
 7133.00    0.92720   1.12041   -2.000
 7134.00    0.89848   1.12858   -2.000
 7135.00    0.87255   1.13213   -2.000
 7136.00    0.84642   1.12757   -2.000
 7137.00    0.82020   1.12553   -2.000
 7138.00    0.87072   1.12998   -2.000
 7139.00    0.95458   1.13375   -2.000
 7140.00    0.97800   1.13136   -2.000
 7141.00    0.97891   1.12898   -2.000
 7142.00    0.96274   1.13298   -2.000
 7143.00    0.94116   1.13720   -2.000
 7144.00    0.95092   1.13405   -2.000
 7145.00    0.96894   1.13154   -2.000
 7146.00    0.93601   1.13734   -2.000
 7147.00    0.89209   1.14229   -2.000
 7148.00    0.94441   1.13813   -2.000
 7149.00    1.01318   1.13324   -2.000
 7150.00    0.97055   1.13804   -2.000
 7151.00    0.91349   1.14526   -2.000
 7152.00    0.97976   1.14451   -2.000
 7153.00    1.05722   1.13807   -2.000
 7154.00    1.00830   1.13784   -2.000
 7155.00    0.95246   1.14575   -2.000
 7156.00    0.94899   1.14927   -2.000
 7157.00    0.94815   1.14377   -2.000
 7158.00    1.08657   1.13985   -2.000
 7159.00    1.21684   1.14458   -2.000
 7160.00    1.16178   1.14925   -2.000
 7161.00    1.09265   1.14824   -2.000
 7162.00    0.84619   1.14539   -2.000
 7163.00    0.66818   1.14539   -2.000
 7164.00    1.07418   1.14742   -2.000
 7165.00    1.40638   1.14804   -2.000
 7166.00    1.27081   1.14776   -2.000
 7167.00    1.14635   1.14787   -2.000
 7168.00    1.07700   1.14740   -2.000
 7169.00    1.00138   1.14585   -2.000
 7170.00    0.90051   1.14700   -2.000
 7171.00    0.84458   1.14947   -2.000
 7172.00    0.93880   1.14790   -2.000
 7173.00    0.99608   1.14356   -2.000
 7174.00    0.94917   1.14307   -2.000
 7175.00    0.91935   1.14786   -2.000
 7176.00    0.93072   1.14922   -2.000
 7177.00    0.95234   1.14379   -2.000
 7178.00    0.99531   1.14047   -2.000
 7179.00    1.03747   1.14559   -2.000
 7180.00    1.07818   1.14944   -2.000
 7181.00    1.04943   1.14414   -2.000
 7182.00    0.91074   1.13818   -2.000
 7183.00    0.86015   1.14150   -2.000
 7184.00    0.93194   1.14903   -2.000
 7185.00    0.97272   1.14770   -2.000
 7186.00    0.97560   1.13961   -2.000
 7187.00    1.02881   1.13885   -2.000
 7188.00    1.13630   1.14784   -2.000
 7189.00    1.08141   1.15167   -2.000
 7190.00    0.87213   1.14406   -2.000
 7191.00    0.77100   1.13811   -2.000
 7192.00    0.76053   1.14433   -2.000
 7193.00    0.78289   1.15290   -2.000
 7194.00    0.82948   1.15069   -2.000
 7195.00    0.89003   1.14346   -2.000
 7196.00    0.95963   1.14411   -2.000
 7197.00    0.95314   1.15279   -2.000
 7198.00    0.90348   1.15656   -2.000
 7199.00    0.99785   1.15103   -2.000
 7200.00    1.16334   1.14669   -2.000
 7201.00    0.96107   1.15225   -2.000
 7202.00    0.60175   1.15987   -2.000
 7203.00    0.56112   1.15906   -2.000
 7204.00    0.63709   1.15486   -2.000
 7205.00    0.67139   1.15632   -2.000
 7206.00    0.69279   1.16286   -2.000
 7207.00    0.76379   1.16577   -2.000
 7208.00    0.84759   1.16343   -2.000
 7209.00    0.87047   1.16267   -2.000
 7210.00    0.88053   1.16750   -2.000
 7211.00    0.90278   1.17272   -2.000
 7212.00    0.92705   1.17234   -2.000
 7213.00    1.00310   1.17093   -2.000
 7214.00    1.08562   1.17406   -2.000
 7215.00    0.97080   1.17910   -2.000
 7216.00    0.83889   1.18028   -2.000
 7217.00    0.87471   1.17934   -2.000
 7218.00    0.91906   1.18154   -2.000
