###################################################################
## OUTPUT of StarlightChains_v04.for    [Cid@UFSC - 01/Apr/2007] ##
###################################################################

## Some input info
KUG0210-078._2_57.txt                    [arq_obs]
Base.CB07.vall.4m                        [arq_base]
Masks.EmLines.NEW.gm                     [arq_masks]
StCv04.C11.config                        [arq_config]
   66                                    [N_base]
    0                                    [N_YAV_components = # of components with extra extinction!]
    0                                    [i_FitPowerLaw (1/0 = Yes/No)]
-9.99                                    [alpha_PowerLaw]
CCM                                      [red_law_option]
 1.458241                                [q_norm = A(l_norm)/A(V)]

## (Re)Sampling Parameters
 3741.00                                 [l_ini (A)]
 7218.00                                 [l_fin (A)]
    1.00                                 [dl    (A)]     (OBS: dl_cushion =    50.00 A)

## Normalization info
 4020.00                                 [l_norm (A) - for base]
 4010.00                                 [llow_norm (A) - window for f_obs]
 4060.00                                 [lupp_norm (A) - window for f_obs]
4.310027E-18                             [fobs_norm (in input units)]

## S/N
 3691.00                                 [llow_SN (A) - window for S/N]
 7268.00                                 [lupp_SN (A) - window for S/N]
   1.653                                 [S/N in S/N window]
   1.503                                 [S/N in norm. window]
   0.006                                 [S/N_err in S/N window]
   0.005                                 [S/N_err in norm. window]
  1.0000                                 [fscale_chi2]

## etc...
    -2007203                             [idum_orig]
  2387                                   [NOl_eff]
  2387                                   [Nl_eff]
     0    NSIGMA                         [Ntot_cliped & clip_method]
   393750                                [Nglobal_steps]
   7                                     [N_chains]
  19                                     [NEX0s_base = N_base in EX0s-fits]
 0   0   1       84   2.0   1.056E-02    [Clip-Bug, RC-Crash & Burn-In warning-flags, n_censored_weights, wei_nsig_threshold & wei_limit]
     9      8.863      8.486      0.377  [idt_all, wdt_TotTime, wdt_UsrTime & wdt_SysTime (sec)]

## Synthesis Results - Best model ##

 1.93304E-05                             [chi2/Nl_eff]
    80.09039                             [adev (%)]

   130.00000                             [sum-of-x (%)]
 1.57104E-16                             [Flux_tot (units of input spectrum!)]
 9.05830E-15                             [Mini_tot (???)]
 8.70731E-15                             [Mcor_tot (???)]

 343.66                                  [v0_min  (km/s)]
  64.36                                  [vd_min  (km/s)]
 2.4820                                  [AV_min  (mag)]
 0.0000                                  [YAV_min (mag)]

# j     x_j(%)      Mini_j(%)     Mcor_j(%)     age_j(yr)     Z_j      (L/M)_j    YAV?  Mstars   component_j        a/Fe...       SSP_chi2r SSP_adev(%)   SSP_AV   SSP_x(%)
  1      0.0000     0.0000E+00    0.0000E+00    1.000000E+06  0.00400  1.094E-02    0   1.0000   age020_m42            0.0000     1.7045E-05    75.5184   2.0554   159.4812
  2      0.0000     0.0000E+00    0.0000E+00    3.160000E+06  0.00400  4.007E-02    0   0.9999   age045_m42            0.0000     1.6634E-05    73.1926   1.2890   171.7403
  3      0.0000     0.0000E+00    0.0000E+00    5.010000E+06  0.00400  2.539E-02    0   0.9488   age055_m42            0.0000     1.6746E-05    74.1319   1.6289   166.8894
  4      0.0000     0.0000E+00    0.0000E+00    6.610000E+06  0.00400  2.620E-02    0   0.9220   age061_m42            0.0000     1.6656E-05    73.1632   1.2218   171.7888
  5      0.0000     0.0000E+00    0.0000E+00    1.000000E+07  0.00400  1.322E-02    0   0.8862   age070_m42            0.0000     1.7131E-05    76.1939   1.0030   172.1302
  6      0.0000     0.0000E+00    0.0000E+00    1.445000E+07  0.00400  7.883E-03    0   0.8571   age078_m42            0.0000     1.7083E-05    76.3663   1.3319   167.9261
  7      3.4943     8.8781E+00    7.5495E+00    2.512000E+07  0.00400  5.251E-03    0   0.8174   age090_m42            0.0000     1.7180E-05    76.5093   0.8796   172.6530
  8      0.0000     0.0000E+00    0.0000E+00    4.000000E+07  0.00400  3.649E-03    0   0.7851   age104_m42            0.0000     1.7080E-05    75.8848   0.6411   174.6810
  9      0.0000     0.0000E+00    0.0000E+00    5.500000E+07  0.00400  3.098E-03    0   0.7629   age110_m42            0.0000     1.6849E-05    74.0275   0.7591   176.3391
 10      0.0000     0.0000E+00    0.0000E+00    1.015200E+08  0.00400  2.228E-03    0   0.7207   age116_m42            0.0000     1.6778E-05    72.6760   0.7531   177.7949
 11      0.0000     0.0000E+00    0.0000E+00    2.861200E+08  0.00400  1.093E-03    0   0.6648   age125_m42            0.0000     1.7020E-05    73.3647   0.1973   182.1734
 12      0.0000     0.0000E+00    0.0000E+00    5.088000E+08  0.00400  6.597E-04    0   0.6365   age130_m42            0.0000     1.6877E-05    71.4976   0.1486   185.6606
 13      0.0000     0.0000E+00    0.0000E+00    1.434000E+09  0.00400  2.132E-04    0   0.5798   age139_m42            0.0000     1.6542E-05    70.1458  -0.8575   191.3491
 14      0.0000     0.0000E+00    0.0000E+00    4.250000E+09  0.00400  5.895E-05    0   0.5377   age158_m42            0.0000     1.6686E-05    80.0569  -1.0000   177.3092
 15      0.0000     0.0000E+00    0.0000E+00    7.500000E+09  0.00400  3.510E-05    0   0.5212   age171_m42            0.0000     1.7219E-05    86.2828  -1.0000   170.5978
 16      0.0000     0.0000E+00    0.0000E+00    1.300000E+10  0.00400  2.005E-05    0   0.5034   age193_m42            0.0000     1.7963E-05    91.6882  -1.0000   164.2711
 17      0.0000     0.0000E+00    0.0000E+00    1.800000E+10  0.00400  1.525E-05    0   0.4967   age213_m42            0.0000     1.8052E-05    92.6858  -1.0000   162.7342
 18     52.5103     5.6588E+01    5.8869E+01    1.000000E+06  0.00800  1.238E-02    0   1.0000   age020_m52            0.0000     1.7062E-05    75.6218   2.0540   159.7529
 19      0.0000     0.0000E+00    0.0000E+00    3.160000E+06  0.00800  3.074E-02    0   0.9966   age045_m52            0.0000     1.6962E-05    75.2268   1.9719   161.4590
 20      0.0000     0.0000E+00    0.0000E+00    5.010000E+06  0.00800  2.668E-02    0   0.9443   age055_m52            0.0000     1.6801E-05    74.5802   1.7206   165.1328
 21      0.0000     0.0000E+00    0.0000E+00    6.610000E+06  0.00800  2.136E-02    0   0.9177   age061_m52            0.0000     1.7076E-05    76.3716   0.4974   174.7202
 22      0.0000     0.0000E+00    0.0000E+00    1.000000E+07  0.00800  1.215E-02    0   0.8827   age070_m52            0.0000     1.7300E-05    77.4240   1.2017   170.7695
 23      0.0000     0.0000E+00    0.0000E+00    1.445000E+07  0.00800  8.717E-03    0   0.8552   age078_m52            0.0000     1.7093E-05    76.4466   1.2986   170.1918
 24      3.9245     9.3630E+00    7.9502E+00    2.512000E+07  0.00800  5.592E-03    0   0.8162   age090_m52            0.0000     1.7183E-05    76.6387   0.9446   174.5834
 25      0.0000     0.0000E+00    0.0000E+00    4.000000E+07  0.00800  3.896E-03    0   0.7841   age104_m52            0.0000     1.7007E-05    75.5769   0.8373   176.8537
 26      0.0000     0.0000E+00    0.0000E+00    1.015200E+08  0.00800  2.148E-03    0   0.7226   age116_m52            0.0000     1.6857E-05    73.6446   0.7399   178.3290
 27      0.0000     0.0000E+00    0.0000E+00    2.861200E+08  0.00800  9.925E-04    0   0.6683   age125_m52            0.0000     1.6909E-05    71.5799   0.2172   187.1727
 28      0.0000     0.0000E+00    0.0000E+00    9.047900E+08  0.00800  3.141E-04    0   0.6138   age135_m52            0.0000     1.6670E-05    68.7838  -0.6544   198.7394
 29      0.0000     0.0000E+00    0.0000E+00    1.434000E+09  0.00800  1.719E-04    0   0.5853   age139_m52            0.0000     1.6606E-05    76.6854  -1.0000   188.5313
 30      0.0000     0.0000E+00    0.0000E+00    2.500000E+09  0.00800  7.872E-05    0   0.5600   age150_m52            0.0000     1.7063E-05    85.1975  -1.0000   176.3762
 31      0.0000     0.0000E+00    0.0000E+00    4.250000E+09  0.00800  4.336E-05    0   0.5426   age158_m52            0.0000     1.7142E-05    85.7384  -1.0000   174.2956
 32      0.0000     0.0000E+00    0.0000E+00    6.250000E+09  0.00800  3.159E-05    0   0.5319   age166_m52            0.0000     1.8050E-05    92.1550  -1.0000   167.5508
 33      0.0000     0.0000E+00    0.0000E+00    1.300000E+10  0.00800  1.361E-05    0   0.5073   age193_m52            0.0000     2.1456E-05   107.0716  -1.0000   148.0120
 34      0.0000     0.0000E+00    0.0000E+00    1.800000E+10  0.00800  9.886E-06    0   0.4990   age213_m52            0.0000     2.2604E-05   109.5268  -1.0000   142.7780
 35      0.0000     0.0000E+00    0.0000E+00    1.000000E+06  0.02000  1.544E-02    0   1.0000   age020_m62            0.0000     1.7098E-05    75.6234   2.0495   160.1358
 36      0.0000     0.0000E+00    0.0000E+00    3.160000E+06  0.02000  3.762E-02    0   0.9858   age045_m62            0.0000     1.7024E-05    75.2646   1.9823   161.8368
 37      0.0000     0.0000E+00    0.0000E+00    5.010000E+06  0.02000  3.296E-02    0   0.9342   age055_m62            0.0000     1.6665E-05    73.3250   1.5758   169.5585
 38      0.0000     0.0000E+00    0.0000E+00    8.710000E+06  0.02000  1.154E-02    0   0.8861   age067_m62            0.0000     1.8623E-05    83.8544   0.7695   169.4149
 39      0.0000     0.0000E+00    0.0000E+00    1.445000E+07  0.02000  7.663E-03    0   0.8472   age078_m62            0.0000     1.7583E-05    79.2815   0.8807   172.9342
 40      0.0000     0.0000E+00    0.0000E+00    2.512000E+07  0.02000  4.532E-03    0   0.8099   age090_m62            0.0000     1.7581E-05    79.2978   0.8782   172.1285
 41      0.0000     0.0000E+00    0.0000E+00    5.500000E+07  0.02000  2.733E-03    0   0.7595   age110_m62            0.0000     1.7015E-05    75.4966   0.8212   175.5816
 42      0.0000     0.0000E+00    0.0000E+00    1.609000E+08  0.02000  1.369E-03    0   0.6985   age120_m62            0.0000     1.6957E-05    72.5976   0.6085   182.7361
 43      0.0000     0.0000E+00    0.0000E+00    2.861200E+08  0.02000  9.013E-04    0   0.6714   age125_m62            0.0000     1.7054E-05    71.0468   0.3276   189.4031
 44      0.0000     0.0000E+00    0.0000E+00    5.088000E+08  0.02000  5.028E-04    0   0.6449   age130_m62            0.0000     1.6834E-05    68.3312  -0.1177   197.9639
 45      0.0000     0.0000E+00    0.0000E+00    9.047900E+08  0.02000  2.428E-04    0   0.6179   age135_m62            0.0000     1.6344E-05    67.3640  -0.7453   199.4785
 46      0.0000     0.0000E+00    0.0000E+00    1.434000E+09  0.02000  1.263E-04    0   0.5908   age139_m62            0.0000     1.6365E-05    73.4510  -1.0000   191.8265
 47      0.0000     0.0000E+00    0.0000E+00    2.500000E+09  0.02000  5.985E-05    0   0.5673   age150_m62            0.0000     1.7184E-05    85.2119  -1.0000   178.3994
 48      0.0000     0.0000E+00    0.0000E+00    4.250000E+09  0.02000  3.271E-05    0   0.5468   age158_m62            0.0000     1.8749E-05    94.5839  -1.0000   166.0809
 49      0.0000     0.0000E+00    0.0000E+00    1.000000E+10  0.02000  1.360E-05    0   0.5167   age181_m62            0.0000     2.1628E-05   104.6511  -1.0000   151.1231
 50      0.0000     0.0000E+00    0.0000E+00    1.800000E+10  0.02000  7.124E-06    0   0.5013   age213_m62            0.0000     2.3891E-05   109.8930  -1.0000   140.7245
 51     24.5510     1.2637E+01    1.3143E+01    1.000000E+06  0.05000  2.592E-02    0   0.9998   age020_m72            0.0000     1.7212E-05    75.9945   2.0481   159.9268
 52     45.5198     1.2534E+01    1.2488E+01    3.160000E+06  0.05000  4.845E-02    0   0.9577   age045_m72            0.0000     1.6768E-05    74.2658   1.8522   164.5898
 53      0.0000     0.0000E+00    0.0000E+00    5.010000E+06  0.05000  3.072E-02    0   0.9147   age055_m72            0.0000     1.7276E-05    77.8450   1.4369   168.1147
 54      0.0000     0.0000E+00    0.0000E+00    6.610000E+06  0.05000  1.455E-02    0   0.8877   age061_m72            0.0000     1.9223E-05    86.2022   0.8556   168.3965
 55      0.0000     0.0000E+00    0.0000E+00    1.000000E+07  0.05000  9.074E-03    0   0.8524   age070_m72            0.0000     1.7240E-05    78.0087   1.6179   167.5160
 56      0.0000     0.0000E+00    0.0000E+00    2.512000E+07  0.05000  4.250E-03    0   0.7902   age090_m72            0.0000     1.7115E-05    76.8409   1.3054   171.0528
 57      0.0000     0.0000E+00    0.0000E+00    4.000000E+07  0.05000  3.087E-03    0   0.7618   age104_m72            0.0000     1.7211E-05    76.7724   1.0784   173.6164
 58      0.0000     0.0000E+00    0.0000E+00    1.015200E+08  0.05000  1.700E-03    0   0.7096   age116_m72            0.0000     1.7099E-05    73.9339   0.7760   180.6930
 59      0.0000     0.0000E+00    0.0000E+00    2.861200E+08  0.05000  7.384E-04    0   0.6633   age125_m72            0.0000     1.6887E-05    69.4630   0.1567   194.0172
 60      0.0000     0.0000E+00    0.0000E+00    5.088000E+08  0.05000  3.819E-04    0   0.6372   age130_m72            0.0000     1.6446E-05    67.3633  -0.3963   200.8179
 61      0.0000     0.0000E+00    0.0000E+00    9.047900E+08  0.05000  1.676E-04    0   0.6110   age135_m72            0.0000     1.6093E-05    69.8888  -1.0000   197.1265
 62      0.0000     0.0000E+00    0.0000E+00    1.434000E+09  0.05000  8.837E-05    0   0.5874   age139_m72            0.0000     1.7223E-05    85.1273  -1.0000   181.2296
 63      0.0000     0.0000E+00    0.0000E+00    2.500000E+09  0.05000  4.233E-05    0   0.5598   age150_m72            0.0000     1.8770E-05    94.3028  -1.0000   167.7906
 64      0.0000     0.0000E+00    0.0000E+00    6.250000E+09  0.05000  1.435E-05    0   0.5249   age166_m72            0.0000     2.2451E-05   107.4417  -1.0000   146.4733
 65      0.0000     0.0000E+00    0.0000E+00    1.300000E+10  0.05000  6.513E-06    0   0.5036   age193_m72            0.0000     2.5745E-05   114.0375  -1.0000   134.9790
 66      0.0000     0.0000E+00    0.0000E+00    1.800000E+10  0.05000  4.527E-06    0   0.4945   age213_m72            0.0000     2.7897E-05   117.4601  -1.0000   127.0872


## Synthesis Results - Average & Chains ##

# j      x_j: min, <> & last-chain-values for 1 ...  7 chains
  1      0.0000      1.9639      0.3737      1.7281      0.0000      0.0000      0.0000     32.6837      1.8623
  2      0.0000      2.1344      0.9662      0.7028      1.0151      0.0716      6.1856      0.0022     32.8548
  3      0.0000      1.6754      3.4706      3.4898      0.0000      0.0000      0.2902      0.0000      0.6973
  4      0.0000      1.6423      4.6542      0.0000      1.4429      0.0000      0.0000      0.0531      1.0506
  5      0.0000      1.5003      0.6973      0.0000      0.0000      0.0000      0.0000      0.0000      0.1302
  6      0.0000      2.3736      0.1951      0.0000      0.0000      0.0000     27.4713      0.0000      0.4497
  7      3.4943      1.8119      0.0000      4.0516      0.0000      0.8327      1.2143      2.3461      1.3008
  8      0.0000      1.9541      0.0000      6.1257      0.0000      0.0037      7.3006      1.2148      4.7161
  9      0.0000      1.5374      4.2790      6.1388      0.3700      0.0000      0.0000      0.0000      0.0000
 10      0.0000      1.4390      0.0000      0.6605      0.0000      0.0000     21.6254     24.9898      1.5520
 11      0.0000      2.5117      0.3820      0.0000      0.8404      0.0016      0.0000      0.0000      1.0036
 12      0.0000      1.7177      0.1046     10.3366      0.0000      3.0640      0.0000      0.0000      0.0000
 13      0.0000      1.2187      3.5563      0.0000      0.0000      0.0000      1.8406      0.0000      2.4180
 14      0.0000      1.5930      0.0000      0.0292      0.0000      0.5311      1.2276      0.0000      0.2383
 15      0.0000      1.3652      0.0000      1.0088      1.3802      0.0000      0.0000      0.0042     17.8242
 16      0.0000      1.8761      0.1550      2.4261      0.0000      0.0336      4.9371      0.0000      0.0176
 17      0.0000      1.9716      0.0074      0.0604      0.0000      0.0000      0.0000      0.1047      1.1375
 18     52.5103      1.6341     19.2991      1.4986     26.4981      0.0000      0.0001      0.0000      0.0000
 19      0.0000      2.0666      3.7131      0.0000      9.6380     15.5773      0.0458     13.9617     31.0833
 20      0.0000      1.7932      0.0000      0.0000      2.3159     22.1057      0.0000      0.0000      0.0000
 21      0.0000      1.8561      0.8954      7.2252      0.6652      0.0000     10.3619      0.0000      0.0201
 22      0.0000      1.8430      1.9961     29.7867      0.0000      0.0000      0.0000      0.0000      0.0000
 23      0.0000      2.2344     11.9508      0.0000      5.9192     12.5226      0.0855      0.0000      0.0000
 24      3.9245      1.3748      0.0000      3.9663      1.2642      0.0000      0.0000     11.8979      0.0000
 25      0.0000      1.8541      0.1075     13.6162      0.0372      0.0000      5.7460      2.8715      1.1935
 26      0.0000      1.8529      0.0000      0.0000      5.9569      8.9022      0.2790      0.0000      0.0000
 27      0.0000      2.1047      0.0000      0.0000     13.2314     12.2722      0.1181      0.0065      0.0000
 28      0.0000      1.8102      0.0000      0.0000      0.0000      1.0361      0.0000      0.0000      0.0000
 29      0.0000      1.3874      0.0000      0.0000      0.0000      0.0000      0.0000      0.0000      0.0000
 30      0.0000      1.3669      0.7950      0.0000      0.0000      1.6108      0.0000      0.0000      0.0355
 31      0.0000      2.0702      1.3630      1.0010      4.4531      0.0000      0.0589      0.0032      7.7258
 32      0.0000      1.9740      0.0267      0.0000      0.0000      0.0000      4.4558      0.0000      0.0000
 33      0.0000      1.5243      1.5272      0.0000      1.6871      0.8099      0.0000      0.0000      0.1943
 34      0.0000      1.6896      0.8249      0.0000      0.0000      0.0388      3.9564      0.1170      0.0000
 35      0.0000      1.4662      0.0000      0.0003      0.0000      0.0000      0.0000      0.0000      0.7385
 36      0.0000      1.2525     17.8495      0.0000      4.9083      0.0993      0.0000      0.0000      3.4823
 37      0.0000      1.9593      0.0000      0.0000      0.0000      0.7144      0.0000      1.0063      0.0000
 38      0.0000      1.5097      0.0000      0.0123      0.0000      0.0000      0.0045      0.0000      0.0863
 39      0.0000      2.3172      0.0000      0.0000      0.0000      0.0000      0.0000      0.0000      0.2935
 40      0.0000      2.0461      0.0000      0.0963      0.4577      0.0000      0.0000      0.0226      0.7410
 41      0.0000      1.4773      5.0270      0.0000      0.0000      0.4098      8.8901      2.9555      0.0000
 42      0.0000      1.8461      0.0000      1.6177      5.4554      0.0000      3.2222      0.0000      0.0213
 43      0.0000      2.4679      0.0000      0.0000      3.6779      0.0000      1.7838      0.0000      0.0000
 44      0.0000      2.0550      0.0000      0.0000      0.0000      2.4294      0.0000      0.3884      0.4207
 45      0.0000      1.6664      2.4877      0.0962      0.0000      0.0000      0.0000      0.0000      0.0000
 46      0.0000      1.7166      0.0000      0.0000      0.0000      0.0000      0.0000      0.0000      0.0062
 47      0.0000      2.0572      0.0000      0.3713      0.0000      0.0000      0.0023      0.0000      0.0000
 48      0.0000      2.1316      0.5794      0.0000      8.5260      0.0000      0.0000      0.2290      0.0000
 49      0.0000      1.0910      6.1327      0.0000      0.0002      0.0103     14.3774      0.5180      0.0000
 50      0.0000      1.4682      0.0000      0.0000      0.0775      0.2278      0.2988      4.2609      0.0000
 51     24.5510      2.4017      5.8110      1.8246      0.0000      0.8970      0.0000      6.1793      3.3575
 52     45.5198      2.3845      0.0000     26.7727      0.0000      0.0000      1.6956      7.4941      0.0743
 53      0.0000      1.5881      1.5133      0.0000      0.0905      0.0068      0.0000      0.9563      0.0000
 54      0.0000      1.7018      0.0098      1.4826      0.0000      0.0000      0.0000      0.0000      3.8899
 55      0.0000      2.2579      0.0000      0.0000     15.9504     23.8587      0.0000      0.7397      0.3861
 56      0.0000      1.4138     18.4710      0.0000      0.3429      2.5180      0.0000      2.4688      0.0000
 57      0.0000      2.3789      0.0000      0.3624     11.5963      0.0249      0.0000      0.7666      0.6116
 58      0.0000      1.8390      0.0000      3.3981      0.0000      0.0002      0.0000      0.0000      0.0000
 59      0.0000      2.0156      0.0000      0.0672      0.0000      0.0000      0.9417     10.0071      0.7165
 60      0.0000      2.0578      0.0005      0.0000      2.2022     13.3390      0.7411      0.6908      0.0000
 61      0.0000      1.4292      0.0020      0.0000      0.0000      0.0000      0.0000      0.0000      0.0000
 62      0.0000      1.3282      0.0000      0.0035      0.0000      0.0000      0.0000      0.5642      0.4039
 63      0.0000      2.2371     10.7758      0.0000      0.0000      2.5482      0.6580      0.0000      0.0000
 64      0.0000      1.5864      0.0000      0.0000      0.0000      0.5827      0.0000      0.0000      2.4285
 65      0.0000      1.7732      0.0000      0.0353      0.0000      0.0000      0.1843      0.4958      0.0000
 66      0.0000      1.1681      0.0000      0.0068      0.0000      2.9195      0.0000      0.0000      0.0000

# j      m_j: min, <> & last-chain-values for 1 ...  7 chains
  1  0.0000E+00  1.8506E-02  6.3559E-03  1.3068E-01  0.0000E+00  0.0000E+00  0.0000E+00  7.4328E-01  3.3159E-02
  2  0.0000E+00  5.4906E-03  4.4859E-03  1.4509E-02  8.0196E-03  3.6707E-04  1.5028E-02  1.3710E-05  1.5970E-01
  3  0.0000E+00  6.4543E-03  2.4129E-02  1.0788E-01  0.0000E+00  0.0000E+00  1.0558E-03  0.0000E+00  5.0753E-03
  4  0.0000E+00  5.9577E-03  3.0472E-02  0.0000E+00  1.6076E-02  0.0000E+00  0.0000E+00  4.6505E-04  7.2013E-03
  5  0.0000E+00  1.0368E-02  8.6965E-03  0.0000E+00  0.0000E+00  0.0000E+00  0.0000E+00  0.0000E+00  1.7003E-03
  6  0.0000E+00  2.6605E-02  3.9465E-03  0.0000E+00  0.0000E+00  0.0000E+00  2.9080E-01  0.0000E+00  9.5233E-03
  7  7.5495E+00  2.9076E-02  0.0000E+00  5.2176E-01  0.0000E+00  2.6629E-02  1.8404E-02  9.0862E-02  3.9443E-02
  8  0.0000E+00  4.3342E-02  0.0000E+00  1.0903E+00  0.0000E+00  1.6513E-04  1.5293E-01  6.5029E-02  1.9765E-01
  9  0.0000E+00  3.9028E-02  1.9605E-01  1.2506E+00  2.8846E-02  0.0000E+00  0.0000E+00  0.0000E+00  0.0000E+00
 10  0.0000E+00  4.7985E-02  0.0000E+00  1.7675E-01  0.0000E+00  0.0000E+00  6.8106E-01  2.0111E+00  9.7791E-02
 11  0.0000E+00  1.5749E-01  4.3223E-02  0.0000E+00  1.6183E-01  2.0171E-04  0.0000E+00  0.0000E+00  1.1891E-01
 12  0.0000E+00  1.7084E-01  1.8773E-02  8.2504E+00  0.0000E+00  6.0731E-01  0.0000E+00  2.1396E-06  0.0000E+00
 13  0.0000E+00  3.4165E-01  1.7994E+00  0.0000E+00  0.0000E+00  0.0000E+00  4.8733E-01  0.0000E+00  1.2809E+00
 14  0.0000E+00  1.4979E+00  0.0000E+00  2.2029E-01  0.0000E+00  9.9518E-01  1.0902E+00  0.0000E+00  4.2337E-01
 15  0.0000E+00  2.0898E+00  0.0000E+00  1.2393E+01  6.4887E+00  0.0000E+00  0.0000E+00  1.5684E-02  5.1555E+01
 16  0.0000E+00  4.8557E+00  7.2420E-01  5.0392E+01  0.0000E+00  1.7313E-01  1.2069E+01  0.0000E+00  8.6107E-02
 17  0.0000E+00  6.6200E+00  4.4617E-02  1.6274E+00  0.0000E+00  0.0000E+00  0.0000E+00  8.4828E-01  7.2168E+00
 18  5.8869E+01  1.3607E-02  2.9003E-01  1.0014E-01  6.7766E-01  0.0000E+00  5.5981E-07  0.0000E+00  0.0000E+00
 19  0.0000E+00  6.9069E-03  2.2396E-02  0.0000E+00  9.8928E-02  1.0375E-01  1.4456E-04  1.1261E-01  1.9629E-01
 20  0.0000E+00  6.5426E-03  0.0000E+00  0.0000E+00  2.5952E-02  1.6073E-01  0.0000E+00  0.0000E+00  0.0000E+00
 21  0.0000E+00  8.2205E-03  7.1573E-03  2.5680E-01  9.0480E-03  0.0000E+00  4.3343E-02  0.0000E+00  1.6810E-04
 22  0.0000E+00  1.3803E-02  2.6981E-02  1.7902E+00  0.0000E+00  0.0000E+00  0.0000E+00  0.0000E+00  0.0000E+00
 23  0.0000E+00  2.2598E-02  2.1814E-01  0.0000E+00  1.8386E-01  2.5238E-01  8.1678E-04  0.0000E+00  0.0000E+00
 24  7.9502E+00  2.0686E-02  0.0000E+00  4.7891E-01  5.8418E-02  0.0000E+00  0.0000E+00  4.3205E-01  0.0000E+00
 25  0.0000E+00  3.8467E-02  4.0240E-03  2.2670E+00  2.3714E-03  0.0000E+00  1.1259E-01  1.4378E-01  4.6787E-02
 26  0.0000E+00  6.4256E-02  0.0000E+00  0.0000E+00  6.3445E-01  6.1521E-01  9.1375E-03  3.6631E-07  0.0000E+00
 27  0.0000E+00  1.4609E-01  0.0000E+00  0.0000E+00  2.8207E+00  1.6976E+00  7.7436E-03  1.0931E-03  0.0000E+00
 28  0.0000E+00  3.6466E-01  0.0000E+00  0.0000E+00  0.0000E+00  4.1592E-01  0.0000E+00  0.0000E+00  0.0000E+00
 29  0.0000E+00  4.8697E-01  0.0000E+00  0.0000E+00  0.0000E+00  0.0000E+00  0.0000E+00  0.0000E+00  0.0000E+00
 30  0.0000E+00  1.0024E+00  1.0522E+00  0.0000E+00  0.0000E+00  2.3541E+00  0.0000E+00  0.0000E+00  4.9238E-02
 31  0.0000E+00  2.6707E+00  3.1733E+00  1.0363E+01  1.7643E+01  0.0000E+00  7.1769E-02  9.9642E-03  1.8832E+01
 32  0.0000E+00  3.4264E+00  8.3606E-02  0.0000E+00  0.0000E+00  0.0000E+00  7.3045E+00  0.0000E+00  0.0000E+00
 33  0.0000E+00  5.8572E+00  1.0591E+01  0.0000E+00  1.9909E+01  6.2019E+00  9.4894E-05  0.0000E+00  1.4110E+00
 34  0.0000E+00  8.7919E+00  7.7464E+00  0.0000E+00  0.0000E+00  4.0203E-01  1.9443E+01  1.4695E+00  0.0000E+00
 35  0.0000E+00  9.7896E-03  0.0000E+00  1.4574E-05  0.0000E+00  0.0000E+00  0.0000E+00  0.0000E+00  9.3166E-03
 36  0.0000E+00  3.3834E-03  8.7021E-02  0.0000E+00  4.0721E-02  5.3441E-04  0.0000E+00  0.0000E+00  1.7775E-02
 37  0.0000E+00  5.7248E-03  0.0000E+00  0.0000E+00  0.0000E+00  4.1595E-03  2.6980E-08  7.0960E-03  0.0000E+00
 38  0.0000E+00  1.1950E-02  0.0000E+00  7.7935E-04  7.0775E-07  0.0000E+00  3.3441E-05  1.3839E-07  1.2902E-03
 39  0.0000E+00  2.6409E-02  0.0000E+00  0.0000E+00  0.0000E+00  0.0000E+00  0.0000E+00  0.0000E+00  6.3202E-03
 40  0.0000E+00  3.7695E-02  0.0000E+00  1.4244E-02  2.5899E-02  0.0000E+00  0.0000E+00  1.0059E-03  2.5793E-02
 41  0.0000E+00  4.2320E-02  2.5991E-01  0.0000E+00  0.0000E+00  2.3395E-02  2.4053E-01  2.0434E-01  0.0000E+00
 42  0.0000E+00  9.7101E-02  0.0000E+00  6.8281E-01  8.8126E-01  0.0000E+00  1.6006E-01  0.0000E+00  2.1181E-03
 43  0.0000E+00  1.8951E-01  0.0000E+00  0.0000E+00  8.6741E-01  0.0000E+00  1.2937E-01  0.0000E+00  6.8008E-06
 44  0.0000E+00  2.7171E-01  0.0000E+00  0.0000E+00  0.0000E+00  6.4013E-01  0.0000E+00  1.2394E-01  1.0510E-01
 45  0.0000E+00  4.3719E-01  1.1779E+00  2.0253E-01  0.0000E+00  0.0000E+00  0.0000E+00  0.0000E+00  0.0000E+00
 46  0.0000E+00  8.2780E-01  0.0000E+00  0.0000E+00  0.0000E+00  0.0000E+00  0.0000E+00  0.0000E+00  5.6101E-03
 47  0.0000E+00  2.0101E+00  0.0000E+00  2.9117E+00  0.0000E+00  0.0000E+00  2.1608E-03  0.0000E+00  0.0000E+00
 48  0.0000E+00  3.6733E+00  1.8021E+00  0.0000E+00  4.5124E+01  0.0000E+00  0.0000E+00  9.5229E-01  0.0000E+00
 49  0.0000E+00  4.2729E+00  4.3349E+01  0.0000E+00  2.6674E-03  8.0171E-02  5.3182E+01  4.8960E+00  0.0000E+00
 50  0.0000E+00  1.0651E+01  0.0000E+00  0.0000E+00  1.7263E+00  3.2937E+00  2.0471E+00  7.4595E+01  0.0000E+00
 51  1.3143E+01  9.5499E-03  4.1702E-02  5.8222E-02  0.0000E+00  7.1075E-03  0.0000E+00  5.9300E-02  2.5226E-02
 52  1.2488E+01  4.8589E-03  0.0000E+00  4.3780E-01  0.0000E+00  0.0000E+00  3.2632E-03  3.6855E-02  2.8608E-04
 53  0.0000E+00  4.8747E-03  8.3830E-03  0.0000E+00  8.5321E-04  4.1788E-05  0.0000E+00  7.0842E-03  0.0000E+00
 54  0.0000E+00  1.0703E-02  1.1113E-04  7.4830E-02  0.0000E+00  0.0000E+00  0.0000E+00  0.0000E+00  4.6228E-02
 55  0.0000E+00  2.1865E-02  0.0000E+00  0.0000E+00  4.7439E-01  4.6042E-01  0.0000E+00  1.7287E-02  7.0657E-03
 56  0.0000E+00  2.7098E-02  6.3895E-01  0.0000E+00  2.0187E-02  9.6175E-02  0.0000E+00  1.1420E-01  0.0000E+00
 57  0.0000E+00  6.0519E-02  0.0000E+00  7.3991E-02  9.0602E-01  1.2619E-03  0.0000E+00  4.7068E-02  2.9401E-02
 58  0.0000E+00  7.9132E-02  0.0000E+00  1.1734E+00  0.0000E+00  2.1115E-05  0.0000E+00  0.0000E+00  0.0000E+00
 59  0.0000E+00  1.8665E-01  0.0000E+00  4.9964E-02  0.0000E+00  0.0000E+00  8.2356E-02  2.2365E+00  1.2538E-01
 60  0.0000E+00  3.5394E-01  1.5264E-04  0.0000E+00  1.1633E+00  4.5721E+00  1.2039E-01  2.8677E-01  0.0000E+00
 61  0.0000E+00  5.3713E-01  1.3604E-03  0.0000E+00  0.0000E+00  0.0000E+00  0.0000E+00  0.0000E+00  0.0000E+00
 62  0.0000E+00  9.1015E-01  0.0000E+00  1.9445E-02  0.0000E+00  0.0000E+00  0.0000E+00  9.3301E-01  5.2292E-01
 63  0.0000E+00  3.0498E+00  2.6513E+01  0.0000E+00  0.0000E+00  6.9228E+00  8.4718E-01  0.0000E+00  0.0000E+00
 64  0.0000E+00  5.9820E+00  0.0000E+00  0.0000E+00  0.0000E+00  4.3786E+00  0.0000E+00  1.0821E-05  1.7303E+01
 65  0.0000E+00  1.4134E+01  5.9218E-04  2.2572E+00  0.0000E+00  0.0000E+00  1.3877E+00  9.5380E+00  0.0000E+00
 66  0.0000E+00  1.3153E+01  0.0000E+00  6.1146E-01  0.0000E+00  6.5513E+01  0.0000E+00  0.0000E+00  0.0000E+00

# AV, chi2 & Mass for <> & i_chain = 1 ...  7 solutions
AV       2.4820      1.0485      0.9912      1.5075      1.1443      1.2309      0.5097      1.4420      0.9066
chi2 1.9330E-05  2.5061E-05  2.1281E-05  2.0765E-05  2.1174E-05  2.1264E-05  2.1534E-05  2.0789E-05  2.2056E-05
Mass 8.7073E-15  1.7094E-13  8.7702E-14  3.9460E-14  6.3302E-14  1.0959E-13  8.7786E-14  1.2015E-13  7.4769E-14
 343.66                                  [v0_min (km/s) before EX0s...]
  64.36                                  [vd_min (km/s) before EX0s...]


## Synthetic spectrum (Best Model) ##l_obs f_obs f_syn wei
 3478    [Nl_obs]
 3741.00    2.38338   1.10941    0.000
 3742.00    2.90808   1.15701    0.000
 3743.00    2.90799   1.19697    0.000
 3744.00    2.68935   1.22509    0.000
 3745.00    2.34337   1.24217    0.011
 3746.00    2.42717   1.25013    0.011
 3747.00    2.72921   1.24945    0.011
 3748.00    2.24353   1.23930    0.011
 3749.00    1.41146   1.21894    0.011
 3750.00    1.23372   1.18931    0.011
 3751.00    1.30300   1.15015    0.011
 3752.00    1.08274   1.09904    0.011
 3753.00    0.76968   1.04218    0.011
 3754.00    0.52964   1.00345    0.011
 3755.00    0.30916   1.00715    0.011
 3756.00    0.57178   1.04931    0.011
 3757.00    0.94044   1.10065    0.011
 3758.00    1.60696   1.13941    0.011
 3759.00    2.32548   1.16834    0.011
 3760.00    2.22674   1.19529    0.011
 3761.00    2.01944   1.21702    0.011
 3762.00    1.40855   1.22912    0.011
 3763.00    0.75973   1.23076    0.011
 3764.00    1.03919   1.23029    0.011
 3765.00    1.37219   1.23947    0.011
 3766.00    1.27568   1.25216    0.011
 3767.00    1.16955   1.25682    0.011
 3768.00    1.13371   1.25199    0.011
 3769.00    1.10104   1.23664    0.011
 3770.00    1.14544   1.20845    0.011
 3771.00    1.17943   1.16759    0.011
 3772.00    1.07699   1.11323    0.010
 3773.00    0.98717   1.04670    0.010
 3774.00    1.00823   0.98474    0.010
 3775.00    1.07204   0.95900    0.010
 3776.00    1.41304   0.98514    0.010
 3777.00    1.81037   1.04315    0.010
 3778.00    2.49274   1.10543    0.010
 3779.00    2.94743   1.16175    0.010
 3780.00    2.47020   1.20782    0.010
 3781.00    1.79248   1.24006    0.010
 3782.00    0.43482   1.26179    0.010
 3783.00   -0.64121   1.27858    0.000
 3784.00   -0.91174   1.29264    0.000
 3785.00   -1.14652   1.30330    0.000
 3786.00   -1.29396   1.30949    0.000
 3787.00   -1.32335   1.31134    0.000
 3788.00   -1.10392   1.30999    0.000
 3789.00   -0.85193   1.30783    0.000
 3790.00   -0.54027   1.30678    0.000
 3791.00   -0.20318   1.30553    0.000
 3792.00    0.17460   1.30132    0.010
 3793.00    0.42920   1.29149    0.010
 3794.00    0.51078   1.27278    0.010
 3795.00    0.81838   1.24660    0.010
 3796.00    1.40533   1.22113    0.010
 3797.00    1.75163   1.19684    0.010
 3798.00    1.83577   1.16164    0.010
 3799.00    1.76146   1.10672    0.010
 3800.00    1.53488   1.03433    0.011
 3801.00    1.09846   0.96046    0.011
 3802.00    0.48422   0.91793    0.011
 3803.00    0.14530   0.93383    0.011
 3804.00    0.01183   0.99799    0.010
 3805.00    0.48957   1.07503    0.010
 3806.00    1.36799   1.14032    0.010
 3807.00    1.78549   1.18890    0.010
 3808.00    1.93850   1.22292    0.010
 3809.00    1.56155   1.24357    0.010
 3810.00    0.91972   1.25558    0.010
 3811.00    0.66127   1.26899    0.010
 3812.00    0.56862   1.28694    0.010
 3813.00    0.24737   1.30251    0.010
 3814.00   -0.15866   1.31165    0.000
 3815.00   -0.30237   1.31648    0.000
 3816.00   -0.36362   1.31910    0.000
 3817.00    0.36778   1.31995    0.010
 3818.00    1.30711   1.31955    0.010
 3819.00    1.28082   1.31807    0.010
 3820.00    1.04764   1.31310    0.010
 3821.00    0.68750   1.29816    0.010
 3822.00    0.30581   1.26417    0.010
 3823.00    0.26786   1.21671    0.010
 3824.00    0.27402   1.19093    0.010
 3825.00    0.50224   1.21249    0.010
 3826.00    0.75039   1.25764    0.010
 3827.00    0.97433   1.29006    0.010
 3828.00    1.19695   1.30149    0.010
 3829.00    0.50321   1.30034    0.010
 3830.00   -0.19575   1.29343    0.000
 3831.00    0.21472   1.28255    0.010
 3832.00    0.62054   1.26705    0.010
 3833.00    0.92315   1.24564    0.010
 3834.00    1.14862   1.21656    0.010
 3835.00    0.41477   1.17720    0.011
 3836.00   -0.18149   1.12398    0.000
 3837.00    0.38526   1.05394    0.011
 3838.00    0.79616   0.97159    0.011
 3839.00    0.22656   0.90155    0.011
 3840.00   -0.28455   0.88205    0.000
 3841.00   -0.50705   0.92568    0.000
 3842.00   -0.48576   1.00405    0.000
 3843.00    0.51143   1.08300    0.011
 3844.00    0.99987   1.14756    0.011
 3845.00   -0.20307   1.19565    0.000
 3846.00   -0.87564   1.22988    0.000
 3847.00   -0.05886   1.25435    0.000
 3848.00    0.69966   1.27232    0.000
 3849.00    1.31822   1.28584    0.000
 3850.00    1.27103   1.29636    0.000
 3851.00   -0.15690   1.30434    0.000
 3852.00   -0.77475   1.30984    0.000
 3853.00    0.06849   1.31320    0.000
 3854.00    0.76763   1.31480    0.000
 3855.00    1.23953   1.31641    0.000
 3856.00    1.49678   1.31945    0.000
 3857.00    1.45685   1.32159    0.000
 3858.00    1.21385   1.32018    0.000
 3859.00    0.72343   1.31573    0.000
 3860.00    0.24983   1.31132    0.000
 3861.00   -0.20568   1.31171    0.000
 3862.00   -0.00766   1.31703    0.000
 3863.00    0.80960   1.32152    0.000
 3864.00    1.11167   1.32195    0.000
 3865.00    0.98337   1.31977    0.000
 3866.00    0.87883   1.31671    0.000
 3867.00    0.79176   1.31420    0.000
 3868.00    0.84119   1.31374    0.000
 3869.00    0.97877   1.31409    0.000
 3870.00    0.76431   1.31074    0.000
 3871.00    0.35089   1.30239    0.000
 3872.00   -0.00379   1.29827    0.000
 3873.00   -0.32958   1.30485    0.000
 3874.00   -0.06250   1.31081    0.000
 3875.00    0.45668   1.30428    0.000
 3876.00    0.97692   1.29273    0.000
 3877.00    1.49754   1.29030    0.000
 3878.00    1.24522   1.29522    0.000
 3879.00    0.75461   1.29497    0.000
 3880.00    1.17410   1.28759    0.000
 3881.00    1.82723   1.28202    0.010
 3882.00    1.88467   1.28109    0.010
 3883.00    1.81758   1.27894    0.010
 3884.00    1.10787   1.27140    0.010
 3885.00    0.29220   1.25767    0.010
 3886.00   -0.62005   1.23719    0.000
 3887.00   -1.54426   1.21079    0.000
 3888.00   -1.78895   1.17898    0.000
 3889.00   -1.97547   1.13771    0.000
 3890.00   -0.89242   1.08030    0.000
 3891.00    0.25391   1.00360    0.010
 3892.00    0.71694   0.91700    0.010
 3893.00    1.15046   0.85398    0.010
 3894.00    0.40159   0.85425    0.010
 3895.00   -0.29485   0.91812    0.000
 3896.00    0.08125   1.00588    0.010
 3897.00    0.39702   1.08416    0.010
 3898.00   -0.00070   1.14423    0.000
 3899.00   -0.30613   1.18820    0.000
 3900.00    0.14022   1.21988    0.009
 3901.00    0.53680   1.24248    0.009
 3902.00    0.62939   1.25757    0.008
 3903.00    0.77724   1.26736    0.008
 3904.00    1.19102   1.27575    0.008
 3905.00    1.40465   1.28532    0.008
 3906.00    0.83440   1.29509    0.008
 3907.00    0.35133   1.30280    0.008
 3908.00    0.15239   1.30797    0.008
 3909.00    0.17182   1.31134    0.008
 3910.00    0.79344   1.31359    0.009
 3911.00    1.17100   1.31580    0.009
 3912.00    0.97221   1.31873    0.009
 3913.00    0.83584   1.32156    0.009
 3914.00    0.82688   1.32231    0.010
 3915.00    1.05554   1.31958    0.010
 3916.00    1.70627   1.31553    0.010
 3917.00    2.21173   1.31494    0.010
 3918.00    2.49147   1.31841    0.010
 3919.00    2.33516   1.32212    0.010
 3920.00    1.58388   1.32314    0.010
 3921.00    1.02608   1.31934    0.010
 3922.00    0.70071   1.30804    0.010
 3923.00    0.82302   1.29061    0.010
 3924.00    1.41945   1.27571    0.010
 3925.00    1.63125   1.27162    0.010
 3926.00    1.48372   1.27621    0.011
 3927.00    1.47039   1.27961    0.011
 3928.00    1.56757   1.27756    0.011
 3929.00    2.17503   1.27335    0.011
 3930.00    3.15241   1.26941    0.011
 3931.00    2.73919   1.27028    0.011
 3932.00    1.44097   1.28053    0.011
 3933.00    0.90809   1.29496    0.011
 3934.00    0.80112   1.30538    0.011
 3935.00    1.56953   1.30841    0.011
 3936.00    2.76170   1.30292    0.011
 3937.00    2.60634   1.29051    0.011
 3938.00    1.88761   1.27946    0.011
 3939.00    2.21163   1.27964    0.011
 3940.00    2.90865   1.29048    0.011
 3941.00    2.55655   1.30331    0.011
 3942.00    1.88733   1.31185    0.011
 3943.00    1.33398   1.31557    0.011
 3944.00    0.80974   1.31753    0.011
 3945.00    0.62058   1.31917    0.011
 3946.00    0.49974   1.31932    0.011
 3947.00    1.11238   1.31707    0.011
 3948.00    1.84247   1.31232    0.011
 3949.00    2.04227   1.30712    0.011
 3950.00    2.17876   1.30507    0.010
 3951.00    1.34150   1.30579    0.010
 3952.00    0.42495   1.30634    0.010
 3953.00    0.64380   1.30692    0.010
 3954.00    0.91482   1.30818    0.010
 3955.00    1.91270   1.30844    0.010
 3956.00    2.89512   1.30613    0.010
 3957.00    2.58577   1.30043    0.010
 3958.00    2.24347   1.29226    0.010
 3959.00    1.27718   1.28587    0.010
 3960.00    0.37551   1.28411    0.000
 3961.00    0.20214   1.28427    0.000
 3962.00    0.18341   1.28253    0.000
 3963.00    1.38029   1.27674    0.000
 3964.00    2.49754   1.26438    0.000
 3965.00    3.14230   1.24434    0.000
 3966.00    3.50457   1.22145    0.000
 3967.00    2.54041   1.19944    0.000
 3968.00    1.72457   1.17229    0.000
 3969.00    1.47713   1.13760    0.000
 3970.00    1.46641   1.10034    0.000
 3971.00    2.21230   1.05377    0.000
 3972.00    2.43603   0.98408    0.000
 3973.00    1.24557   0.89734    0.000
 3974.00    0.39166   0.82965    0.000
 3975.00    0.31921   0.82319    0.000
 3976.00    0.39111   0.88236    0.000
 3977.00    0.75297   0.96982    0.000
 3978.00    0.89390   1.05068    0.000
 3979.00    0.64837   1.11426    0.000
 3980.00    0.58206   1.16124    0.000
 3981.00    0.79013   1.19476    0.011
 3982.00    0.95229   1.21896    0.011
 3983.00    1.05270   1.23684    0.011
 3984.00    0.83983   1.25041    0.011
 3985.00    0.25596   1.26063    0.011
 3986.00    0.47300   1.26705    0.011
 3987.00    1.52638   1.27100    0.011
 3988.00    1.81703   1.27630    0.011
 3989.00    1.40516   1.28380    0.011
 3990.00    0.73077   1.29081    0.011
 3991.00   -0.15678   1.29588    0.000
 3992.00    0.04279   1.29963    0.010
 3993.00    1.01908   1.30233    0.011
 3994.00    1.63519   1.30374    0.011
 3995.00    2.02547   1.30438    0.011
 3996.00    1.77429   1.30502    0.010
 3997.00    1.17157   1.30461    0.010
 3998.00    0.98100   1.30128    0.010
 3999.00    0.98677   1.29688    0.010
 4000.00    0.87909   1.29631    0.010
 4001.00    0.72479   1.29938    0.010
 4002.00    0.51686   1.30096    0.010
 4003.00    0.29009   1.30091    0.010
 4004.00    0.72524   1.30255    0.010
 4005.00    1.35651   1.30432    0.010
 4006.00    1.21161   1.30227    0.010
 4007.00    0.87604   1.29694    0.010
 4008.00    0.06734   1.29269    0.010
 4009.00   -0.83544   1.29170    0.000
 4010.00   -0.56252   1.29146    0.000
 4011.00   -0.10692   1.28693    0.000
 4012.00   -0.00054   1.27417    0.000
 4013.00    0.06568   1.25757    0.010
 4014.00    0.58695   1.25116    0.010
 4015.00    1.14341   1.26223    0.010
 4016.00    1.62350   1.28083    0.010
 4017.00    2.10039   1.29458    0.011
 4018.00    1.50267   1.30131    0.010
 4019.00    0.91883   1.30393    0.010
 4020.00    1.37285   1.30453    0.010
 4021.00    1.77385   1.30427    0.010
 4022.00    1.23982   1.30384    0.010
 4023.00    0.76081   1.30305    0.010
 4024.00    0.87374   1.30082    0.010
 4025.00    1.00000   1.29547    0.011
 4026.00    1.22748   1.28484    0.010
 4027.00    1.22979   1.26488    0.010
 4028.00   -0.06672   1.22845    0.000
 4029.00   -1.05232   1.17285    0.000
 4030.00   -0.61300   1.11870    0.000
 4031.00   -0.15568   1.10662    0.000
 4032.00    0.36916   1.14867    0.010
 4033.00    0.50601   1.20964    0.010
 4034.00   -0.57352   1.25491    0.000
 4035.00   -0.98621   1.27902    0.000
 4036.00    0.37511   1.28955    0.010
 4037.00    1.30147   1.29344    0.010
 4038.00    1.23461   1.29477    0.010
 4039.00    1.18153   1.29583    0.011
 4040.00    1.15566   1.29862    0.011
 4041.00    0.95588   1.30323    0.011
 4042.00    0.45648   1.30684    0.011
 4043.00    0.34408   1.30761    0.011
 4044.00    0.81544   1.30611    0.011
 4045.00    1.34958   1.30346    0.011
 4046.00    1.96693   1.30107    0.011
 4047.00    2.32583   1.29992    0.011
 4048.00    2.38300   1.29955    0.011
 4049.00    1.88039   1.30008    0.011
 4050.00    0.80147   1.30206    0.011
 4051.00    0.19840   1.30440    0.011
 4052.00    0.02744   1.30571    0.011
 4053.00    0.57140   1.30615    0.011
 4054.00    1.68758   1.30671    0.011
 4055.00    1.93818   1.30734    0.011
 4056.00    1.57930   1.30686    0.010
 4057.00    1.77495   1.30472    0.010
 4058.00    2.31313   1.30142    0.010
 4059.00    2.69609   1.29824    0.010
 4060.00    2.99530   1.29695    0.010
 4061.00    2.50596   1.29898    0.010
 4062.00    1.64706   1.30271    0.010
 4063.00    1.45843   1.30344    0.010
 4064.00    1.54061   1.29951    0.010
 4065.00    1.95199   1.29494    0.010
 4066.00    2.47688   1.29386    0.010
 4067.00    1.58471   1.29584    0.010
 4068.00    0.28106   1.29848    0.010
 4069.00    0.50390   1.30020    0.010
 4070.00    1.09340   1.29828    0.010
 4071.00    1.44602   1.28809    0.010
 4072.00    1.75274   1.26787    0.010
 4073.00    1.86382   1.24434    0.010
 4074.00    1.94542   1.23019    0.010
 4075.00    1.93440   1.23326    0.010
 4076.00    1.91314   1.24807    0.010
 4077.00    1.58519   1.26288    0.010
 4078.00    1.23478   1.26985    0.010
 4079.00    1.48700   1.26621    0.010
 4080.00    1.76228   1.25907    0.010
 4081.00    1.18010   1.26073    0.010
 4082.00    0.62476   1.27085    0.010
 4083.00    1.26001   1.27939    0.010
 4084.00    1.85417   1.28272    0.010
 4085.00    1.77127   1.28328    0.010
 4086.00    1.67027   1.28270    0.010
 4087.00    1.38296   1.28096    0.010
 4088.00    1.12337   1.27717    0.010
 4089.00    1.06715   1.27228    0.010
 4090.00    0.95649   1.26805    0.010
 4091.00    0.54047   1.26078    0.010
 4092.00    0.33533   1.24394    0.000
 4093.00    1.07394   1.22332    0.000
 4094.00    1.64323   1.21656    0.000
 4095.00    1.59062   1.22602    0.000
 4096.00    1.70546   1.23373    0.000
 4097.00    2.33527   1.22887    0.000
 4098.00    2.74731   1.21472    0.000
 4099.00    2.59018   1.19324    0.000
 4100.00    2.11345   1.16070    0.000
 4101.00    0.91894   1.11627    0.000
 4102.00    0.17475   1.06628    0.000
 4103.00    0.30686   1.01273    0.000
 4104.00    0.78223   0.94572    0.000
 4105.00    1.84003   0.86604    0.000
 4106.00    1.99033   0.80715    0.000
 4107.00    0.79161   0.80976    0.000
 4108.00    0.12054   0.87479    0.000
 4109.00    0.13891   0.96494    0.000
 4110.00    0.63686   1.04637    0.000
 4111.00    1.68683   1.10780    0.000
 4112.00    2.00188   1.15104    0.000
 4113.00    1.57090   1.18107    0.010
 4114.00    1.78113   1.20204    0.010
 4115.00    2.56545   1.21725    0.010
 4116.00    2.83798   1.22986    0.010
 4117.00    2.70672   1.24100    0.010
 4118.00    2.76598   1.24807    0.010
 4119.00    2.95745   1.24676    0.010
 4120.00    2.74467   1.23974    0.010
 4121.00    2.28590   1.23865    0.010
 4122.00    2.28089   1.24589    0.010
 4123.00    2.51695   1.24783    0.010
 4124.00    1.70646   1.23636    0.010
 4125.00    0.41342   1.22334    0.010
 4126.00    0.71904   1.22715    0.010
 4127.00    1.65947   1.24889    0.010
 4128.00    2.02018   1.27215    0.010
 4129.00    2.18468   1.28522    0.010
 4130.00    1.23191   1.28817    0.010
 4131.00   -0.03875   1.28350    0.000
 4132.00    0.15287   1.27500    0.010
 4133.00    0.68781   1.26932    0.010
 4134.00    1.58432   1.26773    0.010
 4135.00    2.54906   1.26637    0.010
 4136.00    1.80824   1.26695    0.010
 4137.00    0.81836   1.27282    0.010
 4138.00    1.53014   1.28155    0.010
 4139.00    2.42274   1.28911    0.010
 4140.00    2.59037   1.29342    0.010
 4141.00    2.70785   1.29425    0.010
 4142.00    1.96986   1.29307    0.010
 4143.00    1.20237   1.29144    0.010
 4144.00    1.90743   1.28931    0.010
 4145.00    2.59973   1.28385    0.010
 4146.00    2.77357   1.26937    0.010
 4147.00    2.85685   1.24407    0.010
 4148.00    1.53986   1.22093    0.010
 4149.00    0.28748   1.21987    0.010
 4150.00   -0.32793   1.24132    0.000
 4151.00   -0.72272   1.26626    0.000
 4152.00    0.44881   1.28193    0.010
 4153.00    1.51406   1.28827    0.010
 4154.00    1.99909   1.28894    0.010
 4155.00    2.30216   1.28765    0.010
 4156.00    1.80986   1.28530    0.009
 4157.00    1.48097   1.28157    0.009
 4158.00    1.73980   1.28015    0.009
 4159.00    1.87337   1.28337    0.009
 4160.00    1.62893   1.28701    0.010
 4161.00    1.29812   1.28868    0.010
 4162.00    0.74549   1.29108    0.010
 4163.00    0.53670   1.29491    0.010
 4164.00    1.08741   1.29741    0.010
 4165.00    1.56585   1.29641    0.010
 4166.00    1.90584   1.29154    0.010
 4167.00    2.11113   1.28547    0.010
 4168.00    2.09133   1.28316    0.010
 4169.00    1.90516   1.28579    0.010
 4170.00    1.47530   1.28968    0.010
 4171.00    1.09333   1.29089    0.010
 4172.00    0.77306   1.28730    0.009
 4173.00    0.51012   1.28142    0.009
 4174.00    0.31225   1.27961    0.010
 4175.00    0.52047   1.28322    0.010
 4176.00    1.13510   1.28695    0.010
 4177.00    1.53164   1.28814    0.010
 4178.00    1.73566   1.28865    0.010
 4179.00    1.68836   1.28959    0.010
 4180.00    1.44559   1.29044    0.010
 4181.00    1.53367   1.29095    0.010
 4182.00    1.84801   1.29122    0.010
 4183.00    1.58144   1.29140    0.010
 4184.00    0.96668   1.29237    0.010
 4185.00    1.22933   1.29430    0.010
 4186.00    1.95089   1.29590    0.010
 4187.00    1.76248   1.29597    0.010
 4188.00    1.16132   1.29378    0.010
 4189.00    1.20928   1.28869    0.010
 4190.00    1.51054   1.28189    0.010
 4191.00    1.39254   1.27705    0.010
 4192.00    1.13528   1.27663    0.010
 4193.00    1.63018   1.27803    0.010
 4194.00    2.33473   1.27848    0.010
 4195.00    1.93905   1.28077    0.010
 4196.00    1.29095   1.28621    0.010
 4197.00    1.14313   1.29060    0.010
 4198.00    1.08723   1.29112    0.010
 4199.00    1.79065   1.28806    0.010
 4200.00    2.60143   1.28212    0.010
 4201.00    2.36356   1.27326    0.010
 4202.00    2.01877   1.25971    0.009
 4203.00    1.11740   1.24070    0.009
 4204.00    0.17977   1.22326    0.009
 4205.00    2.06360   1.21988    0.010
 4206.00    4.02960   1.23387    0.010
 4207.00    3.10068   1.25488    0.010
 4208.00    2.16681   1.27194    0.010
 4209.00    1.08765   1.28225    0.010
 4210.00    0.14927   1.28793    0.010
 4211.00    1.26041   1.29135    0.010
 4212.00    2.23015   1.29364    0.010
 4213.00    1.86288   1.29502    0.009
 4214.00    1.45161   1.29522    0.009
 4215.00    0.73793   1.29341    0.009
 4216.00    0.20117   1.28945    0.009
 4217.00    0.60468   1.28639    0.009
 4218.00    0.98872   1.28762    0.009
 4219.00    1.28959   1.29130    0.009
 4220.00    1.44089   1.29336    0.009
 4221.00    1.06524   1.29371    0.009
 4222.00    0.96952   1.29456    0.009
 4223.00    1.70276   1.29634    0.009
 4224.00    2.38286   1.29785    0.009
 4225.00    2.92885   1.29787    0.009
 4226.00    3.32501   1.29644    0.009
 4227.00    3.39559   1.29497    0.009
 4228.00    2.96574   1.29466    0.009
 4229.00    1.59215   1.29475    0.009
 4230.00    0.56752   1.29391    0.009
 4231.00    0.11738   1.29235    0.009
 4232.00    0.23785   1.29169    0.008
 4233.00    1.18200   1.29305    0.008
 4234.00    1.59776   1.29514    0.008
 4235.00    1.34266   1.29578    0.008
 4236.00    1.29669   1.29454    0.008
 4237.00    1.48470   1.29242    0.008
 4238.00    2.13611   1.29108    0.008
 4239.00    3.24481   1.29141    0.009
 4240.00    3.79168   1.29176    0.009
 4241.00    3.84961   1.29076    0.009
 4242.00    3.13669   1.29017    0.009
 4243.00    1.83281   1.29143    0.009
 4244.00    1.18161   1.29279    0.009
 4245.00    0.97026   1.29194    0.009
 4246.00    1.95088   1.28960    0.009
 4247.00    3.63526   1.28918    0.009
 4248.00    3.99452   1.29185    0.009
 4249.00    3.67152   1.29465    0.009
 4250.00    2.81930   1.29491    0.009
 4251.00    1.73098   1.29341    0.009
 4252.00    1.59207   1.29256    0.009
 4253.00    1.81720   1.29295    0.009
 4254.00    1.53278   1.29344    0.009
 4255.00    1.08229   1.29346    0.009
 4256.00    1.01618   1.29265    0.009
 4257.00    1.05499   1.28995    0.009
 4258.00    1.18930   1.28676    0.009
 4259.00    1.34501   1.28688    0.009
 4260.00    1.03567   1.29018    0.009
 4261.00    0.64316   1.29264    0.009
 4262.00    0.76987   1.29277    0.009
 4263.00    0.96761   1.29225    0.009
 4264.00    0.57785   1.29228    0.009
 4265.00    0.13070   1.29282    0.009
 4266.00    0.80459   1.29359    0.009
 4267.00    1.54705   1.29435    0.009
 4268.00    1.81121   1.29429    0.009
 4269.00    2.05577   1.29032    0.009
 4270.00    0.99338   1.27705    0.009
 4271.00   -0.01140   1.25568    0.000
 4272.00    0.50676   1.24236    0.009
 4273.00    1.00562   1.25066    0.009
 4274.00    1.23917   1.27074    0.009
 4275.00    1.48772   1.28525    0.009
 4276.00    1.87257   1.29068    0.009
 4277.00    2.26356   1.29151    0.009
 4278.00    2.69555   1.29009    0.009
 4279.00    2.93286   1.28628    0.009
 4280.00    2.16235   1.28057    0.009
 4281.00    1.54057   1.27623    0.009
 4282.00    1.53966   1.27696   -2.000
 4283.00    1.48021   1.28251   -2.000
 4284.00    1.21863   1.28879   -2.000
 4285.00    1.05747   1.29169   -2.000
 4286.00    1.18816   1.28997   -2.000
 4287.00    1.58411   1.28545   -2.000
 4288.00    2.63796   1.28121   -2.000
 4289.00    3.11902   1.27953   -2.000
 4290.00    2.37558   1.28131   -2.000
 4291.00    1.59895   1.28560   -2.000
 4292.00    0.76068   1.28908   -2.000
 4293.00    0.36840   1.28915   -2.000
 4294.00    0.69943   1.28727   -2.000
 4295.00    0.59466   1.28649   -2.000
 4296.00   -0.13008   1.28793   -2.000
 4297.00   -0.04222   1.28986   -2.000
 4298.00    1.06266   1.28923    0.010
 4299.00    2.04965   1.28618    0.010
 4300.00    2.90660   1.28491    0.010
 4301.00    3.24019   1.28737    0.010
 4302.00    3.06458   1.29087    0.009
 4303.00    2.93955   1.29251    0.009
 4304.00    2.85791   1.29201    0.010
 4305.00    2.25471   1.29064    0.009
 4306.00    1.25736   1.28853    0.009
 4307.00    1.54682   1.28428    0.009
 4308.00    2.69081   1.27924    0.010
 4309.00    2.98316   1.27807    0.010
 4310.00    2.78025   1.28155    0.009
 4311.00    2.18226   1.28504    0.009
 4312.00    1.38404   1.28558    0.009
 4313.00    1.32698   1.28473    0.009
 4314.00    1.59516   1.28469    0.009
 4315.00    1.66285   1.28563    0.009
 4316.00    1.65503   1.28576    0.009
 4317.00    1.79157   1.28329    0.009
 4318.00    1.97428   1.27921    0.009
 4319.00    1.64828   1.27644    0.009
 4320.00    1.18632   1.27525    0.009
 4321.00    1.40996   1.27330    0.009
 4322.00    1.78362   1.27044    0.009
 4323.00    1.43432   1.26847    0.009
 4324.00    0.95926   1.26822    0.009
 4325.00    0.98578   1.27031    0.009
 4326.00    1.07864   1.27429    0.009
 4327.00    2.09749   1.27704    0.009
 4328.00    3.20287   1.27576    0.009
 4329.00    2.95437   1.27003    0.009
 4330.00    2.62844   1.26201    0.000
 4331.00    2.39091   1.25530    0.000
 4332.00    2.16191   1.25086    0.000
 4333.00    2.67654   1.24691    0.000
 4334.00    3.16156   1.24206    0.000
 4335.00    2.93525   1.23477    0.000
 4336.00    2.70444   1.22316    0.000
 4337.00    2.41506   1.20750    0.000
 4338.00    2.11453   1.18916    0.000
 4339.00    1.71664   1.16686    0.000
 4340.00    1.34503   1.13588    0.000
 4341.00    1.14314   1.09088    0.000
 4342.00    1.01818   1.02844    0.000
 4343.00    1.28125   0.94934    0.000
 4344.00    1.45436   0.86594    0.000
 4345.00    1.26028   0.81086    0.000
 4346.00    1.04915   0.81878    0.000
 4347.00    0.78037   0.88640    0.000
 4348.00    0.82942   0.97342    0.000
 4349.00    1.78540   1.04637    0.000
 4350.00    2.33942   1.09890    0.000
 4351.00    1.91348   1.13719    0.009
 4352.00    1.54821   1.16557    0.009
 4353.00    1.31057   1.18574    0.009
 4354.00    1.31134   1.19986    0.009
 4355.00    1.74796   1.21099    0.009
 4356.00    2.10919   1.22154    0.009
 4357.00    2.34995   1.23335    0.009
 4358.00    2.29680   1.24627    0.009
 4359.00    1.83156   1.25793    0.009
 4360.00    1.76977   1.26661    0.009
 4361.00    2.20574   1.27217    0.009
 4362.00    2.36829   1.27580    0.009
 4363.00    2.23348   1.27873    0.009
 4364.00    2.15443   1.28106    0.009
 4365.00    2.12888   1.28233    0.008
 4366.00    2.41828   1.28315    0.008
 4367.00    2.97409   1.28499    0.009
 4368.00    2.82800   1.28753    0.009
 4369.00    2.15907   1.28841    0.009
 4370.00    2.01033   1.28631    0.008
 4371.00    2.20197   1.28231    0.008
 4372.00    2.18130   1.27990    0.009
 4373.00    2.03905   1.28144    0.009
 4374.00    1.61232   1.28505    0.009
 4375.00    1.04369   1.28732    0.008
 4376.00    1.11490   1.28705    0.008
 4377.00    1.46223   1.28590    0.008
 4378.00    2.10458   1.28605    0.009
 4379.00    2.85610   1.28736    0.009
 4380.00    3.01491   1.28878    0.009
 4381.00    2.98784   1.29020    0.009
 4382.00    2.38639   1.29123    0.008
 4383.00    1.63467   1.29088    0.008
 4384.00    2.04818   1.29009    0.008
 4385.00    2.71059   1.29117    0.008
 4386.00    2.80422   1.29291    0.008
 4387.00    2.80167   1.29187    0.008
 4388.00    2.47258   1.28755    0.008
 4389.00    2.10177   1.28116    0.008
 4390.00    1.82465   1.27094    0.008
 4391.00    1.55588   1.25145    0.008
 4392.00    1.96751   1.22521    0.008
 4393.00    2.41538   1.21193    0.008
 4394.00    2.45939   1.22593    0.008
 4395.00    2.48608   1.25490    0.009
 4396.00    1.74702   1.27936    0.008
 4397.00    1.05822   1.29303    0.008
 4398.00    1.47388   1.29763    0.008
 4399.00    1.85372   1.29610    0.008
 4400.00    1.79086   1.29274    0.008
 4401.00    1.70922   1.29248    0.008
 4402.00    1.46953   1.29642    0.008
 4403.00    1.29234   1.30062    0.008
 4404.00    1.50686   1.30191    0.008
 4405.00    1.73407   1.30137    0.009
 4406.00    2.02374   1.30123    0.009
 4407.00    2.23333   1.30152    0.009
 4408.00    2.12328   1.30093    0.009
 4409.00    2.10389   1.29972    0.008
 4410.00    2.38517   1.29933    0.008
 4411.00    2.42414   1.30031    0.008
 4412.00    1.78421   1.30206    0.008
 4413.00    1.48751   1.30355    0.009
 4414.00    2.01343   1.30355    0.008
 4415.00    2.39135   1.30140    0.008
 4416.00    2.46294   1.29880    0.008
 4417.00    2.30972   1.29758    0.008
 4418.00    1.75180   1.29492    0.008
 4419.00    1.58973   1.28781    0.008
 4420.00    2.05078   1.28010    0.008
 4421.00    2.17260   1.27712    0.008
 4422.00    1.82565   1.27986    0.008
 4423.00    1.84380   1.28620    0.008
 4424.00    2.30601   1.29295    0.008
 4425.00    2.49704   1.29823    0.008
 4426.00    2.39728   1.30196    0.008
 4427.00    2.05228   1.30402    0.008
 4428.00    1.47533   1.30472    0.008
 4429.00    1.14668   1.30467    0.008
 4430.00    1.02508   1.30384    0.008
 4431.00    1.04864   1.30227    0.009
 4432.00    1.17876   1.30097    0.008
 4433.00    1.43272   1.30078    0.009
 4434.00    1.76652   1.30057    0.009
 4435.00    1.73355   1.29872    0.009
 4436.00    1.49369   1.29601    0.008
 4437.00    1.58113   1.29430    0.009
 4438.00    1.82924   1.29409    0.009
 4439.00    1.81379   1.29469    0.009
 4440.00    1.68651   1.29401    0.009
 4441.00    1.74613   1.29006    0.009
 4442.00    1.87368   1.28559    0.009
 4443.00    1.64178   1.28636    0.009
 4444.00    1.29933   1.29163    0.009
 4445.00    1.82093   1.29474    0.009
 4446.00    2.56376   1.29361    0.008
 4447.00    2.77061   1.29248    0.008
 4448.00    2.86576   1.29450    0.009
 4449.00    2.39740   1.29842    0.009
 4450.00    1.83646   1.30063    0.009
 4451.00    2.04405   1.29903    0.008
 4452.00    2.34639   1.29591    0.008
 4453.00    2.52080   1.29549    0.008
 4454.00    2.68432   1.29849    0.008
 4455.00    2.69603   1.30150    0.008
 4456.00    2.70025   1.30174    0.008
 4457.00    2.06575   1.30052    0.008
 4458.00    1.43757   1.30082    0.008
 4459.00    1.84418   1.30276    0.008
 4460.00    2.24161   1.30444    0.008
 4461.00    2.45302   1.30544    0.000
 4462.00    2.64111   1.30633    0.000
 4463.00    2.55508   1.30692    0.000
 4464.00    2.45931   1.30678    0.000
 4465.00    2.28454   1.30595    0.000
 4466.00    2.09081   1.30458    0.000
 4467.00    1.78167   1.30293    0.000
 4468.00    1.67344   1.30148    0.000
 4469.00    2.52909   1.30022    0.000
 4470.00    3.10351   1.29820    0.000
 4471.00    2.57961   1.29425    0.000
 4472.00    1.96539   1.28721    0.000
 4473.00    1.05750   1.27377    0.000
 4474.00    0.52003   1.24570    0.000
 4475.00    1.00167   1.19844    0.000
 4476.00    1.38001   1.15294    0.000
 4477.00    1.51492   1.14797    0.000
 4478.00    1.42596   1.19068    0.000
 4479.00    0.88104   1.24500    0.000
 4480.00    0.96902   1.28026    0.000
 4481.00    2.17900   1.29583    0.000
 4482.00    2.80963   1.30134    0.008
 4483.00    2.54172   1.30014    0.008
 4484.00    2.19073   1.29016    0.008
 4485.00    1.72661   1.27319    0.008
 4486.00    1.57456   1.26193    0.008
 4487.00    1.79671   1.26835    0.008
 4488.00    1.91585   1.28678    0.008
 4489.00    1.92608   1.30235    0.008
 4490.00    1.79863   1.30939    0.008
 4491.00    1.54276   1.31094    0.008
 4492.00    1.50533   1.30996    0.008
 4493.00    1.64747   1.30796    0.008
 4494.00    1.81834   1.30637    0.008
 4495.00    2.00999   1.30628    0.008
 4496.00    2.08478   1.30750    0.008
 4497.00    2.08533   1.30908    0.008
 4498.00    2.09533   1.31031    0.008
 4499.00    2.11059   1.31097    0.008
 4500.00    2.30118   1.31127    0.008
 4501.00    2.57648   1.31150    0.008
 4502.00    2.40819   1.31174    0.008
 4503.00    2.05482   1.31189    0.008
 4504.00    2.34661   1.31153    0.008
 4505.00    2.86866   1.31039    0.008
 4506.00    2.48819   1.30938    0.008
 4507.00    1.83561   1.30993    0.008
 4508.00    1.65847   1.31208    0.008
 4509.00    1.60041   1.31426    0.008
 4510.00    1.92093   1.31496    0.008
 4511.00    2.31841   1.31396    0.008
 4512.00    1.93396   1.31196    0.008
 4513.00    1.42476   1.30991    0.008
 4514.00    1.67412   1.30783    0.008
 4515.00    2.01364   1.30473    0.008
 4516.00    1.80727   1.30103    0.008
 4517.00    1.55673   1.29870    0.008
 4518.00    1.88357   1.29713    0.008
 4519.00    2.23666   1.29423    0.008
 4520.00    1.93450   1.29200    0.008
 4521.00    1.63575   1.29420    0.008
 4522.00    1.92215   1.29973    0.008
 4523.00    2.19459   1.30483    0.008
 4524.00    2.20503   1.30834    0.008
 4525.00    2.20984   1.31048    0.008
 4526.00    2.15172   1.31051    0.008
 4527.00    2.12100   1.30778    0.008
 4528.00    2.30474   1.30348    0.008
 4529.00    2.38753   1.30059    0.008
 4530.00    1.87344   1.30125    0.008
 4531.00    1.53892   1.30434    0.008
 4532.00    2.04500   1.30578    0.008
 4533.00    2.42881   1.30290    0.008
 4534.00    2.34533   1.29843    0.008
 4535.00    2.26621   1.29760    0.008
 4536.00    2.20095   1.30133    0.008
 4537.00    2.24266   1.30536    0.008
 4538.00    2.57341   1.30570    0.008
 4539.00    2.44635   1.30310    0.008
 4540.00    1.25850   1.30130    0.008
 4541.00    0.74869   1.30145    0.008
 4542.00    1.59804   1.30022    0.008
 4543.00    1.94579   1.29299    0.008
 4544.00    1.41787   1.27648    0.008
 4545.00    1.31660   1.25161    0.008
 4546.00    1.86733   1.22859    0.008
 4547.00    2.12490   1.22285    0.008
 4548.00    1.98893   1.23853    0.008
 4549.00    1.70111   1.26321    0.008
 4550.00    1.23377   1.28349    0.000
 4551.00    1.34019   1.29611    0.000
 4552.00    2.04467   1.30251    0.000
 4553.00    2.47409   1.30385    0.000
 4554.00    2.65063   1.30244    0.000
 4555.00    2.33926   1.30085    0.000
 4556.00    1.63247   1.29806    0.000
 4557.00    1.55817   1.29311    0.000
 4558.00    1.93493   1.29090    0.000
 4559.00    2.01129   1.29551    0.000
 4560.00    1.89964   1.30287    0.000
 4561.00    1.78004   1.30803    0.000
 4562.00    1.65608   1.31085    0.000
 4563.00    1.71799   1.31252    0.000
 4564.00    1.86826   1.31389    0.000
 4565.00    2.10049   1.31558    0.000
 4566.00    2.36633   1.31699    0.000
 4567.00    2.03531   1.31711    0.000
 4568.00    1.49514   1.31606    0.000
 4569.00    1.37578   1.31488    0.000
 4570.00    1.38079   1.31381    0.000
 4571.00    1.14234   1.31102    0.000
 4572.00    0.84426   1.30530    0.000
 4573.00    1.06168   1.29994    0.000
 4574.00    1.38127   1.29982    0.000
 4575.00    1.89953   1.30474    0.000
 4576.00    2.44853   1.31008    0.000
 4577.00    1.73179   1.31280    0.000
 4578.00    0.87019   1.31256    0.000
 4579.00    1.20104   1.31036    0.000
 4580.00    1.62348   1.30880    0.000
 4581.00    1.64124   1.31034    0.000
 4582.00    1.64215   1.31376    0.000
 4583.00    1.55417   1.31603    0.000
 4584.00    1.46856   1.31636    0.000
 4585.00    1.51835   1.31608    0.000
 4586.00    1.61804   1.31582    0.000
 4587.00    2.59003   1.31478    0.000
 4588.00    3.44230   1.31279    0.000
 4589.00    3.01386   1.31174    0.000
 4590.00    2.61280   1.31296    0.000
 4591.00    2.41878   1.31476    0.000
 4592.00    2.22449   1.31488    0.000
 4593.00    2.02866   1.31347    0.000
 4594.00    1.83720   1.31107    0.000
 4595.00    1.66569   1.30730    0.000
 4596.00    1.56790   1.30422    0.000
 4597.00    1.74588   1.30555    0.000
 4598.00    2.02356   1.31039    0.000
 4599.00    2.61302   1.31327    0.000
 4600.00    2.92933   1.31133    0.000
 4601.00    2.52062   1.30801    0.000
 4602.00    2.18893   1.30852    0.000
 4603.00    2.03273   1.31291    0.000
 4604.00    2.05227   1.31649    0.000
 4605.00    2.41855   1.31589    0.000
 4606.00    2.29683   1.31210    0.000
 4607.00    1.33605   1.30925    0.000
 4608.00    0.99665   1.31040    0.000
 4609.00    1.59287   1.31404    0.000
 4610.00    1.93158   1.31662    0.000
 4611.00    1.92954   1.31664    0.000
 4612.00    1.76067   1.31506    0.000
 4613.00    1.39737   1.31286    0.000
 4614.00    1.31759   1.31001    0.000
 4615.00    1.52919   1.30780    0.000
 4616.00    1.93106   1.30872    0.000
 4617.00    2.50542   1.31221    0.000
 4618.00    2.75868   1.31505    0.000
 4619.00    2.75539   1.31646    0.000
 4620.00    2.74575   1.31779    0.000
 4621.00    2.73163   1.31849    0.000
 4622.00    2.40383   1.31627    0.000
 4623.00    1.88264   1.31062    0.000
 4624.00    1.69411   1.30492    0.000
 4625.00    1.68473   1.30329    0.000
 4626.00    1.83815   1.30597    0.000
 4627.00    2.06772   1.31077    0.000
 4628.00    2.29263   1.31606    0.000
 4629.00    2.51567   1.32006    0.000
 4630.00    2.57573   1.32164    0.000
 4631.00    2.57972   1.32163    0.000
 4632.00    2.17992   1.32095    0.000
 4633.00    1.66317   1.31854    0.000
 4634.00    1.37828   1.31240    0.000
 4635.00    1.14892   1.30312    0.000
 4636.00    1.25205   1.29601    0.000
 4637.00    1.41939   1.29647    0.000
 4638.00    1.65287   1.30278    0.000
 4639.00    1.89627   1.30909    0.000
 4640.00    1.92002   1.31331    0.000
 4641.00    1.91959   1.31604    0.000
 4642.00    2.16251   1.31583    0.000
 4643.00    2.42313   1.31171    0.000
 4644.00    1.97970   1.30617    0.000
 4645.00    1.50965   1.30158    0.000
 4646.00    2.04204   1.29803    0.000
 4647.00    2.57084   1.29746    0.000
 4648.00    2.77781   1.30248    0.000
 4649.00    2.97019   1.30965    0.000
 4650.00    2.92397   1.30999    0.000
 4651.00    2.81291   1.29773    0.000
 4652.00    2.03824   1.27818    0.000
 4653.00    1.42104   1.26266    0.000
 4654.00    1.95468   1.25452    0.000
 4655.00    2.33146   1.25095    0.000
 4656.00    1.83133   1.25508    0.000
 4657.00    1.40554   1.26987    0.000
 4658.00    1.31144   1.28701    0.000
 4659.00    1.32727   1.29728    0.000
 4660.00    1.74581   1.30282    0.000
 4661.00    2.10687   1.30896    0.000
 4662.00    2.29153   1.31508    0.000
 4663.00    2.29279   1.31903    0.000
 4664.00    1.81578   1.32055    0.000
 4665.00    1.62445   1.31920    0.000
 4666.00    2.07339   1.31487    0.000
 4667.00    2.36523   1.31024    0.000
 4668.00    2.35197   1.30818    0.000
 4669.00    2.14910   1.30788    0.000
 4670.00    1.62511   1.30721    0.000
 4671.00    1.36219   1.30657    0.000
 4672.00    1.48664   1.30752    0.000
 4673.00    1.74329   1.31017    0.000
 4674.00    2.17237   1.31427    0.000
 4675.00    2.23171   1.31948    0.000
 4676.00    1.86624   1.32326    0.000
 4677.00    1.45429   1.32210    0.000
 4678.00    0.99524   1.31640    0.000
 4679.00    1.07405   1.31114    0.000
 4680.00    1.63356   1.30928    0.000
 4681.00    2.01641   1.30965    0.000
 4682.00    2.26012   1.31122    0.000
 4683.00    2.12588   1.31393    0.000
 4684.00    1.72985   1.31643    0.000
 4685.00    1.76269   1.31709    0.000
 4686.00    2.05602   1.31485    0.000
 4687.00    2.07317   1.30793    0.000
 4688.00    1.94387   1.29159    0.000
 4689.00    1.78628   1.26009    0.000
 4690.00    1.61566   1.22022    0.000
 4691.00    1.25837   1.19871    0.000
 4692.00    0.82712   1.21478    0.000
 4693.00    1.07296   1.25391    0.000
 4694.00    1.54741   1.28812    0.000
 4695.00    1.96530   1.30656    0.000
 4696.00    2.36713   1.31414    0.000
 4697.00    2.12255   1.31775    0.000
 4698.00    1.72664   1.32021    0.000
 4699.00    1.54431   1.32172    0.000
 4700.00    1.40215   1.32226    0.000
 4701.00    1.66013   1.32193    0.000
 4702.00    1.97631   1.32012    0.000
 4703.00    2.10463   1.31583    0.000
 4704.00    2.21309   1.31110    0.000
 4705.00    2.03084   1.30994    0.000
 4706.00    1.82863   1.31258    0.000
 4707.00    1.97914   1.31519    0.000
 4708.00    2.14164   1.31540    0.000
 4709.00    2.28937   1.31336    0.000
 4710.00    2.42431   1.31115    0.000
 4711.00    2.14428   1.31179    0.000
 4712.00    1.88985   1.31580    0.000
 4713.00    2.02836   1.31953    0.000
 4714.00    2.16313   1.32019    0.000
 4715.00    2.26136   1.31774    0.000
 4716.00    2.31378   1.30982    0.000
 4717.00    2.04232   1.29148    0.000
 4718.00    1.81238   1.27111    0.000
 4719.00    1.80831   1.26796    0.000
 4720.00    1.80211   1.28486    0.000
 4721.00    1.78662   1.30413    0.000
 4722.00    1.85599   1.31559    0.000
 4723.00    2.22976   1.32173    0.000
 4724.00    2.53596   1.32571    0.000
 4725.00    2.63871   1.32769    0.000
 4726.00    2.58553   1.32817    0.000
 4727.00    2.13279   1.32811    0.000
 4728.00    1.78643   1.32814    0.000
 4729.00    1.67456   1.32837    0.000
 4730.00    1.66562   1.32845    0.000
 4731.00    1.85347   1.32774    0.000
 4732.00    1.87577   1.32625    0.000
 4733.00    1.62193   1.32485    0.000
 4734.00    1.54887   1.32421    0.000
 4735.00    1.74014   1.32420    0.000
 4736.00    1.90471   1.32467    0.000
 4737.00    2.03495   1.32558    0.000
 4738.00    2.07154   1.32663    0.000
 4739.00    2.00205   1.32721    0.000
 4740.00    1.93913   1.32707    0.000
 4741.00    1.88279   1.32663    0.000
 4742.00    1.88000   1.32640    0.000
 4743.00    1.92440   1.32631    0.000
 4744.00    2.05344   1.32585    0.000
 4745.00    2.24817   1.32512    0.000
 4746.00    2.31223   1.32490    0.000
 4747.00    2.28711   1.32559    0.000
 4748.00    2.06948   1.32684    0.000
 4749.00    1.73669   1.32793    0.000
 4750.00    1.80898   1.32845    0.000
 4751.00    2.09273   1.32871    0.000
 4752.00    2.28201   1.32899    0.000
 4753.00    2.42854   1.32913    0.000
 4754.00    2.36639   1.32891    0.000
 4755.00    2.22299   1.32825    0.000
 4756.00    2.27960   1.32735    0.000
 4757.00    2.40249   1.32680    0.000
 4758.00    2.45425   1.32696    0.000
 4759.00    2.48624   1.32741    0.000
 4760.00    2.47184   1.32762    0.000
 4761.00    2.44683   1.32755    0.007
 4762.00    2.38319   1.32759    0.007
 4763.00    2.31248   1.32788    0.006
 4764.00    1.90398   1.32825    0.006
 4765.00    1.44791   1.32839    0.006
 4766.00    1.65286   1.32807    0.007
 4767.00    1.92484   1.32725    0.007
 4768.00    1.91019   1.32626    0.007
 4769.00    1.87702   1.32550    0.007
 4770.00    2.05549   1.32526    0.007
 4771.00    2.24020   1.32562    0.007
 4772.00    2.33984   1.32641    0.007
 4773.00    2.43026   1.32725    0.006
 4774.00    2.25335   1.32795    0.007
 4775.00    2.07425   1.32829    0.007
 4776.00    1.86333   1.32810    0.007
 4777.00    1.67745   1.32758    0.006
 4778.00    1.72717   1.32728    0.006
 4779.00    1.75852   1.32747    0.006
 4780.00    1.66408   1.32793    0.006
 4781.00    1.64627   1.32837    0.006
 4782.00    2.03437   1.32846    0.006
 4783.00    2.29443   1.32783    0.006
 4784.00    2.00918   1.32653    0.006
 4785.00    1.73781   1.32552    0.006
 4786.00    1.51523   1.32556    0.006
 4787.00    1.44161   1.32616    0.006
 4788.00    1.80811   1.32648    0.006
 4789.00    2.12004   1.32632    0.006
 4790.00    2.29457   1.32570    0.006
 4791.00    2.36411   1.32475    0.006
 4792.00    2.20596   1.32413    0.006
 4793.00    2.15341   1.32433    0.007
 4794.00    2.29962   1.32509    0.007
 4795.00    2.20264   1.32578    0.007
 4796.00    1.70604   1.32572    0.006
 4797.00    1.52680   1.32506    0.006
 4798.00    1.80484   1.32489    0.007
 4799.00    1.96023   1.32572    0.007
 4800.00    1.96017   1.32709    0.007
 4801.00    1.96162   1.32833    0.007
 4802.00    1.96477   1.32886    0.007
 4803.00    1.97740   1.32848    0.007
 4804.00    1.99938   1.32757    0.007
 4805.00    2.05867   1.32669    0.007
 4806.00    2.15037   1.32588    0.007
 4807.00    2.09058   1.32466    0.007
 4808.00    1.91487   1.32340    0.007
 4809.00    1.80954   1.32323    0.007
 4810.00    1.75158   1.32419    0.007
 4811.00    1.87245   1.32532    0.007
 4812.00    2.09872   1.32615    0.006
 4813.00    1.97673   1.32654    0.006
 4814.00    1.67579   1.32618    0.007
 4815.00    1.58538   1.32542    0.007
 4816.00    1.58870   1.32467    0.007
 4817.00    1.47240   1.32330    0.007
 4818.00    1.31032   1.32090    0.007
 4819.00    1.50951   1.31871    0.007
 4820.00    1.82614   1.31807    0.007
 4821.00    2.11396   1.31930    0.007
 4822.00    2.39393   1.32149    0.007
 4823.00    2.21542   1.32227    0.007
 4824.00    1.93446   1.32012    0.007
 4825.00    1.87155   1.31772    0.007
 4826.00    1.84750   1.31852    0.007
 4827.00    1.70807   1.32121    0.007
 4828.00    1.55292   1.32213    0.007
 4829.00    1.52825   1.32098    0.007
 4830.00    1.51626   1.32013    0.007
 4831.00    1.50063   1.32035    0.007
 4832.00    1.48478   1.32007    0.007
 4833.00    1.46867   1.31794    0.007
 4834.00    1.45394   1.31537    0.007
 4835.00    1.69148   1.31519    0.007
 4836.00    1.92442   1.31752    0.007
 4837.00    2.03737   1.31966    0.007
 4838.00    2.14114   1.32006    0.007
 4839.00    2.11960   1.31926    0.007
 4840.00    2.10925   1.31812    0.007
 4841.00    2.20017   1.31728    0.006
 4842.00    2.25419   1.31681    0.006
 4843.00    2.06329   1.31611    0.006
 4844.00    1.86010   1.31476    0.006
 4845.00    1.59342   1.31298    0.006
 4846.00    1.48768   1.31112    0.006
 4847.00    2.05188   1.30911    0.006
 4848.00    2.45400   1.30663    0.000
 4849.00    2.29801   1.30389    0.000
 4850.00    2.13352   1.30117    0.000
 4851.00    1.94441   1.29805    0.000
 4852.00    1.71480   1.29370    0.000
 4853.00    1.38496   1.28790    0.000
 4854.00    1.30475   1.28110    0.000
 4855.00    1.75714   1.27350    0.000
 4856.00    2.12345   1.26463    0.000
 4857.00    2.33026   1.25395    0.000
 4858.00    2.37643   1.24071    0.000
 4859.00    2.16253   1.22330    0.000
 4860.00    2.09444   1.19994    0.000
 4861.00    2.23338   1.16908    0.000
 4862.00    2.23792   1.12820    0.000
 4863.00    2.07456   1.07356    0.000
 4864.00    1.93564   1.00311    0.000
 4865.00    1.82363   0.92366    0.000
 4866.00    1.69398   0.85771    0.000
 4867.00    1.54719   0.83771    0.000
 4868.00    1.52474   0.87803    0.000
 4869.00    1.60876   0.95678    0.000
 4870.00    1.51344   1.03725    0.000
 4871.00    1.28284   1.09929    0.000
 4872.00    1.28081   1.14306    0.000
 4873.00    1.43028   1.17656    0.000
 4874.00    1.59564   1.20483    0.000
 4875.00    1.77022   1.22753    0.006
 4876.00    1.92926   1.24353    0.006
 4877.00    2.08043   1.25501    0.006
 4878.00    2.21506   1.26468    0.006
 4879.00    2.34244   1.27339    0.006
 4880.00    2.23735   1.28105    0.006
 4881.00    2.04489   1.28769    0.006
 4882.00    1.97451   1.29341    0.006
 4883.00    1.94308   1.29813    0.006
 4884.00    2.14044   1.30201    0.006
 4885.00    2.39880   1.30511    0.006
 4886.00    2.34756   1.30748    0.006
 4887.00    2.22877   1.30914    0.006
 4888.00    2.19902   1.31009    0.006
 4889.00    2.18471   1.31038    0.006
 4890.00    2.30485   1.31063    0.006
 4891.00    2.44270   1.31178    0.006
 4892.00    2.46824   1.31405    0.006
 4893.00    2.48334   1.31637    0.006
 4894.00    2.17849   1.31732    0.006
 4895.00    1.85549   1.31654    0.006
 4896.00    1.61092   1.31550    0.006
 4897.00    1.37447   1.31630    0.006
 4898.00    1.83043   1.31926    0.006
 4899.00    2.25959   1.32256    0.006
 4900.00    2.05290   1.32483    0.006
 4901.00    1.86237   1.32603    0.006
 4902.00    1.88084   1.32632    0.006
 4903.00    1.91168   1.32567    0.006
 4904.00    2.05014   1.32417    0.006
 4905.00    2.14869   1.32265    0.006
 4906.00    1.99045   1.32232    0.006
 4907.00    1.88392   1.32331    0.006
 4908.00    2.03743   1.32441    0.006
 4909.00    2.17499   1.32472    0.006
 4910.00    2.24765   1.32426    0.006
 4911.00    2.29647   1.32324    0.006
 4912.00    2.26484   1.32226    0.006
 4913.00    2.25747   1.32247    0.006
 4914.00    2.31916   1.32378    0.006
 4915.00    2.37221   1.32491    0.006
 4916.00    2.40425   1.32526    0.006
 4917.00    2.40729   1.32529    0.006
 4918.00    2.34948   1.32535    0.006
 4919.00    2.26895   1.32557    0.006
 4920.00    2.14696   1.32560    0.006
 4921.00    2.07054   1.32442    0.006
 4922.00    2.06678   1.32124    0.006
 4923.00    2.08406   1.31618    0.006
 4924.00    2.13076   1.30799    0.006
 4925.00    2.18852   1.29207    0.006
 4926.00    2.25990   1.26663    0.006
 4927.00    2.19342   1.24214    0.006
 4928.00    1.97726   1.23557    0.006
 4929.00    1.73820   1.24990    0.006
 4930.00    1.47721   1.27316    0.006
 4931.00    1.57596   1.29464    0.006
 4932.00    1.97848   1.31126    0.006
 4933.00    2.12484   1.32179    0.006
 4934.00    2.08075   1.32678    0.006
 4935.00    2.05063   1.32863    0.006
 4936.00    2.02964   1.32914    0.006
 4937.00    2.10137   1.32885    0.006
 4938.00    2.22611   1.32798    0.006
 4939.00    2.04866   1.32720    0.006
 4940.00    1.72077   1.32714    0.000
 4941.00    1.57829   1.32751    0.000
 4942.00    1.51566   1.32743    0.000
 4943.00    1.81009   1.32658    0.000
 4944.00    2.23636   1.32535    0.000
 4945.00    2.09328   1.32381    0.000
 4946.00    1.77209   1.32159    0.000
 4947.00    1.57074   1.31905    0.000
 4948.00    1.40065   1.31791    0.000
 4949.00    1.26439   1.31977    0.000
 4950.00    1.13533   1.32363    0.000
 4951.00    1.41849   1.32689    0.000
 4952.00    1.77111   1.32823    0.000
 4953.00    1.70010   1.32820    0.000
 4954.00    1.57521   1.32768    0.000
 4955.00    1.87429   1.32717    0.000
 4956.00    2.21099   1.32691    0.000
 4957.00    2.16231   1.32688    0.000
 4958.00    2.09330   1.32701    0.000
 4959.00    1.95377   1.32707    0.000
 4960.00    1.81262   1.32656    0.000
 4961.00    1.64919   1.32536    0.000
 4962.00    1.49784   1.32406    0.000
 4963.00    1.60920   1.32362    0.000
 4964.00    1.73669   1.32459    0.000
 4965.00    2.06206   1.32648    0.000
 4966.00    2.37479   1.32810    0.000
 4967.00    2.58172   1.32883    0.000
 4968.00    2.66063   1.32886    0.000
 4969.00    1.94011   1.32847    0.000
 4970.00    1.40104   1.32773    0.000
 4971.00    1.75159   1.32693    0.000
 4972.00    2.04219   1.32648    0.000
 4973.00    2.09417   1.32637    0.000
 4974.00    2.13482   1.32633    0.000
 4975.00    2.13796   1.32639    0.000
 4976.00    2.13856   1.32673    0.000
 4977.00    2.13201   1.32737    0.000
 4978.00    2.15230   1.32810    0.000
 4979.00    2.23676   1.32860    0.000
 4980.00    2.20139   1.32860    0.000
 4981.00    1.91847   1.32806    0.000
 4982.00    1.61225   1.32720    0.000
 4983.00    1.26419   1.32645    0.000
 4984.00    1.20919   1.32610    0.000
 4985.00    1.61463   1.32586    0.000
 4986.00    1.85485   1.32496    0.000
 4987.00    1.86718   1.32307    0.000
 4988.00    1.80623   1.32089    0.000
 4989.00    1.65633   1.31982    0.000
 4990.00    1.69943   1.32053    0.000
 4991.00    1.94912   1.32234    0.000
 4992.00    2.17021   1.32414    0.000
 4993.00    2.36431   1.32527    0.000
 4994.00    2.26636   1.32533    0.000
 4995.00    1.92529   1.32397    0.000
 4996.00    1.90634   1.32150    0.000
 4997.00    2.12343   1.31937    0.000
 4998.00    2.10696   1.31896    0.000
 4999.00    1.94018   1.32019    0.000
 5000.00    2.00581   1.32208    0.000
 5001.00    2.20227   1.32397    0.000
 5002.00    2.21075   1.32530    0.000
 5003.00    2.12715   1.32546    0.000
 5004.00    2.04254   1.32363    0.000
 5005.00    1.95750   1.31898    0.000
 5006.00    1.86235   1.31228    0.000
 5007.00    1.76353   1.30718    0.000
 5008.00    1.77901   1.30668    0.000
 5009.00    1.82954   1.30901    0.000
 5010.00    2.07244   1.31050    0.000
 5011.00    2.36446   1.31067    0.000
 5012.00    2.32347   1.31127    0.000
 5013.00    2.21329   1.31259    0.000
 5014.00    2.07275   1.31352    0.000
 5015.00    1.92724   1.31375    0.000
 5016.00    1.76663   1.31425    0.000
 5017.00    1.60417   1.31490    0.000
 5018.00    1.37272   1.31208    0.000
 5019.00    1.13544   1.30004    0.000
 5020.00    1.33425   1.27874    0.000
 5021.00    1.55437   1.26088    0.000
 5022.00    1.66028   1.26105    0.000
 5023.00    1.76168   1.27735    0.000
 5024.00    1.69530   1.29543    0.000
 5025.00    1.64578   1.30735    0.000
 5026.00    1.93421   1.31398    0.000
 5027.00    2.20713   1.31721    0.000
 5028.00    2.29898   1.31846    0.000
 5029.00    2.35123   1.31921    0.006
 5030.00    2.08382   1.31927    0.006
 5031.00    1.86048   1.31786    0.006
 5032.00    1.90445   1.31593    0.006
 5033.00    1.92900   1.31551    0.006
 5034.00    1.86070   1.31698    0.006
 5035.00    1.76972   1.31846    0.006
 5036.00    1.59041   1.31800    0.005
 5037.00    1.50438   1.31602    0.004
 5038.00    1.72092   1.31494    0.004
 5039.00    1.82687   1.31595    0.004
 5040.00    1.62924   1.31746    0.004
 5041.00    1.51913   1.31787    0.004
 5042.00    1.61483   1.31790    0.004
 5043.00    1.71571   1.31805    0.004
 5044.00    1.82713   1.31621    0.004
 5045.00    1.84136   1.31031    0.005
 5046.00    1.68362   1.30323    0.005
 5047.00    1.66149   1.30123    0.006
 5048.00    1.84927   1.30604    0.006
 5049.00    1.91700   1.31225    0.006
 5050.00    1.82152   1.31437    0.006
 5051.00    1.66891   1.31110    0.006
 5052.00    1.44792   1.30378    0.006
 5053.00    1.44766   1.29713    0.006
 5054.00    1.68034   1.29744    0.006
 5055.00    1.88649   1.30512    0.006
 5056.00    2.06794   1.31397    0.006
 5057.00    1.99930   1.31961    0.006
 5058.00    1.72541   1.32192    0.006
 5059.00    1.76608   1.31996    0.006
 5060.00    2.03397   1.31155    0.006
 5061.00    2.03460   1.30035    0.005
 5062.00    1.86579   1.29566    0.005
 5063.00    1.88876   1.30145    0.005
 5064.00    2.01805   1.31133    0.005
 5065.00    2.17733   1.31795    0.005
 5066.00    2.35105   1.32019    0.006
 5067.00    2.12419   1.32023    0.006
 5068.00    1.73056   1.31957    0.005
 5069.00    1.56306   1.31878    0.005
 5070.00    1.47607   1.31819    0.005
 5071.00    1.61009   1.31804    0.005
 5072.00    1.81058   1.31829    0.005
 5073.00    1.57094   1.31856    0.005
 5074.00    1.22136   1.31865    0.005
 5075.00    1.36384   1.31858    0.005
 5076.00    1.60603   1.31825    0.005
 5077.00    1.73012   1.31748    0.005
 5078.00    1.83544   1.31627    0.005
 5079.00    1.94228   1.31514    0.005
 5080.00    2.04930   1.31476    0.005
 5081.00    1.66830   1.31535    0.005
 5082.00    1.24806   1.31639    0.005
 5083.00    1.31284   1.31713    0.005
 5084.00    1.39944   1.31699    0.005
 5085.00    1.49941   1.31626    0.005
 5086.00    1.59475   1.31568    0.005
 5087.00    1.45173   1.31561    0.005
 5088.00    1.32981   1.31599    0.005
 5089.00    1.60017   1.31661    0.005
 5090.00    1.83078   1.31694    0.005
 5091.00    1.61851   1.31638    0.005
 5092.00    1.43593   1.31537    0.005
 5093.00    1.48466   1.31509    0.005
 5094.00    1.54679   1.31584    0.005
 5095.00    1.68786   1.31666    0.005
 5096.00    1.78621   1.31676    0.005
 5097.00    1.68521   1.31626    0.005
 5098.00    1.57955   1.31549    0.005
 5099.00    1.45614   1.31481    0.005
 5100.00    1.37248   1.31470    0.005
 5101.00    1.41526   1.31495    0.005
 5102.00    1.51196   1.31460    0.005
 5103.00    1.75401   1.31343    0.005
 5104.00    1.80536   1.31202    0.005
 5105.00    1.41579   1.31070    0.005
 5106.00    1.22463   1.30995    0.005
 5107.00    1.43037   1.31011    0.006
 5108.00    1.67794   1.31082    0.006
 5109.00    1.99838   1.31158    0.006
 5110.00    1.98671   1.31253    0.006
 5111.00    1.46847   1.31357    0.006
 5112.00    1.27979   1.31415    0.006
 5113.00    1.53272   1.31425    0.006
 5114.00    1.66180   1.31430    0.006
 5115.00    1.64473   1.31440    0.006
 5116.00    1.52653   1.31450    0.006
 5117.00    1.30312   1.31446    0.006
 5118.00    1.38183   1.31384    0.006
 5119.00    1.73783   1.31256    0.006
 5120.00    1.94138   1.31161    0.006
 5121.00    2.02162   1.31201    0.006
 5122.00    1.99430   1.31359    0.006
 5123.00    1.89042   1.31523    0.006
 5124.00    1.71473   1.31607    0.006
 5125.00    1.49419   1.31578    0.006
 5126.00    1.45645   1.31422    0.006
 5127.00    1.51852   1.31186    0.006
 5128.00    1.52372   1.31003    0.006
 5129.00    1.50195   1.30969    0.006
 5130.00    1.17827   1.31013    0.005
 5131.00    0.73103   1.30946    0.005
 5132.00    0.97361   1.30720    0.005
 5133.00    1.45735   1.30540    0.005
 5134.00    1.70727   1.30612    0.005
 5135.00    1.88826   1.30872    0.005
 5136.00    1.79675   1.31068    0.005
 5137.00    1.63868   1.31023    0.005
 5138.00    1.60360   1.30810    0.005
 5139.00    1.59281   1.30698    0.005
 5140.00    1.57420   1.30841    0.005
 5141.00    1.55438   1.31078    0.005
 5142.00    1.56191   1.31177    0.005
 5143.00    1.57256   1.31115    0.005
 5144.00    1.71796   1.31002    0.005
 5145.00    1.87364   1.30924    0.005
 5146.00    1.62716   1.30868    0.005
 5147.00    1.36413   1.30717    0.005
 5148.00    1.30846   1.30424    0.005
 5149.00    1.25893   1.30105    0.005
 5150.00    1.39684   1.29942    0.005
 5151.00    1.53631   1.30042    0.005
 5152.00    1.70312   1.30358    0.005
 5153.00    1.84128   1.30669    0.005
 5154.00    1.67478   1.30770    0.005
 5155.00    1.51679   1.30663    0.005
 5156.00    1.42290   1.30514    0.005
 5157.00    1.36478   1.30484    0.005
 5158.00    1.51160   1.30581    0.005
 5159.00    1.63834   1.30674    0.005
 5160.00    1.67362   1.30646    0.005
 5161.00    1.64215   1.30550    0.005
 5162.00    1.36164   1.30565    0.005
 5163.00    1.20306   1.30772    0.005
 5164.00    1.42490   1.31018    0.005
 5165.00    1.63183   1.31121    0.005
 5166.00    1.79930   1.31099    0.005
 5167.00    1.77421   1.31054    0.005
 5168.00    1.31129   1.31024    0.005
 5169.00    1.11034   1.30984    0.005
 5170.00    1.42521   1.30886    0.005
 5171.00    1.58801   1.30668    0.006
 5172.00    1.48984   1.30311    0.006
 5173.00    1.26580   1.29887    0.006
 5174.00    0.85256   1.29574    0.006
 5175.00    0.70817   1.29547    0.006
 5176.00    0.91887   1.29755    0.006
 5177.00    1.21852   1.29947    0.006
 5178.00    1.62164   1.30023    0.006
 5179.00    1.75046   1.30120    0.005
 5180.00    1.59787   1.30298    0.005
 5181.00    1.55194   1.30457    0.005
 5182.00    1.60253   1.30549    0.005
 5183.00    1.61851   1.30621    0.005
 5184.00    1.60690   1.30667    0.005
 5185.00    1.50501   1.30651    0.005
 5186.00    1.33979   1.30596    0.005
 5187.00    1.28572   1.30504    0.005
 5188.00    1.30006   1.30322    0.005
 5189.00    1.35490   1.30084    0.005
 5190.00    1.43152   1.29942    0.000
 5191.00    1.37536   1.30007    0.000
 5192.00    1.25722   1.30234    0.000
 5193.00    1.25326   1.30476    0.000
 5194.00    1.29522   1.30601    0.000
 5195.00    1.40211   1.30578    0.000
 5196.00    1.53128   1.30459    0.000
 5197.00    1.39236   1.30306    0.000
 5198.00    1.17600   1.30179    0.000
 5199.00    1.16880   1.30127    0.000
 5200.00    1.21155   1.30162    0.000
 5201.00    1.38192   1.30239    0.000
 5202.00    1.57686   1.30277    0.000
 5203.00    1.43210   1.30239    0.000
 5204.00    1.23655   1.30132    0.000
 5205.00    1.52610   1.29909    0.000
 5206.00    1.86879   1.29588    0.000
 5207.00    1.77535   1.29412    0.000
 5208.00    1.65043   1.29504    0.000
 5209.00    1.67249   1.29660    0.000
 5210.00    1.70003   1.29670    0.000
 5211.00    1.68818   1.29620    0.005
 5212.00    1.67568   1.29647    0.005
 5213.00    1.64654   1.29764    0.005
 5214.00    1.61666   1.29911    0.005
 5215.00    1.57479   1.30001    0.005
 5216.00    1.51595   1.29911    0.005
 5217.00    1.28433   1.29603    0.005
 5218.00    1.08864   1.29317    0.005
 5219.00    1.15455   1.29357    0.005
 5220.00    1.24247   1.29640    0.005
 5221.00    1.45310   1.29828    0.005
 5222.00    1.61591   1.29840    0.005
 5223.00    1.56599   1.29877    0.005
 5224.00    1.52455   1.30035    0.005
 5225.00    1.51407   1.30245    0.005
 5226.00    1.54733   1.30399    0.005
 5227.00    1.71446   1.30453    0.005
 5228.00    1.75200   1.30405    0.005
 5229.00    1.45231   1.30275    0.005
 5230.00    1.21757   1.30071    0.005
 5231.00    1.12809   1.29771    0.005
 5232.00    1.15812   1.29421    0.005
 5233.00    1.41978   1.29232    0.005
 5234.00    1.51239   1.29367    0.005
 5235.00    1.31922   1.29722    0.005
 5236.00    1.25403   1.30040    0.005
 5237.00    1.37839   1.30156    0.005
 5238.00    1.35693   1.30063    0.005
 5239.00    1.14562   1.29854    0.005
 5240.00    1.05878   1.29692    0.005
 5241.00    1.11470   1.29695    0.005
 5242.00    1.18797   1.29832    0.005
 5243.00    1.27879   1.29986    0.005
 5244.00    1.24602   1.30099    0.005
 5245.00    1.10299   1.30177    0.005
 5246.00    1.04248   1.30222    0.005
 5247.00    1.04686   1.30209    0.005
 5248.00    1.10407   1.30150    0.005
 5249.00    1.19780   1.30102    0.005
 5250.00    1.26598   1.30127    0.005
 5251.00    1.31867   1.30182    0.005
 5252.00    1.44780   1.30125    0.005
 5253.00    1.61740   1.29920    0.005
 5254.00    1.44325   1.29692    0.005
 5255.00    1.11125   1.29563    0.005
 5256.00    0.98099   1.29536    0.005
 5257.00    0.93048   1.29555    0.005
 5258.00    1.07586   1.29560    0.005
 5259.00    1.28723   1.29538    0.005
 5260.00    1.27769   1.29537    0.005
 5261.00    1.20562   1.29617    0.005
 5262.00    1.18650   1.29754    0.005
 5263.00    1.17975   1.29861    0.005
 5264.00    1.13513   1.29860    0.005
 5265.00    1.08341   1.29726    0.005
 5266.00    1.27437   1.29534    0.005
 5267.00    1.50048   1.29378    0.005
 5268.00    1.61880   1.29224    0.005
 5269.00    1.72578   1.28979    0.005
 5270.00    1.52226   1.28759    0.005
 5271.00    1.29758   1.28752    0.005
 5272.00    1.07109   1.28949    0.005
 5273.00    0.84453   1.29147    0.005
 5274.00    0.84579   1.29165    0.005
 5275.00    0.84985   1.29018    0.005
 5276.00    0.93586   1.28866    0.005
 5277.00    1.02483   1.28810    0.005
 5278.00    1.15902   1.28841    0.005
 5279.00    1.27987   1.28918    0.005
 5280.00    1.27060   1.28983    0.005
 5281.00    1.27709   1.28997    0.005
 5282.00    1.39464   1.29044    0.005
 5283.00    1.46908   1.29236    0.005
 5284.00    1.30980   1.29486    0.005
 5285.00    1.13643   1.29621    0.005
 5286.00    0.90185   1.29597    0.005
 5287.00    0.75535   1.29490    0.005
 5288.00    0.92399   1.29372    0.005
 5289.00    1.08770   1.29292    0.005
 5290.00    1.23656   1.29304    0.005
 5291.00    1.36635   1.29432    0.005
 5292.00    1.44737   1.29613    0.005
 5293.00    1.43499   1.29742    0.005
 5294.00    1.21713   1.29778    0.005
 5295.00    0.99087   1.29752    0.005
 5296.00    0.74859   1.29689    0.005
 5297.00    0.62971   1.29604    0.005
 5298.00    0.71630   1.29544    0.005
 5299.00    0.84543   1.29536    0.005
 5300.00    1.03665   1.29529    0.005
 5301.00    1.11975   1.29439    0.005
 5302.00    1.06409   1.29255    0.005
 5303.00    1.09304   1.29052    0.006
 5304.00    1.21768   1.28935    0.006
 5305.00    1.33199   1.28949    0.006
 5306.00    1.43599   1.29034    0.006
 5307.00    1.49490   1.29103    0.006
 5308.00    1.51415   1.29144    0.006
 5309.00    1.77316   1.29204    0.006
 5310.00    2.21799   1.29277    0.006
 5311.00    2.10272   1.29294    0.006
 5312.00    1.60581   1.29246    0.006
 5313.00    1.57526   1.29213    0.006
 5314.00    1.82320   1.29242    0.006
 5315.00    1.88828   1.29290    0.006
 5316.00    1.85809   1.29308    0.005
 5317.00    1.71443   1.29299    0.005
 5318.00    1.51951   1.29258    0.005
 5319.00    1.49225   1.29158    0.005
 5320.00    1.53013   1.28966    0.005
 5321.00    1.53490   1.28679    0.005
 5322.00    1.52873   1.28411    0.005
 5323.00    1.48551   1.28345    0.005
 5324.00    1.43202   1.28466    0.005
 5325.00    1.39363   1.28524    0.005
 5326.00    1.35867   1.28406    0.005
 5327.00    1.06292   1.28328    0.005
 5328.00    0.71957   1.28468    0.005
 5329.00    0.77404   1.28678    0.005
 5330.00    0.88430   1.28766    0.005
 5331.00    0.99636   1.28711    0.005
 5332.00    1.10861   1.28553    0.005
 5333.00    1.10686   1.28314    0.005
 5334.00    1.09780   1.28098    0.005
 5335.00    0.97714   1.28042    0.005
 5336.00    0.85336   1.28173    0.005
 5337.00    0.81305   1.28379    0.005
 5338.00    0.77906   1.28536    0.005
 5339.00    0.92573   1.28607    0.005
 5340.00    1.06981   1.28634    0.005
 5341.00    1.17658   1.28662    0.005
 5342.00    1.28616   1.28686    0.005
 5343.00    1.42194   1.28670    0.005
 5344.00    1.52689   1.28577    0.005
 5345.00    1.42164   1.28414    0.005
 5346.00    1.30065   1.28255    0.005
 5347.00    1.09654   1.28180    0.005
 5348.00    0.96476   1.28194    0.005
 5349.00    1.14012   1.28201    0.005
 5350.00    1.29359   1.28050    0.005
 5351.00    1.37036   1.27743    0.005
 5352.00    1.42605   1.27556    0.005
 5353.00    1.41958   1.27722    0.005
 5354.00    1.41553   1.28091    0.005
 5355.00    1.41752   1.28382    0.005
 5356.00    1.42102   1.28527    0.005
 5357.00    1.42775   1.28598    0.005
 5358.00    1.36087   1.28634    0.005
 5359.00    1.15570   1.28655    0.005
 5360.00    1.02342   1.28686    0.005
 5361.00    1.01071   1.28724    0.005
 5362.00    0.96121   1.28748    0.005
 5363.00    0.85881   1.28744    0.005
 5364.00    0.83797   1.28711    0.005
 5365.00    0.92030   1.28647    0.005
 5366.00    0.99940   1.28549    0.005
 5367.00    1.07490   1.28413    0.005
 5368.00    1.11651   1.28257   -2.000
 5369.00    1.12478   1.28147   -2.000
 5370.00    1.15632   1.28124   -2.000
 5371.00    1.20803   1.28151   -2.000
 5372.00    1.23018   1.28162   -2.000
 5373.00    1.22974   1.28140   -2.000
 5374.00    1.15027   1.28084   -2.000
 5375.00    1.01771   1.27980   -2.000
 5376.00    1.04860   1.27852   -2.000
 5377.00    1.17561   1.27787   -2.000
 5378.00    1.09451   1.27854   -2.000
 5379.00    0.90667   1.28010   -2.000
 5380.00    1.04778   1.28135   -2.000
 5381.00    1.33504   1.28161   -2.000
 5382.00    1.25131   1.28136   -2.000
 5383.00    1.02595   1.28138    0.005
 5384.00    0.91711   1.28165    0.005
 5385.00    0.84607   1.28162    0.005
 5386.00    0.99187   1.28107    0.005
 5387.00    1.19655   1.28036    0.005
 5388.00    1.16651   1.27987    0.005
 5389.00    1.08417   1.27967    0.005
 5390.00    0.98128   1.27964    0.005
 5391.00    0.87474   1.27949    0.005
 5392.00    0.91159   1.27896    0.005
 5393.00    0.96791   1.27824    0.005
 5394.00    0.96344   1.27783    0.005
 5395.00    0.95310   1.27773    0.005
 5396.00    1.04759   1.27750    0.005
 5397.00    1.14838   1.27702    0.005
 5398.00    1.26418   1.27650    0.005
 5399.00    1.38109   1.27602    0.005
 5400.00    1.61649   1.27532    0.005
 5401.00    1.83275   1.27419    0.005
 5402.00    1.55541   1.27291    0.005
 5403.00    1.28928   1.27222    0.005
 5404.00    1.17509   1.27235    0.005
 5405.00    1.08084   1.27230    0.005
 5406.00    1.16589   1.27093    0.005
 5407.00    1.24333   1.26871    0.005
 5408.00    1.27047   1.26716    0.005
 5409.00    1.26877   1.26656    0.005
 5410.00    1.11875   1.26567    0.005
 5411.00    1.02953   1.26358    0.005
 5412.00    1.19269   1.26033    0.005
 5413.00    1.26052   1.25498    0.005
 5414.00    1.00091   1.24433    0.005
 5415.00    0.77505   1.22528    0.005
 5416.00    0.64679   1.20026    0.005
 5417.00    0.64772   1.18015    0.005
 5418.00    0.96768   1.17715    0.005
 5419.00    1.23558   1.19299    0.005
 5420.00    1.39262   1.21744    0.005
 5421.00    1.41754   1.23907    0.005
 5422.00    1.19809   1.25356    0.005
 5423.00    1.05376   1.26201    0.005
 5424.00    1.03079   1.26652    0.005
 5425.00    1.04841   1.26869    0.005
 5426.00    1.12353   1.26971    0.005
 5427.00    1.12794   1.27028    0.005
 5428.00    1.04416   1.27050    0.005
 5429.00    1.01085   1.27016    0.005
 5430.00    1.03299   1.26935    0.005
 5431.00    1.06169   1.26865    0.005
 5432.00    1.09675   1.26828    0.005
 5433.00    1.16589   1.26738    0.005
 5434.00    1.26419   1.26533    0.005
 5435.00    1.26241   1.26330    0.005
 5436.00    1.18527   1.26276    0.004
 5437.00    1.11610   1.26299    0.004
 5438.00    1.05219   1.26256    0.004
 5439.00    1.08361   1.26203    0.004
 5440.00    1.17025   1.26278    0.005
 5441.00    1.21547   1.26468    0.005
 5442.00    1.23976   1.26659    0.005
 5443.00    1.21350   1.26814    0.005
 5444.00    1.16513   1.26954    0.005
 5445.00    1.21277   1.27061    0.005
 5446.00    1.29640   1.27102    0.005
 5447.00    1.24657   1.27078    0.005
 5448.00    1.15427   1.27013    0.005
 5449.00    1.12884   1.26921    0.005
 5450.00    1.12118   1.26792    0.005
 5451.00    1.13569   1.26627    0.005
 5452.00    1.15503   1.26487    0.005
 5453.00    1.15460   1.26461    0.005
 5454.00    1.15076   1.26559    0.005
 5455.00    1.19734   1.26680    0.005
 5456.00    1.25053   1.26703    0.005
 5457.00    1.15908   1.26563    0.005
 5458.00    1.05427   1.26255    0.005
 5459.00    1.06325   1.25873    0.005
 5460.00    1.07863   1.25630    0.005
 5461.00    1.08929   1.25678    0.005
 5462.00    1.10058   1.25948    0.005
 5463.00    1.18908   1.26248    0.005
 5464.00    1.26591   1.26457    0.005
 5465.00    1.06856   1.26546    0.005
 5466.00    0.88384   1.26523    0.005
 5467.00    0.86145   1.26430    0.005
 5468.00    0.84169   1.26333    0.005
 5469.00    0.84470   1.26266    0.005
 5470.00    0.85408   1.26172    0.005
 5471.00    0.90428   1.25964    0.005
 5472.00    0.93784   1.25701    0.005
 5473.00    0.88797   1.25595    0.005
 5474.00    0.90420   1.25750    0.005
 5475.00    1.18877   1.26013    0.005
 5476.00    1.39109   1.26180    0.005
 5477.00    1.31660   1.26169    0.005
 5478.00    1.25143   1.25994   -2.000
 5479.00    1.21271   1.25759   -2.000
 5480.00    1.25003   1.25628   -2.000
 5481.00    1.47194   1.25652   -2.000
 5482.00    1.60864   1.25719   -2.000
 5483.00    1.56683   1.25756   -2.000
 5484.00    1.25389   1.25804   -2.000
 5485.00    0.44718   1.25873   -2.000
 5486.00    0.18295   1.25900   -2.000
 5487.00    0.78225   1.25862   -2.000
 5488.00    1.01531   1.25828   -2.000
 5489.00    0.73677   1.25868   -2.000
 5490.00    0.52746   1.25959   -2.000
 5491.00    0.40325   1.26006   -2.000
 5492.00    0.28950   1.25948   -2.000
 5493.00    0.18708   1.25830   -2.000
 5494.00    0.30651   1.25751   -2.000
 5495.00    0.63800   1.25761   -2.000
 5496.00    0.91349   1.25810   -2.000
 5497.00    1.14178   1.25829   -2.000
 5498.00    1.19196   1.25794   -2.000
 5499.00    1.10997   1.25731   -2.000
 5500.00    1.07799   1.25683   -2.000
 5501.00    1.07863   1.25666   -2.000
 5502.00    1.05467   1.25664    0.005
 5503.00    1.01666   1.25668    0.005
 5504.00    0.96004   1.25699    0.005
 5505.00    0.89417   1.25746    0.005
 5506.00    0.86382   1.25750    0.005
 5507.00    0.84874   1.25675    0.005
 5508.00    0.88778   1.25566    0.005
 5509.00    0.94677   1.25489    0.005
 5510.00    0.79822   1.25434    0.005
 5511.00    0.58491   1.25326    0.005
 5512.00    0.68115   1.25135    0.005
 5513.00    0.85793   1.24933    0.005
 5514.00    0.94247   1.24800    0.005
 5515.00    1.00743   1.24758    0.005
 5516.00    1.10938   1.24810    0.005
 5517.00    1.21754   1.24950    0.005
 5518.00    1.20969   1.25113    0.005
 5519.00    1.18714   1.25235    0.005
 5520.00    0.99476   1.25313    0.005
 5521.00    0.78740   1.25374    0.004
 5522.00    0.78936   1.25429    0.005
 5523.00    0.80227   1.25472    0.005
 5524.00    0.62105   1.25502    0.004
 5525.00    0.44025   1.25513    0.004
 5526.00    0.56537   1.25502    0.004
 5527.00    0.69814   1.25474    0.003
 5528.00    0.99549   1.25434    0.003
 5529.00    1.26688   1.25374    0.003
 5530.00    1.22156   1.25267    0.003
 5531.00    1.18948   1.25105    0.003
 5532.00    1.26769   1.24931    0.003
 5533.00    1.31692   1.24815    0.003
 5534.00    1.18586   1.24787    0.004
 5535.00    1.07647   1.24837    0.004
 5536.00    1.07300   1.24926    0.004
 5537.00    1.06382   1.25007    0.004
 5538.00    1.03199   1.25041    0.004
 5539.00    1.00623   1.25009    0.004
 5540.00    1.00051   1.24915    0.004
 5541.00    1.00394   1.24798    0.004
 5542.00    1.03287   1.24723    0.004
 5543.00    1.04839   1.24746    0.004
 5544.00    1.03188   1.24855    0.004
 5545.00    1.00968   1.24986    0.004
 5546.00    0.97576   1.25073    0.004
 5547.00    0.94513   1.25088    0.005
 5548.00    0.92036   1.25030    0.005
 5549.00    0.92937   1.24924    0.005
 5550.00    0.99134   1.24822    0.005
 5551.00    1.00617   1.24772    0.005
 5552.00    0.95610   1.24787    0.005
 5553.00    0.91693   1.24833    0.005
 5554.00    0.89098   1.24871    0.005
 5555.00    0.86018   1.24891    0.005
 5556.00    0.82420   1.24904    0.005
 5557.00    0.87432   1.24909    0.005
 5558.00    1.00557   1.24885    0.004
 5559.00    1.05319   1.24818    0.004
 5560.00    1.03130   1.24715    0.004
 5561.00    0.99535   1.24603    0.004
 5562.00    0.94911   1.24532    0.004
 5563.00    0.97257   1.24531    0.004
 5564.00    1.04079   1.24574    0.004
 5565.00    1.05016   1.24609    0.004
 5566.00    1.02647   1.24606    0.004
 5567.00    1.04557   1.24570    0.004
 5568.00    1.08559   1.24497    0.004
 5569.00    1.14028   1.24366    0.004
 5570.00    1.20116   1.24198    0.004
 5571.00    1.17067   1.24073    0.004
 5572.00    1.10712   1.24062    0.004
 5573.00    0.95140   1.24140    0.004
 5574.00    0.76747   1.24219    0.004
 5575.00    0.64443   1.24252    0.004
 5576.00    0.53689   1.24262    0.004
 5577.00    0.69054   1.24257    0.004
 5578.00    0.89828   1.24218    0.004
 5579.00    0.93382   1.24163    0.004
 5580.00    0.94127   1.24150    0.004
 5581.00    0.88374   1.24185    0.004
 5582.00    0.81827   1.24203    0.004
 5583.00    0.85694   1.24144    0.004
 5584.00    0.90436   1.24033    0.004
 5585.00    0.91255   1.23961    0.004
 5586.00    0.91884   1.23986    0.004
 5587.00    0.88540   1.24063    0.004
 5588.00    0.85156   1.24112    0.005
 5589.00    0.82971   1.24113    0.005
 5590.00    0.81044   1.24078    0.005
 5591.00    0.84215   1.23993    0.005
 5592.00    0.88769   1.23843    0.005
 5593.00    1.09386   1.23663    0.005
 5594.00    1.26078   1.23513    0.005
 5595.00    1.11228   1.23347    0.005
 5596.00    0.99325   1.22913    0.005
 5597.00    1.05220   1.22031    0.005
 5598.00    1.11336   1.21089    0.005
 5599.00    1.18509   1.20840    0.005
 5600.00    1.20021   1.21534    0.005
 5601.00    0.99545   1.22611    0.005
 5602.00    0.83621   1.23397    0.005
 5603.00    0.82419   1.23721    0.005
 5604.00    0.79986   1.23754    0.005
 5605.00    0.74179   1.23685    0.004
 5606.00    0.72990   1.23615    0.004
 5607.00    0.82634   1.23562    0.004
 5608.00    0.88614   1.23519    0.004
 5609.00    0.87162   1.23498    0.004
 5610.00    0.90975   1.23478    0.004
 5611.00    1.04084   1.23413    0.004
 5612.00    1.03231   1.23345    0.004
 5613.00    0.80803   1.23375    0.004
 5614.00    0.67409   1.23510    0.004
 5615.00    0.66277   1.23646    0.004
 5616.00    0.74174   1.23707    0.004
 5617.00    0.92860   1.23710    0.004
 5618.00    1.02428   1.23687    0.004
 5619.00    1.02389   1.23618    0.004
 5620.00    0.94567   1.23463    0.004
 5621.00    0.79511   1.23237    0.004
 5622.00    0.73444   1.23046    0.004
 5623.00    0.74740   1.23001    0.004
 5624.00    0.82345   1.23094    0.004
 5625.00    0.94497   1.23219    0.004
 5626.00    0.90166   1.23292    0.004
 5627.00    0.75404   1.23318    0.004
 5628.00    0.80936   1.23311    0.004
 5629.00    0.97698   1.23256    0.004
 5630.00    0.97612   1.23158    0.004
 5631.00    0.89419   1.23076    0.004
 5632.00    0.88042   1.23062    0.004
 5633.00    0.89498   1.23104    0.004
 5634.00    0.84621   1.23159    0.004
 5635.00    0.77495   1.23208    0.004
 5636.00    0.68447   1.23238    0.004
 5637.00    0.58823   1.23239    0.004
 5638.00    0.71126   1.23211    0.004
 5639.00    0.88890   1.23171    0.004
 5640.00    0.94331   1.23128    0.004
 5641.00    0.97282   1.23081    0.004
 5642.00    0.65496   1.23013    0.005
 5643.00    0.28210   1.22889    0.005
 5644.00    0.46581   1.22637    0.005
 5645.00    0.71504   1.22232    0.005
 5646.00    0.91125   1.21854    0.005
 5647.00    1.10322   1.21776    0.005
 5648.00    0.94057   1.22037    0.004
 5649.00    0.76214   1.22355    0.004
 5650.00    0.70015   1.22452    0.004
 5651.00    0.63967   1.22304    0.004
 5652.00    0.58825   1.22071    0.004
 5653.00    0.54072   1.21939    0.004
 5654.00    0.56473   1.21995    0.004
 5655.00    0.60445   1.22197    0.004
 5656.00    0.81825   1.22427    0.004
 5657.00    1.00363   1.22592    0.004
 5658.00    0.96854   1.22675    0.004
 5659.00    0.93087   1.22688    0.004
 5660.00    0.87804   1.22647    0.004
 5661.00    0.84156   1.22573    0.004
 5662.00    0.88122   1.22481    0.004
 5663.00    0.94760   1.22340    0.004
 5664.00    1.11561   1.22126    0.004
 5665.00    1.21396   1.21895    0.004
 5666.00    1.09129   1.21753    0.004
 5667.00    1.01795   1.21722    0.004
 5668.00    1.07727   1.21742    0.004
 5669.00    1.09863   1.21753    0.004
 5670.00    1.03243   1.21735    0.004
 5671.00    1.02567   1.21673    0.004
 5672.00    1.13757   1.21584    0.004
 5673.00    1.20066   1.21563    0.005
 5674.00    1.17888   1.21682    0.005
 5675.00    1.17567   1.21891    0.005
 5676.00    1.20074   1.22071    0.005
 5677.00    1.20372   1.22169    0.005
 5678.00    1.17714   1.22214    0.005
 5679.00    1.09751   1.22220    0.005
 5680.00    0.95537   1.22148    0.005
 5681.00    0.85971   1.21992    0.004
 5682.00    0.81233   1.21834    0.004
 5683.00    0.86045   1.21721    0.004
 5684.00    0.99605   1.21585    0.004
 5685.00    0.99024   1.21389    0.004
 5686.00    0.87025   1.21266    0.004
 5687.00    0.77282   1.21354    0.004
 5688.00    0.69142   1.21572    0.004
 5689.00    0.66459   1.21729    0.004
 5690.00    0.67180   1.21748    0.004
 5691.00    0.77051   1.21664    0.004
 5692.00    0.91907   1.21543    0.004
 5693.00    1.04524   1.21477    0.004
 5694.00    1.16081   1.21520    0.004
 5695.00    1.06298   1.21623    0.004
 5696.00    0.87801   1.21706    0.004
 5697.00    0.84917   1.21746    0.004
 5698.00    0.87480   1.21762    0.004
 5699.00    0.99315   1.21737    0.004
 5700.00    1.13878   1.21599    0.004
 5701.00    1.03852   1.21313    0.004
 5702.00    0.87837   1.21001    0.004
 5703.00    0.79478   1.20881    0.004
 5704.00    0.72627   1.21028    0.004
 5705.00    0.80838   1.21275    0.004
 5706.00    0.91363   1.21411    0.004
 5707.00    0.87806   1.21398    0.004
 5708.00    0.82653   1.21334    0.004
 5709.00    0.88329   1.21294    0.004
 5710.00    0.94824   1.21281    0.004
 5711.00    0.98633   1.21261    0.004
 5712.00    1.02333   1.21209    0.004
 5713.00    1.03840   1.21127    0.004
 5714.00    1.05285   1.21025    0.004
 5715.00    1.04885   1.20899    0.004
 5716.00    1.04667   1.20775    0.004
 5717.00    1.07575   1.20710    0.004
 5718.00    1.08666   1.20756    0.004
 5719.00    0.90529   1.20896    0.004
 5720.00    0.75500   1.21050    0.004
 5721.00    0.83767   1.21143    0.004
 5722.00    0.90382   1.21170    0.004
 5723.00    0.87560   1.21169    0.004
 5724.00    0.85555   1.21172    0.004
 5725.00    0.87263   1.21175    0.004
 5726.00    0.88948   1.21148    0.004
 5727.00    0.90554   1.21060    0.004
 5728.00    0.94449   1.20922    0.004
 5729.00    1.05470   1.20812    0.004
 5730.00    1.09811   1.20809    0.004
 5731.00    0.96500   1.20886    0.004
 5732.00    0.85991   1.20937    0.004
 5733.00    0.81839   1.20924    0.004
 5734.00    0.84352   1.20902    0.004
 5735.00    0.99964   1.20904    0.004
 5736.00    1.10308   1.20894    0.004
 5737.00    1.11627   1.20851    0.004
 5738.00    1.12026   1.20811    0.004
 5739.00    1.11045   1.20811    0.004
 5740.00    1.02105   1.20840    0.000
 5741.00    0.82672   1.20866    0.000
 5742.00    0.78081   1.20859    0.000
 5743.00    0.90726   1.20776    0.000
 5744.00    0.92793   1.20569    0.000
 5745.00    0.84029   1.20276    0.000
 5746.00    0.82843   1.20059    0.000
 5747.00    0.88501   1.20060    0.000
 5748.00    0.95915   1.20239    0.000
 5749.00    1.04726   1.20426    0.000
 5750.00    1.11693   1.20525    0.000
 5751.00    1.17369   1.20547    0.000
 5752.00    1.17618   1.20506    0.000
 5753.00    1.14534   1.20418    0.000
 5754.00    1.10072   1.20342    0.000
 5755.00    1.04870   1.20336    0.000
 5756.00    0.98195   1.20388    0.000
 5757.00    0.90835   1.20426    0.000
 5758.00    0.97688   1.20393    0.000
 5759.00    1.10246   1.20300    0.000
 5760.00    1.08428   1.20208    0.000
 5761.00    1.01688   1.20170    0.000
 5762.00    0.88359   1.20200    0.000
 5763.00    0.73130   1.20267    0.000
 5764.00    0.66457   1.20324    0.000
 5765.00    0.61821   1.20335    0.000
 5766.00    0.65137   1.20287    0.000
 5767.00    0.69978   1.20195    0.000
 5768.00    0.72913   1.20093    0.000
 5769.00    0.75565   1.20025    0.000
 5770.00    0.82443   1.20018    0.000
 5771.00    0.89783   1.20054    0.000
 5772.00    0.99888   1.20082    0.000
 5773.00    1.10193   1.20071    0.000
 5774.00    0.94009   1.20036    0.000
 5775.00    0.76848   1.20012    0.000
 5776.00    0.72259   1.20011    0.000
 5777.00    0.67622   1.20011    0.000
 5778.00    0.59396   1.19989    0.000
 5779.00    0.52550   1.19944    0.000
 5780.00    0.67885   1.19890    0.000
 5781.00    0.82949   1.19842    0.000
 5782.00    0.95272   1.19809    0.000
 5783.00    1.05961   1.19785    0.000
 5784.00    1.04821   1.19734    0.000
 5785.00    1.02407   1.19611    0.000
 5786.00    0.92920   1.19416    0.000
 5787.00    0.84698   1.19208    0.000
 5788.00    0.82089   1.19066    0.000
 5789.00    0.78323   1.19018    0.000
 5790.00    0.70343   1.19038    0.000
 5791.00    0.61463   1.19093   -2.000
 5792.00    0.49839   1.19176   -2.000
 5793.00    0.40578   1.19279   -2.000
 5794.00    0.37454   1.19368   -2.000
 5795.00    0.41175   1.19407   -2.000
 5796.00    0.60172   1.19392   -2.000
 5797.00    0.72739   1.19355   -2.000
 5798.00    0.72869   1.19340   -2.000
 5799.00    0.74145   1.19363   -2.000
 5800.00    0.77352   1.19397   -2.000
 5801.00    0.80772   1.19398   -2.000
 5802.00    0.84506   1.19348   -2.000
 5803.00    0.90570   1.19244   -2.000
 5804.00    0.99662   1.19054   -2.000
 5805.00    1.08448   1.18662   -2.000
 5806.00    1.16884   1.17964   -2.000
 5807.00    1.18405   1.17169   -2.000
 5808.00    1.12942   1.16803   -2.000
 5809.00    1.00130   1.17163   -2.000
 5810.00    0.80771   1.17943   -2.000
 5811.00    0.67855   1.18609    0.000
 5812.00    0.59994   1.18952    0.000
 5813.00    0.60503   1.19070    0.000
 5814.00    0.66787   1.19074    0.000
 5815.00    0.76026   1.18946    0.000
 5816.00    0.87053   1.18572    0.000
 5817.00    0.92610   1.17937    0.000
 5818.00    0.95278   1.17337    0.000
 5819.00    0.97207   1.17194    0.000
 5820.00    0.98798   1.17602    0.000
 5821.00    0.88604   1.18211    0.000
 5822.00    0.73761   1.18637    0.000
 5823.00    0.70089   1.18807    0.000
 5824.00    0.70171   1.18829    0.000
 5825.00    0.79430   1.18806    0.000
 5826.00    0.91280   1.18798    0.000
 5827.00    0.81609   1.18824    0.000
 5828.00    0.66927   1.18864    0.000
 5829.00    0.64927   1.18902    0.000
 5830.00    0.65297   1.18958    0.000
 5831.00    0.63212   1.19067    0.000
 5832.00    0.60774   1.19196    0.000
 5833.00    0.61095   1.19252    0.000
 5834.00    0.61705   1.19175    0.000
 5835.00    0.73718   1.19009    0.000
 5836.00    0.86502   1.18849    0.000
 5837.00    0.93920   1.18754    0.000
 5838.00    1.01161   1.18716    0.000
 5839.00    0.96015   1.18696    0.000
 5840.00    0.90893   1.18670    0.000
 5841.00    0.86773   1.18644    0.000
 5842.00    0.82842   1.18630    0.000
 5843.00    0.81768   1.18617    0.000
 5844.00    0.80546   1.18587    0.000
 5845.00    0.77877   1.18545    0.000
 5846.00    0.76482   1.18518    0.000
 5847.00    0.84021   1.18510    0.000
 5848.00    0.88490   1.18500    0.000
 5849.00    0.76372   1.18476    0.000
 5850.00    0.67820   1.18437    0.000
 5851.00    0.74720   1.18383    0.000
 5852.00    0.80594   1.18313    0.000
 5853.00    0.82809   1.18238    0.000
 5854.00    0.81080   1.18179    0.000
 5855.00    0.67535   1.18152    0.000
 5856.00    0.60673   1.18131    0.000
 5857.00    0.70864   1.18067    0.000
 5858.00    0.75117   1.17944    0.000
 5859.00    0.66336   1.17813    0.000
 5860.00    0.59021   1.17745    0.000
 5861.00    0.54496   1.17768    0.000
 5862.00    0.59730   1.17833    0.000
 5863.00    0.81182   1.17864    0.000
 5864.00    0.91624   1.17848    0.000
 5865.00    0.86031   1.17833    0.000
 5866.00    0.83571   1.17849    0.000
 5867.00    0.85127   1.17875    0.000
 5868.00    0.85898   1.17881    0.000
 5869.00    0.85784   1.17863    0.000
 5870.00    0.75403   1.17838    0.000
 5871.00    0.54802   1.17810    0.000
 5872.00    0.45418   1.17769    0.000
 5873.00    0.45883   1.17721    0.000
 5874.00    0.51447   1.17688    0.000
 5875.00    0.60956   1.17670    0.000
 5876.00    0.68063   1.17633    0.000
 5877.00    0.73538   1.17490    0.000
 5878.00    0.81372   1.17003    0.000
 5879.00    0.90613   1.15565    0.000
 5880.00    0.96549   1.12436    0.000
 5881.00    1.00766   1.08027    0.000
 5882.00    0.97378   1.04645    0.000
 5883.00    0.90561   1.04691    0.000
 5884.00    0.76918   1.08061    0.000
 5885.00    0.60627   1.12288    0.000
 5886.00    0.52627   1.15187    0.000
 5887.00    0.47361   1.16486    0.000
 5888.00    0.46259   1.16921    0.000
 5889.00    0.46310   1.17055    0.000
 5890.00    0.59090   1.17092    0.000
 5891.00    0.74765   1.17089    0.000
 5892.00    0.69401   1.17052    0.000
 5893.00    0.60210   1.16912    0.000
 5894.00    0.56237   1.16527    0.000
 5895.00    0.52993   1.15838    0.000
 5896.00    0.64501   1.15068    0.000
 5897.00    0.77490   1.14634    0.000
 5898.00    0.73310   1.14782    0.000
 5899.00    0.68039   1.15339    0.000
 5900.00    0.64704   1.15867    0.000
 5901.00    0.61435   1.16045    0.004
 5902.00    0.61078   1.15899    0.004
 5903.00    0.60999   1.15723    0.004
 5904.00    0.68747   1.15762    0.004
 5905.00    0.75526   1.16007    0.004
 5906.00    0.68513   1.16294    0.004
 5907.00    0.61168   1.16494    0.004
 5908.00    0.50724   1.16585    0.004
 5909.00    0.42050   1.16616    0.004
 5910.00    0.45401   1.16646    0.004
 5911.00    0.49216   1.16688    0.004
 5912.00    0.55479   1.16722    0.004
 5913.00    0.61891   1.16737    0.004
 5914.00    0.68940   1.16750    0.004
 5915.00    0.76279   1.16760    0.004
 5916.00    0.84634   1.16753    0.004
 5917.00    0.88532   1.16725    0.004
 5918.00    0.79329   1.16675    0.004
 5919.00    0.68839   1.16594    0.004
 5920.00    0.55122   1.16494    0.004
 5921.00    0.44927   1.16415    0.004
 5922.00    0.42338   1.16388    0.004
 5923.00    0.41839   1.16402    0.004
 5924.00    0.45256   1.16414    0.004
 5925.00    0.51206   1.16401    0.004
 5926.00    0.61300   1.16373    0.004
 5927.00    0.68790   1.16358    0.004
 5928.00    0.72541   1.16367    0.004
 5929.00    0.80256   1.16394    0.004
 5930.00    0.92976   1.16422    0.004
 5931.00    1.03369   1.16430    0.004
 5932.00    1.11173   1.16399    0.004
 5933.00    1.10660   1.16330    0.004
 5934.00    1.01982   1.16234    0.004
 5935.00    0.96383   1.16136    0.004
 5936.00    0.93447   1.16056    0.004
 5937.00    0.96049   1.16006    0.004
 5938.00    1.02873   1.15991    0.004
 5939.00    1.00271   1.16003    0.004
 5940.00    0.91352   1.16026    0.004
 5941.00    0.79565   1.16052    0.004
 5942.00    0.66094   1.16085    0.004
 5943.00    0.61128   1.16122    0.004
 5944.00    0.60515   1.16134    0.004
 5945.00    0.54739   1.16076    0.004
 5946.00    0.46673   1.15928    0.004
 5947.00    0.44006   1.15733    0.004
 5948.00    0.43394   1.15587    0.004
 5949.00    0.49707   1.15548    0.004
 5950.00    0.58261   1.15581    0.004
 5951.00    0.45656   1.15628    0.004
 5952.00    0.27322   1.15676    0.004
 5953.00    0.28321   1.15722    0.004
 5954.00    0.33614   1.15742    0.004
 5955.00    0.55525   1.15717    0.004
 5956.00    0.80377   1.15663    0.004
 5957.00    0.79067   1.15597    0.004
 5958.00    0.74222   1.15527    0.004
 5959.00    0.76611   1.15472    0.004
 5960.00    0.79695   1.15445    0.004
 5961.00    0.87204   1.15403    0.004
 5962.00    0.94978   1.15275    0.004
 5963.00    0.95659   1.15076    0.004
 5964.00    0.96075   1.14945    0.004
 5965.00    0.83485   1.14998    0.004
 5966.00    0.70923   1.15189    0.004
 5967.00    0.59085   1.15369    0.004
 5968.00    0.48368   1.15455    0.004
 5969.00    0.52764   1.15480    0.004
 5970.00    0.58586   1.15489    0.004
 5971.00    0.77179   1.15481    0.004
 5972.00    0.92704   1.15456    0.004
 5973.00    0.88036   1.15441    0.004
 5974.00    0.81924   1.15450    0.004
 5975.00    0.68404   1.15469    0.004
 5976.00    0.59428   1.15479    0.004
 5977.00    0.69261   1.15472    0.004
 5978.00    0.79670   1.15449    0.004
 5979.00    0.92055   1.15403    0.004
 5980.00    0.99764   1.15323    0.004
 5981.00    0.93978   1.15203    0.004
 5982.00    0.89738   1.15040    0.004
 5983.00    0.89304   1.14810    0.004
 5984.00    0.86266   1.14510    0.004
 5985.00    0.77690   1.14245    0.004
 5986.00    0.72113   1.14179    0.004
 5987.00    0.72067   1.14356    0.004
 5988.00    0.71421   1.14625    0.004
 5989.00    0.69805   1.14797    0.004
 5990.00    0.66013   1.14823    0.004
 5991.00    0.59142   1.14788    0.004
 5992.00    0.51662   1.14783    0.004
 5993.00    0.43425   1.14806    0.004
 5994.00    0.40900   1.14812    0.004
 5995.00    0.44644   1.14793    0.004
 5996.00    0.51503   1.14776    0.004
 5997.00    0.61377   1.14782    0.004
 5998.00    0.71465   1.14803    0.004
 5999.00    0.81737   1.14834    0.004
 6000.00    0.85558   1.14863    0.004
 6001.00    0.84533   1.14871    0.004
 6002.00    0.74343   1.14847    0.004
 6003.00    0.58102   1.14797    0.004
 6004.00    0.46801   1.14735    0.004
 6005.00    0.38355   1.14676    0.004
 6006.00    0.45474   1.14632    0.004
 6007.00    0.60434   1.14600    0.004
 6008.00    0.73724   1.14571    0.004
 6009.00    0.86287   1.14537    0.004
 6010.00    0.88927   1.14509    0.004
 6011.00    0.87853   1.14489    0.004
 6012.00    0.94738   1.14460    0.004
 6013.00    1.04149   1.14406    0.004
 6014.00    1.00647   1.14345    0.004
 6015.00    0.93721   1.14318    0.004
 6016.00    0.98809   1.14344    0.004
 6017.00    1.06502   1.14379    0.004
 6018.00    0.97502   1.14374    0.004
 6019.00    0.85629   1.14326    0.004
 6020.00    0.69115   1.14276    0.004
 6021.00    0.51996   1.14248    0.004
 6022.00    0.59950   1.14233    0.004
 6023.00    0.70207   1.14216    0.004
 6024.00    0.62939   1.14197    0.004
 6025.00    0.54694   1.14175    0.004
 6026.00    0.56324   1.14138    0.004
 6027.00    0.58268   1.14094    0.004
 6028.00    0.70039   1.14058    0.004
 6029.00    0.81341   1.14035    0.004
 6030.00    0.81763   1.14020    0.004
 6031.00    0.81716   1.14022    0.004
 6032.00    0.75688   1.14046    0.004
 6033.00    0.70016   1.14068    0.004
 6034.00    0.67403   1.14062    0.004
 6035.00    0.65821   1.14031    0.004
 6036.00    0.70829   1.13994    0.004
 6037.00    0.74621   1.13965    0.004
 6038.00    0.72332   1.13951    0.004
 6039.00    0.70012   1.13953    0.004
 6040.00    0.67566   1.13956    0.004
 6041.00    0.66011   1.13939    0.004
 6042.00    0.67451   1.13897    0.004
 6043.00    0.66073   1.13847    0.004
 6044.00    0.56706   1.13809    0.004
 6045.00    0.49462   1.13783    0.004
 6046.00    0.47362   1.13760    0.004
 6047.00    0.46399   1.13728    0.004
 6048.00    0.47809   1.13686    0.004
 6049.00    0.55563   1.13651    0.004
 6050.00    0.74846   1.13643    0.004
 6051.00    0.84604   1.13657    0.004
 6052.00    0.79228   1.13668    0.004
 6053.00    0.74232   1.13658    0.004
 6054.00    0.69765   1.13637    0.004
 6055.00    0.69335   1.13620    0.004
 6056.00    0.73858   1.13619    0.004
 6057.00    0.72137   1.13627    0.004
 6058.00    0.63662   1.13622    0.004
 6059.00    0.60309   1.13582    0.004
 6060.00    0.61843   1.13515    0.004
 6061.00    0.63242   1.13444    0.004
 6062.00    0.64527   1.13387    0.004
 6063.00    0.62687   1.13350    0.004
 6064.00    0.58531   1.13337    0.004
 6065.00    0.59234   1.13343    0.004
 6066.00    0.63099   1.13353    0.004
 6067.00    0.62483   1.13350    0.004
 6068.00    0.59315   1.13329    0.004
 6069.00    0.55960   1.13284    0.004
 6070.00    0.52513   1.13208    0.004
 6071.00    0.48170   1.13114    0.004
 6072.00    0.43443   1.13042    0.004
 6073.00    0.45062   1.13033    0.004
 6074.00    0.49012   1.13075    0.004
 6075.00    0.54793   1.13114    0.004
 6076.00    0.61144   1.13115    0.004
 6077.00    0.67628   1.13081    0.004
 6078.00    0.74146   1.13030    0.004
 6079.00    0.73403   1.12968    0.004
 6080.00    0.71122   1.12904    0.004
 6081.00    0.72564   1.12860    0.004
 6082.00    0.74628   1.12854    0.004
 6083.00    0.72739   1.12867    0.004
 6084.00    0.70351   1.12864    0.004
 6085.00    0.71840   1.12833    0.004
 6086.00    0.73669   1.12797    0.004
 6087.00    0.76514   1.12766    0.004
 6088.00    0.79412   1.12727    0.004
 6089.00    0.71488   1.12689    0.004
 6090.00    0.63461   1.12670    0.004
 6091.00    0.62290   1.12670    0.004
 6092.00    0.61038   1.12674    0.004
 6093.00    0.58048   1.12674    0.004
 6094.00    0.55580   1.12669    0.004
 6095.00    0.59444   1.12643    0.004
 6096.00    0.63236   1.12586    0.004
 6097.00    0.66423   1.12513    0.004
 6098.00    0.68648   1.12456    0.004
 6099.00    0.64907   1.12438    0.004
 6100.00    0.61926   1.12452    0.004
 6101.00    0.62650   1.12470    0.004
 6102.00    0.62956   1.12467    0.004
 6103.00    0.61610   1.12466    0.004
 6104.00    0.60069   1.12503    0.004
 6105.00    0.57885   1.12566    0.004
 6106.00    0.59293   1.12589    0.004
 6107.00    0.70698   1.12517    0.004
 6108.00    0.80558   1.12363    0.004
 6109.00    0.86739   1.12204    0.004
 6110.00    0.88051   1.12126    0.004
 6111.00    0.79349   1.12153    0.004
 6112.00    0.67293   1.12222    0.004
 6113.00    0.49234   1.12257    0.004
 6114.00    0.41822   1.12246    0.004
 6115.00    0.51074   1.12221    0.004
 6116.00    0.62201   1.12207    0.004
 6117.00    0.75904   1.12186    0.004
 6118.00    0.81429   1.12147    0.004
 6119.00    0.77063   1.12102    0.004
 6120.00    0.63589   1.12064    0.004
 6121.00    0.40401   1.12019    0.004
 6122.00    0.29444   1.11952    0.004
 6123.00    0.29994   1.11875    0.004
 6124.00    0.38830   1.11812    0.004
 6125.00    0.54538   1.11770    0.004
 6126.00    0.64525   1.11727    0.004
 6127.00    0.70334   1.11661    0.004
 6128.00    0.69573   1.11588    0.004
 6129.00    0.64599   1.11556    0.004
 6130.00    0.68692   1.11595    0.004
 6131.00    0.77870   1.11667    0.004
 6132.00    0.85999   1.11709    0.004
 6133.00    0.93616   1.11697    0.004
 6134.00    0.92573   1.11656    0.004
 6135.00    0.87879   1.11629    0.004
 6136.00    0.79979   1.11641    0.004
 6137.00    0.70923   1.11687    0.004
 6138.00    0.63834   1.11732    0.004
 6139.00    0.57345   1.11735    0.004
 6140.00    0.60339   1.11675    0.004
 6141.00    0.65740   1.11550    0.004
 6142.00    0.65391   1.11375    0.004
 6143.00    0.63856   1.11196    0.004
 6144.00    0.52622   1.11101    0.004
 6145.00    0.39811   1.11145    0.004
 6146.00    0.37184   1.11261    0.004
 6147.00    0.35796   1.11318    0.004
 6148.00    0.37419   1.11266    0.004
 6149.00    0.39294   1.11188    0.004
 6150.00    0.52014   1.11181    0.004
 6151.00    0.65254   1.11249    0.004
 6152.00    0.67997   1.11321    0.004
 6153.00    0.70645   1.11332    0.004
 6154.00    0.76627   1.11265    0.004
 6155.00    0.82182   1.11140    0.004
 6156.00    0.79347   1.10986    0.004
 6157.00    0.75996   1.10852    0.004
 6158.00    0.66699   1.10796    0.004
 6159.00    0.57885   1.10834    0.004
 6160.00    0.52940   1.10900    0.004
 6161.00    0.50280   1.10895    0.004
 6162.00    0.61382   1.10790    0.004
 6163.00    0.71211   1.10641    0.004
 6164.00    0.74994   1.10543    0.004
 6165.00    0.76941   1.10544    0.004
 6166.00    0.71771   1.10598    0.004
 6167.00    0.67223   1.10605    0.004
 6168.00    0.64680   1.10518    0.004
 6169.00    0.59403   1.10393    0.004
 6170.00    0.46656   1.10323    0.004
 6171.00    0.40260   1.10335    0.004
 6172.00    0.48737   1.10384    0.004
 6173.00    0.62728   1.10404    0.004
 6174.00    0.87879   1.10355    0.004
 6175.00    1.00495   1.10232    0.004
 6176.00    0.91014   1.10092    0.004
 6177.00    0.80765   1.10027    0.004
 6178.00    0.69328   1.10064    0.004
 6179.00    0.62485   1.10150    0.004
 6180.00    0.61866   1.10224    0.004
 6181.00    0.60609   1.10282    0.004
 6182.00    0.58594   1.10335    0.004
 6183.00    0.58987   1.10385    0.004
 6184.00    0.61913   1.10425    0.004
 6185.00    0.61481   1.10446    0.004
 6186.00    0.57935   1.10440    0.004
 6187.00    0.56700   1.10418    0.004
 6188.00    0.57355   1.10402    0.004
 6189.00    0.61654   1.10401    0.004
 6190.00    0.68577   1.10403    0.004
 6191.00    0.73716   1.10392    0.004
 6192.00    0.77729   1.10358    0.004
 6193.00    0.68604   1.10306    0.004
 6194.00    0.52223   1.10247    0.004
 6195.00    0.09132   1.10188    0.004
 6196.00   -0.46786   1.10120   -2.000
 6197.00   -0.62418   1.10034   -2.000
 6198.00   -0.61351   1.09960   -2.000
 6199.00   -0.08967   1.09954   -2.000
 6200.00    0.61607   1.10025   -2.000
 6201.00    0.44231   1.10119   -2.000
 6202.00    0.00534   1.10183   -2.000
 6203.00   -0.09880   1.10199   -2.000
 6204.00   -0.12026   1.10162   -2.000
 6205.00   -0.00334   1.10071   -2.000
 6206.00    0.14145   1.09961   -2.000
 6207.00    0.31524   1.09894   -2.000
 6208.00    0.49359   1.09902    0.004
 6209.00    0.58208   1.09950    0.004
 6210.00    0.66004   1.09986    0.004
 6211.00    0.68794   1.09992    0.004
 6212.00    0.71186   1.09984    0.004
 6213.00    0.72475   1.09977    0.004
 6214.00    0.73716   1.09972    0.004
 6215.00    0.69608   1.09962    0.004
 6216.00    0.65512   1.09939    0.004
 6217.00    0.64740   1.09897    0.004
 6218.00    0.63845   1.09828    0.004
 6219.00    0.60684   1.09725    0.004
 6220.00    0.57116   1.09599    0.004
 6221.00    0.49077   1.09491    0.004
 6222.00    0.41973   1.09437    0.004
 6223.00    0.42104   1.09441    0.004
 6224.00    0.43602   1.09469    0.004
 6225.00    0.53102   1.09477    0.004
 6226.00    0.62424   1.09451    0.004
 6227.00    0.70921   1.09412    0.004
 6228.00    0.75508   1.09387    0.004
 6229.00    0.65265   1.09378    0.004
 6230.00    0.53601   1.09362    0.004
 6231.00    0.37438   1.09325    0.004
 6232.00    0.25864   1.09281    0.004
 6233.00    0.26604   1.09245    0.004
 6234.00    0.31966   1.09210    0.004
 6235.00    0.47968   1.09137    0.004
 6236.00    0.62103   1.08992    0.004
 6237.00    0.72518   1.08790    0.004
 6238.00    0.77356   1.08606    0.004
 6239.00    0.72514   1.08529    0.004
 6240.00    0.66614   1.08584    0.004
 6241.00    0.59108   1.08721    0.004
 6242.00    0.55496   1.08854    0.004
 6243.00    0.57085   1.08904    0.004
 6244.00    0.54823   1.08835    0.004
 6245.00    0.48035   1.08672    0.004
 6246.00    0.40776   1.08505    0.004
 6247.00    0.33030   1.08418    0.004
 6248.00    0.29248   1.08407    0.004
 6249.00    0.29092   1.08418    0.004
 6250.00    0.34906   1.08429    0.004
 6251.00    0.45532   1.08466    0.004
 6252.00    0.57298   1.08534    0.004
 6253.00    0.69873   1.08600    0.004
 6254.00    0.79295   1.08656    0.004
 6255.00    0.86755   1.08716    0.004
 6256.00    0.80213   1.08773    0.004
 6257.00    0.66057   1.08786    0.004
 6258.00    0.54103   1.08733    0.004
 6259.00    0.43190   1.08642    0.004
 6260.00    0.50181   1.08568    0.004
 6261.00    0.64468   1.08533    0.005
 6262.00    0.71310   1.08503    0.005
 6263.00    0.75561   1.08442    0.005
 6264.00    0.59875   1.08357    0.005
 6265.00    0.38340   1.08295    0.005
 6266.00    0.34172   1.08292    0.005
 6267.00    0.34222   1.08347    0.004
 6268.00    0.45112   1.08435    0.004
 6269.00    0.58130   1.08522    0.004
 6270.00    0.62455   1.08570    0.004
 6271.00    0.65451   1.08552    0.004
 6272.00    0.68329   1.08481    0.004
 6273.00    0.71195   1.08413    0.004
 6274.00    0.66297   1.08386    0.004
 6275.00    0.60815   1.08389    0.004
 6276.00    0.60649   1.08394    0.004
 6277.00    0.60696   1.08393    0.004
 6278.00    0.54478   1.08401    0.004
 6279.00    0.48187   1.08418    0.004
 6280.00    0.40741   1.08434    0.000
 6281.00    0.34070   1.08436    0.000
 6282.00    0.40618   1.08428    0.000
 6283.00    0.47030   1.08409    0.000
 6284.00    0.52012   1.08372    0.000
 6285.00    0.56903   1.08306    0.000
 6286.00    0.61112   1.08218    0.000
 6287.00    0.64135   1.08137    0.000
 6288.00    0.60414   1.08090    0.000
 6289.00    0.56976   1.08071    0.000
 6290.00    0.54816   1.08046    0.000
 6291.00    0.57375   1.07987    0.000
 6292.00    0.77448   1.07906    0.000
 6293.00    0.93671   1.07852    0.000
 6294.00    0.97938   1.07863    0.000
 6295.00    1.00934   1.07925    0.000
 6296.00    1.00577   1.07984    0.000
 6297.00    0.95406   1.08002    0.000
 6298.00    0.79333   1.07985    0.000
 6299.00    0.64749   1.07964    0.000
 6300.00    0.53084   1.07952    0.000
 6301.00    0.48345   1.07937    0.000
 6302.00    0.55450   1.07898    0.000
 6303.00    0.60982   1.07839    0.000
 6304.00    0.64160   1.07781    0.000
 6305.00    0.66709   1.07745    0.000
 6306.00    0.68429   1.07722    0.000
 6307.00    0.67450   1.07687    0.000
 6308.00    0.63343   1.07627    0.000
 6309.00    0.56725   1.07557    0.000
 6310.00    0.47540   1.07483    0.000
 6311.00    0.41191   1.07402    0.000
 6312.00    0.37397   1.07325    0.000
 6313.00    0.33609   1.07291    0.000
 6314.00    0.29824   1.07309    0.000
 6315.00    0.26380   1.07330    0.000
 6316.00    0.23174   1.07292    0.000
 6317.00    0.24411   1.07186    0.000
 6318.00    0.28372   1.07054    0.000
 6319.00    0.34533   1.06950    0.000
 6320.00    0.41873   1.06910    0.000
 6321.00    0.46575   1.06933    0.004
 6322.00    0.50052   1.06996    0.004
 6323.00    0.53404   1.07060    0.004
 6324.00    0.56707   1.07099    0.004
 6325.00    0.57015   1.07119    0.004
 6326.00    0.56301   1.07151    0.004
 6327.00    0.48639   1.07212    0.004
 6328.00    0.38981   1.07279    0.004
 6329.00    0.51354   1.07327    0.004
 6330.00    0.68960   1.07359    0.004
 6331.00    0.75354   1.07382    0.004
 6332.00    0.79603   1.07391    0.004
 6333.00    0.71117   1.07378    0.004
 6334.00    0.60741   1.07351    0.004
 6335.00    0.57061   1.07326    0.004
 6336.00    0.54107   1.07305    0.004
 6337.00    0.49877   1.07284    0.004
 6338.00    0.45557   1.07257    0.004
 6339.00    0.55766   1.07212    0.004
 6340.00    0.66503   1.07126    0.004
 6341.00    0.65920   1.06999    0.004
 6342.00    0.64889   1.06876    0.004
 6343.00    0.49582   1.06817    0.004
 6344.00    0.35389   1.06842    0.004
 6345.00    0.38980   1.06912    0.004
 6346.00    0.43319   1.06969    0.004
 6347.00    0.55201   1.06991    0.004
 6348.00    0.64949   1.06979    0.004
 6349.00    0.59294   1.06928    0.004
 6350.00    0.52317   1.06796    0.004
 6351.00    0.38020   1.06507    0.005
 6352.00    0.28299   1.06006    0.005
 6353.00    0.38813   1.05406    0.005
 6354.00    0.49616   1.05013    0.005
 6355.00    0.61470   1.05087    0.005
 6356.00    0.68111   1.05576    0.005
 6357.00    0.58875   1.06162    0.004
 6358.00    0.49354   1.06565    0.004
 6359.00    0.39099   1.06731    0.004
 6360.00    0.33014   1.06746    0.004
 6361.00    0.36221   1.06694    0.004
 6362.00    0.40800   1.06624    0.004
 6363.00    0.48030   1.06558    0.004
 6364.00    0.53218   1.06501    0.004
 6365.00    0.54966   1.06449    0.004
 6366.00    0.56654   1.06405    0.004
 6367.00    0.58254   1.06370    0.004
 6368.00    0.60824   1.06339    0.004
 6369.00    0.64654   1.06310    0.004
 6370.00    0.65510   1.06292    0.004
 6371.00    0.62968   1.06297    0.004
 6372.00    0.56395   1.06321    0.004
 6373.00    0.45759   1.06347    0.004
 6374.00    0.42947   1.06342    0.004
 6375.00    0.47089   1.06243    0.004
 6376.00    0.52494   1.05976    0.004
 6377.00    0.58888   1.05572    0.004
 6378.00    0.60219   1.05229    0.004
 6379.00    0.58061   1.05178    0.004
 6380.00    0.58616   1.05458    0.004
 6381.00    0.60809   1.05869    0.004
 6382.00    0.60406   1.06176    0.004
 6383.00    0.58635   1.06299    0.004
 6384.00    0.55152   1.06289    0.004
 6385.00    0.50886   1.06214    0.004
 6386.00    0.42697   1.06115    0.004
 6387.00    0.32964   1.06025    0.004
 6388.00    0.25633   1.05964    0.004
 6389.00    0.19108   1.05935    0.004
 6390.00    0.24937   1.05932    0.004
 6391.00    0.34245   1.05955    0.004
 6392.00    0.46273   1.06003    0.004
 6393.00    0.58932   1.06060    0.004
 6394.00    0.65938   1.06105    0.004
 6395.00    0.71892   1.06127    0.004
 6396.00    0.66696   1.06126    0.004
 6397.00    0.59899   1.06102    0.004
 6398.00    0.49420   1.06039    0.004
 6399.00    0.38557   1.05936    0.004
 6400.00    0.42065   1.05826    0.004
 6401.00    0.46537   1.05760    0.004
 6402.00    0.58998   1.05754    0.004
 6403.00    0.71719   1.05768    0.004
 6404.00    0.66490   1.05747    0.004
 6405.00    0.61245   1.05658    0.004
 6406.00    0.55599   1.05507    0.004
 6407.00    0.50328   1.05325    0.004
 6408.00    0.50683   1.05164    0.004
 6409.00    0.50682   1.05073    0.004
 6410.00    0.47243   1.05058    0.004
 6411.00    0.44129   1.05079    0.004
 6412.00    0.43272   1.05078    0.004
 6413.00    0.42526   1.05037    0.004
 6414.00    0.42377   1.04991    0.004
 6415.00    0.43447   1.04994    0.004
 6416.00    0.49787   1.05060    0.004
 6417.00    0.53616   1.05145    0.004
 6418.00    0.48505   1.05202    0.004
 6419.00    0.43423   1.05233    0.004
 6420.00    0.38432   1.05273    0.004
 6421.00    0.35536   1.05331    0.004
 6422.00    0.37972   1.05379    0.004
 6423.00    0.40260   1.05393    0.004
 6424.00    0.42226   1.05375    0.004
 6425.00    0.43934   1.05336    0.004
 6426.00    0.45153   1.05284    0.004
 6427.00    0.42001   1.05234    0.004
 6428.00    0.31600   1.05215    0.004
 6429.00    0.27095   1.05251    0.004
 6430.00    0.31162   1.05329    0.004
 6431.00    0.39800   1.05402    0.004
 6432.00    0.54281   1.05439    0.004
 6433.00    0.60567   1.05443    0.004
 6434.00    0.57617   1.05427    0.004
 6435.00    0.51905   1.05382    0.004
 6436.00    0.43448   1.05295    0.004
 6437.00    0.41840   1.05183    0.004
 6438.00    0.46234   1.05091    0.004
 6439.00    0.49204   1.05061    0.004
 6440.00    0.51074   1.05090    0.004
 6441.00    0.51022   1.05142    0.004
 6442.00    0.49664   1.05175    0.004
 6443.00    0.45541   1.05165    0.004
 6444.00    0.39772   1.05101    0.004
 6445.00    0.39790   1.05003    0.004
 6446.00    0.42812   1.04923    0.004
 6447.00    0.50960   1.04909    0.004
 6448.00    0.61414   1.04955    0.004
 6449.00    0.60833   1.05012    0.004
 6450.00    0.55982   1.05039    0.004
 6451.00    0.47095   1.05038    0.004
 6452.00    0.36879   1.05021    0.004
 6453.00    0.36349   1.04991    0.004
 6454.00    0.38490   1.04933    0.004
 6455.00    0.45768   1.04820    0.004
 6456.00    0.54210   1.04658    0.004
 6457.00    0.58035   1.04510    0.004
 6458.00    0.61023   1.04456    0.004
 6459.00    0.59354   1.04491    0.004
 6460.00    0.57038   1.04521    0.004
 6461.00    0.45586   1.04469    0.004
 6462.00    0.33222   1.04350    0.004
 6463.00    0.27974   1.04253    0.004
 6464.00    0.23175   1.04269    0.004
 6465.00    0.36585   1.04399    0.004
 6466.00    0.50459   1.04541    0.004
 6467.00    0.45929   1.04573    0.004
 6468.00    0.41377   1.04443    0.004
 6469.00    0.36221   1.04240    0.004
 6470.00    0.32442   1.04111    0.004
 6471.00    0.48137   1.04134    0.004
 6472.00    0.63219   1.04253    0.004
 6473.00    0.72621   1.04351    0.004
 6474.00    0.80275   1.04386    0.004
 6475.00    0.76107   1.04381    0.004
 6476.00    0.72048   1.04363    0.004
 6477.00    0.68552   1.04338    0.004
 6478.00    0.63524   1.04311    0.004
 6479.00    0.52025   1.04292    0.004
 6480.00    0.41800   1.04284    0.004
 6481.00    0.36018   1.04273    0.004
 6482.00    0.32695   1.04245    0.004
 6483.00    0.36584   1.04210    0.004
 6484.00    0.42011   1.04178    0.004
 6485.00    0.51283   1.04140    0.004
 6486.00    0.56083   1.04076    0.004
 6487.00    0.51245   1.03969    0.004
 6488.00    0.46423   1.03825    0.004
 6489.00    0.41627   1.03693    0.004
 6490.00    0.39126   1.03652    0.004
 6491.00    0.40372   1.03722    0.004
 6492.00    0.44047   1.03849    0.004
 6493.00    0.51205   1.03953    0.004
 6494.00    0.56120   1.04000    0.004
 6495.00    0.58208   1.03992    0.004
 6496.00    0.57727   1.03938    0.004
 6497.00    0.54392   1.03847    0.004
 6498.00    0.51217   1.03728    0.004
 6499.00    0.48198   1.03585    0.004
 6500.00    0.47557   1.03413    0.004
 6501.00    0.48971   1.03224    0.004
 6502.00    0.54592   1.03063    0.004
 6503.00    0.63415   1.02983    0.004
 6504.00    0.66808   1.02989    0.004
 6505.00    0.66567   1.03060    0.004
 6506.00    0.57727   1.03168    0.004
 6507.00    0.43848   1.03286    0.004
 6508.00    0.39018   1.03385    0.004
 6509.00    0.38811   1.03438    0.004
 6510.00    0.43630   1.03433    0.004
 6511.00    0.50673   1.03375    0.004
 6512.00    0.46475   1.03277    0.004
 6513.00    0.38005   1.03165    0.004
 6514.00    0.33348   1.03087    0.004
 6515.00    0.29921   1.03074    0.004
 6516.00    0.42271   1.03131    0.004
 6517.00    0.58881   1.03219    0.004
 6518.00    0.61095   1.03290    0.004
 6519.00    0.60120   1.03320    0.004
 6520.00    0.54686   1.03305    0.004
 6521.00    0.48465   1.03244    0.004
 6522.00    0.45485   1.03139    0.004
 6523.00    0.42941   1.03011    0.004
 6524.00    0.42484   1.02893    0.004
 6525.00    0.42227   1.02807    0.004
 6526.00    0.42766   1.02762    0.004
 6527.00    0.43353   1.02751    0.004
 6528.00    0.42898   1.02735    0.000
 6529.00    0.42408   1.02670    0.000
 6530.00    0.40563   1.02537    0.000
 6531.00    0.39103   1.02350    0.000
 6532.00    0.47339   1.02145    0.000
 6533.00    0.55550   1.01965    0.000
 6534.00    0.63420   1.01851    0.000
 6535.00    0.69498   1.01825    0.000
 6536.00    0.59613   1.01869    0.000
 6537.00    0.50363   1.01932    0.000
 6538.00    0.45276   1.01968    0.000
 6539.00    0.41887   1.01975    0.000
 6540.00    0.47172   1.01989    0.000
 6541.00    0.50974   1.02028    0.000
 6542.00    0.48654   1.02075    0.000
 6543.00    0.44827   1.02093    0.000
 6544.00    0.35851   1.02062    0.000
 6545.00    0.29253   1.01994    0.000
 6546.00    0.29500   1.01908    0.000
 6547.00    0.30614   1.01805    0.000
 6548.00    0.33862   1.01673    0.000
 6549.00    0.35635   1.01508    0.000
 6550.00    0.34283   1.01299    0.000
 6551.00    0.38290   1.01023    0.000
 6552.00    0.52170   1.00676    0.000
 6553.00    0.64593   1.00321    0.000
 6554.00    0.74672   1.00037    0.000
 6555.00    0.75210   0.99830    0.000
 6556.00    0.62275   0.99611    0.000
 6557.00    0.53583   0.99281    0.000
 6558.00    0.50163   0.98808    0.000
 6559.00    0.48840   0.98193    0.000
 6560.00    0.49812   0.97423    0.000
 6561.00    0.56726   0.96453    0.000
 6562.00    0.69382   0.95214    0.000
 6563.00    0.68833   0.93620    0.000
 6564.00    0.57035   0.91555    0.000
 6565.00    0.48190   0.88879    0.000
 6566.00    0.41558   0.85493    0.000
 6567.00    0.44877   0.81415    0.000
 6568.00    0.54754   0.76959    0.000
 6569.00    0.60928   0.73015    0.000
 6570.00    0.64966   0.70934    0.000
 6571.00    0.65925   0.71704    0.000
 6572.00    0.65336   0.75119    0.000
 6573.00    0.59339   0.79878    0.000
 6574.00    0.50990   0.84558    0.000
 6575.00    0.47413   0.88368    0.000
 6576.00    0.45619   0.91188    0.000
 6577.00    0.44621   0.93228    0.000
 6578.00    0.43874   0.94730    0.000
 6579.00    0.40250   0.95861    0.000
 6580.00    0.35864   0.96726    0.000
 6581.00    0.41632   0.97384    0.000
 6582.00    0.49595   0.97842    0.000
 6583.00    0.54643   0.98063    0.000
 6584.00    0.59191   0.98099    0.000
 6585.00    0.58011   0.98148    0.000
 6586.00    0.56088   0.98383    0.000
 6587.00    0.56908   0.98786    0.000
 6588.00    0.57979   0.99131    0.000
 6589.00    0.63504   0.99268    0.000
 6590.00    0.69276   0.99351    0.000
 6591.00    0.62312   0.99580    0.000
 6592.00    0.55150   1.00006    0.000
 6593.00    0.55117   1.00464    0.000
 6594.00    0.55285   1.00810    0.000
 6595.00    0.60051   1.01028    0.000
 6596.00    0.63743   1.01154    0.000
 6597.00    0.53839   1.01213    0.000
 6598.00    0.44268   1.01204    0.000
 6599.00    0.37553   1.01132    0.000
 6600.00    0.32855   1.01052    0.000
 6601.00    0.40997   1.01033    0.000
 6602.00    0.48087   1.01095    0.000
 6603.00    0.49946   1.01185    0.000
 6604.00    0.51656   1.01233    0.000
 6605.00    0.52764   1.01224    0.000
 6606.00    0.53153   1.01206    0.000
 6607.00    0.51137   1.01239    0.000
 6608.00    0.49127   1.01326    0.000
 6609.00    0.47134   1.01421    0.004
 6610.00    0.46535   1.01470    0.004
 6611.00    0.49305   1.01460    0.004
 6612.00    0.50742   1.01416    0.004
 6613.00    0.49395   1.01365    0.004
 6614.00    0.51511   1.01313    0.004
 6615.00    0.59910   1.01252    0.003
 6616.00    0.69308   1.01188    0.003
 6617.00    0.80292   1.01154    0.004
 6618.00    0.83424   1.01172    0.004
 6619.00    0.75630   1.01220    0.004
 6620.00    0.68629   1.01260    0.004
 6621.00    0.62599   1.01275    0.004
 6622.00    0.56589   1.01286    0.004
 6623.00    0.50601   1.01314    0.004
 6624.00    0.46176   1.01353    0.004
 6625.00    0.43240   1.01384    0.004
 6626.00    0.39264   1.01392    0.004
 6627.00    0.34415   1.01380    0.004
 6628.00    0.33344   1.01351    0.004
 6629.00    0.35066   1.01307    0.004
 6630.00    0.42800   1.01250    0.004
 6631.00    0.54437   1.01191    0.004
 6632.00    0.58407   1.01148    0.004
 6633.00    0.58018   1.01131    0.004
 6634.00    0.57036   1.01128    0.004
 6635.00    0.55761   1.01125    0.004
 6636.00    0.55568   1.01118    0.004
 6637.00    0.55839   1.01102    0.004
 6638.00    0.58496   1.01073    0.004
 6639.00    0.62028   1.01025    0.004
 6640.00    0.61066   1.00970    0.004
 6641.00    0.58709   1.00937    0.004
 6642.00    0.55845   1.00950    0.004
 6643.00    0.52850   1.01002    0.004
 6644.00    0.50887   1.01055    0.004
 6645.00    0.49141   1.01074    0.004
 6646.00    0.50354   1.01043    0.004
 6647.00    0.52061   1.00984    0.004
 6648.00    0.57023   1.00925    0.004
 6649.00    0.62393   1.00876    0.004
 6650.00    0.66169   1.00837    0.004
 6651.00    0.69805   1.00821    0.004
 6652.00    0.64647   1.00833    0.004
 6653.00    0.59037   1.00861    0.004
 6654.00    0.62280   1.00882    0.004
 6655.00    0.65676   1.00891    0.004
 6656.00    0.68733   1.00895    0.004
 6657.00    0.71319   1.00899    0.004
 6658.00    0.63945   1.00896    0.004
 6659.00    0.56766   1.00882    0.004
 6660.00    0.51925   1.00858    0.004
 6661.00    0.47830   1.00830    0.003
 6662.00    0.49899   1.00806    0.004
 6663.00    0.51677   1.00789    0.004
 6664.00    0.51654   1.00780    0.004
 6665.00    0.51609   1.00773    0.004
 6666.00    0.51457   1.00757    0.004
 6667.00    0.53994   1.00720    0.004
 6668.00    0.67149   1.00657    0.004
 6669.00    0.79648   1.00570    0.004
 6670.00    0.89990   1.00480    0.004
 6671.00    0.94270   1.00413    0.004
 6672.00    0.81723   1.00371    0.004
 6673.00    0.70671   1.00334    0.004
 6674.00    0.63169   1.00304    0.004
 6675.00    0.58130   1.00301    0.004
 6676.00    0.58146   1.00339    0.004
 6677.00    0.58778   1.00398    0.004
 6678.00    0.60509   1.00434    0.004
 6679.00    0.63029   1.00417    0.004
 6680.00    0.66779   1.00332    0.003
 6681.00    0.70590   1.00124    0.003
 6682.00    0.74484   0.99637    0.003
 6683.00    0.74254   0.98667    0.003
 6684.00    0.69044   0.97286    0.004
 6685.00    0.63867   0.96017    0.004
 6686.00    0.58725   0.95486    0.004
 6687.00    0.53887   0.95919    0.004
 6688.00    0.49333   0.96924    0.004
 6689.00    0.44232   0.97901    0.004
 6690.00    0.38677   0.98551    0.004
 6691.00    0.40743   0.98912    0.004
 6692.00    0.48363   0.99159    0.004
 6693.00    0.52108   0.99393    0.004
 6694.00    0.53372   0.99609    0.004
 6695.00    0.52433   0.99785    0.004
 6696.00    0.50262   0.99913    0.000
 6697.00    0.53880   1.00001    0.000
 6698.00    0.60318   1.00058    0.000
 6699.00    0.66282   1.00088    0.000
 6700.00    0.72047   1.00095    0.000
 6701.00    0.70247   1.00083    0.000
 6702.00    0.65722   1.00057    0.000
 6703.00    0.65860   1.00025    0.000
 6704.00    0.67418   0.99997    0.000
 6705.00    0.64548   0.99975    0.000
 6706.00    0.60557   0.99952    0.000
 6707.00    0.60014   0.99922    0.000
 6708.00    0.60182   0.99894    0.000
 6709.00    0.63827   0.99880    0.000
 6710.00    0.68034   0.99882    0.000
 6711.00    0.65852   0.99893    0.000
 6712.00    0.62895   0.99905    0.000
 6713.00    0.63973   0.99919    0.000
 6714.00    0.65385   0.99929    0.000
 6715.00    0.62504   0.99925    0.000
 6716.00    0.59419   0.99902    0.000
 6717.00    0.51920   0.99868    0.000
 6718.00    0.44252   0.99838    0.000
 6719.00    0.30527   0.99817    0.000
 6720.00    0.17448   0.99793    0.000
 6721.00    0.16951   0.99748    0.000
 6722.00    0.18203   0.99664    0.000
 6723.00    0.39513   0.99545    0.000
 6724.00    0.59137   0.99428    0.000
 6725.00    0.65323   0.99365    0.000
 6726.00    0.68841   0.99370    0.000
 6727.00    0.56359   0.99405    0.000
 6728.00    0.45234   0.99425    0.000
 6729.00    0.40537   0.99424    0.000
 6730.00    0.38036   0.99426    0.000
 6731.00    0.44014   0.99440    0.000
 6732.00    0.46589   0.99450    0.000
 6733.00    0.38207   0.99440    0.000
 6734.00    0.33515   0.99417    0.000
 6735.00    0.38885   0.99388    0.000
 6736.00    0.44399   0.99354    0.000
 6737.00    0.50250   0.99315    0.000
 6738.00    0.54228   0.99284    0.000
 6739.00    0.54422   0.99282    0.000
 6740.00    0.54181   0.99315    0.000
 6741.00    0.53177   0.99364    0.000
 6742.00    0.51856   0.99403    0.000
 6743.00    0.50048   0.99418    0.000
 6744.00    0.53701   0.99406    0.000
 6745.00    0.64740   0.99372    0.000
 6746.00    0.70799   0.99329    0.000
 6747.00    0.70931   0.99279    0.000
 6748.00    0.69839   0.99211    0.000
 6749.00    0.67462   0.99097    0.000
 6750.00    0.62290   0.98944    0.000
 6751.00    0.54531   0.98806    0.000
 6752.00    0.51009   0.98746    0.000
 6753.00    0.50945   0.98794    0.004
 6754.00    0.61621   0.98903    0.004
 6755.00    0.80012   0.99007    0.004
 6756.00    0.80530   0.99064    0.005
 6757.00    0.69780   0.99076    0.004
 6758.00    0.45588   0.99062    0.004
 6759.00    0.13988   0.99037    0.004
 6760.00    0.16218   0.99015    0.004
 6761.00    0.34658   0.99009    0.004
 6762.00    0.53390   0.99021    0.005
 6763.00    0.72241   0.99043    0.005
 6764.00    0.65875   0.99060    0.004
 6765.00    0.50590   0.99070    0.004
 6766.00    0.39000   0.99074    0.004
 6767.00    0.28512   0.99063    0.004
 6768.00    0.38998   0.99032    0.004
 6769.00    0.54680   0.98990    0.004
 6770.00    0.68392   0.98958    0.004
 6771.00    0.81709   0.98942    0.004
 6772.00    0.77537   0.98923    0.004
 6773.00    0.70616   0.98881    0.004
 6774.00    0.57791   0.98819    0.004
 6775.00    0.44277   0.98765    0.004
 6776.00    0.31696   0.98737    0.004
 6777.00    0.19188   0.98732    0.004
 6778.00    0.17389   0.98735    0.004
 6779.00    0.16056   0.98741    0.004
 6780.00    0.17388   0.98758    0.004
 6781.00    0.19207   0.98784    0.004
 6782.00    0.42434   0.98807    0.004
 6783.00    0.64625   0.98814    0.004
 6784.00    0.68037   0.98789    0.004
 6785.00    0.70300   0.98714    0.004
 6786.00    0.59994   0.98592    0.004
 6787.00    0.50368   0.98454    0.004
 6788.00    0.45979   0.98336    0.004
 6789.00    0.42394   0.98245    0.004
 6790.00    0.43498   0.98166    0.004
 6791.00    0.44294   0.98098    0.004
 6792.00    0.43667   0.98067    0.004
 6793.00    0.44191   0.98094    0.004
 6794.00    0.49063   0.98169    0.004
 6795.00    0.53095   0.98254    0.004
 6796.00    0.54474   0.98316    0.004
 6797.00    0.54168   0.98340    0.004
 6798.00    0.49353   0.98337    0.004
 6799.00    0.42332   0.98324    0.004
 6800.00    0.30243   0.98323    0.004
 6801.00    0.25501   0.98341    0.004
 6802.00    0.35367   0.98368    0.004
 6803.00    0.46756   0.98390    0.004
 6804.00    0.60782   0.98395    0.004
 6805.00    0.66898   0.98379    0.004
 6806.00    0.61016   0.98343    0.004
 6807.00    0.58309   0.98303    0.004
 6808.00    0.59831   0.98277    0.004
 6809.00    0.59317   0.98278    0.004
 6810.00    0.56413   0.98297    0.004
 6811.00    0.48808   0.98313    0.004
 6812.00    0.36338   0.98311    0.004
 6813.00    0.33894   0.98289    0.004
 6814.00    0.40603   0.98263    0.004
 6815.00    0.41526   0.98240    0.004
 6816.00    0.37792   0.98218    0.004
 6817.00    0.36635   0.98194    0.004
 6818.00    0.37302   0.98166    0.004
 6819.00    0.41003   0.98134    0.004
 6820.00    0.46588   0.98097    0.004
 6821.00    0.44285   0.98053    0.004
 6822.00    0.37701   0.98013    0.004
 6823.00    0.37127   0.97992    0.004
 6824.00    0.39388   0.97993    0.004
 6825.00    0.45823   0.98002    0.004
 6826.00    0.53955   0.98002    0.004
 6827.00    0.58752   0.97993    0.004
 6828.00    0.62391   0.97990    0.004
 6829.00    0.55033   0.98000    0.004
 6830.00    0.44457   0.98014    0.004
 6831.00    0.41706   0.98025    0.004
 6832.00    0.40851   0.98025    0.004
 6833.00    0.49900   0.98004    0.004
 6834.00    0.60887   0.97950    0.004
 6835.00    0.60741   0.97866    0.004
 6836.00    0.58899   0.97780    0.004
 6837.00    0.51168   0.97725    0.004
 6838.00    0.42776   0.97713    0.004
 6839.00    0.54267   0.97724    0.004
 6840.00    0.67244   0.97738    0.004
 6841.00    0.65330   0.97743    0.004
 6842.00    0.62824   0.97741    0.004
 6843.00    0.51775   0.97732    0.004
 6844.00    0.41156   0.97707    0.004
 6845.00    0.49932   0.97667    0.004
 6846.00    0.57623   0.97615    0.004
 6847.00    0.46981   0.97556    0.004
 6848.00    0.37739   0.97495    0.004
 6849.00    0.43149   0.97448    0.004
 6850.00    0.48633   0.97435    0.004
 6851.00    0.54674   0.97458    0.004
 6852.00    0.58992   0.97497    0.004
 6853.00    0.53547   0.97529    0.004
 6854.00    0.48603   0.97547    0.004
 6855.00    0.45915   0.97556    0.004
 6856.00    0.43269   0.97567    0.004
 6857.00    0.40781   0.97579    0.004
 6858.00    0.40075   0.97586    0.004
 6859.00    0.44893   0.97585    0.004
 6860.00    0.51830   0.97566    0.004
 6861.00    0.64338   0.97519    0.004
 6862.00    0.73599   0.97448    0.004
 6863.00    0.75520   0.97373    0.004
 6864.00    0.72807   0.97322    0.004
 6865.00    0.61021   0.97300    0.004
 6866.00    0.51015   0.97290    0.004
 6867.00    0.44043   0.97274    0.004
 6868.00    0.33889   0.97249    0.004
 6869.00    0.18979   0.97228    0.004
 6870.00    0.14862   0.97235    0.004
 6871.00    0.24921   0.97277    0.004
 6872.00    0.32469   0.97323    0.004
 6873.00    0.37111   0.97337    0.004
 6874.00    0.42217   0.97309    0.004
 6875.00    0.47797   0.97258    0.004
 6876.00    0.52359   0.97214    0.004
 6877.00    0.56004   0.97188    0.004
 6878.00    0.55384   0.97176    0.004
 6879.00    0.51382   0.97161    0.004
 6880.00    0.55635   0.97145    0.004
 6881.00    0.65647   0.97142    0.004
 6882.00    0.60327   0.97152    0.004
 6883.00    0.45625   0.97166    0.004
 6884.00    0.42677   0.97176    0.004
 6885.00    0.46010   0.97175    0.004
 6886.00    0.51409   0.97148    0.004
 6887.00    0.57768   0.97084    0.004
 6888.00    0.50337   0.96980    0.004
 6889.00    0.37396   0.96855    0.004
 6890.00    0.38860   0.96741    0.004
 6891.00    0.45233   0.96666    0.004
 6892.00    0.52250   0.96621    0.004
 6893.00    0.59452   0.96565    0.004
 6894.00    0.49952   0.96449    0.004
 6895.00    0.36497   0.96259    0.004
 6896.00    0.35197   0.96019    0.004
 6897.00    0.36213   0.95782    0.004
 6898.00    0.48745   0.95623    0.004
 6899.00    0.62979   0.95594    0.004
 6900.00    0.61535   0.95694    0.004
 6901.00    0.58399   0.95876    0.004
 6902.00    0.51086   0.96082    0.004
 6903.00    0.43479   0.96272    0.004
 6904.00    0.37130   0.96435    0.004
 6905.00    0.30826   0.96567    0.004
 6906.00    0.48447   0.96660    0.004
 6907.00    0.65321   0.96707    0.004
 6908.00    0.53611   0.96727    0.004
 6909.00    0.42487   0.96743    0.004
 6910.00    0.40641   0.96752    0.004
 6911.00    0.39233   0.96733    0.004
 6912.00    0.42212   0.96675    0.004
 6913.00    0.44090   0.96605    0.003
 6914.00    0.38046   0.96559    0.004
 6915.00    0.32531   0.96548    0.004
 6916.00    0.29931   0.96560    0.004
 6917.00    0.27199   0.96572    0.004
 6918.00    0.23885   0.96573    0.004
 6919.00    0.21638   0.96565    0.004
 6920.00    0.23261   0.96553    0.004
 6921.00    0.26529   0.96539    0.003
 6922.00    0.34800   0.96525    0.002
 6923.00    0.43441   0.96517    0.002
 6924.00    0.53036   0.96513    0.002
 6925.00    0.60508   0.96511    0.002
 6926.00    0.63259   0.96511    0.002
 6927.00    0.64104   0.96510    0.002
 6928.00    0.61276   0.96499    0.002
 6929.00    0.59234   0.96476    0.002
 6930.00    0.58515   0.96446    0.002
 6931.00    0.61301   0.96414    0.002
 6932.00    0.69250   0.96383    0.002
 6933.00    0.70516   0.96358    0.002
 6934.00    0.63129   0.96335    0.002
 6935.00    0.56928   0.96312    0.002
 6936.00    0.52082   0.96282    0.003
 6937.00    0.50251   0.96261    0.004
 6938.00    0.51455   0.96259    0.004
 6939.00    0.47062   0.96263    0.004
 6940.00    0.37700   0.96261    0.004
 6941.00    0.32094   0.96247    0.004
 6942.00    0.29425   0.96242    0.004
 6943.00    0.33033   0.96248    0.004
 6944.00    0.40956   0.96255    0.004
 6945.00    0.44552   0.96259    0.004
 6946.00    0.45540   0.96261    0.004
 6947.00    0.54092   0.96266    0.004
 6948.00    0.66624   0.96270    0.004
 6949.00    0.62338   0.96262    0.004
 6950.00    0.50376   0.96228    0.004
 6951.00    0.46387   0.96170    0.004
 6952.00    0.45529   0.96104    0.004
 6953.00    0.43969   0.96058    0.004
 6954.00    0.42175   0.96058    0.004
 6955.00    0.39587   0.96091    0.004
 6956.00    0.36777   0.96125    0.004
 6957.00    0.39043   0.96132    0.004
 6958.00    0.42485   0.96100    0.004
 6959.00    0.40572   0.96040    0.004
 6960.00    0.37666   0.95984    0.004
 6961.00    0.34603   0.95948    0.004
 6962.00    0.31518   0.95942    0.004
 6963.00    0.37502   0.95968    0.004
 6964.00    0.44426   0.96009    0.004
 6965.00    0.60071   0.96046    0.004
 6966.00    0.76298   0.96066    0.004
 6967.00    0.65653   0.96063    0.004
 6968.00    0.54148   0.96048    0.004
 6969.00    0.59614   0.96030    0.004
 6970.00    0.64423   0.96014    0.004
 6971.00    0.49126   0.96000    0.004
 6972.00    0.35432   0.95983    0.004
 6973.00    0.45588   0.95965    0.004
 6974.00    0.55650   0.95951    0.004
 6975.00    0.64806   0.95942    0.004
 6976.00    0.70606   0.95930    0.004
 6977.00    0.53054   0.95912    0.004
 6978.00    0.37009   0.95888    0.004
 6979.00    0.29056   0.95870    0.004
 6980.00    0.25921   0.95859    0.004
 6981.00    0.43541   0.95842    0.004
 6982.00    0.58032   0.95798    0.004
 6983.00    0.61416   0.95723    0.004
 6984.00    0.62299   0.95624    0.004
 6985.00    0.55723   0.95516    0.004
 6986.00    0.55834   0.95427    0.004
 6987.00    0.72931   0.95391    0.004
 6988.00    0.77451   0.95417    0.004
 6989.00    0.54472   0.95478    0.004
 6990.00    0.37511   0.95544    0.004
 6991.00    0.31966   0.95603    0.004
 6992.00    0.28989   0.95645    0.004
 6993.00    0.30264   0.95657    0.004
 6994.00    0.32841   0.95642    0.004
 6995.00    0.37309   0.95608    0.004
 6996.00    0.45640   0.95565    0.004
 6997.00    0.58903   0.95534    0.004
 6998.00    0.60534   0.95525    0.004
 6999.00    0.49081   0.95533    0.004
 7000.00    0.44541   0.95539    0.004
 7001.00    0.46859   0.95536    0.004
 7002.00    0.49445   0.95522    0.004
 7003.00    0.52267   0.95510    0.004
 7004.00    0.45066   0.95495    0.004
 7005.00    0.30139   0.95463    0.004
 7006.00    0.37332   0.95410    0.004
 7007.00    0.59516   0.95358    0.004
 7008.00    0.55377   0.95331    0.004
 7009.00    0.35608   0.95336    0.004
 7010.00    0.30868   0.95349    0.004
 7011.00    0.33912   0.95347    0.004
 7012.00    0.39101   0.95328    0.004
 7013.00    0.45254   0.95311    0.004
 7014.00    0.48674   0.95305    0.004
 7015.00    0.51040   0.95308    0.004
 7016.00    0.51762   0.95314    0.004
 7017.00    0.51944   0.95315    0.004
 7018.00    0.40284   0.95310    0.004
 7019.00    0.25366   0.95299    0.004
 7020.00    0.26355   0.95283    0.004
 7021.00    0.30940   0.95249    0.004
 7022.00    0.38559   0.95183    0.004
 7023.00    0.46726   0.95095    0.004
 7024.00    0.26492   0.95031    0.005
 7025.00    0.02324   0.95038    0.006
 7026.00   -0.09599   0.95105    0.000
 7027.00   -0.20306   0.95179    0.000
 7028.00   -0.07695   0.95215    0.000
 7029.00    0.06376   0.95202    0.006
 7030.00    0.17348   0.95151    0.005
 7031.00    0.28170   0.95089    0.005
 7032.00    0.22374   0.95044    0.004
 7033.00    0.16835   0.95032    0.004
 7034.00    0.18381   0.95040    0.004
 7035.00    0.19769   0.95053    0.004
 7036.00    0.18936   0.95065    0.004
 7037.00    0.18468   0.95079    0.004
 7038.00    0.21366   0.95093    0.004
 7039.00    0.24785   0.95100    0.004
 7040.00    0.31704   0.95096    0.004
 7041.00    0.39791   0.95084    0.004
 7042.00    0.53976   0.95072    0.004
 7043.00    0.65903   0.95056    0.004
 7044.00    0.68322   0.95026    0.004
 7045.00    0.66165   0.94984    0.004
 7046.00    0.48088   0.94958    0.004
 7047.00    0.34720   0.94987    0.004
 7048.00    0.35130   0.95063    0.004
 7049.00    0.36527   0.95142    0.004
 7050.00    0.40387   0.95178   -2.000
 7051.00    0.43927   0.95162   -2.000
 7052.00    0.46781   0.95113   -2.000
 7053.00    0.45516   0.95068   -2.000
 7054.00    0.36560   0.95048   -2.000
 7055.00    0.31979   0.95047   -2.000
 7056.00    0.34534   0.95046   -2.000
 7057.00    0.41852   0.95025   -2.000
 7058.00    0.55982   0.94974   -2.000
 7059.00    0.66699   0.94895   -2.000
 7060.00    0.73122   0.94810   -2.000
 7061.00    0.71991   0.94747   -2.000
 7062.00    0.62483   0.94729   -2.000
 7063.00    0.58150   0.94747   -2.000
 7064.00    0.58878   0.94774   -2.000
 7065.00    0.62636   0.94783   -2.000
 7066.00    0.69008   0.94765   -2.000
 7067.00    0.58410   0.94728   -2.000
 7068.00    0.34921   0.94690   -2.000
 7069.00    0.36863   0.94664   -2.000
 7070.00    0.55787   0.94647   -2.000
 7071.00    0.73594   0.94619   -2.000
 7072.00    0.90748   0.94559   -2.000
 7073.00    0.81185   0.94461   -2.000
 7074.00    0.58001   0.94351   -2.000
 7075.00    0.53048   0.94272   -2.000
 7076.00    0.56145   0.94257   -2.000
 7077.00    0.64864   0.94312   -2.000
 7078.00    0.75714   0.94412   -2.000
 7079.00    0.63233   0.94516   -2.000
 7080.00    0.43239   0.94596   -2.000
 7081.00    0.38353   0.94639   -2.000
 7082.00    0.37536   0.94652   -2.000
 7083.00    0.49995   0.94642   -2.000
 7084.00    0.65386   0.94620   -2.000
 7085.00    0.66475   0.94595   -2.000
 7086.00    0.65050   0.94574   -2.000
 7087.00    0.63474   0.94559   -2.000
 7088.00    0.61877   0.94539   -2.000
 7089.00    0.66755   0.94500   -2.000
 7090.00    0.72248   0.94429   -2.000
 7091.00    0.85423   0.94328   -2.000
 7092.00    0.99049   0.94226   -2.000
 7093.00    0.78461   0.94152   -2.000
 7094.00    0.57202   0.94115   -2.000
 7095.00    0.59554   0.94097   -2.000
 7096.00    0.61318   0.94083   -2.000
 7097.00    0.48482   0.94065   -2.000
 7098.00    0.37308   0.94048   -2.000
 7099.00    0.48192   0.94037   -2.000
 7100.00    0.55431   0.94031   -2.000
 7101.00    0.30357   0.94026   -2.000
 7102.00    0.10254   0.94019   -2.000
 7103.00    0.22631   0.94009   -2.000
 7104.00    0.34049   0.94005   -2.000
 7105.00    0.40582   0.94021   -2.000
 7106.00    0.44440   0.94065   -2.000
 7107.00    0.37284   0.94120   -2.000
 7108.00    0.35079   0.94156   -2.000
 7109.00    0.49751   0.94161   -2.000
 7110.00    0.64629   0.94146   -2.000
 7111.00    0.80100   0.94137   -2.000
 7112.00    0.85413   0.94143   -2.000
 7113.00    0.65803   0.94153   -2.000
 7114.00    0.56440   0.94151   -2.000
 7115.00    0.68764   0.94136   -2.000
 7116.00    0.69360   0.94109   -2.000
 7117.00    0.48388   0.94069   -2.000
 7118.00    0.37292   0.94017   -2.000
 7119.00    0.42063   0.93969   -2.000
 7120.00    0.31140   0.93946   -2.000
 7121.00   -0.01910   0.93954   -2.000
 7122.00    0.01373   0.93980   -2.000
 7123.00    0.49724   0.94006   -2.000
 7124.00    0.72395   0.94025   -2.000
 7125.00    0.66991   0.94033   -2.000
 7126.00    0.60494   0.94028   -2.000
 7127.00    0.52945   0.94008   -2.000
 7128.00    0.23250   0.93976   -2.000
 7129.00   -0.25277   0.93939   -2.000
 7130.00   -0.34903   0.93907   -2.000
 7131.00   -0.15398   0.93886   -2.000
 7132.00    0.09704   0.93869   -2.000
 7133.00    0.38489   0.93851   -2.000
 7134.00    0.52419   0.93832   -2.000
 7135.00    0.57791   0.93817   -2.000
 7136.00    0.38133   0.93799   -2.000
 7137.00    0.05916   0.93765   -2.000
 7138.00    0.11420   0.93719   -2.000
 7139.00    0.33306   0.93690   -2.000
 7140.00    0.43177   0.93702   -2.000
 7141.00    0.48574   0.93749   -2.000
 7142.00    0.38501   0.93804   -2.000
 7143.00    0.23541   0.93839   -2.000
 7144.00    0.37690   0.93849   -2.000
 7145.00    0.59515   0.93836   -2.000
 7146.00    0.73551   0.93810   -2.000
 7147.00    0.85908   0.93786   -2.000
 7148.00    0.80715   0.93778   -2.000
 7149.00    0.72521   0.93782   -2.000
 7150.00    0.63576   0.93788   -2.000
 7151.00    0.54532   0.93784   -2.000
 7152.00    0.60411   0.93762   -2.000
 7153.00    0.67645   0.93723   -2.000
 7154.00    0.48472   0.93661   -2.000
 7155.00    0.27853   0.93587   -2.000
 7156.00    0.43133   0.93532   -2.000
 7157.00    0.58824   0.93518   -2.000
 7158.00    0.43351   0.93545   -2.000
 7159.00    0.30777   0.93598   -2.000
 7160.00    0.83987   0.93648   -2.000
 7161.00    1.33528   0.93677   -2.000
 7162.00    1.36861   0.93678   -2.000
 7163.00    1.34943   0.93664   -2.000
 7164.00    0.88229   0.93653   -2.000
 7165.00    0.44146   0.93649   -2.000
 7166.00    0.16732   0.93636   -2.000
 7167.00    0.04334   0.93610   -2.000
 7168.00    0.66491   0.93581   -2.000
 7169.00    1.13986   0.93560   -2.000
 7170.00    1.02467   0.93534   -2.000
 7171.00    0.90432   0.93487   -2.000
 7172.00    0.76676   0.93426   -2.000
 7173.00    0.62398   0.93382   -2.000
 7174.00    0.46646   0.93382   -2.000
 7175.00    0.45089   0.93418   -2.000
 7176.00    0.77769   0.93461   -2.000
 7177.00    0.96972   0.93494   -2.000
 7178.00    0.88113   0.93517   -2.000
 7179.00    0.83412   0.93540   -2.000
 7180.00    0.86242   0.93558   -2.000
 7181.00    0.84465   0.93561   -2.000
 7182.00    0.75395   0.93540   -2.000
 7183.00    0.66688   0.93497   -2.000
 7184.00    0.58487   0.93448   -2.000
 7185.00    0.52494   0.93399   -2.000
 7186.00    0.49201   0.93347   -2.000
 7187.00    0.47710   0.93285   -2.000
 7188.00    0.48161   0.93225   -2.000
 7189.00    0.54335   0.93202   -2.000
 7190.00    0.65950   0.93232   -2.000
 7191.00    0.61078   0.93298   -2.000
 7192.00    0.42383   0.93355   -2.000
 7193.00    0.42405   0.93360   -2.000
 7194.00    0.56245   0.93301   -2.000
 7195.00    0.50779   0.93209   -2.000
 7196.00    0.32799   0.93130   -2.000
 7197.00    0.29305   0.93103   -2.000
 7198.00    0.34028   0.93130   -2.000
 7199.00    0.46391   0.93177   -2.000
 7200.00    0.62528   0.93214   -2.000
 7201.00    0.64852   0.93230   -2.000
 7202.00    0.61278   0.93239   -2.000
 7203.00    0.53549   0.93241   -2.000
 7204.00    0.44299   0.93236   -2.000
 7205.00    0.28706   0.93231   -2.000
 7206.00    0.11147   0.93231   -2.000
 7207.00    0.19066   0.93241   -2.000
 7208.00    0.33562   0.93241   -2.000
 7209.00    0.46751   0.93225   -2.000
 7210.00    0.59664   0.93207   -2.000
 7211.00    0.32632   0.93206   -2.000
 7212.00   -0.01034   0.93214   -2.000
 7213.00    0.18296   0.93195   -2.000
 7214.00    0.44248   0.93128   -2.000
 7215.00    0.55238   0.93040   -2.000
 7216.00    0.64932   0.92984   -2.000
 7217.00    0.49824   0.92995   -2.000
 7218.00    0.33456   0.93060   -2.000
