###################################################################
## OUTPUT of StarlightChains_v04.for    [Cid@UFSC - 01/Apr/2007] ##
###################################################################

## Some input info
KUG0210-078._4_58.txt                    [arq_obs]
Base.CB07.vall.4m                        [arq_base]
Masks.EmLines.NEW.gm                     [arq_masks]
StCv04.C11.config                        [arq_config]
   66                                    [N_base]
    0                                    [N_YAV_components = # of components with extra extinction!]
    0                                    [i_FitPowerLaw (1/0 = Yes/No)]
-9.99                                    [alpha_PowerLaw]
CCM                                      [red_law_option]
 1.458241                                [q_norm = A(l_norm)/A(V)]

## (Re)Sampling Parameters
 3741.00                                 [l_ini (A)]
 7218.00                                 [l_fin (A)]
    1.00                                 [dl    (A)]     (OBS: dl_cushion =    50.00 A)

## Normalization info
 4020.00                                 [l_norm (A) - for base]
 4010.00                                 [llow_norm (A) - window for f_obs]
 4060.00                                 [lupp_norm (A) - window for f_obs]
4.185976E-18                             [fobs_norm (in input units)]

## S/N
 3691.00                                 [llow_SN (A) - window for S/N]
 7268.00                                 [lupp_SN (A) - window for S/N]
   3.370                                 [S/N in S/N window]
   1.285                                 [S/N in norm. window]
   0.015                                 [S/N_err in S/N window]
   0.006                                 [S/N_err in norm. window]
  1.0000                                 [fscale_chi2]

## etc...
    -2007209                             [idum_orig]
  2369                                   [NOl_eff]
  2333                                   [Nl_eff]
    36    NSIGMA                         [Ntot_cliped & clip_method]
  5586280                                [Nglobal_steps]
   7                                     [N_chains]
   7                                     [NEX0s_base = N_base in EX0s-fits]
 0   0   1       36   2.0   1.071E+03    [Clip-Bug, RC-Crash & Burn-In warning-flags, n_censored_weights, wei_nsig_threshold & wei_limit]
    44     43.438     42.748      0.690  [idt_all, wdt_TotTime, wdt_UsrTime & wdt_SysTime (sec)]

## Synthesis Results - Best model ##

 2.31807E-05                             [chi2/Nl_eff]
    32.54193                             [adev (%)]

   129.99998                             [sum-of-x (%)]
 1.15937E-17                             [Flux_tot (units of input spectrum!)]
 1.59073E-12                             [Mini_tot (???)]
 7.97325E-13                             [Mcor_tot (???)]

-277.31                                  [v0_min  (km/s)]
  76.37                                  [vd_min  (km/s)]
 0.5631                                  [AV_min  (mag)]
 0.0000                                  [YAV_min (mag)]

# j     x_j(%)      Mini_j(%)     Mcor_j(%)     age_j(yr)     Z_j      (L/M)_j    YAV?  Mstars   component_j        a/Fe...       SSP_chi2r SSP_adev(%)   SSP_AV   SSP_x(%)
  1      0.0000     0.0000E+00    0.0000E+00    1.000000E+06  0.00400  1.094E-02    0   1.0000   age020_m42            0.0000     1.7263E-05    43.6097   4.0000   170.4141
  2      0.0000     0.0000E+00    0.0000E+00    3.160000E+06  0.00400  4.007E-02    0   0.9999   age045_m42            0.0000     1.7386E-05    42.8754   3.3733   175.2129
  3      0.0000     0.0000E+00    0.0000E+00    5.010000E+06  0.00400  2.539E-02    0   0.9488   age055_m42            0.0000     1.7338E-05    42.9994   3.6843   171.7570
  4      0.0000     0.0000E+00    0.0000E+00    6.610000E+06  0.00400  2.620E-02    0   0.9220   age061_m42            0.0000     1.7600E-05    43.0070   3.2993   175.5561
  5      0.0000     0.0000E+00    0.0000E+00    1.000000E+07  0.00400  1.322E-02    0   0.8862   age070_m42            0.0000     1.9082E-05    44.9899   3.0090   179.6780
  6      0.0000     0.0000E+00    0.0000E+00    1.445000E+07  0.00400  7.883E-03    0   0.8571   age078_m42            0.0000     1.8773E-05    44.7903   3.3290   175.7890
  7      0.0000     0.0000E+00    0.0000E+00    2.512000E+07  0.00400  5.251E-03    0   0.8174   age090_m42            0.0000     1.9437E-05    45.3557   2.8781   180.6678
  8      0.0000     0.0000E+00    0.0000E+00    4.000000E+07  0.00400  3.649E-03    0   0.7851   age104_m42            0.0000     1.9369E-05    45.1051   2.6556   181.7507
  9      0.0000     0.0000E+00    0.0000E+00    5.500000E+07  0.00400  3.098E-03    0   0.7629   age110_m42            0.0000     1.8728E-05    44.1232   2.8151   181.3337
 10      0.0000     0.0000E+00    0.0000E+00    1.015200E+08  0.00400  2.228E-03    0   0.7207   age116_m42            0.0000     1.8367E-05    43.4412   2.8425   181.1702
 11      0.0000     0.0000E+00    0.0000E+00    2.861200E+08  0.00400  1.093E-03    0   0.6648   age125_m42            0.0000     1.9266E-05    44.3754   2.2697   186.3770
 12      0.0000     0.0000E+00    0.0000E+00    5.088000E+08  0.00400  6.597E-04    0   0.6365   age130_m42            0.0000     1.8659E-05    43.2687   2.2683   187.3261
 13      0.0000     0.0000E+00    0.0000E+00    1.434000E+09  0.00400  2.132E-04    0   0.5798   age139_m42            0.0000     1.8761E-05    42.5819   1.3141   189.5841
 14      0.0000     0.0000E+00    0.0000E+00    4.250000E+09  0.00400  5.895E-05    0   0.5377   age158_m42            0.0000     1.7901E-05    41.3384   0.8774   182.2306
 15      0.0000     0.0000E+00    0.0000E+00    7.500000E+09  0.00400  3.510E-05    0   0.5212   age171_m42            0.0000     1.7841E-05    40.7844   0.6956   180.5062
 16      0.0000     0.0000E+00    0.0000E+00    1.300000E+10  0.00400  2.005E-05    0   0.5034   age193_m42            0.0000     1.7864E-05    40.3630   0.5335   179.2106
 17      0.0000     0.0000E+00    0.0000E+00    1.800000E+10  0.00400  1.525E-05    0   0.4967   age213_m42            0.0000     1.7856E-05    40.4991   0.5082   178.6235
 18      0.0000     0.0000E+00    0.0000E+00    1.000000E+06  0.00800  1.238E-02    0   1.0000   age020_m52            0.0000     1.7254E-05    43.5867   4.0000   170.5281
 19      0.0000     0.0000E+00    0.0000E+00    3.160000E+06  0.00800  3.074E-02    0   0.9966   age045_m52            0.0000     1.7148E-05    42.9144   4.0000   167.4417
 20      0.0000     0.0000E+00    0.0000E+00    5.010000E+06  0.00800  2.668E-02    0   0.9443   age055_m52            0.0000     1.7385E-05    43.0630   3.7620   170.5941
 21      0.0000     0.0000E+00    0.0000E+00    6.610000E+06  0.00800  2.136E-02    0   0.9177   age061_m52            0.0000     1.8960E-05    44.7426   2.5108   181.5996
 22      0.0000     0.0000E+00    0.0000E+00    1.000000E+07  0.00800  1.215E-02    0   0.8827   age070_m52            0.0000     1.9516E-05    45.6682   3.1793   179.9091
 23      0.0000     0.0000E+00    0.0000E+00    1.445000E+07  0.00800  8.717E-03    0   0.8552   age078_m52            0.0000     1.8854E-05    44.8610   3.2956   178.1149
 24      0.0000     0.0000E+00    0.0000E+00    2.512000E+07  0.00800  5.592E-03    0   0.8162   age090_m52            0.0000     1.9615E-05    45.5290   2.9430   182.6775
 25      0.0000     0.0000E+00    0.0000E+00    4.000000E+07  0.00800  3.896E-03    0   0.7841   age104_m52            0.0000     1.9380E-05    45.1069   2.8589   183.7193
 26      0.0000     0.0000E+00    0.0000E+00    1.015200E+08  0.00800  2.148E-03    0   0.7226   age116_m52            0.0000     1.8741E-05    43.9955   2.8064   182.7893
 27      0.0000     0.0000E+00    0.0000E+00    2.861200E+08  0.00800  9.925E-04    0   0.6683   age125_m52            0.0000     1.8850E-05    43.3010   2.3318   189.0476
 28      0.0000     0.0000E+00    0.0000E+00    9.047900E+08  0.00800  3.141E-04    0   0.6138   age135_m52            0.0000     1.8636E-05    42.1327   1.5543   195.0303
 29      0.0000     0.0000E+00    0.0000E+00    1.434000E+09  0.00800  1.719E-04    0   0.5853   age139_m52            0.0000     1.8590E-05    42.0871   0.9725   191.1531
 30      0.0000     0.0000E+00    0.0000E+00    2.500000E+09  0.00800  7.872E-05    0   0.5600   age150_m52            0.0000     1.7786E-05    40.4894   0.7153   185.4863
 31      0.0000     0.0000E+00    0.0000E+00    4.250000E+09  0.00800  4.336E-05    0   0.5426   age158_m52            0.0000     1.7758E-05    40.3985   0.7006   183.7393
 32      0.0000     0.0000E+00    0.0000E+00    6.250000E+09  0.00800  3.159E-05    0   0.5319   age166_m52            0.0000     1.7706E-05    39.5645   0.5045   183.2230
 33     10.9856     4.5253E+00    4.5801E+00    1.300000E+10  0.00800  1.361E-05    0   0.5073   age193_m52            0.0000     1.7851E-05    38.4784   0.0487   180.9849
 34      0.0000     0.0000E+00    0.0000E+00    1.800000E+10  0.00800  9.886E-06    0   0.4990   age213_m52            0.0000     1.7772E-05    37.6030  -0.0509   179.4975
 35      0.0000     0.0000E+00    0.0000E+00    1.000000E+06  0.02000  1.544E-02    0   1.0000   age020_m62            0.0000     1.7245E-05    43.5702   4.0000   170.7024
 36      0.0000     0.0000E+00    0.0000E+00    3.160000E+06  0.02000  3.762E-02    0   0.9858   age045_m62            0.0000     1.7178E-05    43.0065   4.0000   168.5448
 37      0.0000     0.0000E+00    0.0000E+00    5.010000E+06  0.02000  3.296E-02    0   0.9342   age055_m62            0.0000     1.7265E-05    42.6878   3.6470   173.6177
 38      0.0000     0.0000E+00    0.0000E+00    8.710000E+06  0.02000  1.154E-02    0   0.8861   age067_m62            0.0000     2.3554E-05    50.0901   2.5995   186.6345
 39      0.0000     0.0000E+00    0.0000E+00    1.445000E+07  0.02000  7.663E-03    0   0.8472   age078_m62            0.0000     2.0771E-05    47.1621   2.8160   184.3737
 40      0.0000     0.0000E+00    0.0000E+00    2.512000E+07  0.02000  4.532E-03    0   0.8099   age090_m62            0.0000     2.1073E-05    47.4098   2.8064   183.8810
 41      0.0000     0.0000E+00    0.0000E+00    5.500000E+07  0.02000  2.733E-03    0   0.7595   age110_m62            0.0000     1.9341E-05    45.0737   2.8389   182.6100
 42      0.0000     0.0000E+00    0.0000E+00    1.609000E+08  0.02000  1.369E-03    0   0.6985   age120_m62            0.0000     1.8829E-05    43.7185   2.6904   186.5124
 43      0.0000     0.0000E+00    0.0000E+00    2.861200E+08  0.02000  9.013E-04    0   0.6714   age125_m62            0.0000     1.8776E-05    42.9872   2.4515   190.8550
 44      0.0000     0.0000E+00    0.0000E+00    5.088000E+08  0.02000  5.028E-04    0   0.6449   age130_m62            0.0000     1.8249E-05    41.6960   2.0902   194.5714
 45      0.0000     0.0000E+00    0.0000E+00    9.047900E+08  0.02000  2.428E-04    0   0.6179   age135_m62            0.0000     1.7982E-05    41.1722   1.5046   193.2913
 46      0.0000     0.0000E+00    0.0000E+00    1.434000E+09  0.02000  1.263E-04    0   0.5908   age139_m62            0.0000     1.7932E-05    40.7566   1.0634   190.2235
 47      0.0000     0.0000E+00    0.0000E+00    2.500000E+09  0.02000  5.985E-05    0   0.5673   age150_m62            0.0000     1.7628E-05    39.6275   0.7038   187.1801
 48      0.0000     0.0000E+00    0.0000E+00    4.250000E+09  0.02000  3.271E-05    0   0.5468   age158_m62            0.0000     1.7601E-05    38.2173   0.4110   184.6230
 49      0.0000     0.0000E+00    0.0000E+00    1.000000E+10  0.02000  1.360E-05    0   0.5167   age181_m62            0.0000     1.7754E-05    36.8113   0.0758   182.8029
 50    114.9971     9.0500E+01    9.0512E+01    1.800000E+10  0.02000  7.124E-06    0   0.5013   age213_m62            0.0000     1.7813E-05    35.8315  -0.1261   180.7301
 51      0.0000     0.0000E+00    0.0000E+00    1.000000E+06  0.05000  2.592E-02    0   0.9998   age020_m72            0.0000     1.7276E-05    43.6250   4.0000   170.2973
 52      0.0000     0.0000E+00    0.0000E+00    3.160000E+06  0.05000  4.845E-02    0   0.9577   age045_m72            0.0000     1.7070E-05    42.6657   3.8995   169.6355
 53      0.0000     0.0000E+00    0.0000E+00    5.010000E+06  0.05000  3.072E-02    0   0.9147   age055_m72            0.0000     1.9418E-05    45.8513   3.3947   178.0791
 54      0.0000     0.0000E+00    0.0000E+00    6.610000E+06  0.05000  1.455E-02    0   0.8877   age061_m72            0.0000     2.6735E-05    53.2710   2.6091   189.9182
 55      0.0000     0.0000E+00    0.0000E+00    1.000000E+07  0.05000  9.074E-03    0   0.8524   age070_m72            0.0000     2.0108E-05    46.4512   3.5528   178.5751
 56      0.0000     0.0000E+00    0.0000E+00    2.512000E+07  0.05000  4.250E-03    0   0.7902   age090_m72            0.0000     1.9916E-05    46.1086   3.2787   180.3984
 57      0.0000     0.0000E+00    0.0000E+00    4.000000E+07  0.05000  3.087E-03    0   0.7618   age104_m72            0.0000     2.0352E-05    46.4638   3.0528   183.1418
 58      0.0000     0.0000E+00    0.0000E+00    1.015200E+08  0.05000  1.700E-03    0   0.7096   age116_m72            0.0000     1.9298E-05    44.4871   2.8270   186.1079
 59      0.0000     0.0000E+00    0.0000E+00    2.861200E+08  0.05000  7.384E-04    0   0.6633   age125_m72            0.0000     1.8446E-05    42.2341   2.3268   192.8669
 60      0.0000     0.0000E+00    0.0000E+00    5.088000E+08  0.05000  3.819E-04    0   0.6372   age130_m72            0.0000     1.7902E-05    41.0821   1.8440   195.2511
 61      0.0000     0.0000E+00    0.0000E+00    9.047900E+08  0.05000  1.676E-04    0   0.6110   age135_m72            0.0000     1.7424E-05    39.5644   1.1619   190.8257
 62      0.0000     0.0000E+00    0.0000E+00    1.434000E+09  0.05000  8.837E-05    0   0.5874   age139_m72            0.0000     1.7840E-05    39.4580   0.7034   189.7674
 63      0.0000     0.0000E+00    0.0000E+00    2.500000E+09  0.05000  4.233E-05    0   0.5598   age150_m72            0.0000     1.7567E-05    37.8442   0.4113   186.1412
 64      0.0000     0.0000E+00    0.0000E+00    6.250000E+09  0.05000  1.435E-05    0   0.5249   age166_m72            0.0000     1.7702E-05    36.5246  -0.0244   182.2593
 65      0.0000     0.0000E+00    0.0000E+00    1.300000E+10  0.05000  6.513E-06    0   0.5036   age193_m72            0.0000     1.8000E-05    35.3731  -0.2908   182.8722
 66      4.0173     4.9751E+00    4.9083E+00    1.800000E+10  0.05000  4.527E-06    0   0.4945   age213_m72            0.0000     1.8212E-05    34.8216  -0.4470   182.0457


## Synthesis Results - Average & Chains ##

# j      x_j: min, <> & last-chain-values for 1 ...  7 chains
  1      0.0000      0.4980      0.0000      0.0000      0.0000      0.0000      0.0605      0.0798      0.1301
  2      0.0000      0.5436      0.0044      0.0000      0.0607      0.1544      0.2423      0.0952      0.0783
  3      0.0000      0.5801      0.1689      0.0449      0.0404      0.0501      0.0723      0.1071      0.0865
  4      0.0000      0.7479      0.0000      0.0039      0.0000      0.0000      0.0000      0.0081      0.0000
  5      0.0000      0.4589      0.0525      0.0000      0.0132      0.0000      0.0061      0.0000      0.0422
  6      0.0000      0.5404      0.0000      0.0685      0.0770      0.0476      0.0939      0.0321      0.0000
  7      0.0000      0.4706      0.0000      0.0181      0.0571      0.0124      0.2544      0.0000      0.1259
  8      0.0000      0.5971      0.0704      0.0142      0.0000      0.0037      0.0710      0.1810      0.0972
  9      0.0000      0.4010      0.0000      0.0128      0.0401      0.1073      0.0182      0.0206      0.1344
 10      0.0000      0.4486      0.0602      0.0036      0.0200      0.1246      0.0035      0.0000      0.0478
 11      0.0000      0.4900      0.0200      0.0296      0.3440      0.0548      0.0176      0.0596      0.0000
 12      0.0000      0.5813      0.0080      0.0267      0.1420      0.0000      0.0000      0.1406      0.0000
 13      0.0000      0.4480      0.0889      0.0039      0.0320      0.0145      0.2624      0.1210      0.0699
 14      0.0000      0.5772      0.0048      0.0190      0.0000      0.0240      0.0266      0.0000      0.1205
 15      0.0000      0.5120      0.2584      0.0404      0.0195      0.0159      0.0000      0.1777      0.1209
 16      0.0000      0.5054      0.0907      0.0052      0.2077      0.0555      0.0045      0.0000      0.0126
 17      0.0000      0.4616      0.0029      0.0537      0.1725      0.0318      0.0000      0.1324      0.0393
 18      0.0000      0.5551      0.0535      0.1253      0.0000      0.0612      0.0000      0.0607      0.0144
 19      0.0000      0.5840      0.0461      0.0022      0.0313      0.0019      0.1780      0.3488      0.0475
 20      0.0000      0.5024      0.0494      0.0315      0.0000      0.0000      0.0000      0.1919      0.0169
 21      0.0000      0.7678      0.0000      0.0034      0.0000      0.0127      0.0637      0.1201      0.0041
 22      0.0000      0.3793      0.0151      0.0000      0.1011      0.0343      0.0774      0.0848      0.0103
 23      0.0000      0.5379      0.0658      0.0491      0.0000      0.0639      0.0000      0.0573      0.0389
 24      0.0000      0.5826      0.0000      0.0299      0.0000      0.0345      0.0934      0.2892      0.0969
 25      0.0000      0.4625      0.0023      0.0020      0.2297      0.0422      0.1611      0.0703      0.0422
 26      0.0000      0.6645      0.0485      0.0566      0.0000      0.0654      0.0000      0.1031      0.0351
 27      0.0000      0.5768      0.0646      0.0459      0.0677      0.0736      0.0625      0.0790      0.0000
 28      0.0000      0.5965      0.0000      0.0087      0.0378      0.0000      0.0000      0.0000      0.0000
 29      0.0000      0.5481      0.0142      0.0000      0.2034      0.1223      0.0175      0.0000      0.0054
 30      0.0000      0.3605      0.1287      0.0405      0.0000      0.0347      0.0000      0.1110      0.0838
 31      0.0000      0.4933      0.0310      0.0082      0.0000      0.0000      0.1955      0.0459      0.0000
 32      0.0000      0.6175      0.0194      0.1779      0.0165      0.0000      0.0249      0.1646      0.4675
 33     10.9856      0.5994      0.0053      0.0164      0.0384      0.1398      0.0512      0.1422      0.6056
 34      0.0000      0.5852      0.0000      0.0477      0.0844      0.0085      0.1429      0.1109      0.0392
 35      0.0000      0.3779      0.0287      0.1186      0.0087      0.1050      0.0000      0.0000      0.0000
 36      0.0000      0.5642      0.0389      0.0000      0.0451      0.0000      0.0000      0.0389      0.0406
 37      0.0000      0.5751      0.0000      0.0745      0.0218      0.0292      0.0201      0.0733      0.1249
 38      0.0000      0.8101      0.0592      0.1519      0.2511      0.0838      0.0000      0.0869      0.0000
 39      0.0000      0.6846      0.0396      0.1260      0.0000      0.1652      0.0429      0.0814      0.0000
 40      0.0000      0.5497      0.0265      0.0000      0.0000      0.0000      0.1067      0.0687      0.0955
 41      0.0000      0.4682      0.0112      0.0000      0.0000      0.0000      0.2732      0.0934      0.0452
 42      0.0000      0.5531      0.0033      0.0000      0.0340      0.0000      0.1803      0.2573      0.0000
 43      0.0000      0.5807      0.1097      0.0000      0.0000      0.0280      0.0018      0.0000      0.0277
 44      0.0000      0.5830      0.0000      0.0173      0.0000      0.0000      0.0000      0.2707      0.0225
 45      0.0000      0.4647      0.0424      0.0145      0.0265      0.0000      0.0000      0.0000      0.0046
 46      0.0000      0.5611      0.0000      0.0957      0.0335      0.0000      0.1263      0.0413      0.0222
 47      0.0000      0.6444      0.1407      0.0000      0.0000      0.0276      0.2203      0.0000      0.0000
 48      0.0000      0.5863      0.0240      0.0000      0.0000      0.1112      0.0884      0.0000      0.1283
 49      0.0000      0.4240      0.0260      0.0112      0.0000      0.0011      0.2059      0.0000      0.0512
 50    114.9971     40.9235     28.7617     41.5970     60.9428     61.7089     52.8691     55.1465     60.0382
 51      0.0000      0.5279      0.0236      0.0000      0.1942      0.0809      0.0000      0.5232      0.0473
 52      0.0000      0.4919      0.0297      0.0449      0.0000      0.0608      0.0235      0.0084      0.2096
 53      0.0000      0.3735      0.0135      0.0003      0.0817      0.0000      0.1235      0.0000      0.0000
 54      0.0000      0.5046      0.0164      0.0251      0.0000      0.0140      0.0000      0.0000      0.0000
 55      0.0000      0.3738      0.0000      0.0455      0.0000      0.0000      0.0831      0.1132      0.0000
 56      0.0000      0.5100      0.1623      0.1215      0.0000      0.0058      0.0000      0.0000      0.0000
 57      0.0000      0.4901      0.0332      0.0202      0.0000      0.0000      0.0651      0.0945      0.0695
 58      0.0000      0.4118      0.0749      0.0000      0.1076      0.0323      0.0379      0.0002      0.0872
 59      0.0000      0.5761      0.0876      0.0205      0.0569      0.0214      0.1063      0.0787      0.0000
 60      0.0000      0.5458      0.0000      0.0000      0.0294      0.0000      0.0102      0.0923      0.0000
 61      0.0000      0.4155      0.0377      0.0121      0.0778      0.0000      0.0336      0.0738      0.0000
 62      0.0000      0.5403      0.0469      0.0239      0.0000      0.0000      0.1013      0.1521      0.0981
 63      0.0000      0.6270      0.0845      0.0997      0.0933      0.0687      0.5839      0.1687      0.1317
 64      0.0000      1.5004      0.2474      0.1954      2.0153      1.0956      4.0302      0.4163      0.0039
 65      0.0000      3.8341      2.5563      2.5407      5.2347      4.7810      8.6731      4.4537      4.9208
 66      4.0173     50.2717     95.8797     83.6249     58.7091     60.1864     59.7917     64.5312     61.2103

# j      m_j: min, <> & last-chain-values for 1 ...  7 chains
  1  0.0000E+00  5.1186E-04  0.0000E+00  0.0000E+00  0.0000E+00  0.0000E+00  4.9824E-05  6.4449E-05  1.0488E-04
  2  0.0000E+00  1.5252E-04  8.5980E-07  0.0000E+00  1.3518E-05  3.3982E-05  5.4457E-05  2.1000E-05  1.7241E-05
  3  0.0000E+00  2.4375E-04  4.9645E-05  1.3674E-05  1.3495E-05  1.6520E-05  2.4347E-05  3.5375E-05  2.8514E-05
  4  0.0000E+00  2.9593E-04  0.0000E+00  1.1251E-06  0.0000E+00  0.0000E+00  0.0000E+00  2.5127E-06  0.0000E+00
  5  0.0000E+00  3.4592E-04  2.7678E-05  0.0000E+00  7.8785E-06  0.0000E+00  3.6911E-06  0.0000E+00  2.4973E-05
  6  0.0000E+00  6.6065E-04  0.0000E+00  6.0643E-05  7.4772E-05  4.5655E-05  9.1928E-05  3.0803E-05  0.0000E+00
  7  0.0000E+00  8.2372E-04  0.0000E+00  2.2944E-05  7.9362E-05  1.7072E-05  3.5670E-04  0.0000E+00  1.7284E-04
  8  0.0000E+00  1.4444E-03  1.1903E-04  2.4835E-05  0.0000E+00  7.0778E-06  1.3767E-04  3.4419E-04  1.8453E-04
  9  0.0000E+00  1.1104E-03  0.0000E+00  2.5637E-05  8.8225E-05  2.3312E-04  4.0339E-05  4.4897E-05  2.9187E-04
 10  0.0000E+00  1.6318E-03  1.5310E-04  9.4848E-06  5.7861E-05  3.5549E-04  1.0172E-05  0.0000E+00  1.3627E-04
 11  0.0000E+00  3.3509E-03  9.5823E-05  1.4688E-04  1.8679E-03  2.9411E-04  9.6608E-05  3.2012E-04  0.0000E+00
 12  0.0000E+00  6.3066E-03  6.0685E-05  2.1015E-04  1.2236E-03  0.0000E+00  0.0000E+00  1.1985E-03  0.0000E+00
 13  0.0000E+00  1.3698E-02  1.9002E-03  8.6762E-05  7.7760E-04  3.4868E-04  6.4267E-03  2.9080E-03  1.6778E-03
 14  0.0000E+00  5.9200E-02  3.4755E-04  1.4117E-03  0.0000E+00  1.9266E-03  2.1887E-03  0.0000E+00  9.6946E-03
 15  0.0000E+00  8.5484E-02  3.0169E-02  4.8811E-03  2.5861E-03  2.0871E-03  0.0000E+00  2.3324E-02  1.5831E-02
 16  0.0000E+00  1.4269E-01  1.7901E-02  1.0681E-03  4.6567E-02  1.2297E-02  1.0196E-03  0.0000E+00  2.7808E-03
 17  0.0000E+00  1.6905E-01  7.4482E-04  1.4250E-02  5.0169E-02  9.1342E-03  0.0000E+00  3.8109E-02  1.1304E-02
 18  0.0000E+00  5.0413E-04  3.3994E-05  8.2410E-05  0.0000E+00  4.3617E-05  0.0000E+00  4.3344E-05  1.0257E-05
 19  0.0000E+00  2.1290E-04  1.1743E-05  5.8116E-07  9.0510E-06  5.5116E-07  5.1971E-05  9.9937E-05  1.3571E-05
 20  0.0000E+00  1.9991E-04  1.3739E-05  9.0724E-06  0.0000E+00  0.0000E+00  0.0000E+00  6.0013E-05  5.2872E-06
 21  0.0000E+00  3.7092E-04  0.0000E+00  1.2023E-06  0.0000E+00  4.8031E-06  2.4642E-05  4.5614E-05  1.5515E-06
 22  0.0000E+00  3.0982E-04  8.6280E-06  0.0000E+00  6.5607E-05  2.1950E-05  5.0670E-05  5.4417E-05  6.5810E-06
 23  0.0000E+00  5.9337E-04  5.0759E-05  3.9217E-05  0.0000E+00  5.5327E-05  0.0000E+00  4.9650E-05  3.3637E-05
 24  0.0000E+00  9.5614E-04  0.0000E+00  3.5511E-05  0.0000E+00  4.4380E-05  1.2282E-04  3.7302E-04  1.2480E-04
 25  0.0000E+00  1.0467E-03  3.6488E-06  3.3489E-06  4.1278E-04  7.4864E-05  2.9194E-04  1.2509E-04  7.4891E-05
 26  0.0000E+00  2.5135E-03  1.2820E-04  1.5506E-04  0.0000E+00  1.9410E-04  0.0000E+00  3.0658E-04  1.0429E-04
 27  0.0000E+00  4.3672E-03  3.4221E-04  2.5193E-04  4.0724E-04  4.3712E-04  3.7899E-04  4.7000E-04  0.0000E+00
 28  0.0000E+00  1.3105E-02  0.0000E+00  1.3798E-04  6.5947E-04  0.0000E+00  0.0000E+00  0.0000E+00  0.0000E+00
 29  0.0000E+00  2.0982E-02  3.8109E-04  0.0000E+00  6.1819E-03  3.6711E-03  5.3540E-04  0.0000E+00  1.6147E-04
 30  0.0000E+00  2.8836E-02  7.2017E-03  2.3495E-03  0.0000E+00  2.1772E-03  0.0000E+00  6.9760E-03  5.2581E-03
 31  0.0000E+00  6.9408E-02  3.0486E-03  8.4029E-04  0.0000E+00  0.0000E+00  2.2032E-02  5.0730E-03  0.0000E+00
 32  0.0000E+00  1.1691E-01  2.5658E-03  2.4398E-02  2.4780E-03  0.0000E+00  3.7700E-03  2.4498E-02  6.9431E-02
 33  4.5801E+00  2.5123E-01  1.5638E-03  4.9938E-03  1.2791E-02  4.5942E-02  1.7194E-02  4.6845E-02  1.9913E-01
 34  0.0000E+00  3.3214E-01  0.0000E+00  1.9619E-02  3.8049E-02  3.7692E-03  6.4966E-02  4.9465E-02  1.7457E-02
 35  0.0000E+00  2.7520E-04  1.4640E-05  6.2573E-05  5.0180E-06  5.9988E-05  0.0000E+00  0.0000E+00  0.0000E+00
 36  0.0000E+00  1.6623E-04  8.0254E-06  0.0000E+00  1.0545E-05  0.0000E+00  0.0000E+00  9.0080E-06  9.3855E-06
 37  0.0000E+00  1.8329E-04  0.0000E+00  1.7200E-05  5.5188E-06  7.2955E-06  5.1257E-06  1.8350E-05  3.1240E-05
 38  0.0000E+00  6.9942E-04  3.5745E-05  9.5018E-05  1.7214E-04  5.6723E-05  0.0000E+00  5.8947E-05  0.0000E+00
 39  0.0000E+00  8.5104E-04  3.4406E-05  1.1346E-04  0.0000E+00  1.6104E-04  4.2686E-05  7.9555E-05  0.0000E+00
 40  0.0000E+00  1.1046E-03  3.7268E-05  0.0000E+00  0.0000E+00  0.0000E+00  1.7170E-04  1.0856E-04  1.5054E-04
 41  0.0000E+00  1.4628E-03  2.4490E-05  0.0000E+00  0.0000E+00  0.0000E+00  6.8380E-04  2.2925E-04  1.1087E-04
 42  0.0000E+00  3.1732E-03  1.3223E-05  0.0000E+00  1.5479E-04  0.0000E+00  8.2865E-04  1.1600E-03  0.0000E+00
 43  0.0000E+00  4.8635E-03  6.4275E-04  0.0000E+00  0.0000E+00  1.8383E-04  1.1895E-05  0.0000E+00  1.8205E-04
 44  0.0000E+00  8.4070E-03  0.0000E+00  1.8117E-04  0.0000E+00  0.0000E+00  0.0000E+00  3.0684E-03  2.5420E-04
 45  0.0000E+00  1.3296E-02  8.4867E-04  3.0009E-04  6.0147E-04  0.0000E+00  0.0000E+00  0.0000E+00  1.0277E-04
 46  0.0000E+00  2.9513E-02  0.0000E+00  3.6475E-03  1.3975E-03  0.0000E+00  5.3198E-03  1.7079E-03  9.1514E-04
 47  0.0000E+00  6.8677E-02  1.0486E-02  0.0000E+00  0.0000E+00  2.3077E-03  1.8810E-02  0.0000E+00  0.0000E+00
 48  0.0000E+00  1.1021E-01  3.1604E-03  0.0000E+00  0.0000E+00  1.6388E-02  1.3304E-02  0.0000E+00  1.8912E-02
 49  0.0000E+00  1.8111E-01  7.7536E-03  3.4602E-03  0.0000E+00  3.7827E-04  7.0448E-02  0.0000E+00  1.7146E-02
 50  9.0512E+01  3.2379E+01  1.5915E+01  2.3842E+01  3.8288E+01  3.8295E+01  3.3505E+01  3.4291E+01  3.7268E+01
 51  0.0000E+00  2.2894E-04  7.1569E-06  0.0000E+00  6.6869E-05  2.7518E-05  0.0000E+00  1.7833E-04  1.6086E-05
 52  0.0000E+00  1.0932E-04  4.6148E-06  7.2370E-06  0.0000E+00  1.0602E-05  4.1850E-06  1.4665E-06  3.6541E-05
 53  0.0000E+00  1.2505E-04  3.1675E-06  7.2292E-08  2.1712E-05  0.0000E+00  3.3108E-05  0.0000E+00  0.0000E+00
 54  0.0000E+00  3.4614E-04  7.8644E-06  1.2475E-05  0.0000E+00  7.5445E-06  0.0000E+00  0.0000E+00  0.0000E+00
 55  0.0000E+00  3.9482E-04  0.0000E+00  3.4820E-05  0.0000E+00  0.0000E+00  7.0315E-05  9.3930E-05  0.0000E+00
 56  0.0000E+00  1.0661E-03  2.3729E-04  1.8399E-04  0.0000E+00  9.5617E-06  0.0000E+00  0.0000E+00  0.0000E+00
 57  0.0000E+00  1.3599E-03  6.4477E-05  4.0582E-05  0.0000E+00  0.0000E+00  1.4462E-04  2.0604E-04  1.5135E-04
 58  0.0000E+00  1.9326E-03  2.4587E-04  0.0000E+00  4.0115E-04  1.1895E-04  1.4262E-04  9.1794E-07  3.2107E-04
 59  0.0000E+00  5.8183E-03  6.1874E-04  1.5030E-04  4.5612E-04  1.6924E-04  8.6029E-04  6.2511E-04  0.0000E+00
 60  0.0000E+00  1.0238E-02  0.0000E+00  0.0000E+00  4.3750E-04  0.0000E+00  1.5297E-04  1.3615E-03  0.0000E+00
 61  0.0000E+00  1.7033E-02  1.0817E-03  3.5854E-04  2.5320E-03  0.0000E+00  1.1021E-03  2.3790E-03  0.0000E+00
 62  0.0000E+00  4.0384E-02  2.4511E-03  1.2920E-03  0.0000E+00  0.0000E+00  6.0661E-03  8.9369E-03  5.7506E-03
 63  0.0000E+00  9.3233E-02  8.7868E-03  1.0742E-02  1.1014E-02  8.0124E-03  6.9538E-02  1.9711E-02  1.5369E-02
 64  0.0000E+00  6.1710E-01  7.1149E-02  5.8228E-02  6.5817E-01  3.5344E-01  1.3277E+00  1.3457E-01  1.2551E-03
 65  0.0000E+00  3.3334E+00  1.5543E+00  1.6002E+00  3.6138E+00  3.2602E+00  6.0396E+00  3.0431E+00  3.3564E+00
 66  4.9083E+00  6.1744E+01  8.2356E+01  7.4404E+01  5.7258E+01  5.7980E+01  5.8820E+01  6.2290E+01  5.8981E+01

# AV, chi2 & Mass for <> & i_chain = 1 ...  7 solutions
AV       0.5631      0.4153      0.3521      0.3757      0.4401      0.4305      0.4465      0.4511      0.4342
chi2 2.3181E-05  2.9479E-05  2.3565E-05  2.3519E-05  2.3463E-05  2.3448E-05  2.3509E-05  2.3545E-05  2.3464E-05
Mass 7.9732E-13  6.5032E-13  8.5422E-13  8.5123E-13  8.4672E-13  8.4626E-13  8.4670E-13  8.6820E-13  8.5021E-13
-277.31                                  [v0_min (km/s) before EX0s...]
  76.37                                  [vd_min (km/s) before EX0s...]


## Synthetic spectrum (Best Model) ##l_obs f_obs f_syn wei
 3478    [Nl_obs]
 3741.00    0.43997   0.38382    0.000
 3742.00    1.20302   0.35035    0.000
 3743.00    1.73388   0.32994    0.000
 3744.00    1.74408   0.30898    0.000
 3745.00    1.45092   0.29762    0.010
 3746.00    1.67385   0.33085    0.010
 3747.00    2.15885   0.41660    0.010
 3748.00    1.65989   0.51779    0.010
 3749.00    0.72824   0.60300    0.010
 3750.00    0.25993   0.67202    0.010
 3751.00   -0.03346   0.71527    0.000
 3752.00   -0.09195   0.69574    0.000
 3753.00   -0.07516   0.60154    0.000
 3754.00   -0.21868   0.48821    0.000
 3755.00   -0.40517   0.43373    0.000
 3756.00   -0.10977   0.45605    0.000
 3757.00    0.29140   0.50450    0.009
 3758.00    0.96322   0.52685    0.009
 3759.00    1.68229   0.51701    0.009
 3760.00    1.67693   0.50436    0.009
 3761.00    1.57534   0.50660    0.009
 3762.00    0.72614   0.50783    0.009
 3763.00   -0.19331   0.50488    0.000
 3764.00    0.05651   0.52928    0.009
 3765.00    0.37379   0.58749    0.009
 3766.00    0.35070   0.64423    0.009
 3767.00    0.32307   0.68326    0.009
 3768.00    0.72370   0.71750    0.009
 3769.00    1.09939   0.74360    0.009
 3770.00    0.86909   0.74498    0.009
 3771.00    0.64175   0.72750    0.009
 3772.00    0.45313   0.71376    0.009
 3773.00    0.29698   0.71260    0.009
 3774.00    0.42592   0.72100    0.009
 3775.00    0.59661   0.74196    0.009
 3776.00    1.03798   0.77260    0.009
 3777.00    1.44610   0.79492    0.009
 3778.00    1.68593   0.80206    0.009
 3779.00    1.77692   0.80563    0.009
 3780.00    1.25875   0.80166    0.009
 3781.00    0.63970   0.76167    0.009
 3782.00   -0.32149   0.67771    0.000
 3783.00   -1.02580   0.58605    0.000
 3784.00   -0.99547   0.52433    0.000
 3785.00   -1.06383   0.50058    0.000
 3786.00   -1.37332   0.51215    0.000
 3787.00   -1.56170   0.54897    0.000
 3788.00   -1.49483   0.57822    0.000
 3789.00   -1.27943   0.56972    0.000
 3790.00   -0.79201   0.53323    0.000
 3791.00   -0.46691   0.50309    0.000
 3792.00   -0.40166   0.49263    0.000
 3793.00   -0.34836   0.48257    0.000
 3794.00   -0.31184   0.46112    0.000
 3795.00   -0.03794   0.45428    0.000
 3796.00    0.52938   0.49087    0.009
 3797.00    0.86476   0.55995    0.009
 3798.00    0.94746   0.63008    0.009
 3799.00    0.90054   0.68368    0.009
 3800.00    0.72906   0.71192    0.009
 3801.00    0.44671   0.70476    0.009
 3802.00    0.07042   0.66486    0.009
 3803.00   -0.11425   0.62224    0.000
 3804.00   -0.15592   0.61523    0.000
 3805.00    0.21488   0.64743    0.009
 3806.00    0.85608   0.68455    0.009
 3807.00    1.14388   0.69243    0.009
 3808.00    1.22887   0.65917    0.009
 3809.00    0.66775   0.59442    0.009
 3810.00   -0.21631   0.52147    0.000
 3811.00   -0.40608   0.46340    0.000
 3812.00   -0.29560   0.43774    0.000
 3813.00   -0.24326   0.44559    0.000
 3814.00   -0.21247   0.45478    0.000
 3815.00   -0.23076   0.42944    0.000
 3816.00   -0.26449   0.38271    0.000
 3817.00    0.33139   0.36269    0.009
 3818.00    1.09242   0.38250    0.008
 3819.00    0.94186   0.40080    0.008
 3820.00    0.59597   0.38120    0.008
 3821.00    0.35449   0.33856    0.008
 3822.00    0.13071   0.31034    0.008
 3823.00    0.12829   0.31121    0.008
 3824.00    0.15428   0.33121    0.008
 3825.00    0.34379   0.35692    0.008
 3826.00    0.54798   0.37653    0.008
 3827.00    0.74543   0.37632    0.009
 3828.00    0.94251   0.35335    0.009
 3829.00    0.25733   0.32716    0.009
 3830.00   -0.43120   0.32366    0.000
 3831.00    0.08874   0.34892    0.009
 3832.00    0.59298   0.37982    0.009
 3833.00    0.74850   0.38552    0.009
 3834.00    0.85550   0.36222    0.009
 3835.00    0.35934   0.33487    0.009
 3836.00   -0.04740   0.32969    0.000
 3837.00    0.30163   0.36148    0.009
 3838.00    0.54168   0.42663    0.009
 3839.00    0.09606   0.49619    0.009
 3840.00   -0.29560   0.53957    0.000
 3841.00   -0.42109   0.55213    0.000
 3842.00   -0.37398   0.55070    0.000
 3843.00    0.36407   0.54898    0.009
 3844.00    0.73432   0.53943    0.009
 3845.00   -0.11822   0.51151    0.000
 3846.00   -0.52224   0.48428    0.000
 3847.00    0.33326   0.48679    0.000
 3848.00    0.97710   0.51017    0.000
 3849.00    1.11255   0.51965    0.000
 3850.00    0.74292   0.50343    0.000
 3851.00   -0.67419   0.47537    0.000
 3852.00   -1.29219   0.44835    0.000
 3853.00   -0.46888   0.42429    0.000
 3854.00    0.34261   0.39570    0.000
 3855.00    1.13543   0.36324    0.000
 3856.00    1.58811   0.35163    0.000
 3857.00    1.56992   0.38652    0.000
 3858.00    1.26580   0.45715    0.000
 3859.00    0.61327   0.51958    0.000
 3860.00    0.23048   0.54154    0.000
 3861.00    0.13745   0.53040    0.000
 3862.00    0.42746   0.51361    0.000
 3863.00    1.08041   0.50428    0.000
 3864.00    1.18205   0.49465    0.000
 3865.00    0.82311   0.47356    0.000
 3866.00    0.67532   0.44052    0.000
 3867.00    0.68281   0.40956    0.000
 3868.00    0.73514   0.40266    0.000
 3869.00    0.81643   0.43615    0.000
 3870.00    0.62697   0.50209    0.000
 3871.00    0.28449   0.56138    0.000
 3872.00   -0.08456   0.57248    0.000
 3873.00   -0.46668   0.53115    0.000
 3874.00   -0.23829   0.47717    0.000
 3875.00    0.24970   0.45488    0.000
 3876.00    0.67025   0.46233    0.000
 3877.00    1.06623   0.46750    0.000
 3878.00    0.87392   0.47212    0.000
 3879.00    0.50025   0.50542    0.000
 3880.00    0.80491   0.55001    0.000
 3881.00    1.28370   0.54892    0.009
 3882.00    1.44846   0.50050    0.009
 3883.00    1.54757   0.46569    0.009
 3884.00    1.07345   0.48007    0.009
 3885.00    0.50481   0.53264    0.009
 3886.00   -0.45189   0.60736    0.000
 3887.00   -1.45664   0.68901    0.000
 3888.00   -1.50298   0.75285    0.000
 3889.00   -1.46729   0.77636    0.000
 3890.00   -0.71584   0.75831    0.000
 3891.00    0.07128   0.72385    0.009
 3892.00    0.53298   0.70882    0.009
 3893.00    0.96371   0.71685    0.009
 3894.00   -0.26134   0.71604    0.000
 3895.00   -1.39608   0.69812    0.000
 3896.00   -0.68353   0.69197    0.000
 3897.00   -0.06413   0.70852    0.000
 3898.00   -0.54629   0.71735    0.000
 3899.00   -0.92563   0.70138    0.000
 3900.00   -0.46719   0.67439    0.000
 3901.00   -0.02667   0.64691    0.000
 3902.00    0.30439   0.63663    0.008
 3903.00    0.67831   0.66853    0.007
 3904.00    1.25848   0.73384    0.007
 3905.00    1.59918   0.79441    0.007
 3906.00    1.00207   0.82964    0.007
 3907.00    0.48798   0.84997    0.007
 3908.00    0.24450   0.86551    0.007
 3909.00    0.21736   0.87122    0.008
 3910.00    0.78681   0.86350    0.008
 3911.00    1.11039   0.84490    0.008
 3912.00    0.85335   0.81715    0.008
 3913.00    0.66141   0.78503    0.008
 3914.00    0.60235   0.74803    0.009
 3915.00    0.70918   0.69658    0.009
 3916.00    1.11068   0.63418    0.009
 3917.00    1.49838   0.58633    0.009
 3918.00    1.86464   0.57351    0.009
 3919.00    1.91547   0.59035    0.009
 3920.00    1.53592   0.61298    0.009
 3921.00    1.13749   0.61349    0.009
 3922.00    0.71639   0.57895    0.009
 3923.00    0.77420   0.51677    0.009
 3924.00    1.33922   0.44394    0.009
 3925.00    1.56272   0.37652    0.009
 3926.00    1.46716   0.32096    0.010
 3927.00    1.44410   0.27564    0.010
 3928.00    1.48075   0.23942    0.010
 3929.00    2.08701   0.21574    0.010
 3930.00    3.10619   0.20961    0.010
 3931.00    2.67151   0.22489    0.010
 3932.00    1.31160   0.26327    0.010
 3933.00    0.78820   0.32145    0.010
 3934.00    0.73034   0.39100    0.010
 3935.00    1.49006   0.45935    0.010
 3936.00    2.64556   0.51117    0.010
 3937.00    2.53444   0.53716    0.010
 3938.00    1.89376   0.54018    0.010
 3939.00    2.02834   0.53252    0.010
 3940.00    2.44022   0.54063    0.010
 3941.00    2.03816   0.59013    0.010
 3942.00    1.39007   0.66440    0.010
 3943.00    0.96019   0.71747    0.010
 3944.00    0.58512   0.74025    0.010
 3945.00    0.40607   0.76664    0.010
 3946.00    0.26700   0.80988    0.010
 3947.00    0.81515   0.84011    0.010
 3948.00    1.47335   0.83898    0.010
 3949.00    1.81521   0.83655    0.010
 3950.00    2.11931   0.85605    0.009
 3951.00    1.30799   0.86650    0.009
 3952.00    0.40584   0.84159    0.009
 3953.00    0.46298   0.80925    0.009
 3954.00    0.56421   0.79901    0.010
 3955.00    1.50449   0.78830    0.009
 3956.00    2.43404   0.73195    0.009
 3957.00    2.24437   0.62870    0.009
 3958.00    2.01903   0.53032    0.010
 3959.00    1.11816   0.47568    0.010
 3960.00    0.27527   0.44785    0.000
 3961.00    0.08588   0.40932    0.000
 3962.00    0.05081   0.34873    0.000
 3963.00    1.22879   0.28413    0.000
 3964.00    2.33390   0.24025    0.000
 3965.00    3.00665   0.23191    0.000
 3966.00    3.40209   0.26072    0.000
 3967.00    2.49550   0.31704    0.000
 3968.00    1.70202   0.38637    0.000
 3969.00    1.34204   0.45965    0.000
 3970.00    1.23734   0.53688    0.000
 3971.00    1.94864   0.61668    0.000
 3972.00    2.17304   0.69173    0.000
 3973.00    1.07880   0.76160    0.000
 3974.00    0.31928   0.83329    0.000
 3975.00    0.33697   0.90352    0.000
 3976.00    0.44067   0.95366    0.000
 3977.00    0.71715   0.96739    0.000
 3978.00    0.80091   0.95335    0.000
 3979.00    0.54758   0.94017    0.000
 3980.00    0.45873   0.94838    0.000
 3981.00    0.62169   0.97614    0.010
 3982.00    0.82610   1.01057    0.010
 3983.00    1.08626   1.04536    0.010
 3984.00    0.94173   1.07281    0.010
 3985.00    0.31797   1.07689    0.010
 3986.00    0.43190   1.06456    0.010
 3987.00    1.31614   1.06626    0.010
 3988.00    1.61365   1.08882    0.010
 3989.00    1.37076   1.10818    0.010
 3990.00    0.77871   1.10461    0.010
 3991.00   -0.09682   1.07956    0.000
 3992.00    0.11440   1.04520    0.010
 3993.00    1.10209   1.02033    0.010
 3994.00    1.64073   1.03140    0.010
 3995.00    1.89783   1.08627    0.010
 3996.00    1.63264   1.15343    0.010
 3997.00    1.08124   1.19945    0.010
 3998.00    0.85577   1.22134    0.010
 3999.00    0.78555   1.21137    0.009
 4000.00    0.69194   1.14524    0.010
 4001.00    0.58872   1.04526    0.010
 4002.00    0.44105   0.99089    0.009
 4003.00    0.27776   1.02415    0.009
 4004.00    0.68341   1.10193    0.009
 4005.00    1.25763   1.16385    0.009
 4006.00    1.13638   1.19381    0.009
 4007.00    0.84428   1.20620    0.009
 4008.00    0.11775   1.21537    0.009
 4009.00   -0.69516   1.22810    0.000
 4010.00   -0.48459   1.24620    0.000
 4011.00   -0.11499   1.26383    0.000
 4012.00   -0.03211   1.26578    0.000
 4013.00    0.01781   1.25082    0.009
 4014.00    0.53215   1.24578    0.009
 4015.00    1.08239   1.26308    0.009
 4016.00    1.52938   1.27680    0.010
 4017.00    1.97202   1.26839    0.010
 4018.00    1.43448   1.24984    0.010
 4019.00    0.90976   1.23114    0.010
 4020.00    1.33912   1.21348    0.010
 4021.00    1.71555   1.21226    0.010
 4022.00    1.15864   1.24422    0.010
 4023.00    0.66264   1.29582    0.010
 4024.00    0.82193   1.32385    0.010
 4025.00    1.00000   1.28256    0.010
 4026.00    1.32062   1.16820    0.010
 4027.00    1.39716   1.03791    0.010
 4028.00    0.06589   0.95230    0.010
 4029.00   -0.96957   0.92451    0.000
 4030.00   -0.64935   0.94904    0.000
 4031.00   -0.27841   1.02852    0.000
 4032.00    0.28278   1.15022    0.010
 4033.00    0.44595   1.27085    0.010
 4034.00   -0.63871   1.34122    0.000
 4035.00   -1.02475   1.34453    0.000
 4036.00    0.44774   1.30902    0.009
 4037.00    1.42335   1.27823    0.010
 4038.00    1.26433   1.25582    0.010
 4039.00    1.16363   1.19029    0.010
 4040.00    1.17822   1.04740    0.010
 4041.00    0.99554   0.88813    0.010
 4042.00    0.47302   0.82860    0.010
 4043.00    0.33009   0.91366    0.010
 4044.00    0.75979   1.07205    0.010
 4045.00    1.26082   1.20811    0.010
 4046.00    1.85640   1.28619    0.010
 4047.00    2.23178   1.31200    0.010
 4048.00    2.35008   1.29645    0.010
 4049.00    1.87532   1.25485    0.010
 4050.00    0.78998   1.20519    0.010
 4051.00    0.20227   1.16137    0.010
 4052.00    0.06646   1.12625    0.010
 4053.00    0.59639   1.09515    0.010
 4054.00    1.65916   1.08106    0.010
 4055.00    1.89287   1.10870    0.010
 4056.00    1.54278   1.15960    0.010
 4057.00    1.74390   1.16477    0.010
 4058.00    2.28552   1.08220    0.010
 4059.00    2.64411   0.96444    0.010
 4060.00    2.90393   0.91424    0.010
 4061.00    2.36526   0.96295    0.010
 4062.00    1.45234   1.04635    0.010
 4063.00    1.25662   1.11340    0.010
 4064.00    1.35065   1.17423    0.010
 4065.00    1.80601   1.21973    0.010
 4066.00    2.38596   1.19917    0.010
 4067.00    1.55603   1.11933    0.010
 4068.00    0.31669   1.07338    0.010
 4069.00    0.52454   1.11562    0.009
 4070.00    1.07999   1.18011    0.009
 4071.00    1.40899   1.17328    0.009
 4072.00    1.69412   1.09117    0.010
 4073.00    1.82481   1.01192    0.010
 4074.00    1.93222   1.01159    0.010
 4075.00    1.90822   1.10240    0.010
 4076.00    1.86968   1.23376    0.010
 4077.00    1.53687   1.33453    0.010
 4078.00    1.18251   1.35985    0.010
 4079.00    1.47031   1.32169    0.009
 4080.00    1.78270   1.27444    0.009
 4081.00    1.18626   1.26487    0.009
 4082.00    0.61697   1.30678    0.010
 4083.00    1.26124   1.38472    0.010
 4084.00    1.86557   1.46016    0.010
 4085.00    1.81171   1.49378    0.010
 4086.00    1.73618   1.47757    0.010
 4087.00    1.43770   1.43642    0.010
 4088.00    1.16568   1.40262    0.010
 4089.00    1.08787   1.38697    0.010
 4090.00    0.95344   1.36416    0.010
 4091.00    0.50144   1.30538    0.010
 4092.00    0.26851   1.23002    0.000
 4093.00    1.01591   1.18499    0.000
 4094.00    1.60017   1.17515    0.000
 4095.00    1.58525   1.15798    0.000
 4096.00    1.71470   1.10391    0.000
 4097.00    2.28814   1.04198    0.000
 4098.00    2.66655   1.02995    0.000
 4099.00    2.53520   1.08246    0.000
 4100.00    2.08298   1.16367    0.000
 4101.00    0.91016   1.24267    0.000
 4102.00    0.17745   1.30649    0.000
 4103.00    0.30120   1.33888    0.000
 4104.00    0.77887   1.33045    0.000
 4105.00    1.85710   1.29389    0.000
 4106.00    2.01549   1.25288    0.000
 4107.00    0.80654   1.23013    0.000
 4108.00    0.10998   1.24039    0.000
 4109.00    0.08290   1.28009    0.000
 4110.00    0.56622   1.32721    0.000
 4111.00    1.63705   1.35947    0.000
 4112.00    1.97360   1.36631    0.000
 4113.00    1.56477   1.34038    0.010
 4114.00    1.78015   1.28737    0.010
 4115.00    2.55438   1.24300    0.010
 4116.00    2.83847   1.23754    0.010
 4117.00    2.73583   1.25449    0.010
 4118.00    2.80761   1.26452    0.010
 4119.00    3.00044   1.27370    0.010
 4120.00    2.76532   1.29878    0.010
 4121.00    2.26978   1.32542    0.010
 4122.00    2.25482   1.32465    0.010
 4123.00    2.49517   1.29447    0.010
 4124.00    1.68220   1.25829    0.010
 4125.00    0.38354   1.22835    0.010
 4126.00    0.68304   1.19258    0.010
 4127.00    1.61713   1.13760    0.010
 4128.00    1.96714   1.07860    0.010
 4129.00    2.11948   1.05399    0.010
 4130.00    1.20121   1.08882    0.010
 4131.00   -0.02168   1.17009    0.000
 4132.00    0.18396   1.25652    0.009
 4133.00    0.72498   1.31217    0.009
 4134.00    1.60718   1.33701    0.009
 4135.00    2.55378   1.34755    0.009
 4136.00    1.79041   1.33373    0.009
 4137.00    0.77735   1.26553    0.009
 4138.00    1.49748   1.13930    0.009
 4139.00    2.40180   1.01499    0.010
 4140.00    2.58339   0.97941    0.010
 4141.00    2.71498   1.04962    0.009
 4142.00    1.98005   1.15433    0.009
 4143.00    1.21524   1.22021    0.009
 4144.00    1.95276   1.23016    0.009
 4145.00    2.67556   1.20491    0.010
 4146.00    2.81384   1.17489    0.009
 4147.00    2.86243   1.16000    0.009
 4148.00    1.52410   1.15584    0.009
 4149.00    0.25259   1.14848    0.009
 4150.00   -0.36041   1.13669    0.000
 4151.00   -0.74965   1.12863    0.000
 4152.00    0.44956   1.13342    0.009
 4153.00    1.53874   1.16097    0.009
 4154.00    2.02725   1.21384    0.009
 4155.00    2.31627   1.27200    0.009
 4156.00    1.73334   1.31181    0.009
 4157.00    1.34019   1.33793    0.009
 4158.00    1.62967   1.36364    0.009
 4159.00    1.79294   1.37597    0.009
 4160.00    1.57537   1.35452    0.009
 4161.00    1.26941   1.30752    0.009
 4162.00    0.73647   1.25829    0.009
 4163.00    0.54375   1.22563    0.009
 4164.00    1.10256   1.22670    0.009
 4165.00    1.58809   1.25473    0.009
 4166.00    1.93326   1.26404    0.009
 4167.00    2.13347   1.21657    0.009
 4168.00    2.09141   1.13174    0.009
 4169.00    1.88537   1.07049    0.009
 4170.00    1.43910   1.06933    0.009
 4171.00    1.07570   1.10440    0.009
 4172.00    0.81902   1.13293    0.009
 4173.00    0.56452   1.14395    0.009
 4174.00    0.31249   1.15601    0.009
 4175.00    0.49104   1.17941    0.009
 4176.00    1.10051   1.19663    0.010
 4177.00    1.50631   1.19353    0.010
 4178.00    1.73233   1.19083    0.010
 4179.00    1.68981   1.21823    0.010
 4180.00    1.43843   1.26924    0.010
 4181.00    1.53597   1.29838    0.010
 4182.00    1.87211   1.26920    0.009
 4183.00    1.62818   1.20945    0.009
 4184.00    1.03653   1.18829    0.009
 4185.00    1.27786   1.22198    0.010
 4186.00    1.95485   1.26121    0.010
 4187.00    1.77573   1.28192    0.010
 4188.00    1.20829   1.30824    0.010
 4189.00    1.26626   1.33866    0.009
 4190.00    1.56827   1.32772    0.010
 4191.00    1.45057   1.25846    0.010
 4192.00    1.19345   1.17045    0.010
 4193.00    1.67286   1.10667    0.010
 4194.00    2.35756   1.08026    0.009
 4195.00    1.95331   1.08479    0.009
 4196.00    1.29923   1.09960    0.009
 4197.00    1.15438   1.10434    0.009
 4198.00    1.10312   1.11191    0.009
 4199.00    1.84113   1.15020    0.010
 4200.00    2.69074   1.21376    0.010
 4201.00    2.44170   1.27842    0.009
 4202.00    2.08065   1.33605    0.009
 4203.00    1.14490   1.38248    0.009
 4204.00    0.17172   1.40372    0.009
 4205.00    2.10551   1.39349    0.009
 4206.00    4.12397   1.37227    0.009
 4207.00    3.16696   1.36798    0.009
 4208.00    2.20582   1.37156    0.009
 4209.00    1.12346   1.34211    0.009
 4210.00    0.18144   1.26767    0.009
 4211.00    1.28251   1.19969    0.009
 4212.00    2.24172   1.21184    0.009
 4213.00    1.85952   1.31521    0.009
 4214.00    1.43847   1.44051    0.009
 4215.00    0.75045   1.52266    0.009
 4216.00    0.23137   1.55100    0.009
 4217.00    0.61022   1.52835    0.009
 4218.00    0.97986   1.44671    0.009
 4219.00    1.31016   1.30997    0.009
 4220.00    1.49054   1.13586    0.009
 4221.00    1.14266   0.94868    0.009
 4222.00    1.06443   0.80646    0.009
 4223.00    1.78473   0.79527    0.009
 4224.00    2.45923   0.94017    0.009
 4225.00    3.01813   1.15602    0.009
 4226.00    3.42763   1.33123    0.009
 4227.00    3.51247   1.41415    0.009
 4228.00    3.07640   1.40911    0.009
 4229.00    1.65798   1.35769    0.009
 4230.00    0.59846   1.30916    0.008
 4231.00    0.12980   1.27597    0.008
 4232.00    0.25177   1.25513    0.008
 4233.00    1.22635   1.25974    0.008
 4234.00    1.64983   1.28959    0.008
 4235.00    1.37363   1.32895    0.008
 4236.00    1.31902   1.37693    0.008
 4237.00    1.51234   1.43317    0.008
 4238.00    2.19221   1.48557    0.008
 4239.00    3.35221   1.53703    0.008
 4240.00    3.93503   1.59174    0.008
 4241.00    4.01556   1.61477    0.008
 4242.00    3.27655   1.56887    0.008
 4243.00    1.90924   1.47072    0.008
 4244.00    1.21235   1.36500    0.008
 4245.00    0.96728   1.27809    0.009
 4246.00    1.98335   1.22836    0.009
 4247.00    3.74402   1.23551    0.009
 4248.00    4.12826   1.27457    0.009
 4249.00    3.80382   1.28209    0.009
 4250.00    2.92078   1.25445    0.009
 4251.00    1.78852   1.26407    0.009
 4252.00    1.64987   1.34160    0.009
 4253.00    1.89218   1.41383    0.009
 4254.00    1.60441   1.39511    0.009
 4255.00    1.14387   1.29650    0.009
 4256.00    1.07541   1.21199    0.009
 4257.00    1.11398   1.22653    0.009
 4258.00    1.24158   1.34553    0.009
 4259.00    1.38913   1.49635    0.009
 4260.00    1.08060   1.60533    0.009
 4261.00    0.69051   1.65285    0.009
 4262.00    0.81489   1.64438    0.009
 4263.00    1.00966   1.58317    0.009
 4264.00    0.60898   1.48374    0.009
 4265.00    0.15013   1.35982    0.009
 4266.00    0.85116   1.21336    0.009
 4267.00    1.62311   1.07539    0.009
 4268.00    1.91452   1.00677    0.009
 4269.00    2.18588   1.02104    0.009
 4270.00    1.07404   1.07692    0.009
 4271.00    0.02212   1.16373    0.009
 4272.00    0.55415   1.29624    0.009
 4273.00    1.06662   1.43926    0.009
 4274.00    1.31014   1.52163    0.009
 4275.00    1.56780   1.50951    0.009
 4276.00    1.95397   1.44369    0.009
 4277.00    2.35225   1.39861    0.009
 4278.00    2.83123   1.40132    0.009
 4279.00    3.10130   1.42112    0.009
 4280.00    2.28985   1.42004    0.009
 4281.00    1.63220   1.39124    0.009
 4282.00    1.61656   1.36039   -2.000
 4283.00    1.54499   1.33329   -2.000
 4284.00    1.28035   1.27651   -2.000
 4285.00    1.11456   1.18794   -2.000
 4286.00    1.23613   1.13440   -2.000
 4287.00    1.64388   1.17161   -2.000
 4288.00    2.76148   1.26842   -2.000
 4289.00    3.28418   1.34443   -2.000
 4290.00    2.53507   1.36136   -2.000
 4291.00    1.74587   1.34511   -2.000
 4292.00    0.88224   1.31261   -2.000
 4293.00    0.46240   1.24297   -2.000
 4294.00    0.76231   1.12940   -2.000
 4295.00    0.63123   1.01078   -2.000
 4296.00   -0.11299   0.94650   -2.000
 4297.00   -0.01207   0.95215   -2.000
 4298.00    1.14662   0.98602    0.010
 4299.00    2.18167   1.01287    0.010
 4300.00    3.08035   1.02385    0.009
 4301.00    3.43752   1.00702    0.009
 4302.00    3.26783   0.95498    0.009
 4303.00    3.13653   0.88443    0.009
 4304.00    3.03816   0.83675    0.009
 4305.00    2.39274   0.85208    0.009
 4306.00    1.33391   0.93139    0.009
 4307.00    1.64226   1.04396    0.009
 4308.00    2.85850   1.16266    0.009
 4309.00    3.17866   1.27996    0.009
 4310.00    2.97772   1.41072    0.009
 4311.00    2.33022   1.57824    0.009
 4312.00    1.45640   1.76102    0.009
 4313.00    1.38104   1.88595    0.009
 4314.00    1.65606   1.91548    0.009
 4315.00    1.72854   1.87884    0.009
 4316.00    1.72472   1.81481    0.009
 4317.00    1.88799   1.73403    0.009
 4318.00    2.10470   1.61902    0.009
 4319.00    1.75173   1.44727    0.009
 4320.00    1.24650   1.25042    0.009
 4321.00    1.48555   1.12434    0.009
 4322.00    1.88747   1.16115    0.009
 4323.00    1.53546   1.35814    0.009
 4324.00    1.05229   1.59555    0.009
 4325.00    1.07716   1.74502    0.009
 4326.00    1.16922   1.78537    0.009
 4327.00    2.26087   1.78746    0.009
 4328.00    3.44593   1.80838    0.009
 4329.00    3.18412   1.84888    0.009
 4330.00    2.83956   1.88595    0.000
 4331.00    2.58635   1.87997    0.000
 4332.00    2.34226   1.78328    0.000
 4333.00    2.90352   1.60410    0.000
 4334.00    3.43002   1.42226    0.000
 4335.00    3.12210   1.30612    0.000
 4336.00    2.81831   1.28143    0.000
 4337.00    2.56829   1.35487    0.000
 4338.00    2.29934   1.48523    0.000
 4339.00    1.86500   1.59861    0.000
 4340.00    1.45772   1.67237    0.000
 4341.00    1.22520   1.72710    0.000
 4342.00    1.07335   1.76725    0.000
 4343.00    1.32844   1.80191    0.000
 4344.00    1.49724   1.84541    0.000
 4345.00    1.31381   1.85460    0.000
 4346.00    1.10923   1.76043    0.000
 4347.00    0.83307   1.59260    0.000
 4348.00    0.89878   1.47981    0.000
 4349.00    1.94000   1.49372    0.000
 4350.00    2.54862   1.58284    0.000
 4351.00    2.10257   1.67533    0.009
 4352.00    1.71040   1.74530    0.008
 4353.00    1.43155   1.77322    0.008
 4354.00    1.41418   1.74779    0.009
 4355.00    1.87485   1.71419    0.009
 4356.00    2.25184   1.73445    0.009
 4357.00    2.49513   1.80245    0.009
 4358.00    2.45058   1.86469    0.009
 4359.00    2.00248   1.90606    0.009
 4360.00    1.96693   1.94315    0.009
 4361.00    2.44041   1.95421    0.009
 4362.00    2.60089   1.90098    0.009
 4363.00    2.42096   1.80698    0.009
 4364.00    2.32923   1.73971    0.009
 4365.00    2.32211   1.72620    0.008
 4366.00    2.62574   1.73846    0.008
 4367.00    3.19222   1.74156    0.009
 4368.00    3.02964   1.70927    0.009
 4369.00    2.32400   1.62988    0.009
 4370.00    2.17935   1.53688    0.008
 4371.00    2.40178   1.50104    0.008
 4372.00    2.38211   1.56128    0.008
 4373.00    2.22377   1.67524    0.009
 4374.00    1.75261   1.75848    0.009
 4375.00    1.12542   1.76251    0.008
 4376.00    1.21060   1.68896    0.008
 4377.00    1.60320   1.54240    0.008
 4378.00    2.31409   1.32879    0.009
 4379.00    3.14277   1.12244    0.009
 4380.00    3.28234   1.05304    0.009
 4381.00    3.20582   1.16628    0.009
 4382.00    2.57833   1.36094    0.008
 4383.00    1.80671   1.50300    0.008
 4384.00    2.26224   1.55058    0.008
 4385.00    2.97991   1.54495    0.008
 4386.00    3.03825   1.54069    0.008
 4387.00    2.98510   1.56649    0.008
 4388.00    2.65812   1.61028    0.008
 4389.00    2.29614   1.63769    0.008
 4390.00    2.01136   1.64588    0.008
 4391.00    1.73346   1.67877    0.008
 4392.00    2.17131   1.76054    0.008
 4393.00    2.64727   1.84148    0.008
 4394.00    2.66873   1.85102    0.008
 4395.00    2.67137   1.78358    0.008
 4396.00    1.86726   1.70547    0.008
 4397.00    1.11861   1.67427    0.008
 4398.00    1.58871   1.65250    0.008
 4399.00    2.01745   1.55771    0.008
 4400.00    1.93520   1.41200    0.008
 4401.00    1.83668   1.33393    0.008
 4402.00    1.60138   1.36734    0.008
 4403.00    1.42913   1.44749    0.008
 4404.00    1.65198   1.53461    0.008
 4405.00    1.89264   1.65013    0.009
 4406.00    2.22086   1.78960    0.009
 4407.00    2.45695   1.90138    0.009
 4408.00    2.32526   1.93471    0.009
 4409.00    2.29178   1.86409    0.008
 4410.00    2.58396   1.72112    0.008
 4411.00    2.61485   1.60829    0.008
 4412.00    1.91368   1.61048    0.008
 4413.00    1.59740   1.71346    0.009
 4414.00    2.20361   1.84399    0.008
 4415.00    2.63694   1.93456    0.008
 4416.00    2.71247   1.94381    0.008
 4417.00    2.54339   1.87614    0.008
 4418.00    1.93396   1.79146    0.008
 4419.00    1.74956   1.75459    0.008
 4420.00    2.23422   1.76872    0.008
 4421.00    2.36902   1.79218    0.008
 4422.00    2.02038   1.80570    0.008
 4423.00    2.06314   1.82053    0.008
 4424.00    2.58197   1.83149    0.008
 4425.00    2.80135   1.81715    0.008
 4426.00    2.69964   1.79376    0.008
 4427.00    2.29282   1.79496    0.008
 4428.00    1.59743   1.79811    0.008
 4429.00    1.22697   1.74998    0.008
 4430.00    1.12748   1.66163    0.009
 4431.00    1.17225   1.61612    0.009
 4432.00    1.32293   1.67596    0.008
 4433.00    1.59119   1.81553    0.009
 4434.00    1.93527   1.94929    0.009
 4435.00    1.91540   2.00025    0.009
 4436.00    1.69024   1.94654    0.009
 4437.00    1.79473   1.83291    0.009
 4438.00    2.06104   1.74221    0.009
 4439.00    2.02655   1.73995    0.009
 4440.00    1.86442   1.82781    0.009
 4441.00    1.93523   1.94181    0.009
 4442.00    2.09068   2.01248    0.009
 4443.00    1.88677   2.03128    0.009
 4444.00    1.57235   2.02821    0.009
 4445.00    2.10997   2.01467    0.009
 4446.00    2.86573   1.99236    0.008
 4447.00    3.05878   1.96692    0.009
 4448.00    3.13455   1.92280    0.009
 4449.00    2.61673   1.83552    0.009
 4450.00    2.00139   1.72269    0.009
 4451.00    2.26348   1.64235    0.009
 4452.00    2.63375   1.62517    0.008
 4453.00    2.79546   1.63984    0.008
 4454.00    2.93944   1.64244    0.008
 4455.00    3.01343   1.62399    0.008
 4456.00    3.08396   1.59933    0.008
 4457.00    2.33994   1.59662    0.008
 4458.00    1.60215   1.65038    0.008
 4459.00    2.06820   1.75213    0.008
 4460.00    2.52253   1.84078    0.008
 4461.00    2.73928   1.87739    0.000
 4462.00    2.93216   1.87965    0.000
 4463.00    2.84455   1.87134    0.000
 4464.00    2.75128   1.85537    0.000
 4465.00    2.61207   1.84359    0.000
 4466.00    2.44393   1.86269    0.000
 4467.00    2.09971   1.92215    0.000
 4468.00    1.96885   2.00241    0.000
 4469.00    2.86156   2.07165    0.000
 4470.00    3.45628   2.11130    0.000
 4471.00    2.88719   2.13639    0.000
 4472.00    2.20281   2.17223    0.000
 4473.00    1.14357   2.20211    0.000
 4474.00    0.51589   2.17292    0.000
 4475.00    1.07557   2.06600    0.000
 4476.00    1.51796   1.93296    0.000
 4477.00    1.68394   1.85270    0.000
 4478.00    1.60002   1.87067    0.000
 4479.00    1.00706   1.97259    0.000
 4480.00    1.10171   2.09996    0.000
 4481.00    2.41529   2.19083    0.000
 4482.00    3.10688   2.20817    0.008
 4483.00    2.83381   2.14649    0.008
 4484.00    2.45683   2.03935    0.008
 4485.00    1.93835   1.95241    0.008
 4486.00    1.75729   1.93859    0.008
 4487.00    1.98083   1.98652    0.008
 4488.00    2.14094   2.02452    0.008
 4489.00    2.23397   1.99395    0.008
 4490.00    2.10116   1.91581    0.008
 4491.00    1.75773   1.86667    0.008
 4492.00    1.71272   1.89583    0.008
 4493.00    1.91302   1.98713    0.008
 4494.00    2.10397   2.08555    0.009
 4495.00    2.28815   2.14039    0.009
 4496.00    2.39324   2.14334    0.009
 4497.00    2.44810   2.14268    0.009
 4498.00    2.48335   2.19513    0.009
 4499.00    2.50772   2.29182    0.008
 4500.00    2.71419   2.36572    0.008
 4501.00    3.00865   2.37384    0.008
 4502.00    2.81994   2.33412    0.008
 4503.00    2.42965   2.29185    0.008
 4504.00    2.77560   2.27786    0.008
 4505.00    3.38430   2.29019    0.008
 4506.00    2.91009   2.29889    0.008
 4507.00    2.10939   2.27297    0.008
 4508.00    1.89441   2.21184    0.008
 4509.00    1.82614   2.14756    0.008
 4510.00    2.22376   2.11356    0.008
 4511.00    2.71607   2.11324    0.008
 4512.00    2.26942   2.12091    0.008
 4513.00    1.67297   2.12084    0.008
 4514.00    1.97716   2.13359    0.008
 4515.00    2.38837   2.17948    0.008
 4516.00    2.13153   2.23333    0.008
 4517.00    1.82064   2.24588    0.008
 4518.00    2.17341   2.20263    0.008
 4519.00    2.55636   2.13398    0.008
 4520.00    2.28131   2.06259    0.008
 4521.00    2.00987   1.97807    0.008
 4522.00    2.33506   1.87574    0.008
 4523.00    2.64262   1.78144    0.008
 4524.00    2.61937   1.72963    0.008
 4525.00    2.59100   1.73547    0.008
 4526.00    2.50520   1.78738    0.008
 4527.00    2.45661   1.85418    0.008
 4528.00    2.69917   1.89445    0.008
 4529.00    2.82017   1.88189    0.008
 4530.00    2.22248   1.84600    0.008
 4531.00    1.83301   1.86238    0.008
 4532.00    2.41819   1.96892    0.008
 4533.00    2.86688   2.10633    0.008
 4534.00    2.79394   2.17835    0.008
 4535.00    2.71386   2.15902    0.008
 4536.00    2.61097   2.10600    0.008
 4537.00    2.63380   2.08499    0.008
 4538.00    2.99634   2.10424    0.008
 4539.00    2.82089   2.11957    0.008
 4540.00    1.39883   2.10159    0.008
 4541.00    0.79465   2.07347    0.008
 4542.00    1.82994   2.06398    0.008
 4543.00    2.28485   2.06159    0.008
 4544.00    1.72653   2.04592    0.008
 4545.00    1.62757   2.03200    0.008
 4546.00    2.23058   2.04326    0.008
 4547.00    2.51038   2.06272    0.008
 4548.00    2.35631   2.05558    0.008
 4549.00    2.03261   2.02285    0.008
 4550.00    1.50839   2.00188    0.000
 4551.00    1.63068   2.03064    0.000
 4552.00    2.42686   2.11486    0.000
 4553.00    2.94280   2.21796    0.000
 4554.00    3.20108   2.29214    0.000
 4555.00    2.84448   2.32056    0.000
 4556.00    1.98957   2.31918    0.000
 4557.00    1.85731   2.30079    0.000
 4558.00    2.24043   2.25368    0.000
 4559.00    2.34188   2.17279    0.000
 4560.00    2.26706   2.09726    0.000
 4561.00    2.20702   2.08584    0.000
 4562.00    2.15508   2.15420    0.000
 4563.00    2.24559   2.25201    0.000
 4564.00    2.40381   2.30920    0.000
 4565.00    2.61973   2.29471    0.000
 4566.00    2.85930   2.23128    0.000
 4567.00    2.46444   2.18011    0.000
 4568.00    1.84726   2.19303    0.000
 4569.00    1.75428   2.25286    0.000
 4570.00    1.81622   2.29904    0.000
 4571.00    1.45079   2.30855    0.000
 4572.00    0.98066   2.29530    0.000
 4573.00    1.27918   2.25841    0.000
 4574.00    1.73003   2.18627    0.000
 4575.00    2.29771   2.09649    0.000
 4576.00    2.88348   2.03723    0.000
 4577.00    2.07701   2.03952    0.000
 4578.00    1.11123   2.08006    0.000
 4579.00    1.52226   2.10857    0.000
 4580.00    2.03904   2.10512    0.000
 4581.00    2.07269   2.09611    0.000
 4582.00    2.08623   2.12266    0.000
 4583.00    1.92758   2.19612    0.000
 4584.00    1.77324   2.27913    0.000
 4585.00    1.86824   2.31697    0.000
 4586.00    2.01995   2.28782    0.000
 4587.00    3.16288   2.21872    0.000
 4588.00    4.16851   2.15435    0.000
 4589.00    3.70530   2.11477    0.000
 4590.00    3.27715   2.09261    0.000
 4591.00    3.11413   2.08218    0.000
 4592.00    2.92669   2.08774    0.000
 4593.00    2.59895   2.10844    0.000
 4594.00    2.27849   2.13110    0.000
 4595.00    1.99125   2.13888    0.000
 4596.00    1.80723   2.13264    0.000
 4597.00    2.00935   2.13233    0.000
 4598.00    2.36962   2.14389    0.000
 4599.00    3.22451   2.15103    0.000
 4600.00    3.70403   2.14852    0.000
 4601.00    3.18713   2.16002    0.000
 4602.00    2.74704   2.21557    0.000
 4603.00    2.48196   2.31402    0.000
 4604.00    2.46879   2.41190    0.000
 4605.00    2.95268   2.45591    0.000
 4606.00    2.83905   2.43102    0.000
 4607.00    1.69801   2.37091    0.000
 4608.00    1.31158   2.32222    0.000
 4609.00    2.06142   2.31193    0.000
 4610.00    2.46089   2.33795    0.000
 4611.00    2.39676   2.37531    0.000
 4612.00    2.15433   2.39986    0.000
 4613.00    1.70410   2.40281    0.000
 4614.00    1.57229   2.38790    0.000
 4615.00    1.76771   2.37507    0.000
 4616.00    2.26913   2.38306    0.000
 4617.00    3.04792   2.40036    0.000
 4618.00    3.44330   2.40576    0.000
 4619.00    3.53237   2.39868    0.000
 4620.00    3.47489   2.38525    0.000
 4621.00    3.31440   2.36986    0.000
 4622.00    2.88340   2.36294    0.000
 4623.00    2.28564   2.36589    0.000
 4624.00    2.03343   2.36715    0.000
 4625.00    1.96732   2.36933    0.000
 4626.00    2.21908   2.38346    0.000
 4627.00    2.61952   2.39206    0.000
 4628.00    2.91943   2.36702    0.000
 4629.00    3.17883   2.31927    0.000
 4630.00    3.19728   2.28273    0.000
 4631.00    3.13283   2.26200    0.000
 4632.00    2.63560   2.23467    0.000
 4633.00    2.01302   2.19185    0.000
 4634.00    1.76142   2.15088    0.000
 4635.00    1.59868   2.13721    0.000
 4636.00    1.72015   2.16466    0.000
 4637.00    1.89652   2.21647    0.000
 4638.00    2.21292   2.24814    0.000
 4639.00    2.55034   2.22752    0.000
 4640.00    2.53064   2.15812    0.000
 4641.00    2.47164   2.06469    0.000
 4642.00    2.69392   1.98553    0.000
 4643.00    2.93666   1.96239    0.000
 4644.00    2.46544   2.00860    0.000
 4645.00    1.96722   2.09832    0.000
 4646.00    2.66691   2.19199    0.000
 4647.00    3.35836   2.26019    0.000
 4648.00    3.51857   2.28531    0.000
 4649.00    3.66933   2.26068    0.000
 4650.00    3.66589   2.20547    0.000
 4651.00    3.57991   2.16724    0.000
 4652.00    2.64913   2.19000    0.000
 4653.00    1.91303   2.28002    0.000
 4654.00    2.59960   2.39807    0.000
 4655.00    3.08895   2.48186    0.000
 4656.00    2.47577   2.48805    0.000
 4657.00    1.93356   2.42192    0.000
 4658.00    1.70802   2.32772    0.000
 4659.00    1.63482   2.24704    0.000
 4660.00    2.11967   2.17853    0.000
 4661.00    2.57662   2.08750    0.000
 4662.00    2.94798   1.97125    0.000
 4663.00    3.04556   1.89290    0.000
 4664.00    2.42920   1.91718    0.000
 4665.00    2.14717   2.03313    0.000
 4666.00    2.61442   2.16650    0.000
 4667.00    2.93914   2.25036    0.000
 4668.00    2.98707   2.27008    0.000
 4669.00    2.74210   2.25977    0.000
 4670.00    2.00109   2.26497    0.000
 4671.00    1.63539   2.29918    0.000
 4672.00    1.82655   2.33075    0.000
 4673.00    2.20455   2.31962    0.000
 4674.00    2.82625   2.26374    0.000
 4675.00    2.92403   2.19614    0.000
 4676.00    2.41986   2.15068    0.000
 4677.00    1.89803   2.14663    0.000
 4678.00    1.35831   2.18508    0.000
 4679.00    1.45831   2.24207    0.000
 4680.00    2.13005   2.28317    0.000
 4681.00    2.61508   2.29220    0.000
 4682.00    2.95306   2.27608    0.000
 4683.00    2.75533   2.25247    0.000
 4684.00    2.18653   2.23752    0.000
 4685.00    2.28015   2.23185    0.000
 4686.00    2.77611   2.22593    0.000
 4687.00    2.76311   2.22262    0.000
 4688.00    2.48024   2.23639    0.000
 4689.00    2.34079   2.27363    0.000
 4690.00    2.26733   2.32447    0.000
 4691.00    1.84654   2.36198    0.000
 4692.00    1.28813   2.35151    0.000
 4693.00    1.50292   2.28453    0.000
 4694.00    1.97878   2.20002    0.000
 4695.00    2.46307   2.14662    0.000
 4696.00    2.94975   2.12901    0.000
 4697.00    2.72540   2.12007    0.000
 4698.00    2.33459   2.11408    0.000
 4699.00    2.10998   2.13051    0.000
 4700.00    1.91664   2.16913    0.000
 4701.00    2.10405   2.19610    0.000
 4702.00    2.34684   2.18573    0.000
 4703.00    2.62211   2.15311    0.000
 4704.00    2.90082   2.13635    0.000
 4705.00    2.72963   2.16177    0.000
 4706.00    2.52755   2.22229    0.000
 4707.00    2.59134   2.27636    0.000
 4708.00    2.66416   2.28291    0.000
 4709.00    2.82928   2.24795    0.000
 4710.00    2.98238   2.22444    0.000
 4711.00    2.73991   2.25743    0.000
 4712.00    2.52448   2.33721    0.000
 4713.00    2.72396   2.42124    0.000
 4714.00    2.91715   2.48442    0.000
 4715.00    3.04873   2.52210    0.000
 4716.00    3.12643   2.52921    0.000
 4717.00    2.82323   2.50941    0.000
 4718.00    2.56996   2.48898    0.000
 4719.00    2.58839   2.49278    0.000
 4720.00    2.59159   2.50516    0.000
 4721.00    2.52844   2.47557    0.000
 4722.00    2.54983   2.37579    0.000
 4723.00    2.87454   2.24187    0.000
 4724.00    3.16757   2.14289    0.000
 4725.00    3.36527   2.11575    0.000
 4726.00    3.36688   2.14814    0.000
 4727.00    2.86604   2.20969    0.000
 4728.00    2.44015   2.27412    0.000
 4729.00    2.17949   2.32324    0.000
 4730.00    2.10355   2.34670    0.000
 4731.00    2.38077   2.34323    0.000
 4732.00    2.46794   2.33321    0.000
 4733.00    2.23806   2.34894    0.000
 4734.00    2.17480   2.38695    0.000
 4735.00    2.35513   2.40825    0.000
 4736.00    2.58033   2.40092    0.000
 4737.00    2.86320   2.39467    0.000
 4738.00    2.95093   2.40879    0.000
 4739.00    2.81760   2.42901    0.000
 4740.00    2.70901   2.44233    0.000
 4741.00    2.62514   2.45945    0.000
 4742.00    2.62321   2.48717    0.000
 4743.00    2.69347   2.51040    0.000
 4744.00    2.85767   2.51720    0.000
 4745.00    3.09481   2.51167    0.000
 4746.00    3.17213   2.49517    0.000
 4747.00    3.14035   2.46224    0.000
 4748.00    2.83993   2.41730    0.000
 4749.00    2.37878   2.37584    0.000
 4750.00    2.43128   2.35036    0.000
 4751.00    2.75192   2.34408    0.000
 4752.00    3.01389   2.35404    0.000
 4753.00    3.24930   2.37593    0.000
 4754.00    3.19553   2.40309    0.000
 4755.00    3.02917   2.41923    0.000
 4756.00    3.03340   2.40237    0.000
 4757.00    3.09417   2.34951    0.000
 4758.00    3.21674   2.28491    0.000
 4759.00    3.35650   2.22957    0.000
 4760.00    3.23899   2.18462    0.000
 4761.00    3.06263   2.15726    0.007
 4762.00    2.98242   2.17085    0.007
 4763.00    2.91982   2.23427    0.007
 4764.00    2.45453   2.32154    0.007
 4765.00    1.93253   2.38787    0.007
 4766.00    2.32335   2.40521    0.007
 4767.00    2.80675   2.39132    0.007
 4768.00    2.78918   2.39448    0.007
 4769.00    2.73921   2.43675    0.007
 4770.00    2.94197   2.49085    0.007
 4771.00    3.15204   2.52363    0.007
 4772.00    3.19258   2.53559    0.007
 4773.00    3.22705   2.53951    0.007
 4774.00    3.08584   2.53276    0.007
 4775.00    2.94121   2.51043    0.007
 4776.00    2.74700   2.47565    0.007
 4777.00    2.55863   2.43010    0.007
 4778.00    2.42522   2.38131    0.007
 4779.00    2.29826   2.34929    0.007
 4780.00    2.21548   2.34002    0.007
 4781.00    2.22482   2.33530    0.007
 4782.00    2.72211   2.32753    0.007
 4783.00    3.06632   2.32661    0.007
 4784.00    2.75859   2.33208    0.007
 4785.00    2.43368   2.34032    0.007
 4786.00    2.04843   2.36253    0.007
 4787.00    1.86463   2.41123    0.007
 4788.00    2.27599   2.48613    0.007
 4789.00    2.67480   2.57070    0.007
 4790.00    3.04200   2.63215    0.007
 4791.00    3.24966   2.64066    0.007
 4792.00    3.11136   2.59416    0.007
 4793.00    3.11345   2.51703    0.007
 4794.00    3.37976   2.44464    0.007
 4795.00    3.33580   2.41329    0.007
 4796.00    2.78198   2.44227    0.007
 4797.00    2.52156   2.51114    0.007
 4798.00    2.68389   2.56813    0.007
 4799.00    2.83611   2.57294    0.008
 4800.00    2.97551   2.52948    0.008
 4801.00    2.98841   2.47131    0.008
 4802.00    2.86004   2.42421    0.008
 4803.00    2.88109   2.39893    0.007
 4804.00    3.04933   2.40427    0.007
 4805.00    3.12738   2.43752    0.007
 4806.00    3.12708   2.47537    0.008
 4807.00    3.00827   2.49629    0.008
 4808.00    2.79875   2.50120    0.007
 4809.00    2.72155   2.50529    0.007
 4810.00    2.73338   2.52117    0.007
 4811.00    2.90434   2.55156    0.007
 4812.00    3.16910   2.59027    0.007
 4813.00    2.91000   2.62733    0.007
 4814.00    2.38172   2.65353    0.007
 4815.00    2.09795   2.65875    0.007
 4816.00    1.92304   2.63162    0.007
 4817.00    2.02398   2.56706    0.007
 4818.00    2.23045   2.48184    0.008
 4819.00    2.43979   2.42136    0.008
 4820.00    2.65006   2.42357    0.008
 4821.00    3.07508   2.47053    0.008
 4822.00    3.55856   2.50754    0.008
 4823.00    3.31649   2.50774    0.008
 4824.00    2.91231   2.48861    0.008
 4825.00    2.68794   2.46951    0.008
 4826.00    2.49563   2.44639    0.007
 4827.00    2.50084   2.42095    0.007
 4828.00    2.53296   2.42007    0.008
 4829.00    2.31277   2.45688    0.007
 4830.00    2.06808   2.50413    0.007
 4831.00    2.04477   2.52997    0.007
 4832.00    2.03489   2.52774    0.007
 4833.00    1.99039   2.50106    0.008
 4834.00    1.94740   2.45554    0.008
 4835.00    2.33867   2.41189    0.008
 4836.00    2.72429   2.39353    0.007
 4837.00    2.96222   2.39805    0.007
 4838.00    3.18201   2.41037    0.008
 4839.00    3.15438   2.43631    0.007
 4840.00    3.14101   2.48562    0.007
 4841.00    3.25661   2.53362    0.007
 4842.00    3.31396   2.54034    0.007
 4843.00    2.98485   2.50385    0.007
 4844.00    2.68225   2.46768    0.007
 4845.00    2.51645   2.46906    0.007
 4846.00    2.51657   2.49659    0.007
 4847.00    3.20739   2.51281    0.007
 4848.00    3.65296   2.49368    0.000
 4849.00    3.25406   2.43347    0.000
 4850.00    2.92560   2.35204    0.000
 4851.00    2.80145   2.29765    0.000
 4852.00    2.60808   2.29338    0.000
 4853.00    2.24340   2.29112    0.000
 4854.00    2.16573   2.22121    0.000
 4855.00    2.70037   2.07822    0.000
 4856.00    3.15966   1.93961    0.000
 4857.00    3.47932   1.89982    0.000
 4858.00    3.57746   1.97843    0.000
 4859.00    3.31701   2.10941    0.000
 4860.00    3.18133   2.22586    0.000
 4861.00    3.22282   2.30894    0.000
 4862.00    3.18732   2.35935    0.000
 4863.00    3.05563   2.37599    0.000
 4864.00    2.84326   2.35499    0.000
 4865.00    2.54204   2.28746    0.000
 4866.00    2.37283   2.18894    0.000
 4867.00    2.33184   2.12374    0.000
 4868.00    2.32100   2.14483    0.000
 4869.00    2.33598   2.22662    0.000
 4870.00    2.23585   2.30667    0.000
 4871.00    2.04887   2.36285    0.000
 4872.00    2.10557   2.41142    0.000
 4873.00    2.32377   2.46559    0.000
 4874.00    2.54994   2.51754    0.000
 4875.00    2.78074   2.53894    0.007
 4876.00    3.03979   2.51236    0.007
 4877.00    3.31314   2.46622    0.007
 4878.00    3.47404   2.43652    0.007
 4879.00    3.58570   2.41055    0.007
 4880.00    3.38157   2.35938    0.007
 4881.00    3.05874   2.29865    0.007
 4882.00    2.98000   2.26817    0.007
 4883.00    2.97911   2.26965    0.007
 4884.00    3.22496   2.26140    0.007
 4885.00    3.53658   2.21644    0.007
 4886.00    3.52786   2.17349    0.007
 4887.00    3.44925   2.21014    0.007
 4888.00    3.36456   2.35156    0.007
 4889.00    3.27881   2.53586    0.007
 4890.00    3.44174   2.68298    0.007
 4891.00    3.63743   2.75961    0.007
 4892.00    3.72967   2.77466    0.007
 4893.00    3.81230   2.74650    0.007
 4894.00    3.53778   2.69038    0.007
 4895.00    3.24301   2.62922    0.007
 4896.00    2.85509   2.58724    0.007
 4897.00    2.47266   2.56382    0.007
 4898.00    2.92290   2.54677    0.007
 4899.00    3.34612   2.54933    0.007
 4900.00    3.12820   2.59081    0.007
 4901.00    2.94312   2.64751    0.007
 4902.00    3.18259   2.66381    0.007
 4903.00    3.39874   2.61174    0.007
 4904.00    3.41204   2.51667    0.007
 4905.00    3.37125   2.43178    0.007
 4906.00    2.98241   2.40076    0.007
 4907.00    2.75463   2.43190    0.007
 4908.00    3.33677   2.49963    0.007
 4909.00    3.77868   2.57285    0.007
 4910.00    3.64983   2.62864    0.007
 4911.00    3.49443   2.63688    0.007
 4912.00    3.24943   2.56182    0.007
 4913.00    3.15954   2.39872    0.007
 4914.00    3.51121   2.20239    0.007
 4915.00    3.71138   2.06494    0.007
 4916.00    3.54298   2.05163    0.007
 4917.00    3.45863   2.14670    0.007
 4918.00    3.55073   2.26808    0.007
 4919.00    3.56109   2.35065    0.007
 4920.00    3.42231   2.40313    0.007
 4921.00    3.32200   2.46778    0.007
 4922.00    3.28306   2.55426    0.007
 4923.00    3.26829   2.64069    0.007
 4924.00    3.28734   2.70821    0.007
 4925.00    3.45260   2.74537    0.007
 4926.00    3.79793   2.73998    0.007
 4927.00    3.84878   2.68477    0.007
 4928.00    3.57991   2.59582    0.007
 4929.00    3.08480   2.52100    0.007
 4930.00    2.37303   2.49465    0.007
 4931.00    2.45781   2.48455    0.007
 4932.00    3.21515   2.43271    0.007
 4933.00    3.53587   2.34493    0.007
 4934.00    3.53197   2.29579    0.007
 4935.00    3.59458   2.34310    0.007
 4936.00    3.70062   2.46493    0.007
 4937.00    3.68889   2.59181    0.007
 4938.00    3.60983   2.67736    0.007
 4939.00    3.12961   2.71348    0.007
 4940.00    2.44967   2.70985    0.000
 4941.00    2.23625   2.69273    0.000
 4942.00    2.22374   2.69492    0.000
 4943.00    2.67377   2.72357    0.000
 4944.00    3.29458   2.75899    0.000
 4945.00    3.31003   2.78476    0.000
 4946.00    3.13610   2.79470    0.000
 4947.00    2.77826   2.78162    0.000
 4948.00    2.37243   2.74332    0.000
 4949.00    2.11263   2.68566    0.000
 4950.00    1.88393   2.60063    0.000
 4951.00    2.22641   2.46862    0.000
 4952.00    2.66514   2.31667    0.000
 4953.00    2.81390   2.24110    0.000
 4954.00    2.92577   2.30973    0.000
 4955.00    3.16170   2.46845    0.000
 4956.00    3.40864   2.60432    0.000
 4957.00    3.43414   2.66491    0.000
 4958.00    3.44797   2.66537    0.000
 4959.00    3.20242   2.62481    0.000
 4960.00    2.95114   2.55456    0.000
 4961.00    2.63931   2.48366    0.000
 4962.00    2.35311   2.44543    0.000
 4963.00    2.62434   2.44589    0.000
 4964.00    2.90569   2.47056    0.000
 4965.00    3.31128   2.50861    0.000
 4966.00    3.69875   2.55740    0.000
 4967.00    3.93457   2.61250    0.000
 4968.00    4.02891   2.66236    0.000
 4969.00    3.23983   2.69358    0.000
 4970.00    2.66893   2.69713    0.000
 4971.00    3.16781   2.67034    0.000
 4972.00    3.51717   2.61725    0.000
 4973.00    3.27128   2.54963    0.000
 4974.00    3.10013   2.48404    0.000
 4975.00    3.17619   2.42382    0.000
 4976.00    3.27452   2.35041    0.000
 4977.00    3.43513   2.25728    0.000
 4978.00    3.64161   2.18081    0.000
 4979.00    3.95780   2.16780    0.000
 4980.00    4.00442   2.22629    0.000
 4981.00    3.49423   2.32808    0.000
 4982.00    2.96736   2.43565    0.000
 4983.00    2.41051   2.51286    0.000
 4984.00    2.24223   2.53883    0.000
 4985.00    2.68443   2.52533    0.000
 4986.00    2.99040   2.50647    0.000
 4987.00    3.10844   2.50511    0.000
 4988.00    3.04986   2.51610    0.000
 4989.00    2.77682   2.52782    0.000
 4990.00    2.81411   2.54222    0.000
 4991.00    3.18357   2.55790    0.000
 4992.00    3.54953   2.55701    0.000
 4993.00    3.91221   2.52249    0.000
 4994.00    3.72745   2.45681    0.000
 4995.00    3.08701   2.38469    0.000
 4996.00    2.99521   2.33628    0.000
 4997.00    3.30548   2.32025    0.000
 4998.00    3.26738   2.31617    0.000
 4999.00    3.00510   2.29385    0.000
 5000.00    3.03519   2.24529    0.000
 5001.00    3.22988   2.20524    0.000
 5002.00    3.35050   2.22428    0.000
 5003.00    3.43483   2.30715    0.000
 5004.00    3.49955   2.39692    0.000
 5005.00    3.55598   2.43091    0.000
 5006.00    3.48209   2.39032    0.000
 5007.00    3.36094   2.29894    0.000
 5008.00    3.23417   2.20249    0.000
 5009.00    3.10567   2.14802    0.000
 5010.00    3.29830   2.15595    0.000
 5011.00    3.57291   2.20320    0.000
 5012.00    3.62813   2.24745    0.000
 5013.00    3.63777   2.27278    0.000
 5014.00    3.41715   2.29299    0.000
 5015.00    3.15884   2.31290    0.000
 5016.00    3.13042   2.31986    0.000
 5017.00    3.13021   2.31721    0.000
 5018.00    2.80154   2.33118    0.000
 5019.00    2.44510   2.37167    0.000
 5020.00    2.70027   2.41182    0.000
 5021.00    2.98532   2.42053    0.000
 5022.00    2.94980   2.40238    0.000
 5023.00    2.91008   2.39593    0.000
 5024.00    2.91593   2.43070    0.000
 5025.00    2.94271   2.49714    0.000
 5026.00    3.38928   2.56928    0.000
 5027.00    3.81398   2.63224    0.000
 5028.00    3.98315   2.66840    0.000
 5029.00    4.09466   2.64871    0.007
 5030.00    3.74067   2.56799    0.007
 5031.00    3.42961   2.46938    0.007
 5032.00    3.37883   2.39932    0.007
 5033.00    3.28306   2.34670    0.007
 5034.00    2.97218   2.26547    0.007
 5035.00    2.72168   2.15475    0.008
 5036.00    2.70632   2.08325    0.018
 5037.00    2.70303   2.12332   -1.000
 5038.00    2.73888   2.27239   -1.000
 5039.00    2.80211   2.45735   -1.000
 5040.00    2.94047   2.60448   -1.000
 5041.00    3.11024   2.67444   -1.000
 5042.00    3.35385   2.65321   -1.000
 5043.00    3.52460   2.55901   -1.000
 5044.00    3.54722   2.44811   -1.000
 5045.00    3.45122   2.37732    0.037
 5046.00    3.14535   2.36406    0.010
 5047.00    3.05603   2.39605    0.007
 5048.00    3.30195   2.45850    0.007
 5049.00    3.38482   2.53506    0.007
 5050.00    3.24603   2.60248    0.007
 5051.00    2.99822   2.64459    0.007
 5052.00    2.61993   2.66537    0.007
 5053.00    2.62935   2.67960    0.007
 5054.00    3.04791   2.69742    0.007
 5055.00    3.42896   2.72113    0.007
 5056.00    3.77508   2.74183    0.007
 5057.00    3.72669   2.73365    0.007
 5058.00    3.35455   2.67028    0.007
 5059.00    3.38082   2.56140    0.007
 5060.00    3.69486   2.46017    0.007
 5061.00    3.60185   2.41345    0.007
 5062.00    3.25075   2.41623    0.007
 5063.00    3.19880   2.43736    0.007
 5064.00    3.31269   2.46439    0.007
 5065.00    3.49367   2.49209    0.007
 5066.00    3.70700   2.50265    0.007
 5067.00    3.43828   2.49250    0.007
 5068.00    2.96889   2.48574    0.007
 5069.00    2.82746   2.49644    0.007
 5070.00    2.80282   2.50997    0.006
 5071.00    2.85791   2.51066    0.006
 5072.00    2.93697   2.48859    0.006
 5073.00    2.68703   2.42567    0.006
 5074.00    2.35491   2.32303    0.006
 5075.00    2.51202   2.23187    0.006
 5076.00    2.76827   2.20773    0.006
 5077.00    2.98329   2.24765    0.006
 5078.00    3.19175   2.31005    0.007
 5079.00    3.36894   2.37212    0.007
 5080.00    3.54244   2.43284    0.006
 5081.00    3.07477   2.48546    0.006
 5082.00    2.55556   2.52035    0.006
 5083.00    2.85437   2.54153    0.006
 5084.00    3.19000   2.56029    0.006
 5085.00    3.17746   2.58167    0.006
 5086.00    3.15676   2.60764    0.006
 5087.00    2.93433   2.64014    0.006
 5088.00    2.75068   2.66930    0.006
 5089.00    3.28844   2.67181    0.006
 5090.00    3.71838   2.63213    0.006
 5091.00    2.94746   2.55546    0.007
 5092.00    2.31655   2.45910    0.007
 5093.00    2.77654   2.36878    0.007
 5094.00    3.20430   2.32258    0.007
 5095.00    3.44220   2.34849    0.007
 5096.00    3.61261   2.42690    0.007
 5097.00    3.46805   2.49973    0.007
 5098.00    3.30561   2.52568    0.007
 5099.00    3.07500   2.50938    0.007
 5100.00    2.95299   2.47583    0.007
 5101.00    3.17643   2.43815    0.007
 5102.00    3.38324   2.39922    0.007
 5103.00    3.54525   2.36688    0.007
 5104.00    3.46888   2.35200    0.007
 5105.00    2.84131   2.36168    0.007
 5106.00    2.55913   2.39843    0.007
 5107.00    2.96791   2.45382    0.007
 5108.00    3.29872   2.50999    0.007
 5109.00    3.49367   2.55656    0.007
 5110.00    3.39351   2.59664    0.007
 5111.00    2.84323   2.63616    0.007
 5112.00    2.69728   2.67260    0.007
 5113.00    3.09314   2.69157    0.007
 5114.00    3.34996   2.67675    0.007
 5115.00    3.44271   2.62485    0.007
 5116.00    3.25166   2.54558    0.007
 5117.00    2.76532   2.45210    0.007
 5118.00    2.93943   2.36116    0.007
 5119.00    3.71970   2.29712    0.007
 5120.00    3.97388   2.27642    0.007
 5121.00    3.80246   2.28805    0.007
 5122.00    3.63241   2.30533    0.007
 5123.00    3.46335   2.31539    0.007
 5124.00    3.19387   2.32737    0.007
 5125.00    2.86167   2.35621    0.007
 5126.00    3.04129   2.40337    0.007
 5127.00    3.50032   2.45465    0.007
 5128.00    3.41123   2.49769    0.007
 5129.00    3.06211   2.53137    0.007
 5130.00    2.82446   2.54983    0.007
 5131.00    2.63243   2.53488    0.007
 5132.00    2.63580   2.48068    0.007
 5133.00    2.70749   2.41266    0.007
 5134.00    3.05762   2.36921    0.007
 5135.00    3.48983   2.36415    0.007
 5136.00    3.31720   2.37236    0.007
 5137.00    2.99681   2.36694    0.007
 5138.00    2.90601   2.35734    0.007
 5139.00    2.86056   2.36141    0.007
 5140.00    2.70441   2.36655    0.006
 5141.00    2.53119   2.35521    0.006
 5142.00    2.49101   2.33948    0.006
 5143.00    2.46599   2.34152    0.006
 5144.00    2.72137   2.35824    0.006
 5145.00    2.99816   2.36521    0.006
 5146.00    2.94322   2.35016    0.006
 5147.00    2.87464   2.32738    0.006
 5148.00    2.65968   2.32046    0.006
 5149.00    2.45618   2.34450    0.006
 5150.00    2.78522   2.40199    0.006
 5151.00    3.10557   2.48109    0.006
 5152.00    3.27539   2.55790    0.006
 5153.00    3.42310   2.61009    0.006
 5154.00    3.33553   2.63144    0.006
 5155.00    3.22710   2.62752    0.006
 5156.00    2.96165   2.59994    0.006
 5157.00    2.78157   2.54589    0.006
 5158.00    3.09041   2.46328    0.006
 5159.00    3.37249   2.34111    0.006
 5160.00    3.53272   2.16476    0.006
 5161.00    3.63176   1.95371    0.006
 5162.00    3.50248   1.77979    0.006
 5163.00    3.38518   1.71785    0.006
 5164.00    3.30521   1.76568    0.006
 5165.00    3.34440   1.82673    0.007
 5166.00    3.69920   1.80658    0.007
 5167.00    3.70011   1.72881    0.007
 5168.00    2.89632   1.71641    0.007
 5169.00    2.52015   1.84526    0.007
 5170.00    2.98601   2.06038    0.007
 5171.00    3.16295   2.25279    0.007
 5172.00    2.84405   2.36825    0.008
 5173.00    2.43273   2.41319    0.008
 5174.00    1.88249   2.40078    0.008
 5175.00    1.77682   2.32440    0.008
 5176.00    2.25833   2.17189    0.008
 5177.00    2.69619   1.96227    0.008
 5178.00    3.08328   1.77882    0.007
 5179.00    3.41442   1.73565    0.007
 5180.00    3.68816   1.87446    0.007
 5181.00    3.73586   2.11285    0.007
 5182.00    3.57904   2.32605    0.007
 5183.00    3.49531   2.45387    0.007
 5184.00    3.46986   2.50398    0.007
 5185.00    3.19758   2.48717    0.007
 5186.00    2.75213   2.40876    0.007
 5187.00    2.70606   2.31270    0.007
 5188.00    2.90578   2.26476    0.007
 5189.00    2.94133   2.28363    0.007
 5190.00    2.88865   2.33721    0.000
 5191.00    2.77048   2.39933    0.000
 5192.00    2.62174   2.46717    0.000
 5193.00    2.70206   2.53652    0.000
 5194.00    2.87452   2.59235    0.000
 5195.00    2.97640   2.61946    0.000
 5196.00    3.05407   2.61060    0.000
 5197.00    2.98252   2.56490    0.000
 5198.00    2.86787   2.48073    0.000
 5199.00    2.71235   2.36213    0.000
 5200.00    2.54708   2.23589    0.000
 5201.00    3.02016   2.13998    0.000
 5202.00    3.61614   2.09030    0.000
 5203.00    3.44793   2.08374    0.000
 5204.00    3.16547   2.12727    0.000
 5205.00    3.53588   2.23053    0.000
 5206.00    3.97778   2.37581    0.000
 5207.00    3.90247   2.51702    0.000
 5208.00    3.78980   2.60523    0.000
 5209.00    3.78477   2.61748    0.000
 5210.00    3.78375   2.57546    0.000
 5211.00    3.67420   2.53444    0.006
 5212.00    3.56236   2.54096    0.006
 5213.00    3.38583   2.59779    0.006
 5214.00    3.21314   2.67144    0.006
 5215.00    3.10279   2.72608    0.006
 5216.00    2.98651   2.74166    0.006
 5217.00    2.80999   2.70748    0.006
 5218.00    2.65483   2.61785    0.006
 5219.00    2.65511   2.48103    0.006
 5220.00    2.70666   2.32870    0.006
 5221.00    3.04384   2.21663    0.006
 5222.00    3.32976   2.20368    0.006
 5223.00    3.38768   2.30349    0.006
 5224.00    3.43633   2.45929    0.006
 5225.00    3.45114   2.58568    0.006
 5226.00    3.52342   2.63169    0.006
 5227.00    3.77159   2.60375    0.006
 5228.00    3.84232   2.55188    0.006
 5229.00    3.45137   2.53457    0.006
 5230.00    3.12575   2.57809    0.006
 5231.00    2.94626   2.66328    0.006
 5232.00    3.03690   2.74739    0.006
 5233.00    3.65114   2.79795    0.006
 5234.00    3.85608   2.81233    0.007
 5235.00    3.36918   2.80904    0.007
 5236.00    3.15130   2.80446    0.007
 5237.00    3.33183   2.80531    0.007
 5238.00    3.37545   2.81336    0.007
 5239.00    3.24083   2.81718    0.007
 5240.00    3.09428   2.78760    0.007
 5241.00    2.93405   2.71096    0.007
 5242.00    2.92352   2.61908    0.007
 5243.00    3.06442   2.55519    0.007
 5244.00    3.01879   2.52597    0.007
 5245.00    2.80673   2.51657    0.007
 5246.00    2.66234   2.52730    0.007
 5247.00    2.57115   2.55897    0.007
 5248.00    2.60964   2.58945    0.007
 5249.00    2.73778   2.60286    0.007
 5250.00    2.81406   2.62290    0.007
 5251.00    2.85890   2.68465    0.007
 5252.00    3.25327   2.78028    0.007
 5253.00    3.83261   2.85882    0.007
 5254.00    3.56428   2.87273    0.007
 5255.00    2.90670   2.80778    0.007
 5256.00    2.67217   2.67803    0.007
 5257.00    2.60489   2.51326    0.007
 5258.00    2.68306   2.34885    0.007
 5259.00    2.81022   2.21672    0.007
 5260.00    2.88521   2.14126    0.007
 5261.00    2.94542   2.12920    0.007
 5262.00    3.23946   2.14453    0.007
 5263.00    3.58808   2.12581    0.007
 5264.00    3.40956   2.07059    0.007
 5265.00    3.13220   2.06159    0.007
 5266.00    3.13142   2.16081    0.007
 5267.00    3.17071   2.32282    0.007
 5268.00    3.30558   2.45526    0.007
 5269.00    3.45050   2.52130    0.006
 5270.00    3.62383   2.55932    0.007
 5271.00    3.79909   2.62452    0.007
 5272.00    3.33009   2.72476    0.007
 5273.00    2.83948   2.81255    0.007
 5274.00    2.94423   2.83635    0.006
 5275.00    3.04144   2.78871    0.006
 5276.00    2.87624   2.70348    0.006
 5277.00    2.72944   2.62482    0.006
 5278.00    2.86296   2.59161    0.006
 5279.00    2.99900   2.63193    0.006
 5280.00    3.15967   2.73984    0.006
 5281.00    3.32637   2.86452    0.006
 5282.00    3.53552   2.94949    0.006
 5283.00    3.67219   2.98337    0.006
 5284.00    3.41580   2.99505    0.006
 5285.00    3.10622   3.00638    0.006
 5286.00    2.56544   3.01001    0.006
 5287.00    2.23087   2.99240    0.006
 5288.00    2.63413   2.95485    0.006
 5289.00    2.97948   2.90000    0.006
 5290.00    3.15095   2.81518    0.006
 5291.00    3.30210   2.69448    0.006
 5292.00    3.40136   2.57439    0.006
 5293.00    3.36018   2.51743    0.006
 5294.00    3.01010   2.54514    0.006
 5295.00    2.72643   2.61610    0.006
 5296.00    2.56947   2.68574    0.006
 5297.00    2.47004   2.75437    0.006
 5298.00    2.46639   2.83970    0.006
 5299.00    2.44929   2.93118    0.006
 5300.00    2.41255   2.99421    0.006
 5301.00    2.53918   3.01095    0.007
 5302.00    2.87549   3.00215    0.007
 5303.00    3.10808   3.00251    0.007
 5304.00    3.22340   3.02223    0.007
 5305.00    3.25931   3.04267    0.007
 5306.00    3.21605   3.04353    0.007
 5307.00    3.14352   3.02293    0.006
 5308.00    3.04525   2.99312    0.007
 5309.00    2.85601   2.96339    0.007
 5310.00    2.59629   2.93370    0.007
 5311.00    2.59048   2.90637    0.006
 5312.00    2.75769   2.89022    0.006
 5313.00    3.01514   2.88788    0.006
 5314.00    3.32647   2.89087    0.006
 5315.00    3.57653   2.88789    0.007
 5316.00    3.79467   2.86911    0.007
 5317.00    3.61815   2.82560    0.006
 5318.00    3.26335   2.76020    0.006
 5319.00    3.19868   2.69323    0.006
 5320.00    3.24674   2.62948    0.006
 5321.00    3.38805   2.53562    0.006
 5322.00    3.56020   2.39841    0.006
 5323.00    3.60361   2.28941    0.006
 5324.00    3.61132   2.30365    0.006
 5325.00    3.47824   2.44175    0.006
 5326.00    3.31303   2.61150    0.006
 5327.00    3.11938   2.73682    0.006
 5328.00    2.92053   2.81709    0.006
 5329.00    2.83703   2.88064    0.006
 5330.00    2.76972   2.92925    0.006
 5331.00    2.73673   2.94669    0.006
 5332.00    2.70722   2.92537    0.006
 5333.00    3.00441   2.86473    0.006
 5334.00    3.32256   2.77315    0.006
 5335.00    2.99308   2.69014    0.006
 5336.00    2.64532   2.66995    0.006
 5337.00    2.70981   2.72138    0.006
 5338.00    2.77233   2.79523    0.006
 5339.00    2.77863   2.83805    0.006
 5340.00    2.78892   2.83783    0.006
 5341.00    2.85658   2.81595    0.006
 5342.00    2.96843   2.78981    0.006
 5343.00    3.49387   2.76593    0.006
 5344.00    3.94245   2.76277    0.006
 5345.00    3.86683   2.80215    0.006
 5346.00    3.70092   2.87629    0.006
 5347.00    3.05834   2.95357    0.006
 5348.00    2.59523   3.01675    0.006
 5349.00    2.89423   3.07098    0.006
 5350.00    3.16576   3.11862    0.006
 5351.00    3.34103   3.15167    0.006
 5352.00    3.44556   3.16572    0.006
 5353.00    3.34160   3.16300    0.006
 5354.00    3.29971   3.14367    0.006
 5355.00    3.41384   3.10440    0.006
 5356.00    3.54142   3.04861    0.006
 5357.00    3.69816   2.99106    0.006
 5358.00    3.72257   2.94347    0.006
 5359.00    3.49841   2.90480    0.006
 5360.00    3.25254   2.87354    0.006
 5361.00    2.97105   2.85060    0.006
 5362.00    2.73170   2.82493    0.006
 5363.00    2.55295   2.77351    0.006
 5364.00    2.54516   2.68381    0.006
 5365.00    2.75365   2.58451    0.006
 5366.00    3.02485   2.54329    0.006
 5367.00    3.36597   2.60809    0.006
 5368.00    3.48477   2.75225   -2.000
 5369.00    3.38497   2.89810   -2.000
 5370.00    3.11801   2.98822   -2.000
 5371.00    2.70608   3.01736   -2.000
 5372.00    2.61781   3.01636   -2.000
 5373.00    2.77677   3.01393   -2.000
 5374.00    3.01706   3.01080   -2.000
 5375.00    3.31197   2.99475   -2.000
 5376.00    3.29111   2.96532   -2.000
 5377.00    3.08450   2.93508   -2.000
 5378.00    3.09626   2.92059   -2.000
 5379.00    3.22001   2.93143   -2.000
 5380.00    3.23708   2.95583   -2.000
 5381.00    3.20676   2.96859   -2.000
 5382.00    3.03347   2.95482   -2.000
 5383.00    2.80559   2.91475    0.006
 5384.00    2.71092   2.85904    0.006
 5385.00    2.65945   2.80567    0.006
 5386.00    2.99505   2.76948    0.006
 5387.00    3.43575   2.75173    0.006
 5388.00    3.47282   2.74128    0.006
 5389.00    3.41999   2.72205    0.006
 5390.00    3.04829   2.68131    0.006
 5391.00    2.61996   2.62618    0.006
 5392.00    2.55763   2.59683    0.006
 5393.00    2.54495   2.63059    0.006
 5394.00    2.80372   2.70739    0.006
 5395.00    3.08872   2.77644    0.006
 5396.00    3.19134   2.80997    0.006
 5397.00    3.28298   2.79511    0.006
 5398.00    3.43965   2.71844    0.006
 5399.00    3.59880   2.59725    0.006
 5400.00    3.88811   2.49432    0.006
 5401.00    4.14733   2.46791    0.006
 5402.00    3.63083   2.51455    0.006
 5403.00    3.15235   2.57674    0.006
 5404.00    3.18934   2.61564    0.006
 5405.00    3.23643   2.65251    0.006
 5406.00    3.37448   2.72193    0.006
 5407.00    3.48280   2.81202    0.006
 5408.00    3.39467   2.88344    0.006
 5409.00    3.34808   2.92326    0.006
 5410.00    3.51515   2.95227    0.006
 5411.00    3.61802   2.98783    0.006
 5412.00    3.45436   3.01723    0.006
 5413.00    3.29107   3.01728    0.006
 5414.00    3.12907   2.98727    0.006
 5415.00    2.96649   2.95007    0.006
 5416.00    2.80222   2.92702    0.006
 5417.00    2.69190   2.91393    0.006
 5418.00    2.71484   2.89534    0.006
 5419.00    2.86731   2.88390    0.006
 5420.00    3.29557   2.90785    0.006
 5421.00    3.46183   2.95254    0.006
 5422.00    3.14349   2.95941    0.006
 5423.00    2.83905   2.89235    0.006
 5424.00    2.55706   2.78874    0.006
 5425.00    2.55670   2.72557    0.006
 5426.00    2.95551   2.72306    0.006
 5427.00    3.12457   2.72837    0.006
 5428.00    3.00713   2.70406    0.006
 5429.00    2.86547   2.67100    0.006
 5430.00    2.69720   2.67167    0.006
 5431.00    2.71400   2.72853    0.006
 5432.00    2.91024   2.83282    0.006
 5433.00    3.16374   2.95414    0.006
 5434.00    3.46621   3.05706    0.006
 5435.00    3.46937   3.12086    0.006
 5436.00    3.24716   3.14519    0.006
 5437.00    3.19080   3.13606    0.006
 5438.00    3.24416   3.08840    0.006
 5439.00    3.26216   2.99134    0.005
 5440.00    3.25968   2.85647    0.005
 5441.00    3.24621   2.73581    0.005
 5442.00    3.22718   2.69509    0.006
 5443.00    3.19876   2.75399    0.006
 5444.00    3.16622   2.86079    0.006
 5445.00    3.18282   2.94450    0.006
 5446.00    3.21785   2.97047    0.006
 5447.00    3.16807   2.93982    0.006
 5448.00    3.09130   2.86570    0.006
 5449.00    2.95752   2.77256    0.006
 5450.00    2.80858   2.70689    0.006
 5451.00    2.68323   2.71816    0.006
 5452.00    2.56300   2.80607    0.006
 5453.00    2.77410   2.90981    0.006
 5454.00    3.04244   2.96551    0.006
 5455.00    3.06091   2.95446    0.006
 5456.00    3.04662   2.90007    0.006
 5457.00    3.08784   2.84081    0.006
 5458.00    3.13418   2.81177    0.006
 5459.00    3.19000   2.82852    0.006
 5460.00    3.24636   2.87307    0.006
 5461.00    3.15647   2.91340    0.006
 5462.00    3.06402   2.93539    0.006
 5463.00    3.04570   2.93907    0.006
 5464.00    3.04216   2.92427    0.006
 5465.00    3.38576   2.89728    0.006
 5466.00    3.68440   2.87034    0.006
 5467.00    3.40571   2.84490    0.006
 5468.00    3.16571   2.81112    0.006
 5469.00    3.26064   2.76383    0.006
 5470.00    3.32885   2.70649    0.006
 5471.00    3.22577   2.65745    0.006
 5472.00    3.13054   2.65286    0.006
 5473.00    3.07469   2.70355    0.006
 5474.00    3.03919   2.76200    0.006
 5475.00    3.08636   2.77670    0.006
 5476.00    3.10941   2.75962    0.006
 5477.00    3.05128   2.76538    0.006
 5478.00    3.09782   2.81993   -2.000
 5479.00    3.44165   2.89497   -2.000
 5480.00    3.68295   2.94221   -2.000
 5481.00    3.67538   2.93670   -2.000
 5482.00    3.72713   2.89730   -2.000
 5483.00    3.90312   2.86708   -2.000
 5484.00    3.59174   2.86963   -2.000
 5485.00    2.39282   2.89361   -2.000
 5486.00    1.58994   2.91695   -2.000
 5487.00    1.41746   2.92668   -2.000
 5488.00    1.68013   2.92254   -2.000
 5489.00    2.55070   2.91526   -2.000
 5490.00    3.21229   2.91144   -2.000
 5491.00    3.61696   2.90719   -2.000
 5492.00    3.55161   2.90632   -2.000
 5493.00    2.97689   2.92071   -2.000
 5494.00    2.78269   2.94103   -2.000
 5495.00    2.95222   2.93794   -2.000
 5496.00    3.25441   2.90469   -2.000
 5497.00    3.66841   2.86817   -2.000
 5498.00    3.75175   2.84887   -2.000
 5499.00    3.58968   2.83818   -2.000
 5500.00    3.51670   2.82289   -2.000
 5501.00    3.50179   2.81188   -2.000
 5502.00    3.43650   2.82537    0.006
 5503.00    3.34246   2.86015    0.006
 5504.00    3.20878   2.88242    0.006
 5505.00    3.05542   2.86486    0.006
 5506.00    2.97437   2.81343    0.006
 5507.00    2.92441   2.75725    0.006
 5508.00    2.78841   2.72760    0.006
 5509.00    2.62072   2.73891    0.006
 5510.00    2.78599   2.78356    0.006
 5511.00    3.05518   2.84702    0.006
 5512.00    3.12067   2.91804    0.006
 5513.00    3.13317   2.98373    0.005
 5514.00    3.24269   3.02771    0.006
 5515.00    3.37282   3.04213    0.006
 5516.00    3.36953   3.03696    0.006
 5517.00    3.34383   3.02715    0.006
 5518.00    3.38612   3.01562    0.005
 5519.00    3.43702   2.99344    0.005
 5520.00    3.38630   2.95040    0.005
 5521.00    3.32661   2.88740    0.006
 5522.00    3.20290   2.82488    0.005
 5523.00    3.07585   2.79571    0.005
 5524.00    2.65750   2.81992    0.005
 5525.00    2.24157   2.88032    0.005
 5526.00    2.41976   2.93391    0.005
 5527.00    2.61122   2.95358    0.005
 5528.00    3.08827   2.94523    0.005
 5529.00    3.52807   2.92828    0.005
 5530.00    3.51351   2.91753    0.005
 5531.00    3.49382   2.92029    0.005
 5532.00    3.43136   2.93711    0.005
 5533.00    3.37305   2.96452    0.005
 5534.00    3.34055   2.99962    0.005
 5535.00    3.31167   3.03315    0.006
 5536.00    3.30052   3.04727    0.013
 5537.00    3.27783   3.03434   -1.000
 5538.00    3.20936   3.00714   -1.000
 5539.00    3.15312   2.98634   -1.000
 5540.00    3.13724   2.98334   -1.000
 5541.00    3.10789   2.99869   -1.000
 5542.00    3.04100   3.03068   -1.000
 5543.00    3.03654   3.07278    0.037
 5544.00    3.18103   3.10838    0.008
 5545.00    3.23082   3.12202    0.005
 5546.00    3.08541   3.11065    0.005
 5547.00    2.99451   3.07981    0.005
 5548.00    3.00133   3.04140    0.006
 5549.00    3.11268   3.01220    0.006
 5550.00    3.38796   3.00223    0.006
 5551.00    3.49931   3.00588    0.006
 5552.00    3.38498   3.01114    0.006
 5553.00    3.27574   3.01285    0.006
 5554.00    3.17269   3.01099    0.006
 5555.00    3.10616   3.00130    0.005
 5556.00    3.07864   2.97967    0.005
 5557.00    3.14634   2.95178    0.005
 5558.00    3.30376   2.92731    0.005
 5559.00    3.38665   2.90979    0.005
 5560.00    3.40760   2.89551    0.005
 5561.00    3.26974   2.88217    0.005
 5562.00    3.01571   2.87471    0.005
 5563.00    2.85428   2.87732    0.005
 5564.00    2.75232   2.88703    0.005
 5565.00    2.72723   2.89752    0.005
 5566.00    2.74531   2.90313    0.005
 5567.00    2.92080   2.90320    0.005
 5568.00    3.17325   2.90841    0.005
 5569.00    3.45798   2.93103    0.006
 5570.00    3.75634   2.96309    0.006
 5571.00    3.79642   2.98647    0.006
 5572.00    3.74306   2.99948    0.006
 5573.00    3.37139   3.00911    0.006
 5574.00    2.90231   3.01531    0.006
 5575.00    2.74187   3.01570    0.006
 5576.00    2.66002   3.00886    0.005
 5577.00    2.90211   2.99254    0.005
 5578.00    3.21129   2.96325    0.005
 5579.00    3.26425   2.91177    0.005
 5580.00    3.27543   2.83084    0.005
 5581.00    3.34930   2.73382    0.005
 5582.00    3.43083   2.65328    0.005
 5583.00    3.43108   2.62010    0.005
 5584.00    3.42450   2.64139    0.005
 5585.00    3.39746   2.69616    0.005
 5586.00    3.36944   2.75310    0.005
 5587.00    3.25859   2.79301    0.005
 5588.00    3.14420   2.82143    0.005
 5589.00    2.89367   2.85766    0.005
 5590.00    2.65557   2.90484    0.005
 5591.00    2.66456   2.93970    0.005
 5592.00    2.67340   2.93500    0.006
 5593.00    2.68052   2.89040    0.006
 5594.00    2.69125   2.83258    0.006
 5595.00    2.73100   2.78536    0.006
 5596.00    2.80246   2.75887    0.006
 5597.00    3.06545   2.76636    0.006
 5598.00    3.30508   2.82143    0.006
 5599.00    3.43334   2.91577    0.006
 5600.00    3.44412   3.01703    0.006
 5601.00    2.99858   3.09124    0.006
 5602.00    2.66364   3.12680    0.006
 5603.00    2.68655   3.13489    0.006
 5604.00    2.74457   3.13399    0.006
 5605.00    2.89875   3.13531    0.005
 5606.00    3.07186   3.13239    0.005
 5607.00    3.28939   3.10083    0.005
 5608.00    3.38195   3.01894    0.005
 5609.00    3.22096   2.90128    0.005
 5610.00    3.12645   2.80231    0.005
 5611.00    3.14933   2.77191    0.005
 5612.00    3.11083   2.80840    0.005
 5613.00    2.97748   2.86612    0.005
 5614.00    2.94795   2.91029    0.005
 5615.00    3.05933   2.94002    0.005
 5616.00    3.11604   2.95644    0.005
 5617.00    3.10745   2.94364    0.005
 5618.00    3.08345   2.89503    0.005
 5619.00    3.04320   2.83798    0.005
 5620.00    2.92604   2.81479    0.005
 5621.00    2.73742   2.84347    0.005
 5622.00    2.67678   2.90672    0.005
 5623.00    2.72098   2.97632    0.005
 5624.00    2.74131   3.03590    0.005
 5625.00    2.74441   3.07720    0.005
 5626.00    2.77769   3.09310    0.005
 5627.00    2.83007   3.08286    0.005
 5628.00    2.99780   3.05334    0.005
 5629.00    3.22936   3.01288    0.005
 5630.00    3.20502   2.96927    0.005
 5631.00    3.05755   2.93262    0.005
 5632.00    2.98380   2.91276    0.005
 5633.00    2.94068   2.91031    0.005
 5634.00    2.95528   2.91368    0.005
 5635.00    2.99038   2.91104    0.005
 5636.00    2.92473   2.90425    0.005
 5637.00    2.82886   2.90512    0.005
 5638.00    2.84600   2.92025    0.005
 5639.00    2.89130   2.94410    0.005
 5640.00    2.77069   2.96787    0.005
 5641.00    2.61656   2.98613    0.005
 5642.00    1.94619   2.99473    0.006
 5643.00    1.19409   2.99467    0.007
 5644.00    1.66658   2.99529    0.007
 5645.00    2.28326   3.00665    0.007
 5646.00    2.69427   3.02638    0.007
 5647.00    3.08886   3.03707    0.007
 5648.00    3.21527   3.02486    0.006
 5649.00    3.32974   2.99435    0.005
 5650.00    3.35409   2.95463    0.005
 5651.00    3.37795   2.90357    0.005
 5652.00    3.42741   2.84280    0.005
 5653.00    3.46579   2.79451    0.005
 5654.00    3.30006   2.78386    0.005
 5655.00    3.13595   2.80843    0.005
 5656.00    2.98965   2.84138    0.005
 5657.00    2.85925   2.86926    0.005
 5658.00    2.85216   2.90302    0.005
 5659.00    2.86560   2.94619    0.005
 5660.00    2.99955   2.97931    0.005
 5661.00    3.07249   2.98556    0.005
 5662.00    2.86156   2.97234    0.005
 5663.00    2.73325   2.96052    0.005
 5664.00    2.91906   2.96523    0.005
 5665.00    3.08064   2.99003    0.005
 5666.00    3.16538   3.03129    0.005
 5667.00    3.26543   3.07871    0.005
 5668.00    3.40666   3.11710    0.005
 5669.00    3.45642   3.13730    0.005
 5670.00    3.29513   3.14288    0.005
 5671.00    3.18037   3.14138    0.005
 5672.00    3.15850   3.13415    0.005
 5673.00    3.08657   3.11830    0.005
 5674.00    2.92757   3.09262    0.005
 5675.00    2.94393   3.05798    0.005
 5676.00    3.22729   3.01871    0.005
 5677.00    3.48629   2.98613    0.005
 5678.00    3.71271   2.97185    0.005
 5679.00    3.73902   2.97315    0.005
 5680.00    3.52964   2.97235    0.005
 5681.00    3.36408   2.95878    0.005
 5682.00    3.24405   2.94432    0.005
 5683.00    3.16711   2.95071    0.005
 5684.00    3.12967   2.98558    0.005
 5685.00    3.07023   3.03763    0.005
 5686.00    2.99302   3.08748    0.005
 5687.00    2.87173   3.11988    0.005
 5688.00    2.71912   3.13112    0.005
 5689.00    2.64015   3.12689    0.005
 5690.00    2.60709   3.11283    0.005
 5691.00    2.70046   3.08801    0.005
 5692.00    2.86271   3.05085    0.005
 5693.00    3.00677   3.00571    0.005
 5694.00    3.14224   2.96052    0.005
 5695.00    3.26441   2.92401    0.005
 5696.00    3.38115   2.90463    0.005
 5697.00    3.44026   2.90720    0.005
 5698.00    3.47927   2.92407    0.005
 5699.00    3.34219   2.93271    0.005
 5700.00    3.15334   2.91333    0.005
 5701.00    2.99285   2.86542    0.005
 5702.00    2.83927   2.80639    0.005
 5703.00    2.92724   2.75975    0.005
 5704.00    3.06276   2.73953    0.005
 5705.00    3.24726   2.74824    0.005
 5706.00    3.43928   2.78639    0.005
 5707.00    3.36177   2.85022    0.005
 5708.00    3.25373   2.92712    0.005
 5709.00    3.16655   2.99972    0.005
 5710.00    3.08096   3.05298    0.005
 5711.00    3.05319   3.08454    0.005
 5712.00    3.02776   3.10467    0.005
 5713.00    3.24350   3.12374    0.005
 5714.00    3.45163   3.14617    0.005
 5715.00    3.26827   3.17242    0.005
 5716.00    3.09860   3.19890    0.005
 5717.00    3.16436   3.21881    0.005
 5718.00    3.22525   3.22448    0.005
 5719.00    3.23457   3.20921    0.005
 5720.00    3.22704   3.17368    0.005
 5721.00    3.09326   3.13342    0.005
 5722.00    2.99610   3.11033    0.005
 5723.00    3.10801   3.10986    0.005
 5724.00    3.20662   3.11498    0.005
 5725.00    3.24487   3.11013    0.005
 5726.00    3.23590   3.10313    0.005
 5727.00    3.05117   3.11283    0.005
 5728.00    2.94017   3.14193    0.005
 5729.00    3.05862   3.17252    0.005
 5730.00    3.18274   3.18606    0.005
 5731.00    3.32188   3.18071    0.005
 5732.00    3.37294   3.16771    0.005
 5733.00    3.22415   3.15724    0.005
 5734.00    3.16371   3.15178    0.005
 5735.00    3.27687   3.14767    0.005
 5736.00    3.38945   3.14222    0.005
 5737.00    3.50102   3.14082    0.005
 5738.00    3.52836   3.15211    0.005
 5739.00    3.42931   3.17322    0.005
 5740.00    3.28973   3.18567    0.000
 5741.00    3.09672   3.17318    0.000
 5742.00    3.01234   3.14410    0.000
 5743.00    3.05410   3.12546    0.000
 5744.00    3.13068   3.12841    0.000
 5745.00    3.24292   3.13269    0.000
 5746.00    3.30844   3.11024    0.000
 5747.00    3.33178   3.06018    0.000
 5748.00    3.45318   3.01670    0.000
 5749.00    3.65265   3.01787    0.000
 5750.00    3.62918   3.06830    0.000
 5751.00    3.44959   3.13667    0.000
 5752.00    3.30441   3.18280    0.000
 5753.00    3.18036   3.18290    0.000
 5754.00    3.05353   3.13950    0.000
 5755.00    2.92522   3.07474    0.000
 5756.00    2.99079   3.02033    0.000
 5757.00    3.14667   3.00738    0.000
 5758.00    3.35186   3.04761    0.000
 5759.00    3.57685   3.12075    0.000
 5760.00    3.60999   3.19226    0.000
 5761.00    3.57744   3.23854    0.000
 5762.00    3.52287   3.25524    0.000
 5763.00    3.46195   3.25100    0.000
 5764.00    3.48181   3.23561    0.000
 5765.00    3.52091   3.21426    0.000
 5766.00    3.53908   3.19095    0.000
 5767.00    3.55325   3.17067    0.000
 5768.00    3.52195   3.15694    0.000
 5769.00    3.48387   3.15370    0.000
 5770.00    3.48216   3.16205    0.000
 5771.00    3.48440   3.17274    0.000
 5772.00    3.51834   3.16881    0.000
 5773.00    3.55455   3.13271    0.000
 5774.00    3.39579   3.05905    0.000
 5775.00    3.22985   2.96727    0.000
 5776.00    3.29024   2.89232    0.000
 5777.00    3.35237   2.85328    0.000
 5778.00    3.44289   2.84259    0.000
 5779.00    3.52365   2.84925    0.000
 5780.00    3.44747   2.87768    0.000
 5781.00    3.39703   2.93244    0.000
 5782.00    3.60702   3.00012    0.000
 5783.00    3.76174   3.05568    0.000
 5784.00    3.51582   3.08076    0.000
 5785.00    3.29390   3.08377    0.000
 5786.00    3.20518   3.09162    0.000
 5787.00    3.13872   3.11895    0.000
 5788.00    3.17091   3.15922    0.000
 5789.00    3.17513   3.19210    0.000
 5790.00    3.07740   3.19740    0.000
 5791.00    2.96154   3.17542   -2.000
 5792.00    2.79032   3.15362   -2.000
 5793.00    2.67378   3.16313   -2.000
 5794.00    2.69917   3.20668   -2.000
 5795.00    2.80511   3.25793   -2.000
 5796.00    3.09079   3.28640   -2.000
 5797.00    3.29757   3.27525   -2.000
 5798.00    3.35171   3.23239   -2.000
 5799.00    3.36423   3.18470   -2.000
 5800.00    3.30651   3.15576   -2.000
 5801.00    3.33834   3.15216   -2.000
 5802.00    3.50254   3.16631   -2.000
 5803.00    3.67642   3.18707   -2.000
 5804.00    3.86285   3.20855   -2.000
 5805.00    3.96346   3.22728   -2.000
 5806.00    3.96581   3.23749   -2.000
 5807.00    3.83444   3.23335   -2.000
 5808.00    3.56807   3.21119   -2.000
 5809.00    3.33707   3.17569   -2.000
 5810.00    3.13758   3.14559   -2.000
 5811.00    3.01472   3.14452    0.000
 5812.00    2.95201   3.17906    0.000
 5813.00    3.09426   3.23111    0.000
 5814.00    3.37797   3.27574    0.000
 5815.00    3.51035   3.29811    0.000
 5816.00    3.55116   3.29824    0.000
 5817.00    3.43596   3.28727    0.000
 5818.00    3.23835   3.27769    0.000
 5819.00    3.28160   3.27560    0.000
 5820.00    3.43522   3.27831    0.000
 5821.00    3.35994   3.28152    0.000
 5822.00    3.19436   3.28529    0.000
 5823.00    3.20125   3.29101    0.000
 5824.00    3.26611   3.29571    0.000
 5825.00    3.22794   3.29451    0.000
 5826.00    3.16068   3.28602    0.000
 5827.00    3.22564   3.27088    0.000
 5828.00    3.32137   3.25185    0.000
 5829.00    3.18305   3.23682    0.000
 5830.00    3.00100   3.23228    0.000
 5831.00    3.03750   3.23372    0.000
 5832.00    3.10553   3.23484    0.000
 5833.00    3.16323   3.24114    0.000
 5834.00    3.21984   3.25987    0.000
 5835.00    3.14110   3.28806    0.000
 5836.00    3.05320   3.31420    0.000
 5837.00    3.16583   3.32641    0.000
 5838.00    3.28509   3.31895    0.000
 5839.00    3.30657   3.29363    0.000
 5840.00    3.32707   3.25741    0.000
 5841.00    3.31890   3.22098    0.000
 5842.00    3.32132   3.19637    0.000
 5843.00    3.48362   3.18770    0.000
 5844.00    3.60812   3.18563    0.000
 5845.00    3.36580   3.17492    0.000
 5846.00    3.14392   3.14713    0.000
 5847.00    3.06544   3.11062    0.000
 5848.00    3.00595   3.08215    0.000
 5849.00    3.04903   3.06443    0.000
 5850.00    3.07281   3.04209    0.000
 5851.00    3.01295   3.00850    0.000
 5852.00    2.96095   2.98213    0.000
 5853.00    2.93704   2.98712    0.000
 5854.00    2.94382   3.02412    0.000
 5855.00    3.04259   3.07144    0.000
 5856.00    3.18906   3.10569    0.000
 5857.00    3.45721   3.12310    0.000
 5858.00    3.57038   3.13208    0.000
 5859.00    3.34332   3.13450    0.000
 5860.00    3.14129   3.12905    0.000
 5861.00    2.98695   3.12559    0.000
 5862.00    2.88770   3.13931    0.000
 5863.00    2.87998   3.17089    0.000
 5864.00    2.92270   3.20538    0.000
 5865.00    3.03886   3.22596    0.000
 5866.00    3.17467   3.22751    0.000
 5867.00    3.33566   3.21884    0.000
 5868.00    3.37630   3.21302    0.000
 5869.00    3.28110   3.21232    0.000
 5870.00    3.10268   3.20783    0.000
 5871.00    2.84142   3.19231    0.000
 5872.00    2.78126   3.16499    0.000
 5873.00    2.89766   3.13081    0.000
 5874.00    3.03553   3.09946    0.000
 5875.00    3.19002   3.08260    0.000
 5876.00    3.28528   3.08154    0.000
 5877.00    3.34027   3.08442    0.000
 5878.00    3.38312   3.08138    0.000
 5879.00    3.41874   3.06822    0.000
 5880.00    3.43720   3.02950    0.000
 5881.00    3.44675   2.93279    0.000
 5882.00    3.47957   2.75320    0.000
 5883.00    3.52289   2.51562    0.000
 5884.00    3.45067   2.31222    0.000
 5885.00    3.33368   2.24139    0.000
 5886.00    3.22352   2.30861    0.000
 5887.00    3.11561   2.42300    0.000
 5888.00    3.10232   2.48557    0.000
 5889.00    3.11520   2.46282    0.000
 5890.00    2.98388   2.41402    0.000
 5891.00    2.81977   2.43336    0.000
 5892.00    2.75561   2.54750    0.000
 5893.00    2.70964   2.70720    0.000
 5894.00    2.72180   2.85612    0.000
 5895.00    2.74209   2.96671    0.000
 5896.00    2.86675   3.03665    0.000
 5897.00    3.00189   3.07551    0.000
 5898.00    3.16529   3.09321    0.000
 5899.00    3.33050   3.09796    0.000
 5900.00    3.30638   3.09999    0.000
 5901.00    3.27673   3.10878   -1.000
 5902.00    3.25457   3.12530   -1.000
 5903.00    3.23004   3.14318   -1.000
 5904.00    3.13901   3.15708   -1.000
 5905.00    3.04582   3.16340   -1.000
 5906.00    2.92185   3.15533   -1.000
 5907.00    2.80111   3.12615   -1.000
 5908.00    2.71042   3.08187   -1.000
 5909.00    2.63051   3.04365   -1.000
 5910.00    2.62380   3.03043   -1.000
 5911.00    2.64291   3.04635   -1.000
 5912.00    2.79788   3.08105   -1.000
 5913.00    2.91796   3.11754    0.049
 5914.00    2.89031   3.14414    0.008
 5915.00    2.88473   3.15613    0.005
 5916.00    2.95634   3.15654    0.005
 5917.00    2.99391   3.15620    0.005
 5918.00    2.93144   3.16346    0.005
 5919.00    2.88421   3.17647    0.005
 5920.00    2.87521   3.18667    0.005
 5921.00    2.88361   3.18351    0.005
 5922.00    2.92957   3.16280    0.005
 5923.00    2.95305   3.13374    0.005
 5924.00    2.93437   3.11402    0.005
 5925.00    2.96834   3.11684    0.005
 5926.00    3.08850   3.13503    0.005
 5927.00    3.19897   3.14666    0.005
 5928.00    3.29551   3.14100    0.005
 5929.00    3.40067   3.13041    0.005
 5930.00    3.51673   3.13464    0.005
 5931.00    3.60630   3.15616    0.005
 5932.00    3.66641   3.18018    0.005
 5933.00    3.63822   3.19126    0.005
 5934.00    3.52338   3.18145    0.005
 5935.00    3.47650   3.15608    0.005
 5936.00    3.48846   3.13432    0.005
 5937.00    3.48475   3.13336    0.005
 5938.00    3.46909   3.15384    0.005
 5939.00    3.34947   3.18227    0.005
 5940.00    3.16019   3.19992    0.005
 5941.00    3.12140   3.19410    0.005
 5942.00    3.17095   3.16782    0.005
 5943.00    3.14731   3.13886    0.005
 5944.00    3.08620   3.12473    0.005
 5945.00    2.81942   3.12456    0.005
 5946.00    2.46143   3.12399    0.005
 5947.00    2.30083   3.11827    0.005
 5948.00    2.21540   3.11643    0.005
 5949.00    2.39681   3.12069    0.005
 5950.00    2.66455   3.12115    0.005
 5951.00    2.56471   3.11571    0.005
 5952.00    2.36533   3.11714    0.005
 5953.00    2.40306   3.13706    0.005
 5954.00    2.49346   3.17312    0.005
 5955.00    2.72530   3.21140    0.005
 5956.00    2.98218   3.23753    0.005
 5957.00    3.19724   3.24484    0.005
 5958.00    3.40664   3.23615    0.005
 5959.00    3.39792   3.22078    0.005
 5960.00    3.36824   3.20992    0.005
 5961.00    3.15223   3.21317    0.005
 5962.00    2.92511   3.23079    0.005
 5963.00    2.89666   3.25393    0.005
 5964.00    2.87351   3.27468    0.005
 5965.00    2.88249   3.28881    0.005
 5966.00    2.89200   3.29275    0.005
 5967.00    2.91508   3.28294    0.005
 5968.00    2.94629   3.25664    0.005
 5969.00    3.08712   3.21542    0.004
 5970.00    3.21717   3.16940    0.004
 5971.00    3.25077   3.13533    0.005
 5972.00    3.27013   3.12655    0.005
 5973.00    3.19572   3.14333    0.005
 5974.00    3.13165   3.17234    0.005
 5975.00    3.12063   3.19120    0.005
 5976.00    3.12135   3.18128    0.005
 5977.00    3.17070   3.14353    0.005
 5978.00    3.23808   3.09923    0.005
 5979.00    3.36725   3.07624    0.005
 5980.00    3.44272   3.08755    0.005
 5981.00    3.36322   3.12098    0.005
 5982.00    3.28627   3.15670    0.005
 5983.00    3.21557   3.18371    0.005
 5984.00    3.14907   3.19903    0.005
 5985.00    3.09148   3.20563    0.005
 5986.00    3.04356   3.21215    0.005
 5987.00    3.01348   3.22702    0.005
 5988.00    3.02301   3.24492    0.005
 5989.00    3.09641   3.24863    0.005
 5990.00    3.18079   3.22879    0.005
 5991.00    3.28068   3.19366    0.005
 5992.00    3.34399   3.16324    0.005
 5993.00    3.36176   3.15338    0.005
 5994.00    3.27917   3.16097    0.005
 5995.00    3.08646   3.17048    0.005
 5996.00    2.99377   3.17050    0.005
 5997.00    2.99790   3.16249    0.005
 5998.00    3.06916   3.15567    0.005
 5999.00    3.19771   3.14936    0.004
 6000.00    3.20188   3.13155    0.004
 6001.00    3.11256   3.10246    0.005
 6002.00    3.01265   3.08143    0.005
 6003.00    2.90574   3.08869    0.005
 6004.00    2.78748   3.12326    0.005
 6005.00    2.66265   3.15680    0.005
 6006.00    2.70740   3.16362    0.005
 6007.00    2.83757   3.14680    0.005
 6008.00    2.98764   3.12676    0.005
 6009.00    3.14638   3.11722    0.005
 6010.00    2.98857   3.11482    0.005
 6011.00    2.71231   3.11125    0.005
 6012.00    2.72108   3.10586    0.005
 6013.00    2.82031   3.09861    0.005
 6014.00    3.01494   3.08897    0.005
 6015.00    3.23486   3.08355    0.005
 6016.00    3.31406   3.09056    0.005
 6017.00    3.36274   3.11003    0.005
 6018.00    3.35145   3.13642    0.005
 6019.00    3.32983   3.16381    0.005
 6020.00    3.27421   3.18982    0.005
 6021.00    3.21414   3.21225    0.005
 6022.00    3.14205   3.23235    0.005
 6023.00    3.06885   3.25292    0.005
 6024.00    2.99796   3.27075    0.005
 6025.00    2.92720   3.28387    0.004
 6026.00    2.88023   3.29468    0.004
 6027.00    2.83490   3.30584    0.004
 6028.00    2.90127   3.31493    0.004
 6029.00    2.96863   3.31982    0.004
 6030.00    3.05912   3.32125    0.004
 6031.00    3.14880   3.31987    0.004
 6032.00    3.22816   3.31418    0.004
 6033.00    3.29759   3.30270    0.004
 6034.00    3.28150   3.28827    0.004
 6035.00    3.25870   3.27868    0.005
 6036.00    3.19313   3.28084    0.005
 6037.00    3.15101   3.29502    0.005
 6038.00    3.22605   3.31700    0.005
 6039.00    3.28968   3.33811    0.005
 6040.00    3.30711   3.35165    0.005
 6041.00    3.32553   3.35724    0.005
 6042.00    3.34733   3.35777    0.005
 6043.00    3.34561   3.35631    0.005
 6044.00    3.27728   3.35428    0.005
 6045.00    3.19652   3.34896    0.005
 6046.00    3.08564   3.33475    0.005
 6047.00    3.01230   3.31056    0.005
 6048.00    3.01746   3.28168    0.005
 6049.00    3.03603   3.25554    0.005
 6050.00    3.07897   3.23846    0.005
 6051.00    3.07659   3.23464    0.005
 6052.00    3.00221   3.24725    0.005
 6053.00    2.95573   3.27042    0.005
 6054.00    2.94815   3.29148    0.005
 6055.00    2.90262   3.29634    0.004
 6056.00    2.81052   3.27841    0.004
 6057.00    2.77638   3.24066    0.004
 6058.00    2.80493   3.19721    0.005
 6059.00    2.94895   3.17039    0.005
 6060.00    3.20313   3.17847    0.005
 6061.00    3.30519   3.22569    0.005
 6062.00    3.27925   3.29152    0.005
 6063.00    3.16775   3.34666    0.005
 6064.00    2.99284   3.37950    0.005
 6065.00    2.95715   3.39497    0.005
 6066.00    3.01204   3.40157    0.005
 6067.00    2.98458   3.40337    0.005
 6068.00    2.91023   3.39924    0.005
 6069.00    2.92135   3.38561    0.005
 6070.00    2.97485   3.35914    0.005
 6071.00    3.01409   3.32059    0.005
 6072.00    3.04721   3.27797    0.005
 6073.00    3.07179   3.24163    0.005
 6074.00    3.09324   3.21716    0.005
 6075.00    3.25110   3.20231    0.005
 6076.00    3.45143   3.19126    0.005
 6077.00    3.45902   3.18586    0.005
 6078.00    3.41660   3.19067    0.005
 6079.00    3.20591   3.20110    0.005
 6080.00    2.95960   3.21196    0.005
 6081.00    2.88494   3.22179    0.005
 6082.00    2.83898   3.22539    0.004
 6083.00    2.64556   3.21567    0.004
 6084.00    2.43354   3.19450    0.004
 6085.00    2.52347   3.17482    0.004
 6086.00    2.63987   3.17114    0.004
 6087.00    2.96439   3.18668    0.004
 6088.00    3.29968   3.21452    0.004
 6089.00    3.26371   3.24469    0.004
 6090.00    3.22028   3.26660    0.004
 6091.00    3.12482   3.27553    0.004
 6092.00    3.02976   3.27795    0.004
 6093.00    2.94318   3.27570    0.004
 6094.00    2.87581   3.25384    0.004
 6095.00    3.04115   3.19796    0.004
 6096.00    3.20177   3.12265    0.004
 6097.00    3.32324   3.06997    0.005
 6098.00    3.43134   3.07578    0.005
 6099.00    3.45652   3.13332    0.005
 6100.00    3.46382   3.19768    0.005
 6101.00    3.38397   3.23814    0.005
 6102.00    3.30561   3.25673    0.005
 6103.00    3.23317   3.26626    0.005
 6104.00    3.16899   3.27320    0.005
 6105.00    3.13199   3.27753    0.005
 6106.00    3.10258   3.28266    0.005
 6107.00    3.09429   3.29507    0.005
 6108.00    3.09603   3.30939    0.005
 6109.00    3.12170   3.31212    0.005
 6110.00    3.15725   3.30001    0.004
 6111.00    3.21318   3.27965    0.005
 6112.00    3.21037   3.25460    0.005
 6113.00    3.10245   3.21755    0.004
 6114.00    3.03828   3.16125    0.004
 6115.00    3.04261   3.09955    0.004
 6116.00    3.08865   3.06412    0.004
 6117.00    3.19203   3.07448    0.004
 6118.00    3.27476   3.12293    0.004
 6119.00    3.33249   3.17590    0.004
 6120.00    3.28402   3.20219    0.004
 6121.00    3.12225   3.20247    0.004
 6122.00    2.99478   3.19766    0.004
 6123.00    2.89957   3.20638    0.004
 6124.00    2.91972   3.23311    0.004
 6125.00    3.03556   3.26637    0.005
 6126.00    3.15267   3.28626    0.005
 6127.00    3.27073   3.27294    0.005
 6128.00    3.30881   3.21387    0.005
 6129.00    3.29562   3.11053    0.005
 6130.00    3.26255   2.99292    0.005
 6131.00    3.21834   2.91627    0.005
 6132.00    3.19573   2.92125    0.005
 6133.00    3.18368   2.99864    0.005
 6134.00    3.19116   3.09330    0.005
 6135.00    3.20688   3.15741    0.005
 6136.00    3.18559   3.19135    0.005
 6137.00    3.15094   3.22177    0.005
 6138.00    3.10014   3.26107    0.005
 6139.00    3.04443   3.29500    0.005
 6140.00    3.07296   3.30565    0.005
 6141.00    3.12289   3.29022    0.005
 6142.00    3.10924   3.25823    0.004
 6143.00    3.08245   3.22459    0.004
 6144.00    2.95727   3.20401    0.004
 6145.00    2.81611   3.20347    0.004
 6146.00    2.79517   3.21597    0.004
 6147.00    2.78886   3.22528    0.004
 6148.00    2.85973   3.22137    0.004
 6149.00    2.93705   3.20759    0.004
 6150.00    3.00336   3.19403    0.004
 6151.00    3.06915   3.18327    0.004
 6152.00    3.16360   3.16252    0.004
 6153.00    3.25774   3.11042    0.004
 6154.00    3.30919   3.01591    0.004
 6155.00    3.35707   2.89661    0.005
 6156.00    3.33482   2.79767    0.005
 6157.00    3.30858   2.76466    0.005
 6158.00    3.23641   2.80609    0.005
 6159.00    3.16256   2.88838    0.005
 6160.00    3.07526   2.96594    0.005
 6161.00    2.99351   3.00485    0.005
 6162.00    2.94509   2.99652    0.005
 6163.00    2.92673   2.96304    0.005
 6164.00    3.05120   2.94326    0.005
 6165.00    3.14466   2.96380    0.005
 6166.00    3.11798   3.01695    0.005
 6167.00    3.10443   3.07205    0.005
 6168.00    3.13326   3.10690    0.005
 6169.00    3.15075   3.12191    0.004
 6170.00    3.13727   3.12841    0.004
 6171.00    3.13037   3.13687    0.004
 6172.00    3.13892   3.15062    0.004
 6173.00    3.19415   3.16746    0.004
 6174.00    3.34388   3.18453    0.004
 6175.00    3.41646   3.20047    0.004
 6176.00    3.35305   3.21500    0.004
 6177.00    3.27831   3.22348    0.004
 6178.00    3.18608   3.21846    0.004
 6179.00    3.18315   3.19508    0.004
 6180.00    3.30118   3.15759    0.004
 6181.00    3.32988   3.11443    0.004
 6182.00    3.25203   3.07294    0.004
 6183.00    3.12316   3.03242    0.004
 6184.00    2.94065   2.98921    0.004
 6185.00    2.86823   2.95751    0.005
 6186.00    2.89794   2.96077    0.005
 6187.00    3.01212   3.00677    0.005
 6188.00    3.19536   3.07931    0.005
 6189.00    3.31711   3.14721    0.005
 6190.00    3.39460   3.18941    0.005
 6191.00    3.27752   3.19845    0.005
 6192.00    3.03753   3.17572    0.005
 6193.00    2.78444   3.13756    0.005
 6194.00    2.52413   3.11143    0.004
 6195.00    2.36444   3.11683    0.005
 6196.00    2.25308   3.15047   -2.000
 6197.00    2.46626   3.19016   -2.000
 6198.00    2.81398   3.21804   -2.000
 6199.00    3.49187   3.23209   -2.000
 6200.00    4.28679   3.23830   -2.000
 6201.00    4.28856   3.24090   -2.000
 6202.00    4.05296   3.23793   -2.000
 6203.00    3.74387   3.22509   -2.000
 6204.00    3.41651   3.19982   -2.000
 6205.00    3.17246   3.15969   -2.000
 6206.00    2.94518   3.10238   -2.000
 6207.00    3.05249   3.03451   -2.000
 6208.00    3.21258   2.97261    0.005
 6209.00    3.28108   2.93660    0.005
 6210.00    3.33883   2.93654    0.005
 6211.00    3.32479   2.95924    0.005
 6212.00    3.30504   2.98007    0.005
 6213.00    3.18975   2.98546    0.005
 6214.00    3.07024   2.98229    0.005
 6215.00    2.91412   2.98721    0.004
 6216.00    2.76139   3.00673    0.004
 6217.00    2.78905   3.03185    0.004
 6218.00    2.81454   3.05333    0.004
 6219.00    2.80034   3.06819    0.004
 6220.00    2.78349   3.07566    0.004
 6221.00    2.73733   3.07020    0.004
 6222.00    2.71013   3.04021    0.004
 6223.00    2.82930   2.98335    0.004
 6224.00    2.96123   2.91904    0.004
 6225.00    3.16784   2.88024    0.004
 6226.00    3.33095   2.89038    0.004
 6227.00    3.29234   2.94910    0.004
 6228.00    3.22261   3.02971    0.004
 6229.00    3.03496   3.09851    0.004
 6230.00    2.86763   3.13216    0.004
 6231.00    2.76461   3.12490    0.004
 6232.00    2.69973   3.08743    0.004
 6233.00    2.73721   3.03863    0.004
 6234.00    2.81331   2.99587    0.004
 6235.00    2.97837   2.96471    0.004
 6236.00    3.11271   2.94070    0.004
 6237.00    3.18586   2.92287    0.004
 6238.00    3.18825   2.91564    0.004
 6239.00    3.06781   2.92636    0.004
 6240.00    2.94592   2.95930    0.004
 6241.00    2.82183   3.00774    0.004
 6242.00    2.73784   3.05629    0.004
 6243.00    2.70737   3.08567    0.004
 6244.00    2.69300   3.07999    0.004
 6245.00    2.69756   3.03887    0.004
 6246.00    2.71403   2.98046    0.004
 6247.00    2.74286   2.92811    0.004
 6248.00    2.78476   2.89453    0.004
 6249.00    2.83861   2.87404    0.004
 6250.00    2.89613   2.85375    0.004
 6251.00    2.95661   2.83186    0.004
 6252.00    3.03705   2.82356    0.004
 6253.00    3.13164   2.84662    0.004
 6254.00    3.13341   2.90159    0.004
 6255.00    3.07740   2.97340    0.004
 6256.00    2.96662   3.04029    0.004
 6257.00    2.82605   3.08400    0.004
 6258.00    2.74634   3.09821    0.004
 6259.00    2.69538   3.09245    0.005
 6260.00    2.71175   3.08441    0.005
 6261.00    2.75557   3.08413    0.005
 6262.00    2.98281   3.08856    0.006
 6263.00    3.27387   3.09150    0.006
 6264.00    3.35567   3.09450    0.006
 6265.00    3.37609   3.10307    0.006
 6266.00    3.30942   3.11777    0.005
 6267.00    3.22159   3.13239    0.005
 6268.00    3.26735   3.14207    0.005
 6269.00    3.33934   3.14640    0.005
 6270.00    3.16287   3.14643    0.005
 6271.00    2.94838   3.14112    0.004
 6272.00    2.88542   3.12695    0.004
 6273.00    2.83955   3.10377    0.004
 6274.00    2.88909   3.08048    0.004
 6275.00    2.94582   3.07096    0.004
 6276.00    2.94444   3.08291    0.004
 6277.00    2.94073   3.11238    0.004
 6278.00    2.90456   3.14614    0.004
 6279.00    2.87135   3.17570    0.004
 6280.00    2.96753   3.20134    0.000
 6281.00    3.06810   3.22479    0.000
 6282.00    3.24352   3.24210    0.000
 6283.00    3.40435   3.24397    0.000
 6284.00    3.41168   3.22653    0.000
 6285.00    3.40972   3.19783    0.000
 6286.00    3.33846   3.17142    0.000
 6287.00    3.26698   3.15507    0.000
 6288.00    3.19427   3.14406    0.000
 6289.00    3.10821   3.12676    0.000
 6290.00    2.96170   3.10000    0.000
 6291.00    2.84413   3.07416    0.000
 6292.00    2.83392   3.06103    0.000
 6293.00    2.83529   3.05927    0.000
 6294.00    2.87263   3.05668    0.000
 6295.00    2.92650   3.04836    0.000
 6296.00    3.02396   3.04440    0.000
 6297.00    3.09141   3.05697    0.000
 6298.00    3.09090   3.08655    0.000
 6299.00    3.05813   3.12464    0.000
 6300.00    2.96210   3.16429    0.000
 6301.00    2.88857   3.19998    0.000
 6302.00    2.85352   3.22301    0.000
 6303.00    2.85868   3.22493    0.000
 6304.00    2.92406   3.20585    0.000
 6305.00    2.95182   3.17668    0.000
 6306.00    2.93004   3.14879    0.000
 6307.00    2.87034   3.12369    0.000
 6308.00    2.76667   3.09683    0.000
 6309.00    2.74234   3.06800    0.000
 6310.00    2.79910   3.04162    0.000
 6311.00    2.85502   3.02173    0.000
 6312.00    2.91017   3.01437    0.000
 6313.00    2.93372   3.02646    0.000
 6314.00    2.93216   3.05751    0.000
 6315.00    2.94052   3.09733    0.000
 6316.00    2.95582   3.13485    0.000
 6317.00    2.93085   3.16730    0.000
 6318.00    2.88120   3.19547    0.000
 6319.00    2.91133   3.21726    0.000
 6320.00    2.98416   3.22967    0.000
 6321.00    3.06600   3.23368    0.004
 6322.00    3.15203   3.23408    0.004
 6323.00    3.19303   3.23322    0.004
 6324.00    3.21599   3.23336    0.004
 6325.00    3.14720   3.23673    0.004
 6326.00    3.04705   3.23880    0.004
 6327.00    2.94365   3.22632    0.004
 6328.00    2.83931   3.18837    0.004
 6329.00    2.88482   3.13366    0.004
 6330.00    2.96593   3.08977    0.004
 6331.00    3.02650   3.07912    0.004
 6332.00    3.08316   3.10215    0.004
 6333.00    2.97631   3.14182    0.004
 6334.00    2.84520   3.17747    0.004
 6335.00    2.84937   3.19248    0.004
 6336.00    2.86820   3.18106    0.004
 6337.00    2.99895   3.15304    0.004
 6338.00    3.13767   3.13027    0.004
 6339.00    3.12774   3.13112    0.004
 6340.00    3.11240   3.15571    0.004
 6341.00    3.04257   3.19121    0.004
 6342.00    2.97281   3.22432    0.004
 6343.00    2.91302   3.24816    0.004
 6344.00    2.85761   3.26107    0.004
 6345.00    2.87199   3.26174    0.004
 6346.00    2.87816   3.24790    0.004
 6347.00    2.80158   3.21981    0.004
 6348.00    2.72223   3.18386    0.004
 6349.00    2.62284   3.15001    0.004
 6350.00    2.56373   3.12175    0.004
 6351.00    2.72753   3.09250    0.004
 6352.00    2.86850   3.05623    0.004
 6353.00    2.90850   3.01702    0.004
 6354.00    2.95001   2.98367    0.004
 6355.00    2.99701   2.96214    0.004
 6356.00    3.03615   2.95626    0.004
 6357.00    3.05137   2.97018    0.004
 6358.00    3.01253   3.00505    0.004
 6359.00    2.83368   3.05552    0.004
 6360.00    2.71547   3.11172    0.004
 6361.00    2.73232   3.16402    0.004
 6362.00    2.75040   3.20514    0.004
 6363.00    2.77087   3.23199    0.004
 6364.00    2.76366   3.24907    0.004
 6365.00    2.70985   3.26497    0.004
 6366.00    2.74141   3.28376    0.004
 6367.00    2.89893   3.30116    0.005
 6368.00    3.02124   3.31060    0.005
 6369.00    3.09788   3.30986    0.005
 6370.00    3.07748   3.29989    0.005
 6371.00    2.94619   3.28190    0.005
 6372.00    2.87803   3.25846    0.004
 6373.00    2.87350   3.23720    0.004
 6374.00    2.83336   3.22610    0.004
 6375.00    2.76155   3.22775    0.004
 6376.00    2.72055   3.23771    0.004
 6377.00    2.70369   3.24800    0.004
 6378.00    2.68043   3.25547    0.004
 6379.00    2.65277   3.26330    0.004
 6380.00    2.65396   3.27445    0.004
 6381.00    2.67258   3.28665    0.004
 6382.00    2.64426   3.29451    0.004
 6383.00    2.59118   3.29206    0.004
 6384.00    2.58984   3.27318    0.004
 6385.00    2.61216   3.23395    0.004
 6386.00    2.65203   3.18225    0.004
 6387.00    2.69881   3.14101    0.004
 6388.00    2.72305   3.13607    0.004
 6389.00    2.73974   3.17001    0.004
 6390.00    2.72762   3.21597    0.004
 6391.00    2.70739   3.23770    0.004
 6392.00    2.67290   3.21689    0.004
 6393.00    2.63511   3.16994    0.005
 6394.00    2.77184   3.13703    0.005
 6395.00    2.94108   3.15118    0.005
 6396.00    3.05524   3.20646    0.005
 6397.00    3.16147   3.26864    0.005
 6398.00    3.02532   3.30607    0.005
 6399.00    2.86394   3.30624    0.004
 6400.00    2.84854   3.27907    0.004
 6401.00    2.84295   3.24387    0.004
 6402.00    2.90277   3.21816    0.004
 6403.00    2.96472   3.20775    0.004
 6404.00    3.01277   3.20336    0.004
 6405.00    3.05780   3.19707    0.004
 6406.00    3.00916   3.19372    0.004
 6407.00    2.96131   3.20116    0.004
 6408.00    2.92513   3.21983    0.004
 6409.00    2.89531   3.24244    0.004
 6410.00    2.92679   3.25771    0.004
 6411.00    2.95427   3.25477    0.004
 6412.00    2.95377   3.22990    0.004
 6413.00    2.92085   3.19106    0.004
 6414.00    2.71324   3.15917    0.004
 6415.00    2.53608   3.15711    0.004
 6416.00    2.49048   3.19101    0.004
 6417.00    2.46646   3.24509    0.004
 6418.00    2.51926   3.29474    0.004
 6419.00    2.59272   3.32783    0.004
 6420.00    2.72792   3.34441    0.004
 6421.00    2.82726   3.34432    0.004
 6422.00    2.83536   3.32137    0.004
 6423.00    2.82350   3.27459    0.004
 6424.00    2.76793   3.21965    0.004
 6425.00    2.75884   3.18544    0.004
 6426.00    2.83811   3.19065    0.004
 6427.00    2.92028   3.22774    0.004
 6428.00    3.00728   3.27240    0.004
 6429.00    3.06268   3.30065    0.004
 6430.00    3.07213   3.29896    0.004
 6431.00    3.01628   3.27018    0.004
 6432.00    2.87695   3.23311    0.004
 6433.00    2.79988   3.21687    0.004
 6434.00    2.79296   3.23958    0.004
 6435.00    2.85109   3.29128    0.004
 6436.00    2.97386   3.34572    0.004
 6437.00    3.07933   3.38459    0.004
 6438.00    3.16965   3.40364    0.004
 6439.00    3.16109   3.40563    0.004
 6440.00    3.07617   3.38518    0.004
 6441.00    3.01374   3.33084    0.004
 6442.00    2.96657   3.24365    0.004
 6443.00    2.93895   3.15034    0.004
 6444.00    2.92296   3.09439    0.004
 6445.00    2.97857   3.10338    0.004
 6446.00    3.07134   3.15978    0.004
 6447.00    3.15323   3.22278    0.004
 6448.00    3.23023   3.26065    0.004
 6449.00    3.19894   3.27230    0.004
 6450.00    3.12577   3.28141    0.004
 6451.00    3.00320   3.30538    0.004
 6452.00    2.86438   3.33883    0.004
 6453.00    2.80811   3.35784    0.004
 6454.00    2.77461   3.34069    0.004
 6455.00    2.74228   3.28751    0.004
 6456.00    2.71021   3.22565    0.004
 6457.00    2.60276   3.19312    0.004
 6458.00    2.48164   3.20914    0.004
 6459.00    2.28991   3.25730    0.004
 6460.00    2.08836   3.30906    0.004
 6461.00    2.03598   3.34087    0.004
 6462.00    1.99850   3.34643    0.004
 6463.00    2.12250   3.33139    0.004
 6464.00    2.25670   3.30976    0.004
 6465.00    2.45042   3.29384    0.004
 6466.00    2.64575   3.28952    0.004
 6467.00    2.80647   3.29427    0.004
 6468.00    2.96256   3.29872    0.004
 6469.00    2.98983   3.30215    0.004
 6470.00    3.01230   3.30880    0.004
 6471.00    2.96677   3.31960    0.004
 6472.00    2.91316   3.32556    0.004
 6473.00    2.78466   3.31557    0.004
 6474.00    2.66487   3.28467    0.004
 6475.00    2.60390   3.24036    0.004
 6476.00    2.57135   3.20334    0.004
 6477.00    2.68779   3.19345    0.004
 6478.00    2.78832   3.21414    0.004
 6479.00    2.82162   3.25147    0.004
 6480.00    2.85862   3.28696    0.004
 6481.00    2.90854   3.30762    0.004
 6482.00    2.91784   3.30832    0.004
 6483.00    2.80800   3.28851    0.004
 6484.00    2.73365   3.24887    0.004
 6485.00    2.74812   3.18762    0.004
 6486.00    2.74357   3.10071    0.004
 6487.00    2.69807   2.99208    0.004
 6488.00    2.68116   2.88391    0.004
 6489.00    2.71779   2.81210    0.004
 6490.00    2.76270   2.79856    0.004
 6491.00    2.82115   2.83581    0.004
 6492.00    2.81947   2.90262    0.004
 6493.00    2.73161   2.97629    0.004
 6494.00    2.68622   3.04921    0.004
 6495.00    2.69438   3.11729    0.004
 6496.00    2.68414   3.17572    0.004
 6497.00    2.65349   3.22295    0.004
 6498.00    2.65258   3.25744    0.004
 6499.00    2.68083   3.28055    0.004
 6500.00    2.71554   3.29101    0.004
 6501.00    2.75583   3.29030    0.004
 6502.00    2.78033   3.28403    0.004
 6503.00    2.79281   3.28206    0.004
 6504.00    2.80333   3.28888    0.004
 6505.00    2.81254   3.30078    0.004
 6506.00    2.79795   3.30859    0.004
 6507.00    2.76942   3.30562    0.004
 6508.00    2.76659   3.28920    0.004
 6509.00    2.77690   3.26218    0.004
 6510.00    2.82941   3.23155    0.004
 6511.00    2.90059   3.20782    0.004
 6512.00    2.88772   3.19999    0.004
 6513.00    2.84290   3.21330    0.004
 6514.00    2.86180   3.24355    0.004
 6515.00    2.90126   3.27776    0.004
 6516.00    2.97684   3.30439    0.004
 6517.00    3.06219   3.31809    0.004
 6518.00    3.11057   3.31817    0.004
 6519.00    3.15077   3.30662    0.004
 6520.00    3.13947   3.28903    0.004
 6521.00    3.11909   3.27577    0.004
 6522.00    3.06398   3.27493    0.004
 6523.00    3.00420   3.28179    0.004
 6524.00    2.87060   3.28459    0.004
 6525.00    2.72994   3.27693    0.004
 6526.00    2.63393   3.26472    0.004
 6527.00    2.54056   3.26153    0.004
 6528.00    2.63735   3.27368    0.000
 6529.00    2.73859   3.29539    0.000
 6530.00    2.79431   3.31595    0.000
 6531.00    2.84969   3.33035    0.000
 6532.00    2.89689   3.34201    0.000
 6533.00    2.93816   3.35230    0.000
 6534.00    2.90034   3.35623    0.000
 6535.00    2.86458   3.34678    0.000
 6536.00    2.84725   3.32232    0.000
 6537.00    2.83274   3.28665    0.000
 6538.00    2.83674   3.24582    0.000
 6539.00    2.85456   3.20873    0.000
 6540.00    2.94299   3.18608    0.000
 6541.00    3.03638   3.18628    0.000
 6542.00    3.15023   3.20391    0.000
 6543.00    3.19914   3.22270    0.000
 6544.00    3.02609   3.22897    0.000
 6545.00    2.87957   3.21772    0.000
 6546.00    2.80946   3.19322    0.000
 6547.00    2.73220   3.16071    0.000
 6548.00    2.63733   3.12754    0.000
 6549.00    2.57988   3.10348    0.000
 6550.00    2.60180   3.09524    0.000
 6551.00    2.65000   3.09613    0.000
 6552.00    2.74665   3.08356    0.000
 6553.00    2.81187   3.02588    0.000
 6554.00    2.82651   2.90302    0.000
 6555.00    2.80465   2.73297    0.000
 6556.00    2.73121   2.58165    0.000
 6557.00    2.68546   2.53242    0.000
 6558.00    2.67409   2.62053    0.000
 6559.00    2.68078   2.79658    0.000
 6560.00    2.70727   2.97575    0.000
 6561.00    2.76938   3.09803    0.000
 6562.00    2.86589   3.15237    0.000
 6563.00    2.88357   3.16120    0.000
 6564.00    2.83410   3.15043    0.000
 6565.00    2.78730   3.13180    0.000
 6566.00    2.74251   3.10868    0.000
 6567.00    2.70849   3.08824    0.000
 6568.00    2.68155   3.08493    0.000
 6569.00    2.67130   3.10912    0.000
 6570.00    2.67066   3.15703    0.000
 6571.00    2.69874   3.20858    0.000
 6572.00    2.74125   3.24220    0.000
 6573.00    2.68714   3.24941    0.000
 6574.00    2.59099   3.23875    0.000
 6575.00    2.56514   3.22747    0.000
 6576.00    2.56554   3.22795    0.000
 6577.00    2.61996   3.23837    0.000
 6578.00    2.69148   3.25021    0.000
 6579.00    2.64020   3.25905    0.000
 6580.00    2.55645   3.26777    0.000
 6581.00    2.55556   3.28071    0.000
 6582.00    2.57259   3.29289    0.000
 6583.00    2.70462   3.29064    0.000
 6584.00    2.85636   3.26070    0.000
 6585.00    2.93591   3.20224    0.000
 6586.00    3.00608   3.13440    0.000
 6587.00    2.96301   3.08880    0.000
 6588.00    2.90959   3.08649    0.000
 6589.00    2.84738   3.11947    0.000
 6590.00    2.78468   3.16089    0.000
 6591.00    2.74597   3.19113    0.000
 6592.00    2.70920   3.21088    0.000
 6593.00    2.80880   3.23190    0.000
 6594.00    2.90740   3.25900    0.000
 6595.00    2.98311   3.28359    0.000
 6596.00    3.04920   3.29364    0.000
 6597.00    2.99336   3.28412    0.000
 6598.00    2.94028   3.25936    0.000
 6599.00    2.91094   3.22733    0.000
 6600.00    2.89171   3.19416    0.000
 6601.00    2.93689   3.16445    0.000
 6602.00    2.95655   3.14634    0.000
 6603.00    2.84910   3.14944    0.000
 6604.00    2.77052   3.17658    0.000
 6605.00    2.80854   3.21576    0.000
 6606.00    2.83749   3.25009    0.000
 6607.00    2.83610   3.27247    0.000
 6608.00    2.81526   3.28717    0.000
 6609.00    2.73944   3.29998    0.004
 6610.00    2.70425   3.31051    0.004
 6611.00    2.76730   3.31751    0.004
 6612.00    2.77366   3.32278    0.004
 6613.00    2.66175   3.32800    0.004
 6614.00    2.61521   3.33009    0.004
 6615.00    2.68725   3.32173    0.004
 6616.00    2.79122   3.29799    0.004
 6617.00    2.94580   3.26346    0.004
 6618.00    2.99505   3.23151    0.004
 6619.00    2.89769   3.21589    0.004
 6620.00    2.81450   3.21935    0.004
 6621.00    2.74867   3.23178    0.004
 6622.00    2.71869   3.24035    0.004
 6623.00    2.72740   3.23691    0.004
 6624.00    2.75097   3.21939    0.004
 6625.00    2.78867   3.19035    0.004
 6626.00    2.74934   3.15692    0.004
 6627.00    2.64531   3.13237    0.004
 6628.00    2.65384   3.13032    0.004
 6629.00    2.74562   3.15385    0.004
 6630.00    2.81067   3.19061    0.004
 6631.00    2.85837   3.22255    0.004
 6632.00    2.81315   3.23898    0.004
 6633.00    2.71512   3.24126    0.004
 6634.00    2.68021   3.23612    0.004
 6635.00    2.67653   3.22638    0.004
 6636.00    2.71143   3.21173    0.004
 6637.00    2.76283   3.19742    0.004
 6638.00    2.79179   3.19264    0.004
 6639.00    2.81252   3.20029    0.004
 6640.00    2.74274   3.21436    0.004
 6641.00    2.64485   3.22758    0.004
 6642.00    2.61029   3.23740    0.004
 6643.00    2.59213   3.24396    0.004
 6644.00    2.66410   3.24669    0.004
 6645.00    2.75509   3.24554    0.004
 6646.00    2.76340   3.24267    0.004
 6647.00    2.75793   3.24093    0.004
 6648.00    2.82238   3.24154    0.004
 6649.00    2.89560   3.24320    0.004
 6650.00    2.94452   3.24411    0.004
 6651.00    2.99133   3.24337    0.004
 6652.00    2.90407   3.23915    0.004
 6653.00    2.80994   3.22803    0.004
 6654.00    2.85297   3.20695    0.004
 6655.00    2.89846   3.17686    0.004
 6656.00    2.94576   3.14432    0.004
 6657.00    2.98511   3.12054    0.004
 6658.00    2.85666   3.11346    0.004
 6659.00    2.73798   3.12116    0.004
 6660.00    2.73692   3.13686    0.004
 6661.00    2.74612   3.15679    0.004
 6662.00    2.84015   3.18136    0.004
 6663.00    2.92508   3.21032    0.004
 6664.00    2.95385   3.23857    0.004
 6665.00    2.97272   3.25934    0.004
 6666.00    2.94358   3.26944    0.004
 6667.00    2.93027   3.26814    0.004
 6668.00    2.97949   3.25356    0.004
 6669.00    3.01490   3.22195    0.004
 6670.00    3.00497   3.17487    0.004
 6671.00    2.98940   3.12656    0.004
 6672.00    2.95817   3.09962    0.004
 6673.00    2.88597   3.10598    0.004
 6674.00    2.71641   3.13691    0.004
 6675.00    2.59165   3.17462    0.004
 6676.00    2.55887   3.20631    0.004
 6677.00    2.58966   3.22862    0.004
 6678.00    2.73403   3.24260    0.004
 6679.00    2.78866   3.24904    0.004
 6680.00    2.70305   3.24934    0.004
 6681.00    2.70181   3.24675    0.004
 6682.00    2.81629   3.24548    0.004
 6683.00    2.89495   3.24713    0.004
 6684.00    2.93036   3.25016    0.004
 6685.00    2.83945   3.25095    0.004
 6686.00    2.61406   3.24568    0.004
 6687.00    2.51841   3.23149    0.004
 6688.00    2.54459   3.20778    0.004
 6689.00    2.64041   3.17897    0.004
 6690.00    2.79388   3.15598    0.004
 6691.00    2.86197   3.14947    0.004
 6692.00    2.86781   3.16191    0.004
 6693.00    2.82525   3.18647    0.004
 6694.00    2.75170   3.20933    0.004
 6695.00    2.67378   3.21882    0.004
 6696.00    2.59340   3.21226    0.000
 6697.00    2.57354   3.19709    0.000
 6698.00    2.58316   3.18615    0.000
 6699.00    2.60309   3.18735    0.000
 6700.00    2.62737   3.19820    0.000
 6701.00    2.59376   3.20920    0.000
 6702.00    2.53931   3.21238    0.000
 6703.00    2.57713   3.20574    0.000
 6704.00    2.64305   3.19300    0.000
 6705.00    2.67562   3.17751    0.000
 6706.00    2.69975   3.15837    0.000
 6707.00    2.79162   3.13374    0.000
 6708.00    2.89743   3.10295    0.000
 6709.00    3.02248   3.07018    0.000
 6710.00    3.15065   3.04534    0.000
 6711.00    3.10204   3.03985    0.000
 6712.00    3.03204   3.05945    0.000
 6713.00    2.98810   3.09581    0.000
 6714.00    2.94633   3.13431    0.000
 6715.00    2.84592   3.16384    0.000
 6716.00    2.74273   3.18216    0.000
 6717.00    2.71623   3.19064    0.000
 6718.00    2.69071   3.19059    0.000
 6719.00    2.65906   3.18492    0.000
 6720.00    2.62578   3.18071    0.000
 6721.00    2.56086   3.18404    0.000
 6722.00    2.51610   3.19549    0.000
 6723.00    2.70261   3.20990    0.000
 6724.00    2.87824   3.22018    0.000
 6725.00    2.96723   3.22278    0.000
 6726.00    3.01681   3.21905    0.000
 6727.00    2.83001   3.21405    0.000
 6728.00    2.66345   3.21058    0.000
 6729.00    2.59285   3.20669    0.000
 6730.00    2.55292   3.19714    0.000
 6731.00    2.63152   3.18029    0.000
 6732.00    2.69859   3.16164    0.000
 6733.00    2.72857   3.14889    0.000
 6734.00    2.74230   3.14486    0.000
 6735.00    2.71171   3.14525    0.000
 6736.00    2.66199   3.14580    0.000
 6737.00    2.56759   3.14632    0.000
 6738.00    2.56151   3.14772    0.000
 6739.00    2.73389   3.14802    0.000
 6740.00    2.84706   3.14514    0.000
 6741.00    2.85607   3.13800    0.000
 6742.00    2.86118   3.12906    0.000
 6743.00    2.86031   3.12108    0.000
 6744.00    2.92114   3.11691    0.000
 6745.00    3.06540   3.11743    0.000
 6746.00    3.14360   3.12231    0.000
 6747.00    3.14315   3.13467    0.000
 6748.00    3.07461   3.15435    0.000
 6749.00    2.93461   3.17998    0.000
 6750.00    2.85597   3.20817    0.000
 6751.00    2.83415   3.23415    0.000
 6752.00    2.91060   3.25423    0.000
 6753.00    3.06727   3.26611    0.005
 6754.00    3.11964   3.26931    0.005
 6755.00    3.09710   3.26581    0.005
 6756.00    2.89617   3.25865    0.005
 6757.00    2.58275   3.24825    0.005
 6758.00    2.28254   3.23224    0.005
 6759.00    1.98961   3.20934    0.005
 6760.00    2.28012   3.18349    0.005
 6761.00    2.85024   3.16276    0.005
 6762.00    3.09230   3.15311    0.005
 6763.00    3.19867   3.15234    0.005
 6764.00    3.09957   3.15727    0.005
 6765.00    2.92782   3.16854    0.005
 6766.00    2.99225   3.18901    0.005
 6767.00    3.12719   3.21752    0.005
 6768.00    3.21455   3.24721    0.005
 6769.00    3.29012   3.27091    0.005
 6770.00    3.21789   3.28540    0.005
 6771.00    3.11598   3.29279    0.005
 6772.00    3.02396   3.29529    0.005
 6773.00    2.93348   3.28948    0.005
 6774.00    2.87320   3.27083    0.004
 6775.00    2.81644   3.23683    0.004
 6776.00    2.55754   3.19268    0.004
 6777.00    2.28270   3.15075    0.005
 6778.00    2.28706   3.12484    0.005
 6779.00    2.30358   3.12127    0.005
 6780.00    2.49046   3.13798    0.005
 6781.00    2.67538   3.16562    0.005
 6782.00    2.68553   3.19207    0.005
 6783.00    2.69524   3.21035    0.005
 6784.00    2.69716   3.21806    0.005
 6785.00    2.69741   3.21549    0.004
 6786.00    2.67943   3.20498    0.004
 6787.00    2.65235   3.19222    0.004
 6788.00    2.55520   3.18323    0.004
 6789.00    2.47756   3.18146    0.004
 6790.00    2.51366   3.18753    0.004
 6791.00    2.54307   3.19813    0.004
 6792.00    2.54159   3.21060    0.005
 6793.00    2.53230   3.22306    0.005
 6794.00    2.49348   3.23349    0.005
 6795.00    2.43929   3.23916    0.005
 6796.00    2.33654   3.23849    0.004
 6797.00    2.30478   3.23268    0.004
 6798.00    2.46316   3.22591    0.004
 6799.00    2.63239   3.22055    0.005
 6800.00    2.82657   3.21702    0.005
 6801.00    2.96333   3.21659    0.005
 6802.00    2.98589   3.21666    0.005
 6803.00    3.05259   3.21688    0.005
 6804.00    3.19576   3.21845    0.005
 6805.00    3.20669   3.21936    0.005
 6806.00    3.01705   3.21810    0.004
 6807.00    2.84416   3.21370    0.004
 6808.00    2.69361   3.21037    0.004
 6809.00    2.60435   3.21481    0.004
 6810.00    2.58703   3.22627    0.004
 6811.00    2.65284   3.23702    0.004
 6812.00    2.80470   3.24069    0.005
 6813.00    2.87643   3.23814    0.005
 6814.00    2.87501   3.23873    0.005
 6815.00    2.84055   3.24826    0.005
 6816.00    2.77953   3.26452    0.005
 6817.00    2.73570   3.27945    0.005
 6818.00    2.70405   3.28554    0.005
 6819.00    2.68494   3.27942    0.005
 6820.00    2.67362   3.26299    0.005
 6821.00    2.66653   3.24283    0.005
 6822.00    2.66173   3.22969    0.004
 6823.00    2.65716   3.22910    0.004
 6824.00    2.65270   3.23877    0.004
 6825.00    2.70154   3.25119    0.004
 6826.00    2.77206   3.26142    0.004
 6827.00    2.79257   3.26900    0.004
 6828.00    2.79571   3.27365    0.004
 6829.00    2.68956   3.27170    0.004
 6830.00    2.55143   3.25873    0.004
 6831.00    2.54696   3.23237    0.004
 6832.00    2.57485   3.19439    0.004
 6833.00    2.69896   3.15241    0.004
 6834.00    2.84189   3.11616    0.004
 6835.00    3.04069   3.09794    0.005
 6836.00    3.24801   3.10483    0.005
 6837.00    3.05496   3.13512    0.005
 6838.00    2.81696   3.17709    0.005
 6839.00    2.82427   3.21625    0.005
 6840.00    2.84991   3.24314    0.005
 6841.00    2.88488   3.25599    0.005
 6842.00    2.92023   3.25829    0.005
 6843.00    2.76808   3.25525    0.005
 6844.00    2.62261   3.24995    0.004
 6845.00    2.79405   3.24179    0.004
 6846.00    2.95007   3.22751    0.004
 6847.00    2.84575   3.20394    0.004
 6848.00    2.74768   3.17583    0.004
 6849.00    2.71499   3.15437    0.004
 6850.00    2.68128   3.14622    0.004
 6851.00    2.64000   3.14966    0.004
 6852.00    2.58284   3.15609    0.004
 6853.00    2.43572   3.15647    0.004
 6854.00    2.31752   3.15236    0.004
 6855.00    2.32990   3.15495    0.004
 6856.00    2.36462   3.17202    0.004
 6857.00    2.48201   3.19899    0.004
 6858.00    2.57673   3.22006    0.004
 6859.00    2.60123   3.22148    0.004
 6860.00    2.63967   3.20268    0.005
 6861.00    2.71479   3.17805    0.005
 6862.00    2.78149   3.16344    0.005
 6863.00    2.82917   3.16290    0.004
 6864.00    2.89640   3.16857    0.005
 6865.00    3.00187   3.17271    0.014
 6866.00    2.99289   3.17405   -1.000
 6867.00    2.78860   3.17697   -1.000
 6868.00    2.52136   3.18545   -1.000
 6869.00    2.16002   3.20056   -1.000
 6870.00    2.05826   3.22008   -1.000
 6871.00    2.29750   3.23845   -1.000
 6872.00    2.48613   3.24849   -1.000
 6873.00    2.61623   3.24413   -1.000
 6874.00    2.68884   3.22546   -1.000
 6875.00    2.70279   3.20186   -1.000
 6876.00    2.62781   3.18610    0.016
 6877.00    2.47278   3.18625    0.005
 6878.00    2.28613   3.20025    0.004
 6879.00    2.07438   3.22167    0.004
 6880.00    2.12050   3.24578    0.004
 6881.00    2.34655   3.26966    0.004
 6882.00    2.49771   3.29238    0.004
 6883.00    2.60306   3.31137    0.004
 6884.00    2.75383   3.32257    0.004
 6885.00    2.92887   3.32440    0.004
 6886.00    2.97101   3.31854    0.004
 6887.00    2.95149   3.30814    0.004
 6888.00    2.82686   3.29654    0.004
 6889.00    2.66022   3.28879    0.004
 6890.00    2.66034   3.28632    0.004
 6891.00    2.71730   3.28786    0.004
 6892.00    2.74107   3.29060    0.004
 6893.00    2.75534   3.29331    0.004
 6894.00    2.70974   3.29803    0.004
 6895.00    2.64998   3.30566    0.004
 6896.00    2.66782   3.31375    0.004
 6897.00    2.70046   3.31971    0.004
 6898.00    2.71272   3.32312    0.004
 6899.00    2.72197   3.32799    0.004
 6900.00    2.86180   3.33606    0.005
 6901.00    3.01573   3.34446    0.005
 6902.00    2.95699   3.34887    0.005
 6903.00    2.88323   3.34473    0.005
 6904.00    2.56618   3.33085    0.004
 6905.00    2.24040   3.30875    0.004
 6906.00    2.40611   3.28243    0.004
 6907.00    2.57035   3.25880    0.004
 6908.00    2.62727   3.24540    0.004
 6909.00    2.67550   3.24369    0.004
 6910.00    2.58633   3.25271    0.004
 6911.00    2.50167   3.26986    0.004
 6912.00    2.46230   3.29065    0.004
 6913.00    2.43801   3.31188    0.004
 6914.00    2.52222   3.32645    0.004
 6915.00    2.60201   3.32674    0.004
 6916.00    2.65747   3.30880    0.004
 6917.00    2.69491   3.27793    0.004
 6918.00    2.65284   3.24750    0.004
 6919.00    2.61040   3.23183    0.004
 6920.00    2.56661   3.23751    0.004
 6921.00    2.52483   3.25840    0.005
 6922.00    2.48918   3.28167    0.005
 6923.00    2.47405   3.29587    0.005
 6924.00    2.51195   3.29696    0.005
 6925.00    2.50740   3.28835    0.004
 6926.00    2.40850   3.27824    0.004
 6927.00    2.32398   3.27528    0.004
 6928.00    2.26718   3.28204    0.004
 6929.00    2.27479   3.29525    0.004
 6930.00    2.39066   3.30948    0.004
 6931.00    2.53519   3.32058    0.004
 6932.00    2.72193   3.32990    0.004
 6933.00    2.79133   3.33715    0.004
 6934.00    2.70881   3.33777    0.004
 6935.00    2.62205   3.32618    0.004
 6936.00    2.53046   3.30196    0.005
 6937.00    2.48888   3.27186    0.005
 6938.00    2.49762   3.24888    0.005
 6939.00    2.49822   3.24404    0.005
 6940.00    2.49159   3.25758    0.004
 6941.00    2.41904   3.28026    0.004
 6942.00    2.29493   3.29841    0.005
 6943.00    2.38806   3.30085    0.005
 6944.00    2.63055   3.28888    0.005
 6945.00    2.79462   3.27136    0.005
 6946.00    2.91142   3.25754    0.004
 6947.00    2.96848   3.25536    0.004
 6948.00    2.99411   3.26637    0.004
 6949.00    2.86516   3.28567    0.004
 6950.00    2.66566   3.30691    0.004
 6951.00    2.62312   3.32445    0.004
 6952.00    2.64225   3.33577    0.004
 6953.00    2.53043   3.34233    0.004
 6954.00    2.37482   3.34818    0.004
 6955.00    2.29213   3.35378    0.004
 6956.00    2.22992   3.35857    0.004
 6957.00    2.26098   3.36038    0.004
 6958.00    2.31362   3.35936    0.004
 6959.00    2.46690   3.35979    0.004
 6960.00    2.63885   3.36506    0.005
 6961.00    2.56129   3.37376    0.005
 6962.00    2.44801   3.38079    0.004
 6963.00    2.37431   3.38075    0.005
 6964.00    2.30470   3.37438    0.005
 6965.00    2.45271   3.36747    0.005
 6966.00    2.61523   3.36032    0.005
 6967.00    2.57254   3.34646    0.005
 6968.00    2.52328   3.31751    0.004
 6969.00    2.54785   3.26965    0.005
 6970.00    2.56751   3.21012    0.005
 6971.00    2.43659   3.15700    0.004
 6972.00    2.32041   3.13203    0.004
 6973.00    2.42378   3.14695    0.004
 6974.00    2.52695   3.19773    0.004
 6975.00    2.62823   3.26585    0.004
 6976.00    2.69405   3.32757    0.004
 6977.00    2.51313   3.36958    0.005
 6978.00    2.36967   3.39055    0.005
 6979.00    2.42722   3.39379    0.005
 6980.00    2.51360   3.38419    0.005
 6981.00    2.72420   3.36772    0.005
 6982.00    2.93018   3.35242    0.005
 6983.00    3.11976   3.34616    0.005
 6984.00    3.18387   3.35147    0.005
 6985.00    2.87380   3.36432    0.005
 6986.00    2.61468   3.37625    0.005
 6987.00    2.48500   3.38126    0.005
 6988.00    2.40152   3.37991    0.004
 6989.00    2.41903   3.37426    0.004
 6990.00    2.37923   3.36437    0.004
 6991.00    2.23072   3.34780    0.004
 6992.00    2.14845   3.32555    0.004
 6993.00    2.17583   3.30588    0.004
 6994.00    2.25946   3.29682    0.004
 6995.00    2.42474   3.29856    0.004
 6996.00    2.50072   3.30344    0.004
 6997.00    2.46271   3.30317    0.005
 6998.00    2.45083   3.29724    0.005
 6999.00    2.46831   3.29277    0.005
 7000.00    2.54704   3.29688    0.005
 7001.00    2.68653   3.30955    0.005
 7002.00    2.69523   3.32473    0.005
 7003.00    2.58952   3.33584    0.005
 7004.00    2.41670   3.34079    0.005
 7005.00    2.19216   3.33873    0.005
 7006.00    2.26972   3.32714    0.005
 7007.00    2.55199   3.30170    0.005
 7008.00    2.65888   3.26316    0.005
 7009.00    2.66164   3.22680    0.004
 7010.00    2.68819   3.21459    0.004
 7011.00    2.72706   3.23696    0.005
 7012.00    2.66677   3.28519    0.005
 7013.00    2.56197   3.33388    0.005
 7014.00    2.62833   3.35772    0.005
 7015.00    2.76074   3.34904    0.005
 7016.00    2.69990   3.31893    0.005
 7017.00    2.57563   3.28742    0.005
 7018.00    2.55123   3.27199    0.005
 7019.00    2.55431   3.27786    0.005
 7020.00    2.61566   3.29862    0.005
 7021.00    2.69018   3.32291    0.005
 7022.00    2.63548   3.34272    0.005
 7023.00    2.55742   3.35619    0.005
 7024.00    2.38994   3.36353    0.005
 7025.00    2.21008   3.36628    0.005
 7026.00    2.47535   3.36651    0.005
 7027.00    2.78482   3.36618    0.005
 7028.00    2.79263   3.36535    0.005
 7029.00    2.78154   3.35888    0.005
 7030.00    2.64936   3.34415    0.005
 7031.00    2.51460   3.33108    0.005
 7032.00    2.60565   3.33534    0.005
 7033.00    2.68384   3.36542    0.005
 7034.00    2.40870   3.41566    0.005
 7035.00    2.15760   3.46542    0.004
 7036.00    2.24407   3.49361    0.005
 7037.00    2.30294   3.49696    0.005
 7038.00    2.10731   3.48878    0.005
 7039.00    1.97044   3.48492    0.005
 7040.00    2.22959   3.49336    0.005
 7041.00    2.47945   3.50945    0.005
 7042.00    2.68074   3.51831    0.005
 7043.00    2.83188   3.50596    0.005
 7044.00    2.77183   3.46568    0.005
 7045.00    2.67375   3.40286    0.005
 7046.00    2.44343   3.33419    0.005
 7047.00    2.28794   3.27864    0.005
 7048.00    2.35149   3.24985    0.005
 7049.00    2.40482   3.24726    0.005
 7050.00    2.43260   3.25619   -2.000
 7051.00    2.48517   3.25878   -2.000
 7052.00    2.59105   3.24701   -2.000
 7053.00    2.64928   3.22685   -2.000
 7054.00    2.61852   3.21018   -2.000
 7055.00    2.64015   3.20556   -2.000
 7056.00    2.74724   3.21296   -2.000
 7057.00    2.79101   3.22160   -2.000
 7058.00    2.74423   3.21941   -2.000
 7059.00    2.66362   3.20244   -2.000
 7060.00    2.54046   3.17536   -2.000
 7061.00    2.56505   3.15351   -2.000
 7062.00    2.75350   3.15265   -2.000
 7063.00    2.82046   3.17602   -2.000
 7064.00    2.76860   3.21446   -2.000
 7065.00    2.76911   3.25380   -2.000
 7066.00    2.81481   3.28253   -2.000
 7067.00    2.75610   3.29807   -2.000
 7068.00    2.61806   3.30533   -2.000
 7069.00    2.69040   3.30953   -2.000
 7070.00    2.90321   3.31428   -2.000
 7071.00    2.99179   3.32062   -2.000
 7072.00    3.00771   3.32702   -2.000
 7073.00    2.96810   3.32834   -2.000
 7074.00    2.90017   3.31625   -2.000
 7075.00    2.96892   3.28435   -2.000
 7076.00    3.09803   3.23320   -2.000
 7077.00    3.14851   3.17506   -2.000
 7078.00    3.16918   3.12676   -2.000
 7079.00    2.81112   3.09594   -2.000
 7080.00    2.33110   3.08122   -2.000
 7081.00    2.37206   3.07378   -2.000
 7082.00    2.55336   3.06495   -2.000
 7083.00    3.00592   3.05582   -2.000
 7084.00    3.51837   3.05002   -2.000
 7085.00    3.22577   3.04808   -2.000
 7086.00    2.79165   3.05045   -2.000
 7087.00    2.95220   3.05459   -2.000
 7088.00    3.19241   3.05985   -2.000
 7089.00    3.10152   3.06901   -2.000
 7090.00    2.97916   3.08331   -2.000
 7091.00    3.00481   3.10473   -2.000
 7092.00    3.03914   3.12700   -2.000
 7093.00    3.05074   3.14425   -2.000
 7094.00    3.06082   3.15186   -2.000
 7095.00    2.93956   3.15149   -2.000
 7096.00    2.81431   3.15110   -2.000
 7097.00    2.58976   3.15525   -2.000
 7098.00    2.39625   3.16157   -2.000
 7099.00    2.61499   3.16475   -2.000
 7100.00    2.76653   3.16135   -2.000
 7101.00    2.32238   3.15162   -2.000
 7102.00    1.95832   3.13737   -2.000
 7103.00    2.11754   3.12175   -2.000
 7104.00    2.32962   3.10978   -2.000
 7105.00    2.81092   3.10675   -2.000
 7106.00    3.07658   3.11609   -2.000
 7107.00    2.45460   3.13539   -2.000
 7108.00    2.01895   3.15741   -2.000
 7109.00    2.21843   3.17436   -2.000
 7110.00    2.43880   3.18304   -2.000
 7111.00    2.71916   3.18364   -2.000
 7112.00    2.89796   3.17746   -2.000
 7113.00    2.82753   3.16739   -2.000
 7114.00    2.82466   3.15571   -2.000
 7115.00    2.96476   3.14699   -2.000
 7116.00    2.92177   3.14121   -2.000
 7117.00    2.54211   3.13460   -2.000
 7118.00    2.24656   3.12446   -2.000
 7119.00    2.08615   3.10891   -2.000
 7120.00    2.06052   3.09026   -2.000
 7121.00    2.22488   3.07056   -2.000
 7122.00    2.14836   3.04995   -2.000
 7123.00    1.77306   3.03131   -2.000
 7124.00    1.83057   3.02195   -2.000
 7125.00    2.36128   3.02936   -2.000
 7126.00    2.86710   3.05525   -2.000
 7127.00    3.34892   3.09065   -2.000
 7128.00    3.37495   3.12388   -2.000
 7129.00    3.01338   3.14758   -2.000
 7130.00    2.69615   3.15810   -2.000
 7131.00    2.41213   3.15821   -2.000
 7132.00    2.54499   3.15445   -2.000
 7133.00    2.95216   3.15227   -2.000
 7134.00    3.01189   3.15468   -2.000
 7135.00    2.87149   3.16085   -2.000
 7136.00    2.65537   3.16507   -2.000
 7137.00    2.40126   3.16299   -2.000
 7138.00    2.40511   3.15336   -2.000
 7139.00    2.52098   3.13466   -2.000
 7140.00    2.59520   3.10960   -2.000
 7141.00    2.65391   3.08825   -2.000
 7142.00    2.50142   3.07969   -2.000
 7143.00    2.28221   3.09068   -2.000
 7144.00    2.59090   3.11954   -2.000
 7145.00    3.03881   3.15438   -2.000
 7146.00    2.86461   3.18344   -2.000
 7147.00    2.55631   3.20120   -2.000
 7148.00    2.44077   3.20954   -2.000
 7149.00    2.35817   3.21391   -2.000
 7150.00    2.21052   3.21714   -2.000
 7151.00    2.05445   3.21828   -2.000
 7152.00    2.27481   3.21323   -2.000
 7153.00    2.52934   3.20283   -2.000
 7154.00    2.48411   3.18992   -2.000
 7155.00    2.42247   3.17278   -2.000
 7156.00    2.41224   3.14845   -2.000
 7157.00    2.40035   3.12126   -2.000
 7158.00    2.13954   3.10379   -2.000
 7159.00    1.91546   3.10835   -2.000
 7160.00    2.52503   3.13635   -2.000
 7161.00    3.13464   3.17465   -2.000
 7162.00    3.74476   3.20863   -2.000
 7163.00    4.27394   3.23328   -2.000
 7164.00    4.11264   3.25079   -2.000
 7165.00    3.84098   3.26379   -2.000
 7166.00    2.86990   3.27033   -2.000
 7167.00    2.14725   3.26616   -2.000
 7168.00    2.65808   3.25249   -2.000
 7169.00    3.15236   3.23659   -2.000
 7170.00    3.58003   3.22308   -2.000
 7171.00    3.85481   3.21011   -2.000
 7172.00    3.61882   3.19235   -2.000
 7173.00    3.34469   3.16918   -2.000
 7174.00    2.96297   3.15164   -2.000
 7175.00    2.75439   3.15248   -2.000
 7176.00    2.96339   3.17193   -2.000
 7177.00    2.96691   3.19471   -2.000
 7178.00    2.54258   3.20031   -2.000
 7179.00    2.40587   3.18021   -2.000
 7180.00    2.78990   3.14434   -2.000
 7181.00    2.93341   3.11027   -2.000
 7182.00    2.69623   3.09388   -2.000
 7183.00    2.58294   3.09930   -2.000
 7184.00    2.64179   3.11698   -2.000
 7185.00    2.49521   3.13648   -2.000
 7186.00    2.09744   3.15201   -2.000
 7187.00    2.09724   3.16345   -2.000
 7188.00    2.52563   3.17287   -2.000
 7189.00    2.69445   3.18100   -2.000
 7190.00    2.61647   3.18760   -2.000
 7191.00    2.62976   3.19376   -2.000
 7192.00    2.71957   3.20199   -2.000
 7193.00    2.76050   3.21088   -2.000
 7194.00    2.76536   3.21808   -2.000
 7195.00    2.78657   3.22511   -2.000
 7196.00    2.81838   3.23212   -2.000
 7197.00    2.45553   3.23323   -2.000
 7198.00    1.86878   3.21871   -2.000
 7199.00    1.94118   3.18591   -2.000
 7200.00    2.33911   3.14684   -2.000
 7201.00    2.80856   3.12193   -2.000
 7202.00    3.30856   3.12707   -2.000
 7203.00    3.63452   3.15854   -2.000
 7204.00    3.89679   3.19653   -2.000
 7205.00    3.18076   3.22374   -2.000
 7206.00    2.16168   3.23233   -2.000
 7207.00    2.16695   3.22815   -2.000
 7208.00    2.43661   3.22488   -2.000
 7209.00    2.26355   3.23140   -2.000
 7210.00    1.99737   3.24668   -2.000
 7211.00    1.86292   3.26393   -2.000
 7212.00    1.75036   3.27468   -2.000
 7213.00    2.15857   3.27435   -2.000
 7214.00    2.63184   3.26679   -2.000
 7215.00    2.89539   3.26020   -2.000
 7216.00    3.14077   3.26205   -2.000
 7217.00    2.96541   3.27425   -2.000
 7218.00    2.76866   3.29413   -2.000
