###################################################################
## OUTPUT of StarlightChains_v04.for    [Cid@UFSC - 01/Apr/2007] ##
###################################################################

## Some input info
KUG0210-078._30_42.txt                   [arq_obs]
Base.CB07.vall.4m                        [arq_base]
Masks.EmLines.NEW.gm                     [arq_masks]
StCv04.C11.config                        [arq_config]
   66                                    [N_base]
    0                                    [N_YAV_components = # of components with extra extinction!]
    0                                    [i_FitPowerLaw (1/0 = Yes/No)]
-9.99                                    [alpha_PowerLaw]
CCM                                      [red_law_option]
 1.458241                                [q_norm = A(l_norm)/A(V)]

## (Re)Sampling Parameters
 3741.00                                 [l_ini (A)]
 7218.00                                 [l_fin (A)]
    1.00                                 [dl    (A)]     (OBS: dl_cushion =    50.00 A)

## Normalization info
 4020.00                                 [l_norm (A) - for base]
 4010.00                                 [llow_norm (A) - window for f_obs]
 4060.00                                 [lupp_norm (A) - window for f_obs]
7.993178E-18                             [fobs_norm (in input units)]

## S/N
 3691.00                                 [llow_SN (A) - window for S/N]
 7268.00                                 [lupp_SN (A) - window for S/N]
   4.487                                 [S/N in S/N window]
   3.822                                 [S/N in norm. window]
   0.011                                 [S/N_err in S/N window]
   0.010                                 [S/N_err in norm. window]
  1.0000                                 [fscale_chi2]

## etc...
    -2007443                             [idum_orig]
  2415                                   [NOl_eff]
  2299                                   [Nl_eff]
   116    NSIGMA                         [Ntot_cliped & clip_method]
 10066770                                [Nglobal_steps]
   7                                     [N_chains]
  24                                     [NEX0s_base = N_base in EX0s-fits]
 0   1   1      118   2.0   3.777E+03    [Clip-Bug, RC-Crash & Burn-In warning-flags, n_censored_weights, wei_nsig_threshold & wei_limit]
   115    114.881    114.186      0.695  [idt_all, wdt_TotTime, wdt_UsrTime & wdt_SysTime (sec)]

## Synthesis Results - Best model ##

 3.79935E-04                             [chi2/Nl_eff]
    20.83691                             [adev (%)]

   103.19439                             [sum-of-x (%)]
 1.68836E-17                             [Flux_tot (units of input spectrum!)]
 7.47235E-13                             [Mini_tot (???)]
 3.76582E-13                             [Mcor_tot (???)]

  76.75                                  [v0_min  (km/s)]
  39.10                                  [vd_min  (km/s)]
 0.5333                                  [AV_min  (mag)]
 0.0000                                  [YAV_min (mag)]

# j     x_j(%)      Mini_j(%)     Mcor_j(%)     age_j(yr)     Z_j      (L/M)_j    YAV?  Mstars   component_j        a/Fe...       SSP_chi2r SSP_adev(%)   SSP_AV   SSP_x(%)
  1      0.3657     7.3185E-04    1.4522E-03    1.000000E+06  0.00400  1.094E-02    0   1.0000   age020_m42            0.0000     1.1014E-01    21.3013   4.0000    67.8974
  2      0.0000     0.0000E+00    0.0000E+00    3.160000E+06  0.00400  4.007E-02    0   0.9999   age045_m42            0.0000     4.0771E-05    23.8363   3.6268    57.0075
  3      0.0000     0.0000E+00    0.0000E+00    5.010000E+06  0.00400  2.539E-02    0   0.9488   age055_m42            0.0000     1.6217E-04    24.3112   4.0000    54.0900
  4      0.0000     0.0000E+00    0.0000E+00    6.610000E+06  0.00400  2.620E-02    0   0.9220   age061_m42            0.0000     3.0232E-05    21.9914   3.3363    65.4261
  5      0.5974     9.8946E-04    1.7399E-03    1.000000E+07  0.00400  1.322E-02    0   0.8862   age070_m42            0.0000     5.7367E-05    26.9269   3.3436    53.1629
  6      0.0000     0.0000E+00    0.0000E+00    1.445000E+07  0.00400  7.883E-03    0   0.8571   age078_m42            0.0000     4.6571E-05    25.0418   3.5373    56.9339
  7      3.1977     1.3334E-02    2.1626E-02    2.512000E+07  0.00400  5.251E-03    0   0.8174   age090_m42            0.0000     4.2807E-05    24.4532   2.9763    62.2382
  8      0.0000     0.0000E+00    0.0000E+00    4.000000E+07  0.00400  3.649E-03    0   0.7851   age104_m42            0.0000     9.0633E-05    32.4656   3.4176    40.6469
  9      1.2425     8.7813E-03    1.3293E-02    5.500000E+07  0.00400  3.098E-03    0   0.7629   age110_m42            0.0000     7.0266E-05    29.1861   3.3733    46.8586
 10      2.3952     2.3539E-02    3.3662E-02    1.015200E+08  0.00400  2.228E-03    0   0.7207   age116_m42            0.0000     4.3384E-05    24.3322   3.0399    59.6833
 11      3.9566     7.9260E-02    1.0455E-01    2.861200E+08  0.00400  1.093E-03    0   0.6648   age125_m42            0.0000     1.0058E-04    53.8222   0.4661   216.0100
 12      0.0000     0.0000E+00    0.0000E+00    5.088000E+08  0.00400  6.597E-04    0   0.6365   age130_m42            0.0000     4.9839E-05    37.9366   0.7983   177.2209
 13      0.0000     0.0000E+00    0.0000E+00    1.434000E+09  0.00400  2.132E-04    0   0.5798   age139_m42            0.0000     1.5917E-05    19.1726   0.9098    91.3809
 14      0.0000     0.0000E+00    0.0000E+00    4.250000E+09  0.00400  5.895E-05    0   0.5377   age158_m42            0.0000     2.1550E-05    20.4533   0.7622    75.4588
 15      0.0000     0.0000E+00    0.0000E+00    7.500000E+09  0.00400  3.510E-05    0   0.5212   age171_m42            0.0000     2.5061E-05    21.1321   0.6910    69.8868
 16      0.0000     0.0000E+00    0.0000E+00    1.300000E+10  0.00400  2.005E-05    0   0.5034   age193_m42            0.0000     2.8683E-05    21.9139   0.6219    65.3658
 17      0.0000     0.0000E+00    0.0000E+00    1.800000E+10  0.00400  1.525E-05    0   0.4967   age213_m42            0.0000     1.4594E-05    19.2742  -0.0003    95.9160
 18      3.0239     5.3481E-03    1.0612E-02    1.000000E+06  0.00800  1.238E-02    0   1.0000   age020_m52            0.0000     1.2017E-01    21.3098   4.0000    67.8954
 19      0.0000     0.0000E+00    0.0000E+00    3.160000E+06  0.00800  3.074E-02    0   0.9966   age045_m52            0.0000     1.8431E-01    21.6267   4.0000    65.4684
 20      0.0000     0.0000E+00    0.0000E+00    5.010000E+06  0.00800  2.668E-02    0   0.9443   age055_m52            0.0000     3.1005E-02    23.5791   4.0000    56.3991
 21      0.0000     0.0000E+00    0.0000E+00    6.610000E+06  0.00800  2.136E-02    0   0.9177   age061_m52            0.0000     4.1208E-04    40.1831   4.0000    25.8291
 22      0.0000     0.0000E+00    0.0000E+00    1.000000E+07  0.00800  1.215E-02    0   0.8827   age070_m52            0.0000     4.5551E-05    24.8198   3.2550    61.8208
 23      0.0000     0.0000E+00    0.0000E+00    1.445000E+07  0.00800  8.717E-03    0   0.8552   age078_m52            0.0000     6.3035E-05    27.8700   3.7250    49.6974
 24      0.0000     0.0000E+00    0.0000E+00    2.512000E+07  0.00800  5.592E-03    0   0.8162   age090_m52            0.0000     3.9319E-05    23.8211   2.9298    66.5450
 25      0.0000     0.0000E+00    0.0000E+00    4.000000E+07  0.00800  3.896E-03    0   0.7841   age104_m52            0.0000     4.8707E-05    25.3711   3.0001    60.5571
 26      0.0000     0.0000E+00    0.0000E+00    1.015200E+08  0.00800  2.148E-03    0   0.7226   age116_m52            0.0000     5.3169E-05    26.0077   3.0758    56.3185
 27      0.0000     0.0000E+00    0.0000E+00    2.861200E+08  0.00800  9.925E-04    0   0.6683   age125_m52            0.0000     4.1608E-05    23.8210   2.3784    66.3043
 28      0.0000     0.0000E+00    0.0000E+00    9.047900E+08  0.00800  3.141E-04    0   0.6138   age135_m52            0.0000     5.7505E-05    27.1772   1.8928    56.9397
 29      0.0000     0.0000E+00    0.0000E+00    1.434000E+09  0.00800  1.719E-04    0   0.5853   age139_m52            0.0000     7.8385E-05    44.1590  -0.6572   200.9838
 30      0.0000     0.0000E+00    0.0000E+00    2.500000E+09  0.00800  7.872E-05    0   0.5600   age150_m52            0.0000     7.2495E-05    30.7113   1.5041    42.5214
 31      0.0000     0.0000E+00    0.0000E+00    4.250000E+09  0.00800  4.336E-05    0   0.5426   age158_m52            0.0000     5.9695E-05    28.2961   1.3141    47.3753
 32      0.0000     0.0000E+00    0.0000E+00    6.250000E+09  0.00800  3.159E-05    0   0.5319   age166_m52            0.0000     6.8157E-05    30.0818   1.2890    42.6948
 33      0.0000     0.0000E+00    0.0000E+00    1.300000E+10  0.00800  1.361E-05    0   0.5073   age193_m52            0.0000     9.6138E-05    35.2861   1.2972    31.6850
 34      0.0000     0.0000E+00    0.0000E+00    1.800000E+10  0.00800  9.886E-06    0   0.4990   age213_m52            0.0000     9.8397E-05    35.8329   1.2729    30.1961
 35      4.8353     6.8569E-03    1.3606E-02    1.000000E+06  0.02000  1.544E-02    0   1.0000   age020_m62            0.0000     1.2217E-01    21.3444   4.0000    67.9273
 36      0.0000     0.0000E+00    0.0000E+00    3.160000E+06  0.02000  3.762E-02    0   0.9858   age045_m62            0.0000     1.1410E-01    21.5716   4.0000    65.9308
 37      0.0000     0.0000E+00    0.0000E+00    5.010000E+06  0.02000  3.296E-02    0   0.9342   age055_m62            0.0000     1.3011E-02    24.6597   4.0000    53.2793
 38      3.7682     7.1496E-03    1.2571E-02    8.710000E+06  0.02000  1.154E-02    0   0.8861   age067_m62            0.0000     5.7597E-05    44.4371   0.8960   189.5675
 39      3.3905     9.6875E-03    1.6285E-02    1.445000E+07  0.02000  7.663E-03    0   0.8472   age078_m62            0.0000     1.7430E-05    26.5852   1.6467   137.0498
 40      0.0000     0.0000E+00    0.0000E+00    2.512000E+07  0.02000  4.532E-03    0   0.8099   age090_m62            0.0000     3.8427E-05    36.5696   1.2972   168.5515
 41      3.8428     3.0786E-02    4.6396E-02    5.500000E+07  0.02000  2.733E-03    0   0.7595   age110_m62            0.0000     3.2411E-05    22.5560   2.7206    71.4102
 42      0.0000     0.0000E+00    0.0000E+00    1.609000E+08  0.02000  1.369E-03    0   0.6985   age120_m62            0.0000     2.3757E-05    20.6889   2.4428    80.2528
 43      0.0000     0.0000E+00    0.0000E+00    2.861200E+08  0.02000  9.013E-04    0   0.6714   age125_m62            0.0000     5.4658E-05    26.6185   2.7790    56.9084
 44      0.0000     0.0000E+00    0.0000E+00    5.088000E+08  0.02000  5.028E-04    0   0.6449   age130_m62            0.0000     1.1164E-04    36.5123   3.2491    34.2656
 45      0.0000     0.0000E+00    0.0000E+00    9.047900E+08  0.02000  2.428E-04    0   0.6179   age135_m62            0.0000     9.6554E-05    34.4751   2.5396    37.2620
 46      1.4957     2.5930E-01    3.0398E-01    1.434000E+09  0.02000  1.263E-04    0   0.5908   age139_m62            0.0000     6.4238E-05    29.2419   1.7390    47.0080
 47      0.0000     0.0000E+00    0.0000E+00    2.500000E+09  0.02000  5.985E-05    0   0.5673   age150_m62            0.0000     1.0499E-04    36.3927   2.0289    30.9848
 48      0.0000     0.0000E+00    0.0000E+00    4.250000E+09  0.02000  3.271E-05    0   0.5468   age158_m62            0.0000     1.2230E-04    39.3100   2.0614    25.2418
 49      0.0000     0.0000E+00    0.0000E+00    1.000000E+10  0.02000  1.360E-05    0   0.5167   age181_m62            0.0000     1.1269E-04    38.2304   1.6704    26.2723
 50      6.0009     1.8444E+01    1.8346E+01    1.800000E+10  0.02000  7.124E-06    0   0.5013   age213_m62            0.0000     1.0160E-04    36.7322   1.3561    28.1226
 51      4.7234     3.9900E-03    7.9155E-03    1.000000E+06  0.05000  2.592E-02    0   0.9998   age020_m72            0.0000     9.2813E-02    21.4632   4.0000    67.5419
 52      0.7687     3.4740E-04    6.6018E-04    3.160000E+06  0.05000  4.845E-02    0   0.9577   age045_m72            0.0000     2.2331E-02    22.1357   4.0000    61.9274
 53      0.0000     0.0000E+00    0.0000E+00    5.010000E+06  0.05000  3.072E-02    0   0.9147   age055_m72            0.0000     3.6752E-05    35.4701   1.9394   158.9536
 54     26.5299     3.9923E-02    7.0321E-02    6.610000E+06  0.05000  1.455E-02    0   0.8877   age061_m72            0.0000     7.5777E-01   195.0418  -1.0000   584.0407
 55      1.8768     4.5287E-03    7.6598E-03    1.000000E+07  0.05000  9.074E-03    0   0.8524   age070_m72            0.0000     8.3368E-01   403.7806  -1.0000  1105.6554
 56      0.5334     2.7482E-03    4.3090E-03    2.512000E+07  0.05000  4.250E-03    0   0.7902   age090_m72            0.0000     3.2015E-04    96.3855   0.7528   312.9708
 57      0.3928     2.7864E-03    4.2119E-03    4.000000E+07  0.05000  3.087E-03    0   0.7618   age104_m72            0.0000     4.0307E-04   107.1679   0.3845   346.7354
 58      0.0000     0.0000E+00    0.0000E+00    1.015200E+08  0.05000  1.700E-03    0   0.7096   age116_m72            0.0000     1.4529E-05    19.6597   2.2135    98.9014
 59      0.0000     0.0000E+00    0.0000E+00    2.861200E+08  0.05000  7.384E-04    0   0.6633   age125_m72            0.0000     6.0757E-05    27.9392   2.7872    53.1846
 60      0.0000     0.0000E+00    0.0000E+00    5.088000E+08  0.05000  3.819E-04    0   0.6372   age130_m72            0.0000     1.0563E-04    35.8902   3.0528    34.1685
 61      0.4799     6.2689E-02    7.6003E-02    9.047900E+08  0.05000  1.676E-04    0   0.6110   age135_m72            0.0000     1.5850E-04    43.7103   3.2165    19.9708
 62      0.0000     0.0000E+00    0.0000E+00    1.434000E+09  0.05000  8.837E-05    0   0.5874   age139_m72            0.0000     7.5595E-05    31.6696   1.6306    40.5333
 63      6.8578     3.5472E+00    3.9402E+00    2.500000E+09  0.05000  4.233E-05    0   0.5598   age150_m72            0.0000     1.3331E-04    40.9768   2.2217    22.9956
 64      9.1184     1.3913E+01    1.4491E+01    6.250000E+09  0.05000  1.435E-05    0   0.5249   age166_m72            0.0000     9.4345E-05    35.6092   1.3533    30.2393
 65      2.1801     7.3291E+00    7.3237E+00    1.300000E+10  0.05000  6.513E-06    0   0.5036   age193_m72            0.0000     5.3421E-05    28.1281   0.4858    45.1209
 66     11.6206     5.6204E+01    5.5148E+01    1.800000E+10  0.05000  4.527E-06    0   0.4945   age213_m72            0.0000     2.6346E-05    21.1771  -0.3463    69.9041


## Synthesis Results - Average & Chains ##

# j      x_j: min, <> & last-chain-values for 1 ...  7 chains
  1      0.3657      0.3307      0.3457      0.3566      0.3453      0.3696      0.3692      0.2651      0.4072
  2      0.0000      0.1360      0.1306      0.1510      0.2195      0.1385      0.1146      0.1859      0.0000
  3      0.0000      0.0245      0.0000      0.0000      0.0365      0.0882      0.0681      0.0000      0.0000
  4      0.0000      0.0532      0.0000      0.0000      0.1197      0.2137      0.0000      0.1701      0.0033
  5      0.5974      0.4467      0.4303      0.3981      0.4142      0.3957      0.3926      0.5935      0.3451
  6      0.0000      0.1107      0.1176      0.0577      0.2417      0.0000      0.1882      0.1077      0.0257
  7      3.1977      3.0032      3.2119      3.1577      2.9617      3.0606      3.0128      3.0307      3.0239
  8      0.0000      0.0455      0.0908      0.1414      0.0000      0.0096      0.0024      0.0000      0.0199
  9      1.2425      1.2045      1.2696      1.0330      1.2398      1.0221      1.1787      1.2172      1.2759
 10      2.3952      2.2192      2.2841      2.3654      2.2889      2.2041      2.3164      2.2221      2.4077
 11      3.9566      3.9539      3.9921      4.0439      4.0945      3.9806      4.0017      3.9706      3.9495
 12      0.0000      0.0543      0.2168      0.0537      0.0802      0.0293      0.1333      0.0000      0.0725
 13      0.0000      0.6079      0.3025      0.7739      0.3528      0.6116      0.0992      0.6355      0.0570
 14      0.0000      0.2629      0.1578      0.1907      0.0636      0.1060      0.4085      0.3757      0.0071
 15      0.0000      0.1891      0.2611      0.0954      0.2133      0.2043      0.7099      0.1810      0.1237
 16      0.0000      0.1310      0.2950      0.1432      0.0639      0.1778      0.1619      0.1288      0.0000
 17      0.0000      0.0397      0.0000      0.0000      0.1316      0.0631      0.0516      0.0374      0.1152
 18      3.0239      2.7402      2.6650      2.9325      2.8018      2.8126      2.8132      2.8424      2.7181
 19      0.0000      0.2637      0.2088      0.2632      0.2781      0.1623      0.2698      0.3250      0.1688
 20      0.0000      0.0637      0.0000      0.0247      0.1226      0.0000      0.0000      0.0784      0.0233
 21      0.0000      0.1160      0.1918      0.1008      0.0967      0.1144      0.2971      0.0000      0.0000
 22      0.0000      0.0321      0.0545      0.0227      0.0000      0.1261      0.0000      0.0000      0.1569
 23      0.0000      0.0425      0.0000      0.0582      0.0000      0.0000      0.0690      0.0000      0.0000
 24      0.0000      0.0287      0.0068      0.0248      0.0000      0.0179      0.0000      0.0000      0.0000
 25      0.0000      0.0309      0.0000      0.0000      0.0000      0.0000      0.1176      0.0000      0.0000
 26      0.0000      0.0513      0.0846      0.0626      0.0772      0.0000      0.1075      0.0000      0.0968
 27      0.0000      0.0851      0.1777      0.0281      0.0000      0.0000      0.0000      0.0631      0.0000
 28      0.0000      0.1662      0.2663      0.0986      0.2138      0.2024      0.0123      0.0486      0.0678
 29      0.0000      0.3013      0.3033      0.3936      0.2331      0.2745      0.0953      0.5919      0.0229
 30      0.0000      0.1344      0.0709      0.0279      0.1473      0.0000      0.2982      0.0091      0.0538
 31      0.0000      0.1042      0.0000      0.0000      0.1214      0.0589      0.0111      0.0710      0.1039
 32      0.0000      0.0644      0.0000      0.0211      0.0000      0.1770      0.1315      0.0000      0.0000
 33      0.0000      0.0211      0.0402      0.0000      0.0000      0.0000      0.0000      0.0000      0.0000
 34      0.0000      0.0203      0.0000      0.0395      0.0000      0.0340      0.0000      0.0000      0.0137
 35      4.8353      4.5881      4.5937      4.6278      4.5907      4.5966      4.6883      4.5783      4.7398
 36      0.0000      0.0291      0.0000      0.0000      0.0000      0.1239      0.0678      0.1044      0.0446
 37      0.0000      0.0243      0.0000      0.0000      0.0000      0.0000      0.0000      0.0075      0.0000
 38      3.7682      3.6943      3.5445      3.7074      3.7067      3.7483      3.8960      3.6717      3.8631
 39      3.3905      3.3282      3.2571      3.4013      3.3604      3.3659      3.3610      3.1985      3.4178
 40      0.0000      0.0354      0.0098      0.0000      0.0445      0.1337      0.0000      0.0000      0.0000
 41      3.8428      3.7290      3.7519      3.8120      3.8280      3.8131      3.7961      3.6792      3.7465
 42      0.0000      0.1552      0.1752      0.0000      0.0804      0.2287      0.1973      0.0000      0.1223
 43      0.0000      0.0508      0.0678      0.0678      0.2011      0.0000      0.0000      0.1350      0.0000
 44      0.0000      0.1491      0.4384      0.1881      0.0000      0.1000      0.0000      0.2053      0.0000
 45      0.0000      0.2145      0.0000      0.5272      0.2271      0.1714      0.0000      0.1656      0.0000
 46      1.4957      0.4106      0.1906      0.6512      0.0264      0.0496      0.0000      0.3963      0.3565
 47      0.0000      0.1836      0.1983      0.0001      0.1849      0.0000      0.0000      0.2591      0.0214
 48      0.0000      0.0494      0.0000      0.0049      0.0211      0.0205      0.0000      0.0000      0.0567
 49      0.0000      0.0194      0.0000      0.0000      0.0000      0.0307      0.0000      0.0000      0.0018
 50      6.0009      5.9086      5.8583      6.0484      5.9867      6.0354      5.9817      5.8643      6.0878
 51      4.7234      4.6919      4.7169      4.6583      4.6331      4.8310      4.5056      4.6823      4.7616
 52      0.7687      0.8101      0.8269      0.7771      0.7892      0.9352      0.7730      0.8032      0.8080
 53      0.0000      0.0271      0.0000      0.0000      0.0000      0.0058      0.0299      0.0340      0.0000
 54     26.5299     25.5621     25.8462     25.6359     25.7997     25.8237     25.7478     25.9685     26.1799
 55      1.8768      1.8381      1.8089      1.6717      1.8171      1.8754      1.8898      1.7982      1.9933
 56      0.5334      0.3628      0.4222      0.4688      0.3533      0.3817      0.4590      0.3594      0.5386
 57      0.3928      0.3943      0.3341      0.3657      0.6107      0.4958      0.3742      0.0115      0.3105
 58      0.0000      0.0533      0.0443      0.0901      0.0258      0.0000      0.1560      0.0000      0.2783
 59      0.0000      0.1163      0.0000      0.0483      0.0000      0.1842      0.0000      0.1275      0.1208
 60      0.0000      0.0797      0.0338      0.1163      0.0000      0.1219      0.0000      0.2099      0.0465
 61      0.4799      0.2945      0.1082      0.0742      0.0978      0.0000      0.5417      0.4348      0.4714
 62      0.0000      0.1974      0.2464      0.0434      0.2107      0.1279      0.0000      0.2458      0.2135
 63      6.8578      6.7747      6.8522      6.6859      6.9591      6.8402      6.6895      6.7341      6.8031
 64      9.1184      9.0034      9.0137      9.0446      9.0830      9.0872      8.9526      8.9931      9.2168
 65      2.1801      2.1232      2.1811      2.0950      2.2257      2.1263      2.1707      2.1292      2.1081
 66     11.6206     11.3201     11.4668     11.4450     11.4089     11.4676     11.4423     11.3517     11.5844

# j      m_j: min, <> & last-chain-values for 1 ...  7 chains
  1  1.4522E-03  1.3313E-03  1.3830E-03  1.4271E-03  1.3775E-03  1.4717E-03  1.4734E-03  1.0685E-03  1.6132E-03
  2  0.0000E+00  1.4943E-04  1.4259E-04  1.6501E-04  2.3902E-04  1.5052E-04  1.2481E-04  2.0456E-04  0.0000E+00
  3  0.0000E+00  4.0351E-05  0.0000E+00  0.0000E+00  5.9488E-05  1.4360E-04  1.1108E-04  0.0000E+00  0.0000E+00
  4  0.0000E+00  8.2523E-05  0.0000E+00  0.0000E+00  1.8387E-04  3.2754E-04  0.0000E+00  2.6402E-04  4.9827E-06
  5  1.7399E-03  1.3188E-03  1.2622E-03  1.1685E-03  1.2117E-03  1.1554E-03  1.1489E-03  1.7546E-03  1.0027E-03
  6  0.0000E+00  5.3010E-04  5.5941E-04  2.7458E-04  1.1466E-03  0.0000E+00  8.9360E-04  5.1632E-04  1.2122E-04
  7  2.1626E-02  2.0590E-02  2.1879E-02  2.1520E-02  2.0118E-02  2.0754E-02  2.0476E-02  2.0804E-02  2.0402E-02
  8  0.0000E+00  4.3115E-04  8.5506E-04  1.3318E-03  0.0000E+00  8.9633E-05  2.2977E-05  0.0000E+00  1.8557E-04
  9  1.3293E-02  1.3064E-02  1.3681E-02  1.1137E-02  1.3323E-02  1.0964E-02  1.2673E-02  1.3218E-02  1.3618E-02
 10  3.3662E-02  3.1616E-02  3.2332E-02  3.3498E-02  3.2308E-02  3.1058E-02  3.2714E-02  3.1696E-02  3.3755E-02
 11  1.0455E-01  1.0592E-01  1.0626E-01  1.0769E-01  1.0867E-01  1.0547E-01  1.0627E-01  1.0650E-01  1.0412E-01
 12  0.0000E+00  2.3087E-03  9.1548E-03  2.2688E-03  3.3779E-03  1.2295E-03  5.6145E-03  0.0000E+00  3.0334E-03
 13  0.0000E+00  7.2815E-02  3.5995E-02  9.2143E-02  4.1863E-02  7.2452E-02  1.1778E-02  7.6212E-02  6.7203E-03
 14  0.0000E+00  1.0562E-01  6.2980E-02  7.6165E-02  2.5313E-02  4.2131E-02  1.6266E-01  1.5111E-01  2.7964E-03
 15  0.0000E+00  1.2369E-01  1.6965E-01  6.1996E-02  1.3820E-01  1.3217E-01  4.6023E-01  1.1853E-01  7.9618E-02
 16  0.0000E+00  1.4486E-01  3.2409E-01  1.5742E-01  6.9990E-02  1.9449E-01  1.7743E-01  1.4262E-01  0.0000E+00
 17  0.0000E+00  5.6927E-02  0.0000E+00  0.0000E+00  1.8706E-01  8.9500E-02  7.3381E-02  5.3767E-02  1.6256E-01
 18  1.0612E-02  9.7486E-03  9.4200E-03  1.0370E-02  9.8758E-03  9.8968E-03  9.9212E-03  1.0125E-02  9.5160E-03
 19  0.0000E+00  3.7655E-04  2.9628E-04  3.7355E-04  3.9350E-04  2.2918E-04  3.8183E-04  4.6457E-04  2.3726E-04
 20  0.0000E+00  9.9347E-05  0.0000E+00  3.8211E-05  1.8941E-04  0.0000E+00  0.0000E+00  1.2232E-04  3.5720E-05
 21  0.0000E+00  2.1949E-04  3.6055E-04  1.8959E-04  1.8134E-04  2.1415E-04  5.5730E-04  0.0000E+00  0.0000E+00
 22  0.0000E+00  1.0273E-04  1.7320E-04  7.2243E-05  0.0000E+00  3.9918E-04  0.0000E+00  0.0000E+00  4.9393E-04
 23  0.0000E+00  1.8346E-04  0.0000E+00  2.5017E-04  0.0000E+00  0.0000E+00  2.9555E-04  0.0000E+00  0.0000E+00
 24  0.0000E+00  1.8466E-04  4.3370E-05  1.5827E-04  0.0000E+00  1.1376E-04  0.0000E+00  0.0000E+00  0.0000E+00
 25  0.0000E+00  2.7420E-04  0.0000E+00  0.0000E+00  0.0000E+00  0.0000E+00  1.0331E-03  0.0000E+00  0.0000E+00
 26  0.0000E+00  7.5953E-04  1.2452E-03  9.2195E-04  1.1338E-03  0.0000E+00  1.5796E-03  0.0000E+00  1.4114E-03
 27  0.0000E+00  2.5248E-03  5.2359E-03  8.2777E-04  0.0000E+00  0.0000E+00  0.0000E+00  1.8722E-03  0.0000E+00
 28  0.0000E+00  1.4306E-02  2.2774E-02  8.4369E-03  1.8234E-02  1.7230E-02  1.0519E-03  4.1845E-03  5.7450E-03
 29  0.0000E+00  4.5189E-02  4.5195E-02  5.8675E-02  3.4631E-02  4.0712E-02  1.4166E-02  8.8867E-02  3.3828E-03
 30  0.0000E+00  4.2112E-02  2.2075E-02  8.6776E-03  4.5726E-02  0.0000E+00  9.2603E-02  2.8671E-03  1.6588E-02
 31  0.0000E+00  5.7440E-02  0.0000E+00  0.0000E+00  6.6293E-02  3.2087E-02  6.0792E-03  3.9170E-02  5.6359E-02
 32  0.0000E+00  4.7793E-02  0.0000E+00  1.5588E-02  0.0000E+00  1.2985E-01  9.6703E-02  0.0000E+00  0.0000E+00
 33  0.0000E+00  3.4631E-02  6.5623E-02  0.0000E+00  0.0000E+00  0.0000E+00  0.0000E+00  0.0000E+00  0.0000E+00
 34  0.0000E+00  4.5161E-02  0.0000E+00  8.7259E-02  0.0000E+00  7.4822E-02  0.0000E+00  0.0000E+00  3.0022E-02
 35  1.3606E-02  1.3088E-02  1.3020E-02  1.3122E-02  1.2974E-02  1.2968E-02  1.3257E-02  1.3076E-02  1.3305E-02
 36  0.0000E+00  3.3609E-05  0.0000E+00  0.0000E+00  0.0000E+00  1.4143E-04  7.7581E-05  1.2061E-04  5.0701E-05
 37  0.0000E+00  3.0351E-05  0.0000E+00  0.0000E+00  0.0000E+00  0.0000E+00  0.0000E+00  9.3687E-06  0.0000E+00
 38  1.2571E-02  1.2493E-02  1.1910E-02  1.2463E-02  1.2420E-02  1.2538E-02  1.3061E-02  1.2433E-02  1.2856E-02
 39  1.6285E-02  1.6206E-02  1.5758E-02  1.6463E-02  1.6212E-02  1.6210E-02  1.6223E-02  1.5594E-02  1.6377E-02
 40  0.0000E+00  2.7857E-04  7.6414E-05  0.0000E+00  3.4730E-04  1.0411E-03  0.0000E+00  0.0000E+00  0.0000E+00
 41  4.6396E-02  4.5641E-02  4.5627E-02  4.6379E-02  4.6421E-02  4.6160E-02  4.6058E-02  4.5088E-02  4.5125E-02
 42  0.0000E+00  3.4881E-03  3.9126E-03  0.0000E+00  1.7891E-03  5.0829E-03  4.3950E-03  0.0000E+00  2.7055E-03
 43  0.0000E+00  1.6666E-03  2.2092E-03  2.2117E-03  6.5383E-03  0.0000E+00  0.0000E+00  4.4339E-03  0.0000E+00
 44  0.0000E+00  8.4249E-03  2.4604E-02  1.0565E-02  0.0000E+00  5.5861E-03  0.0000E+00  1.1610E-02  0.0000E+00
 45  0.0000E+00  2.4041E-02  0.0000E+00  5.8741E-02  2.5218E-02  1.8997E-02  0.0000E+00  1.8584E-02  0.0000E+00
 46  3.0398E-01  8.4602E-02  3.9023E-02  1.3337E-01  5.3799E-03  1.0098E-02  0.0000E+00  8.1752E-02  7.2281E-02
 47  0.0000E+00  7.6652E-02  8.2270E-02  4.1364E-05  7.6462E-02  0.0000E+00  0.0000E+00  1.0830E-01  8.8005E-03
 48  0.0000E+00  3.6371E-02  0.0000E+00  3.6014E-03  1.5407E-02  1.4951E-02  0.0000E+00  0.0000E+00  4.1058E-02
 49  0.0000E+00  3.2459E-02  0.0000E+00  0.0000E+00  0.0000E+00  5.0776E-02  0.0000E+00  0.0000E+00  2.9181E-03
 50  1.8346E+01  1.8312E+01  1.8039E+01  1.8634E+01  1.8383E+01  1.8501E+01  1.8377E+01  1.8197E+01  1.8567E+01
 51  7.9155E-03  7.9709E-03  7.9618E-03  7.8666E-03  7.7984E-03  8.1174E-03  7.5877E-03  7.9645E-03  7.9605E-03
 52  6.6018E-04  7.0528E-04  7.1524E-04  6.7248E-04  6.8072E-04  8.0525E-04  6.6714E-04  7.0012E-04  6.9226E-04
 53  0.0000E+00  3.5587E-05  0.0000E+00  0.0000E+00  0.0000E+00  7.4909E-06  3.8820E-05  4.4586E-05  0.0000E+00
 54  7.0321E-02  6.8687E-02  6.9004E-02  6.8476E-02  6.8687E-02  6.8632E-02  6.8584E-02  6.9866E-02  6.9228E-02
 55  7.6598E-03  7.6047E-03  7.4358E-03  6.8753E-03  7.4486E-03  7.6743E-03  7.7507E-03  7.4492E-03  8.1156E-03
 56  4.3090E-03  2.9713E-03  3.4349E-03  3.8159E-03  2.8666E-03  3.0913E-03  3.7258E-03  2.9471E-03  4.3403E-03
 57  4.2119E-03  4.2854E-03  3.6085E-03  3.9509E-03  6.5763E-03  5.3296E-03  4.0322E-03  1.2481E-04  3.3207E-03
 58  0.0000E+00  9.8017E-04  8.0835E-04  1.6474E-03  4.6976E-04  0.0000E+00  2.8436E-03  0.0000E+00  5.0340E-03
 59  0.0000E+00  4.6010E-03  0.0000E+00  1.9004E-03  0.0000E+00  7.2071E-03  0.0000E+00  5.0525E-03  4.7025E-03
 60  0.0000E+00  5.8546E-03  2.4647E-03  8.4949E-03  0.0000E+00  8.8617E-03  0.0000E+00  1.5440E-02  3.3646E-03
 61  7.6003E-02  4.7284E-02  1.7258E-02  1.1842E-02  1.5551E-02  0.0000E+00  8.6220E-02  6.9895E-02  7.4489E-02
 62  0.0000E+00  5.7785E-02  7.1684E-02  1.2618E-02  6.1105E-02  3.7043E-02  0.0000E+00  7.2058E-02  6.1507E-02
 63  3.9402E+00  3.9459E+00  3.9654E+00  3.8710E+00  4.0160E+00  3.9405E+00  3.8624E+00  3.9272E+00  3.8994E+00
 64  1.4491E+01  1.4505E+01  1.4428E+01  1.4484E+01  1.4498E+01  1.4480E+01  1.4297E+01  1.4506E+01  1.4612E+01
 65  7.3237E+00  7.2306E+00  7.3800E+00  7.0921E+00  7.5097E+00  7.1620E+00  7.3279E+00  7.2599E+00  7.0648E+00
 66  5.5148E+01  5.4460E+01  5.4812E+01  5.4734E+01  5.4382E+01  5.4567E+01  5.4569E+01  5.4681E+01  5.4845E+01

# AV, chi2 & Mass for <> & i_chain = 1 ...  7 solutions
AV       0.5333      0.5325      0.5331      0.5332      0.5318      0.5322      0.5343      0.5319      0.5326
chi2 3.7993E-04  2.8871E-04  1.1601E-04  1.0002E-04  1.8579E-04  1.2997E-04  1.3279E-04  1.9571E-04  7.5952E-05
Mass 3.7658E-13  3.7107E-13  3.7374E-13  3.7366E-13  3.7417E-13  3.7501E-13  3.7523E-13  3.7029E-13  3.7712E-13
  76.75                                  [v0_min (km/s) before EX0s...]
  39.10                                  [vd_min (km/s) before EX0s...]


## Synthetic spectrum (Best Model) ##l_obs f_obs f_syn wei
 3478    [Nl_obs]
 3741.00    1.52453   0.81874    0.000
 3742.00    1.43487   0.83474    0.000
 3743.00    0.87116   0.82236    0.000
 3744.00    0.36695   0.79480    0.000
 3745.00   -0.10260   0.76665    0.000
 3746.00    0.29433   0.73737    0.019
 3747.00    1.13125   0.70688    0.019
 3748.00    1.15309   0.67252    0.019
 3749.00    0.81652   0.62261    0.019
 3750.00    0.32358   0.57583    0.019
 3751.00   -0.22839   0.57407    0.000
 3752.00   -0.26204   0.62472    0.000
 3753.00   -0.12956   0.69263    0.000
 3754.00    0.11868   0.75250    0.018
 3755.00    0.39795   0.80326    0.018
 3756.00    0.68495   0.83679    0.018
 3757.00    0.97366   0.83794    0.018
 3758.00    0.81751   0.80992    0.018
 3759.00    0.58371   0.78422    0.017
 3760.00    0.66265   0.78569    0.020
 3761.00    0.78314   0.80698    0.023
 3762.00    0.76632   0.82553    0.020
 3763.00    0.73659   0.82630    0.016
 3764.00    0.49163   0.81420    0.016
 3765.00    0.23426   0.80476    0.016
 3766.00    0.10589   0.79516    0.016
 3767.00   -0.01572   0.76733    0.000
 3768.00    0.31164   0.73112    0.016
 3769.00    0.62897   0.70543    0.016
 3770.00    0.70243   0.67967    0.016
 3771.00    0.74998   0.65159    0.016
 3772.00    0.45800   0.65522    0.016
 3773.00    0.20665   0.70092    0.015
 3774.00    0.31191   0.75388    0.015
 3775.00    0.41213   0.79006    0.015
 3776.00    0.47958   0.81576    0.016
 3777.00    0.52605   0.83930    0.016
 3778.00    0.46636   0.85877    0.016
 3779.00    0.41549   0.87430    0.016
 3780.00    0.40072   0.89532    0.016
 3781.00    0.34493   0.91843    0.016
 3782.00    0.14997   0.93029    0.017
 3783.00    0.05918   0.93335    0.017
 3784.00    0.26632   0.93671    0.017
 3785.00    0.48223   0.93403    0.017
 3786.00    0.71958   0.91142    0.017
 3787.00    0.82657   0.87595    0.017
 3788.00    0.65882   0.84955    0.017
 3789.00    0.56026   0.83489    0.017
 3790.00    0.58841   0.82408    0.017
 3791.00    0.62371   0.81750    0.017
 3792.00    0.67043   0.81454    0.017
 3793.00    0.65590   0.80271    0.017
 3794.00    0.55530   0.77158    0.017
 3795.00    0.46654   0.72633    0.016
 3796.00    0.39238   0.67915    0.016
 3797.00    0.23308   0.63176    0.016
 3798.00   -0.01899   0.58266    0.000
 3799.00   -0.13272   0.55772    0.000
 3800.00   -0.11350   0.58702    0.000
 3801.00   -0.20128   0.65637    0.000
 3802.00   -0.37972   0.72616    0.000
 3803.00   -0.30050   0.77934    0.000
 3804.00   -0.02901   0.82053    0.000
 3805.00    0.34729   0.84597    0.016
 3806.00    0.79231   0.84665    0.016
 3807.00    0.97629   0.83167    0.016
 3808.00    1.01048   0.83130    0.016
 3809.00    0.94353   0.85694    0.016
 3810.00    0.82603   0.88794    0.016
 3811.00    0.54806   0.90668    0.016
 3812.00    0.20070   0.90861    0.016
 3813.00    0.27001   0.89341    0.016
 3814.00    0.49384   0.86791    0.016
 3815.00    0.63753   0.84499    0.016
 3816.00    0.75602   0.82965    0.016
 3817.00    0.60153   0.82396    0.016
 3818.00    0.37543   0.82156    0.016
 3819.00    0.36416   0.79514    0.016
 3820.00    0.39891   0.74242    0.016
 3821.00    0.29090   0.71616    0.016
 3822.00    0.15866   0.74589    0.016
 3823.00    0.45588   0.79224    0.016
 3824.00    0.80820   0.81086    0.016
 3825.00    0.75179   0.79756    0.016
 3826.00    0.65869   0.77670    0.016
 3827.00    0.56165   0.76495    0.016
 3828.00    0.46440   0.75939    0.017
 3829.00    0.37764   0.75301    0.017
 3830.00    0.28930   0.74313    0.017
 3831.00    0.05080   0.72654    0.017
 3832.00   -0.17573   0.69431    0.000
 3833.00   -0.13610   0.64449    0.000
 3834.00   -0.07619   0.58975    0.000
 3835.00    0.23590   0.54281    0.017
 3836.00    0.52070   0.52104    0.017
 3837.00    0.57475   0.53666    0.017
 3838.00    0.66805   0.57290    0.017
 3839.00    1.00822   0.60998    0.017
 3840.00    1.26878   0.64743    0.017
 3841.00    1.13650   0.68517    0.017
 3842.00    0.99473   0.72500    0.016
 3843.00    0.81492   0.76794    0.017
 3844.00    0.61289   0.80252    0.017
 3845.00    0.33700   0.82269    0.016
 3846.00    0.12257   0.83223    0.016
 3847.00    0.08070   0.83837    0.000
 3848.00    0.08376   0.84551    0.000
 3849.00    0.19476   0.84718    0.000
 3850.00    0.24068   0.83724    0.000
 3851.00    0.15163   0.82775    0.000
 3852.00    0.13607   0.83584    0.000
 3853.00    0.25305   0.85163    0.000
 3854.00    0.37799   0.85405    0.000
 3855.00    0.51547   0.84370    0.000
 3856.00    0.51834   0.83025    0.000
 3857.00    0.33486   0.82064    0.000
 3858.00    0.25350   0.82062    0.000
 3859.00    0.29658   0.81820    0.000
 3860.00    0.43269   0.80583    0.000
 3861.00    0.66874   0.80004    0.000
 3862.00    0.73389   0.81525    0.000
 3863.00    0.63710   0.84013    0.000
 3864.00    0.43957   0.85333    0.000
 3865.00    0.15788   0.85072    0.000
 3866.00    0.30942   0.84359    0.000
 3867.00    0.77961   0.83697    0.000
 3868.00    0.83391   0.82926    0.000
 3869.00    0.61957   0.82798    0.000
 3870.00    0.54365   0.83031    0.000
 3871.00    0.54595   0.81885    0.000
 3872.00    0.56521   0.79574    0.000
 3873.00    0.59281   0.78466    0.000
 3874.00    0.73581   0.80211    0.000
 3875.00    0.92786   0.83154    0.000
 3876.00    0.74288   0.84280    0.000
 3877.00    0.42057   0.82844    0.000
 3878.00    0.69617   0.80506    0.000
 3879.00    1.15609   0.78782    0.000
 3880.00    1.30079   0.78587    0.000
 3881.00    1.36457   0.78850    0.016
 3882.00    1.27461   0.77415    0.016
 3883.00    1.15251   0.75330    0.016
 3884.00    1.04083   0.75046    0.016
 3885.00    0.93087   0.74890    0.016
 3886.00    0.57658   0.71203    0.016
 3887.00    0.19204   0.64959    0.016
 3888.00    0.45523   0.59402    0.016
 3889.00    0.77385   0.55424    0.016
 3890.00    0.82297   0.54600    0.016
 3891.00    0.85866   0.59058    0.016
 3892.00    0.60293   0.66646    0.016
 3893.00    0.34583   0.73337    0.016
 3894.00    0.30867   0.77393    0.016
 3895.00    0.28874   0.79230    0.016
 3896.00    0.62126   0.80178    0.015
 3897.00    0.93284   0.81917    0.015
 3898.00    0.99671   0.84041    0.015
 3899.00    1.04250   0.84462    0.015
 3900.00    0.94093   0.83920    0.015
 3901.00    0.86905   0.84908    0.015
 3902.00    0.97848   0.87132    0.014
 3903.00    1.09776   0.87968    0.014
 3904.00    1.26437   0.87399    0.014
 3905.00    1.34083   0.86928    0.014
 3906.00    1.06423   0.86107    0.014
 3907.00    0.84634   0.85795    0.014
 3908.00    0.81979   0.87671    0.014
 3909.00    0.80170   0.90616    0.014
 3910.00    0.80696   0.92580    0.014
 3911.00    0.79851   0.93089    0.015
 3912.00    0.75769   0.93012    0.015
 3913.00    0.73969   0.93129    0.015
 3914.00    0.76827   0.93380    0.016
 3915.00    0.85727   0.93484    0.016
 3916.00    1.05359   0.93236    0.017
 3917.00    1.05804   0.92246    0.017
 3918.00    0.76434   0.90781    0.017
 3919.00    0.53534   0.88475    0.017
 3920.00    0.39459   0.85067    0.017
 3921.00    0.36899   0.82165    0.017
 3922.00    0.48171   0.81672    0.017
 3923.00    0.58532   0.83190    0.017
 3924.00    0.67926   0.84534    0.017
 3925.00    0.70271   0.84893    0.017
 3926.00    0.66032   0.83944    0.017
 3927.00    0.60424   0.81718    0.017
 3928.00    0.53688   0.79623    0.017
 3929.00    0.27052   0.78189    0.017
 3930.00   -0.14009   0.76947    0.000
 3931.00   -0.10238   0.75753    0.000
 3932.00    0.22063   0.74280    0.017
 3933.00    0.38904   0.72365    0.017
 3934.00    0.47142   0.70570    0.017
 3935.00    0.45648   0.70106    0.017
 3936.00    0.39442   0.71355    0.017
 3937.00    0.67480   0.73716    0.017
 3938.00    1.09833   0.76518    0.017
 3939.00    0.98279   0.79251    0.017
 3940.00    0.67442   0.81611    0.017
 3941.00    0.66370   0.83219    0.017
 3942.00    0.74294   0.83770    0.016
 3943.00    0.74367   0.83479    0.016
 3944.00    0.72469   0.82515    0.016
 3945.00    0.52000   0.82003    0.016
 3946.00    0.27745   0.83776    0.016
 3947.00    0.50224   0.86806    0.016
 3948.00    0.80188   0.88096    0.017
 3949.00    0.54483   0.87968    0.016
 3950.00    0.22132   0.88892    0.016
 3951.00    0.15005   0.90809    0.016
 3952.00    0.09931   0.91487    0.017
 3953.00    0.44163   0.90230    0.017
 3954.00    0.80202   0.89325    0.017
 3955.00    0.71498   0.89886    0.017
 3956.00    0.62594   0.89746    0.017
 3957.00    0.73073   0.88044    0.017
 3958.00    0.82323   0.86900    0.017
 3959.00    0.68285   0.87156    0.017
 3960.00    0.54166   0.86850    0.000
 3961.00    0.39119   0.83660    0.000
 3962.00    0.28354   0.78170    0.000
 3963.00    0.51251   0.73793    0.000
 3964.00    0.66638   0.71411    0.000
 3965.00    0.37454   0.68713    0.000
 3966.00    0.24123   0.65016    0.000
 3967.00    0.85222   0.60811    0.000
 3968.00    1.28529   0.55827    0.000
 3969.00    1.03654   0.50337    0.000
 3970.00    0.80658   0.45777    0.000
 3971.00    0.63671   0.44682    0.000
 3972.00    0.53859   0.48441    0.000
 3973.00    0.63481   0.54898    0.000
 3974.00    0.81418   0.61366    0.000
 3975.00    1.18664   0.67480    0.000
 3976.00    1.31928   0.73120    0.000
 3977.00    0.97024   0.77501    0.000
 3978.00    0.83310   0.81029    0.000
 3979.00    1.06660   0.84472    0.000
 3980.00    1.26395   0.87679    0.000
 3981.00    1.40596   0.89978    0.017
 3982.00    1.45226   0.90534    0.017
 3983.00    1.36984   0.89822    0.017
 3984.00    1.26353   0.89598    0.018
 3985.00    1.12894   0.90697    0.017
 3986.00    0.81273   0.92460    0.017
 3987.00    0.30688   0.93858    0.017
 3988.00    0.22019   0.95224    0.017
 3989.00    0.51956   0.96675    0.017
 3990.00    0.86386   0.96644    0.017
 3991.00    1.24464   0.95793    0.016
 3992.00    1.26968   0.96218    0.016
 3993.00    1.04056   0.97545    0.016
 3994.00    0.96307   0.98122    0.016
 3995.00    0.98067   0.97181    0.016
 3996.00    1.07553   0.95763    0.016
 3997.00    1.21274   0.94757    0.016
 3998.00    1.16873   0.94087    0.016
 3999.00    1.03840   0.94658    0.016
 4000.00    1.07635   0.97305    0.016
 4001.00    1.18348   0.99987    0.016
 4002.00    1.29491   1.00938    0.016
 4003.00    1.40785   1.01201    0.016
 4004.00    1.24051   1.00802    0.016
 4005.00    0.99013   0.97841    0.016
 4006.00    1.08315   0.93390    0.016
 4007.00    1.26052   0.91742    0.017
 4008.00    1.31264   0.93547    0.017
 4009.00    1.33984   0.95183    0.017
 4010.00    1.21677   0.95424    0.017
 4011.00    1.07036   0.96219    0.017
 4012.00    1.16652   0.98014    0.017
 4013.00    1.29058   0.99589    0.017
 4014.00    0.91580   1.00609    0.017
 4015.00    0.50246   1.01399    0.017
 4016.00    0.84330   1.02253    0.017
 4017.00    1.21588   1.02281    0.017
 4018.00    1.23548   1.01167    0.017
 4019.00    1.24557   1.01021    0.018
 4020.00    0.97989   1.02363    0.017
 4021.00    0.75314   1.02735    0.017
 4022.00    1.21277   1.01481    0.017
 4023.00    1.59815   1.00010    0.017
 4024.00    1.18479   0.98214    0.017
 4025.00    0.76883   0.94938    0.018
 4026.00    0.33313   0.91288    0.017
 4027.00    0.06444   0.90440    0.017
 4028.00    0.75903   0.93928    0.017
 4029.00    1.34448   0.98629    0.018
 4030.00    1.42978   0.99575    0.018
 4031.00    1.40608   0.95982    0.017
 4032.00    0.97347   0.91927    0.017
 4033.00    0.69399   0.90071    0.017
 4034.00    0.89455   0.89630    0.017
 4035.00    1.04679   0.90495    0.017
 4036.00    1.07047   0.93407    0.017
 4037.00    0.96989   0.98218    0.017
 4038.00    0.58556   1.02875    0.017
 4039.00    0.54792   1.04890    0.017
 4040.00    1.19566   1.03993    0.017
 4041.00    1.42260   1.01809    0.017
 4042.00    0.92463   1.00524    0.017
 4043.00    0.63710   1.00636    0.017
 4044.00    0.66704   0.99018    0.017
 4045.00    0.81914   0.93557    0.017
 4046.00    1.13318   0.87492    0.017
 4047.00    1.21795   0.86185    0.017
 4048.00    1.03507   0.90769    0.017
 4049.00    0.90869   0.96700    0.017
 4050.00    0.84047   1.00444    0.017
 4051.00    0.76594   1.02424    0.017
 4052.00    0.68568   1.02972    0.016
 4053.00    0.82873   1.01871    0.016
 4054.00    1.15051   0.99898    0.016
 4055.00    1.29291   0.97817    0.017
 4056.00    1.30899   0.96375    0.017
 4057.00    1.31490   0.95810    0.016
 4058.00    1.31451   0.94889    0.016
 4059.00    1.00000   0.94050    0.016
 4060.00    0.51598   0.95111    0.016
 4061.00    0.35380   0.97244    0.016
 4062.00    0.34247   0.97455    0.016
 4063.00    0.56781   0.93958    0.016
 4064.00    0.88876   0.89111    0.016
 4065.00    0.71433   0.88024    0.016
 4066.00    0.36910   0.91433    0.016
 4067.00    0.29495   0.94337    0.016
 4068.00    0.29952   0.94932    0.016
 4069.00    0.33432   0.95962    0.016
 4070.00    0.37638   0.97279    0.017
 4071.00    0.50658   0.95673    0.016
 4072.00    0.65385   0.91508    0.016
 4073.00    0.63442   0.90006    0.016
 4074.00    0.58986   0.93395    0.016
 4075.00    0.71942   0.96365    0.017
 4076.00    0.86823   0.94726    0.017
 4077.00    1.28552   0.90632    0.017
 4078.00    1.72247   0.88065    0.017
 4079.00    1.47965   0.88984    0.017
 4080.00    1.21080   0.92808    0.017
 4081.00    1.11576   0.97608    0.017
 4082.00    1.02708   1.00959    0.017
 4083.00    1.14205   1.00955    0.017
 4084.00    1.23409   0.98470    0.016
 4085.00    0.94814   0.96179    0.017
 4086.00    0.68906   0.95593    0.017
 4087.00    0.70638   0.96965    0.017
 4088.00    0.77406   0.99531    0.017
 4089.00    1.21123   1.01441    0.016
 4090.00    1.48399   1.01552    0.016
 4091.00    0.83441   1.00559    0.017
 4092.00    0.43196   0.99092    0.000
 4093.00    1.13547   0.97319    0.000
 4094.00    1.57290   0.96297    0.000
 4095.00    1.03308   0.95096    0.000
 4096.00    0.71828   0.91207    0.000
 4097.00    1.09548   0.85992    0.000
 4098.00    1.37584   0.82477    0.000
 4099.00    1.40306   0.80455    0.000
 4100.00    1.38501   0.77341    0.000
 4101.00    1.26527   0.71248    0.000
 4102.00    1.19440   0.64523    0.000
 4103.00    1.21860   0.62906    0.000
 4104.00    1.20336   0.67697    0.000
 4105.00    1.12121   0.74616    0.000
 4106.00    1.11395   0.81084    0.000
 4107.00    1.21801   0.86627    0.000
 4108.00    1.20527   0.90037    0.000
 4109.00    1.03989   0.91186    0.000
 4110.00    0.90432   0.91059    0.000
 4111.00    0.80306   0.90511    0.000
 4112.00    0.97559   0.90539    0.000
 4113.00    1.42604   0.91890    0.016
 4114.00    1.80567   0.94292    0.017
 4115.00    2.12188   0.96260    0.016
 4116.00    1.92017   0.97112    0.016
 4117.00    1.30982   0.97629    0.016
 4118.00    0.90022   0.97427    0.016
 4119.00    0.62992   0.95183    0.015
 4120.00    0.68061   0.92300    0.015
 4121.00    0.92662   0.91283    0.016
 4122.00    1.12762   0.91922    0.016
 4123.00    1.30469   0.93212    0.016
 4124.00    1.51472   0.95010    0.016
 4125.00    1.73993   0.97353    0.016
 4126.00    1.64035   0.99188    0.016
 4127.00    1.41180   0.98875    0.016
 4128.00    1.16645   0.96805    0.016
 4129.00    0.91541   0.94928    0.016
 4130.00    1.32660   0.94211    0.016
 4131.00    1.92620   0.93366    0.016
 4132.00    1.95794   0.91364    0.016
 4133.00    1.85635   0.89208    0.016
 4134.00    1.43364   0.88898    0.016
 4135.00    0.95032   0.90863    0.015
 4136.00    1.27069   0.94392    0.015
 4137.00    1.70841   0.97562    0.016
 4138.00    1.73472   0.98599    0.016
 4139.00    1.71731   0.98745    0.016
 4140.00    1.45515   0.99166    0.016
 4141.00    1.17606   0.99031    0.016
 4142.00    1.17325   0.96694    0.016
 4143.00    1.17998   0.90687    0.016
 4144.00    0.92170   0.83579    0.016
 4145.00    0.68910   0.81761    0.016
 4146.00    1.32235   0.86636    0.016
 4147.00    1.89024   0.92503    0.016
 4148.00    1.44754   0.95427    0.016
 4149.00    1.04964   0.95760    0.016
 4150.00    1.09351   0.94448    0.017
 4151.00    1.15384   0.93009    0.017
 4152.00    1.33101   0.92727    0.016
 4153.00    1.38525   0.92657    0.016
 4154.00    0.76840   0.92096    0.016
 4155.00    0.38640   0.91649    0.016
 4156.00    1.03089   0.91668    0.016
 4157.00    1.46907   0.91745    0.016
 4158.00    1.16515   0.92495    0.016
 4159.00    0.86225   0.94716    0.016
 4160.00    0.56241   0.97089    0.015
 4161.00    0.52513   0.98102    0.015
 4162.00    1.16209   0.98324    0.016
 4163.00    1.62225   0.99061    0.016
 4164.00    1.69183   0.99529    0.016
 4165.00    1.80082   0.98495    0.016
 4166.00    1.98528   0.96907    0.016
 4167.00    2.03719   0.95484    0.016
 4168.00    1.86756   0.93973    0.016
 4169.00    1.57186   0.93506    0.016
 4170.00    1.09146   0.94875    0.016
 4171.00    0.91274   0.96083    0.016
 4172.00    1.12257   0.94574    0.016
 4173.00    1.22930   0.90843    0.016
 4174.00    1.21904   0.88423    0.016
 4175.00    1.24188   0.89017    0.016
 4176.00    1.29785   0.90802    0.016
 4177.00    1.57410   0.91770    0.016
 4178.00    2.04479   0.91658    0.016
 4179.00    2.12150   0.91731    0.016
 4180.00    1.89178   0.92930    0.016
 4181.00    1.50769   0.94083    0.016
 4182.00    1.01802   0.93825    0.016
 4183.00    1.06065   0.93152    0.016
 4184.00    1.42235   0.93833    0.016
 4185.00    1.59713   0.95712    0.016
 4186.00    1.67416   0.97023    0.016
 4187.00    1.84317   0.95661    0.016
 4188.00    2.05391   0.92559    0.016
 4189.00    2.08846   0.91703    0.016
 4190.00    2.05427   0.93543    0.016
 4191.00    1.65391   0.95014    0.016
 4192.00    1.13194   0.95327    0.016
 4193.00    1.29789   0.96524    0.016
 4194.00    1.65557   0.98592    0.015
 4195.00    1.46504   0.98505    0.015
 4196.00    1.14873   0.95448    0.015
 4197.00    0.82947   0.92004    0.015
 4198.00    0.50966   0.89869    0.015
 4199.00    0.76843   0.88624    0.015
 4200.00    1.10900   0.88406    0.015
 4201.00    1.11188   0.89127    0.015
 4202.00    1.08032   0.89304    0.015
 4203.00    1.00304   0.89372    0.015
 4204.00    0.92278   0.91061    0.015
 4205.00    1.16851   0.93492    0.015
 4206.00    1.42396   0.95407    0.015
 4207.00    1.49256   0.97191    0.015
 4208.00    1.55686   0.98842    0.015
 4209.00    1.49484   0.99696    0.015
 4210.00    1.43380   0.99027    0.015
 4211.00    1.38722   0.97667    0.015
 4212.00    1.35461   0.97614    0.015
 4213.00    1.45413   0.98484    0.015
 4214.00    1.56886   0.97938    0.015
 4215.00    1.78810   0.95044    0.015
 4216.00    1.92821   0.91561    0.015
 4217.00    1.64771   0.91450    0.015
 4218.00    1.33620   0.95857    0.015
 4219.00    0.89219   1.00632    0.015
 4220.00    0.61353   1.02835    0.015
 4221.00    0.91745   1.03325    0.015
 4222.00    1.18882   1.02707    0.015
 4223.00    1.36381   1.00077    0.015
 4224.00    1.43539   0.95779    0.015
 4225.00    1.24599   0.90606    0.015
 4226.00    1.17342   0.84407    0.014
 4227.00    1.35474   0.78466    0.014
 4228.00    1.56976   0.77002    0.014
 4229.00    1.84830   0.82444    0.014
 4230.00    1.93108   0.90673    0.014
 4231.00    1.69156   0.96758    0.014
 4232.00    1.39887   0.99558    0.014
 4233.00    1.02941   0.98782    0.014
 4234.00    0.98373   0.95987    0.014
 4235.00    1.34911   0.94513    0.014
 4236.00    1.67923   0.93976    0.014
 4237.00    1.96990   0.92860    0.014
 4238.00    2.04284   0.92878    0.014
 4239.00    1.90092   0.94248    0.014
 4240.00    1.65380   0.95353    0.014
 4241.00    1.31512   0.96556    0.014
 4242.00    1.06064   0.98400    0.014
 4243.00    0.87071   0.99894    0.014
 4244.00    1.09860   1.01499    0.014
 4245.00    1.60807   1.04228    0.015
 4246.00    1.75140   1.05705    0.015
 4247.00    1.67856   1.03639    0.015
 4248.00    1.77431   0.99747    0.015
 4249.00    1.95686   0.96624    0.015
 4250.00    1.79156   0.94168    0.015
 4251.00    1.47105   0.91794    0.015
 4252.00    1.46831   0.91675    0.015
 4253.00    1.58740   0.93803    0.015
 4254.00    1.21535   0.93801    0.015
 4255.00    0.68323   0.91197    0.015
 4256.00    0.87653   0.90950    0.015
 4257.00    1.26784   0.94998    0.015
 4258.00    1.24659   0.99097    0.015
 4259.00    1.13288   0.98615    0.015
 4260.00    1.21338   0.94338    0.015
 4261.00    1.32862   0.90339    0.016
 4262.00    1.21044   0.90234    0.015
 4263.00    1.06032   0.94872    0.015
 4264.00    1.02199   1.00782    0.016
 4265.00    0.99458   1.04210    0.016
 4266.00    1.14321   1.04862    0.016
 4267.00    1.30261   1.03134    0.015
 4268.00    1.09390   0.99544    0.015
 4269.00    0.87519   0.96696    0.015
 4270.00    0.64218   0.95048    0.015
 4271.00    0.43053   0.91665    0.015
 4272.00    0.78350   0.86444    0.015
 4273.00    1.08892   0.83660    0.015
 4274.00    0.74060   0.84810    0.015
 4275.00    0.47575   0.86238    0.015
 4276.00    0.96900   0.87383    0.015
 4277.00    1.41169   0.91109    0.015
 4278.00    1.51754   0.96707    0.015
 4279.00    1.58886   1.00833    0.015
 4280.00    1.48142   1.01106    0.015
 4281.00    1.39086   0.98279    0.015
 4282.00    1.37077   0.96036   -2.000
 4283.00    1.26514   0.95784   -2.000
 4284.00    0.86427   0.96367   -2.000
 4285.00    0.62621   0.96567   -2.000
 4286.00    0.86134   0.95545   -2.000
 4287.00    1.19014   0.94675   -2.000
 4288.00    1.75127   0.94757   -2.000
 4289.00    2.05280   0.93219   -2.000
 4290.00    1.79940   0.88890   -2.000
 4291.00    1.56344   0.85572   -2.000
 4292.00    1.35985   0.86986   -2.000
 4293.00    1.09938   0.91767   -2.000
 4294.00    0.74668   0.95268   -2.000
 4295.00    0.62615   0.95038   -2.000
 4296.00    0.83593   0.93950   -2.000
 4297.00    0.85509   0.93857   -2.000
 4298.00    0.63568   0.92665    0.015
 4299.00    0.64623   0.89040    0.015
 4300.00    0.91044   0.84108    0.015
 4301.00    1.01305   0.81185    0.015
 4302.00    0.95845   0.81799    0.015
 4303.00    0.93015   0.83066    0.015
 4304.00    0.92444   0.83423    0.015
 4305.00    0.89989   0.84074    0.015
 4306.00    0.86112   0.84354    0.014
 4307.00    0.85527   0.82996    0.014
 4308.00    0.87128   0.80219    0.015
 4309.00    1.23147   0.77684    0.015
 4310.00    1.79182   0.77820    0.014
 4311.00    1.69992   0.80935    0.014
 4312.00    1.27746   0.85101    0.014
 4313.00    1.24626   0.88688    0.014
 4314.00    1.38675   0.91241    0.014
 4315.00    1.41591   0.93491    0.014
 4316.00    1.40312   0.97763    0.014
 4317.00    1.53454   1.04413    0.014
 4318.00    1.71208   1.09241    0.014
 4319.00    1.49539   1.09738    0.014
 4320.00    1.17333   1.07904    0.014
 4321.00    1.21495   1.05819    0.014
 4322.00    1.33614   1.04054    0.014
 4323.00    1.14961   1.02074    0.014
 4324.00    0.90955   0.97598    0.014
 4325.00    0.97265   0.90144    0.014
 4326.00    1.07584   0.83158    0.014
 4327.00    1.15248   0.81927    0.014
 4328.00    1.22663   0.88631    0.014
 4329.00    1.19461   0.98240    0.014
 4330.00    1.15651   1.03672    0.000
 4331.00    1.03735   1.03446    0.000
 4332.00    0.91968   1.01596    0.000
 4333.00    1.18885   1.01240    0.000
 4334.00    1.45056   1.01790    0.000
 4335.00    1.53319   1.02444    0.000
 4336.00    1.58660   1.02312    0.000
 4337.00    1.25976   0.98202    0.000
 4338.00    0.98376   0.88867    0.000
 4339.00    1.15189   0.78728    0.000
 4340.00    1.27818   0.71169    0.000
 4341.00    1.13427   0.66673    0.000
 4342.00    1.00478   0.68293    0.000
 4343.00    0.94803   0.76230    0.000
 4344.00    0.91286   0.84060    0.000
 4345.00    0.96578   0.88650    0.000
 4346.00    1.00791   0.92505    0.000
 4347.00    1.01358   0.95729    0.000
 4348.00    1.07353   0.97661    0.000
 4349.00    1.28838   1.00509    0.000
 4350.00    1.46700   1.03755    0.000
 4351.00    1.55729   1.02387    0.014
 4352.00    1.61293   0.95457    0.014
 4353.00    1.59569   0.90101    0.014
 4354.00    1.44729   0.91581    0.014
 4355.00    1.05913   0.96421    0.014
 4356.00    0.83762   1.00233    0.015
 4357.00    0.88241   1.03288    0.015
 4358.00    1.06066   1.05413    0.014
 4359.00    1.42606   1.04474    0.014
 4360.00    1.55286   1.01803    0.014
 4361.00    1.38529   1.01740    0.014
 4362.00    1.25263   1.04792    0.014
 4363.00    1.15793   1.07490    0.014
 4364.00    1.15856   1.08505    0.014
 4365.00    1.25063   1.09862    0.014
 4366.00    1.34176   1.11409    0.014
 4367.00    1.43209   1.09954    0.014
 4368.00    1.32475   1.05579    0.014
 4369.00    1.07017   1.02386    0.014
 4370.00    1.05271   1.02338    0.014
 4371.00    1.19040   1.03433    0.014
 4372.00    1.15059   1.03983    0.014
 4373.00    1.00912   1.03552    0.014
 4374.00    1.04421   1.01207    0.014
 4375.00    1.16737   0.97156    0.014
 4376.00    1.30272   0.94504    0.014
 4377.00    1.44333   0.96331    0.014
 4378.00    1.20846   1.01502    0.014
 4379.00    0.83466   1.05522    0.014
 4380.00    0.75124   1.05869    0.015
 4381.00    0.75888   1.03780    0.016
 4382.00    0.94582   1.00325    0.017
 4383.00    1.17966   0.93776    0.017
 4384.00    1.32047   0.84528    0.017
 4385.00    1.44141   0.79035    0.017
 4386.00    1.50201   0.82182    0.017
 4387.00    1.55240   0.89714    0.017
 4388.00    1.39089   0.93933    0.015
 4389.00    1.20232   0.94076    0.014
 4390.00    1.12666   0.94083    0.014
 4391.00    1.06108   0.95048    0.014
 4392.00    1.06194   0.96791    0.014
 4393.00    1.06634   0.99370    0.014
 4394.00    1.11244   1.01016    0.014
 4395.00    1.16062   1.00345    0.014
 4396.00    1.31133   0.99623    0.014
 4397.00    1.44903   1.02352    0.014
 4398.00    1.30064   1.07161    0.014
 4399.00    1.18067   1.09036    0.014
 4400.00    1.41185   1.06369    0.014
 4401.00    1.58358   1.02048    0.014
 4402.00    1.25514   1.00555    0.014
 4403.00    0.97164   1.02289    0.014
 4404.00    0.96980   1.00940    0.014
 4405.00    1.02600   0.93976    0.014
 4406.00    1.36771   0.88737    0.014
 4407.00    1.61462   0.90271    0.014
 4408.00    1.48309   0.93876    0.014
 4409.00    1.39543   0.95643    0.014
 4410.00    1.45330   0.98438    0.014
 4411.00    1.43724   1.03582    0.014
 4412.00    1.21407   1.07998    0.014
 4413.00    1.11595   1.10044    0.014
 4414.00    1.31752   1.08831    0.014
 4415.00    1.50198   1.02883    0.014
 4416.00    1.65103   0.96014    0.014
 4417.00    1.73419   0.94721    0.014
 4418.00    1.69872   0.98809    0.014
 4419.00    1.64699   1.04222    0.014
 4420.00    1.56964   1.08672    0.014
 4421.00    1.43343   1.10422    0.014
 4422.00    1.21588   1.08371    0.014
 4423.00    1.08564   1.04213    0.014
 4424.00    1.06159   1.02006    0.014
 4425.00    1.09778   1.03094    0.014
 4426.00    1.19859   1.04482    0.014
 4427.00    1.35666   1.04404    0.014
 4428.00    1.56890   1.04307    0.014
 4429.00    1.50630   1.05263    0.014
 4430.00    1.21450   1.05382    0.014
 4431.00    1.24160   1.03465    0.014
 4432.00    1.50283   1.02774    0.014
 4433.00    1.57253   1.04284    0.014
 4434.00    1.51877   1.03804    0.014
 4435.00    1.45863   0.99847    0.014
 4436.00    1.39489   0.96104    0.014
 4437.00    1.42179   0.96676    0.014
 4438.00    1.49318   1.01683    0.014
 4439.00    1.40689   1.07816    0.014
 4440.00    1.25368   1.11661    0.015
 4441.00    1.23319   1.10919    0.015
 4442.00    1.26094   1.06113    0.014
 4443.00    1.29374   1.00932    0.015
 4444.00    1.32808   0.99151    0.015
 4445.00    1.08537   1.02140    0.014
 4446.00    0.77173   1.07637    0.014
 4447.00    0.89469   1.10946    0.014
 4448.00    1.10865   1.10676    0.014
 4449.00    1.32956   1.10252    0.014
 4450.00    1.55162   1.10582    0.014
 4451.00    1.72202   1.09807    0.014
 4452.00    1.88606   1.08920    0.014
 4453.00    1.88252   1.08478    0.014
 4454.00    1.86473   1.06378    0.014
 4455.00    1.55243   1.01903    0.014
 4456.00    1.22561   0.97652    0.014
 4457.00    1.56483   0.96828    0.014
 4458.00    1.90529   0.98409    0.014
 4459.00    1.65860   0.99061    0.014
 4460.00    1.41771   0.98347    0.014
 4461.00    1.29423   0.97423    0.000
 4462.00    1.18818   0.96247    0.000
 4463.00    1.28706   0.96504    0.000
 4464.00    1.39474   1.00419    0.000
 4465.00    1.57379   1.04780    0.000
 4466.00    1.70737   1.05722    0.000
 4467.00    1.56432   1.04773    0.000
 4468.00    1.46956   1.04217    0.000
 4469.00    1.60647   1.03390    0.000
 4470.00    1.68551   1.01330    0.000
 4471.00    1.53856   0.99170    0.000
 4472.00    1.42292   0.98664    0.000
 4473.00    1.40912   1.01338    0.000
 4474.00    1.43280   1.06637    0.000
 4475.00    1.55961   1.10787    0.000
 4476.00    1.63338   1.12004    0.000
 4477.00    1.58220   1.13038    0.000
 4478.00    1.57380   1.15462    0.000
 4479.00    1.65252   1.16334    0.000
 4480.00    1.69379   1.12629    0.000
 4481.00    1.66866   1.05688    0.000
 4482.00    1.62406   1.00214    0.013
 4483.00    1.54926   0.99944    0.013
 4484.00    1.44850   1.04746    0.013
 4485.00    1.31236   1.10968    0.013
 4486.00    1.31442   1.15375    0.013
 4487.00    1.48218   1.17065    0.013
 4488.00    1.55002   1.15595    0.013
 4489.00    1.51222   1.11211    0.013
 4490.00    1.50904   1.06410    0.014
 4491.00    1.53812   1.04619    0.013
 4492.00    1.43032   1.06882    0.013
 4493.00    1.20998   1.10284    0.013
 4494.00    1.22301   1.10568    0.013
 4495.00    1.40493   1.06899    0.013
 4496.00    1.43902   1.03315    0.013
 4497.00    1.37922   1.03241    0.013
 4498.00    1.41643   1.06288    0.013
 4499.00    1.50753   1.10451    0.013
 4500.00    1.42967   1.13434    0.013
 4501.00    1.27019   1.13570    0.013
 4502.00    1.25823   1.11691    0.013
 4503.00    1.30781   1.11996    0.013
 4504.00    1.44091   1.16435    0.013
 4505.00    1.60381   1.20881    0.013
 4506.00    1.54705   1.21676    0.013
 4507.00    1.42406   1.19605    0.013
 4508.00    1.56666   1.17087    0.013
 4509.00    1.77578   1.15926    0.013
 4510.00    1.90965   1.16525    0.013
 4511.00    2.02821   1.17785    0.013
 4512.00    1.82851   1.17718    0.013
 4513.00    1.57804   1.15350    0.013
 4514.00    1.62012   1.12166    0.013
 4515.00    1.69697   1.10187    0.013
 4516.00    1.63924   1.10276    0.013
 4517.00    1.57061   1.11562    0.013
 4518.00    1.49535   1.11790    0.013
 4519.00    1.41979   1.11157    0.013
 4520.00    1.34980   1.12298    0.013
 4521.00    1.28108   1.15212    0.013
 4522.00    1.27428   1.17158    0.013
 4523.00    1.27554   1.15809    0.013
 4524.00    1.42807   1.12557    0.013
 4525.00    1.56118   1.10339    0.013
 4526.00    1.47670   1.08360    0.013
 4527.00    1.40193   1.05027    0.013
 4528.00    1.40309   1.01139    0.013
 4529.00    1.40632   0.98180    0.012
 4530.00    1.42173   0.97360    0.013
 4531.00    1.45355   0.98888    0.013
 4532.00    1.56220   1.01730    0.013
 4533.00    1.67714   1.04572    0.013
 4534.00    1.81614   1.05020    0.013
 4535.00    1.86302   1.02376    0.013
 4536.00    1.61618   1.00257    0.013
 4537.00    1.44909   1.03107    0.013
 4538.00    1.49753   1.10166    0.013
 4539.00    1.54699   1.14973    0.013
 4540.00    1.59883   1.14121    0.013
 4541.00    1.58688   1.10328    0.013
 4542.00    1.44704   1.07794    0.013
 4543.00    1.33206   1.08734    0.013
 4544.00    1.26047   1.11151    0.013
 4545.00    1.27417   1.11206    0.013
 4546.00    1.41824   1.09275    0.013
 4547.00    1.49843   1.08715    0.013
 4548.00    1.49290   1.09580    0.013
 4549.00    1.42850   1.09229    0.013
 4550.00    1.29452   1.07329    0.000
 4551.00    1.28812   1.06961    0.000
 4552.00    1.41471   1.08558    0.000
 4553.00    1.50475   1.08658    0.000
 4554.00    1.56118   1.06913    0.000
 4555.00    1.58675   1.05493    0.000
 4556.00    1.58730   1.05575    0.000
 4557.00    1.43261   1.08182    0.000
 4558.00    1.16722   1.12748    0.000
 4559.00    1.11107   1.16423    0.000
 4560.00    1.18589   1.17658    0.000
 4561.00    1.30576   1.17338    0.000
 4562.00    1.45028   1.17089    0.000
 4563.00    1.53963   1.16720    0.000
 4564.00    1.60275   1.14184    0.000
 4565.00    1.49039   1.10057    0.000
 4566.00    1.30605   1.07790    0.000
 4567.00    1.21550   1.09475    0.000
 4568.00    1.15781   1.13762    0.000
 4569.00    1.32572   1.17106    0.000
 4570.00    1.56030   1.17667    0.000
 4571.00    1.57779   1.15631    0.000
 4572.00    1.54209   1.11976    0.000
 4573.00    1.39751   1.10645    0.000
 4574.00    1.23135   1.13676    0.000
 4575.00    1.36748   1.16493    0.000
 4576.00    1.55039   1.16384    0.000
 4577.00    1.50526   1.15888    0.000
 4578.00    1.43404   1.15811    0.000
 4579.00    1.40842   1.14287    0.000
 4580.00    1.38631   1.10696    0.000
 4581.00    1.36767   1.07140    0.000
 4582.00    1.34918   1.06446    0.000
 4583.00    1.28023   1.08631    0.000
 4584.00    1.21535   1.10557    0.000
 4585.00    1.34380   1.10338    0.000
 4586.00    1.47117   1.09055    0.000
 4587.00    1.57942   1.08555    0.000
 4588.00    1.66962   1.10439    0.000
 4589.00    1.56671   1.14161    0.000
 4590.00    1.45655   1.16848    0.000
 4591.00    1.29149   1.16292    0.000
 4592.00    1.16848   1.13180    0.000
 4593.00    1.28712   1.10332    0.000
 4594.00    1.35416   1.09347    0.000
 4595.00    1.18543   1.08975    0.000
 4596.00    1.06572   1.08072    0.000
 4597.00    1.12943   1.07613    0.000
 4598.00    1.16174   1.08322    0.000
 4599.00    1.09589   1.09749    0.000
 4600.00    1.06450   1.10863    0.000
 4601.00    1.12459   1.10215    0.000
 4602.00    1.26254   1.08946    0.000
 4603.00    1.57790   1.09285    0.000
 4604.00    1.66597   1.10330    0.000
 4605.00    1.30559   1.10435    0.000
 4606.00    1.11275   1.09699    0.000
 4607.00    1.20800   1.09954    0.000
 4608.00    1.28923   1.12792    0.000
 4609.00    1.34934   1.17436    0.000
 4610.00    1.46400   1.20899    0.000
 4611.00    1.65082   1.20897    0.000
 4612.00    1.66116   1.18508    0.000
 4613.00    1.46585   1.16102    0.000
 4614.00    1.28780   1.14724    0.000
 4615.00    1.12748   1.15264    0.000
 4616.00    1.06417   1.17297    0.000
 4617.00    1.08879   1.18608    0.000
 4618.00    1.22580   1.18996    0.000
 4619.00    1.45260   1.18388    0.000
 4620.00    1.54737   1.16525    0.000
 4621.00    1.54936   1.16031    0.000
 4622.00    1.54131   1.17714    0.000
 4623.00    1.52707   1.18674    0.000
 4624.00    1.52623   1.18495    0.000
 4625.00    1.53259   1.18375    0.000
 4626.00    1.57152   1.17602    0.000
 4627.00    1.62568   1.16473    0.000
 4628.00    1.68669   1.16499    0.000
 4629.00    1.75045   1.16790    0.000
 4630.00    1.71412   1.15836    0.000
 4631.00    1.64335   1.15383    0.000
 4632.00    1.64853   1.16907    0.000
 4633.00    1.67571   1.17634    0.000
 4634.00    1.40998   1.15649    0.000
 4635.00    1.07410   1.13513    0.000
 4636.00    1.20093   1.13141    0.000
 4637.00    1.41712   1.13107    0.000
 4638.00    1.38570   1.11658    0.000
 4639.00    1.31710   1.09312    0.000
 4640.00    1.25314   1.07518    0.000
 4641.00    1.18969   1.07122    0.000
 4642.00    1.38528   1.08852    0.000
 4643.00    1.59971   1.11335    0.000
 4644.00    1.44192   1.11984    0.000
 4645.00    1.27005   1.10658    0.000
 4646.00    1.07896   1.07948    0.000
 4647.00    0.89915   1.03843    0.000
 4648.00    1.14115   1.00583    0.000
 4649.00    1.36729   1.00604    0.000
 4650.00    1.33400   1.03264    0.000
 4651.00    1.30423   1.06712    0.000
 4652.00    1.31041   1.09917    0.000
 4653.00    1.31906   1.12505    0.000
 4654.00    1.34570   1.13546    0.000
 4655.00    1.34285   1.11810    0.000
 4656.00    1.17513   1.08958    0.000
 4657.00    1.09491   1.07961    0.000
 4658.00    1.40504   1.10021    0.000
 4659.00    1.59740   1.14694    0.000
 4660.00    1.35833   1.19585    0.000
 4661.00    1.21643   1.21613    0.000
 4662.00    1.37262   1.19722    0.000
 4663.00    1.47990   1.15654    0.000
 4664.00    1.45958   1.12136    0.000
 4665.00    1.41557   1.10611    0.000
 4666.00    1.31848   1.09453    0.000
 4667.00    1.29930   1.05582    0.000
 4668.00    1.43144   0.99955    0.000
 4669.00    1.47649   0.97686    0.000
 4670.00    1.37407   1.01039    0.000
 4671.00    1.33752   1.06970    0.000
 4672.00    1.39868   1.11546    0.000
 4673.00    1.44465   1.12856    0.000
 4674.00    1.47081   1.11644    0.000
 4675.00    1.46096   1.10414    0.000
 4676.00    1.40973   1.11046    0.000
 4677.00    1.28062   1.13248    0.000
 4678.00    1.07262   1.14430    0.000
 4679.00    1.13688   1.12957    0.000
 4680.00    1.44449   1.10266    0.000
 4681.00    1.51563   1.08138    0.000
 4682.00    1.40055   1.07027    0.000
 4683.00    1.33347   1.07485    0.000
 4684.00    1.29967   1.09613    0.000
 4685.00    1.40968   1.11458    0.000
 4686.00    1.60704   1.11619    0.000
 4687.00    1.57710   1.11054    0.000
 4688.00    1.42663   1.10475    0.000
 4689.00    1.33881   1.10154    0.000
 4690.00    1.27983   1.10569    0.000
 4691.00    1.31321   1.10829    0.000
 4692.00    1.38320   1.10163    0.000
 4693.00    1.47408   1.09829    0.000
 4694.00    1.57201   1.10644    0.000
 4695.00    1.61124   1.12213    0.000
 4696.00    1.63382   1.14304    0.000
 4697.00    1.54700   1.15769    0.000
 4698.00    1.43457   1.14483    0.000
 4699.00    1.29183   1.10364    0.000
 4700.00    1.14339   1.06855    0.000
 4701.00    1.12570   1.06443    0.000
 4702.00    1.12702   1.07100    0.000
 4703.00    1.28787   1.06524    0.000
 4704.00    1.46558   1.05772    0.000
 4705.00    1.48274   1.06875    0.000
 4706.00    1.48888   1.09013    0.000
 4707.00    1.31150   1.09615    0.000
 4708.00    1.12787   1.08257    0.000
 4709.00    1.22518   1.06714    0.000
 4710.00    1.31929   1.06408    0.000
 4711.00    1.29519   1.08147    0.000
 4712.00    1.28216   1.11215    0.000
 4713.00    1.43888   1.12225    0.000
 4714.00    1.56208   1.09918    0.000
 4715.00    1.35659   1.07122    0.000
 4716.00    1.16550   1.07183    0.000
 4717.00    1.07621   1.10514    0.000
 4718.00    1.04716   1.14466    0.000
 4719.00    1.34582   1.17092    0.000
 4720.00    1.57084   1.19019    0.000
 4721.00    1.47494   1.20380    0.000
 4722.00    1.40254   1.20144    0.000
 4723.00    1.41444   1.18500    0.000
 4724.00    1.47580   1.17561    0.000
 4725.00    1.68608   1.18779    0.000
 4726.00    1.76715   1.20334    0.000
 4727.00    1.51713   1.18852    0.000
 4728.00    1.40776   1.13450    0.000
 4729.00    1.60844   1.07564    0.000
 4730.00    1.72655   1.04984    0.000
 4731.00    1.68680   1.05598    0.000
 4732.00    1.59749   1.07556    0.000
 4733.00    1.42549   1.10017    0.000
 4734.00    1.33907   1.12152    0.000
 4735.00    1.37776   1.13478    0.000
 4736.00    1.45777   1.14084    0.000
 4737.00    1.59091   1.13106    0.000
 4738.00    1.62944   1.12030    0.000
 4739.00    1.56079   1.13846    0.000
 4740.00    1.47116   1.16495    0.000
 4741.00    1.36056   1.16392    0.000
 4742.00    1.29942   1.14754    0.000
 4743.00    1.28187   1.14553    0.000
 4744.00    1.31100   1.15881    0.000
 4745.00    1.37637   1.16606    0.000
 4746.00    1.35575   1.16348    0.000
 4747.00    1.27643   1.17077    0.000
 4748.00    1.20064   1.18630    0.000
 4749.00    1.12695   1.19097    0.000
 4750.00    1.23433   1.18800    0.000
 4751.00    1.43622   1.18763    0.000
 4752.00    1.53318   1.18238    0.000
 4753.00    1.58263   1.16555    0.000
 4754.00    1.59055   1.14694    0.000
 4755.00    1.58230   1.13466    0.000
 4756.00    1.46807   1.13038    0.000
 4757.00    1.31873   1.13206    0.000
 4758.00    1.29336   1.13630    0.000
 4759.00    1.30247   1.14295    0.000
 4760.00    1.45646   1.15306    0.000
 4761.00    1.64360   1.15966    0.011
 4762.00    1.62300   1.14650    0.011
 4763.00    1.56434   1.11633    0.011
 4764.00    1.34063   1.09310    0.011
 4765.00    1.09367   1.07967    0.011
 4766.00    1.18836   1.06233    0.011
 4767.00    1.31771   1.04942    0.011
 4768.00    1.34913   1.06053    0.011
 4769.00    1.37422   1.09328    0.011
 4770.00    1.46494   1.13003    0.011
 4771.00    1.55744   1.15088    0.011
 4772.00    1.54918   1.14285    0.011
 4773.00    1.53798   1.12466    0.011
 4774.00    1.44164   1.12875    0.011
 4775.00    1.36018   1.15655    0.011
 4776.00    1.49365   1.17867    0.011
 4777.00    1.61284   1.18118    0.011
 4778.00    1.59767   1.18204    0.011
 4779.00    1.56935   1.18584    0.011
 4780.00    1.45103   1.17950    0.011
 4781.00    1.35794   1.16753    0.010
 4782.00    1.39849   1.15764    0.010
 4783.00    1.41074   1.14064    0.010
 4784.00    1.30248   1.11722    0.010
 4785.00    1.21701   1.11015    0.010
 4786.00    1.21158   1.11812    0.010
 4787.00    1.24661   1.11475    0.010
 4788.00    1.40113   1.10778    0.010
 4789.00    1.52250   1.11301    0.011
 4790.00    1.56035   1.11610    0.011
 4791.00    1.60020   1.11540    0.011
 4792.00    1.64440   1.12386    0.011
 4793.00    1.64706   1.14267    0.010
 4794.00    1.57151   1.17230    0.011
 4795.00    1.49344   1.20805    0.011
 4796.00    1.41123   1.22949    0.011
 4797.00    1.33398   1.22292    0.010
 4798.00    1.26388   1.19695    0.011
 4799.00    1.28316   1.16475    0.011
 4800.00    1.41573   1.13670    0.011
 4801.00    1.40344   1.12852    0.011
 4802.00    1.22937   1.14961    0.011
 4803.00    1.13451   1.18425    0.011
 4804.00    1.11768   1.20287    0.010
 4805.00    1.21519   1.19180    0.010
 4806.00    1.41203   1.16434    0.011
 4807.00    1.44583   1.14328    0.011
 4808.00    1.35485   1.13017    0.011
 4809.00    1.34651   1.12121    0.011
 4810.00    1.39374   1.12705    0.011
 4811.00    1.40850   1.14593    0.011
 4812.00    1.40413   1.15937    0.011
 4813.00    1.42705   1.15996    0.011
 4814.00    1.46400   1.15574    0.011
 4815.00    1.38656   1.15554    0.011
 4816.00    1.25817   1.16189    0.011
 4817.00    1.26404   1.17462    0.011
 4818.00    1.32126   1.19078    0.011
 4819.00    1.42989   1.20389    0.011
 4820.00    1.55522   1.21118    0.011
 4821.00    1.60197   1.21144    0.011
 4822.00    1.62732   1.20252    0.011
 4823.00    1.55986   1.17776    0.011
 4824.00    1.47167   1.13662    0.011
 4825.00    1.44063   1.11151    0.011
 4826.00    1.41977   1.12843    0.011
 4827.00    1.38001   1.15998    0.011
 4828.00    1.33768   1.16879    0.011
 4829.00    1.55062   1.15484    0.011
 4830.00    1.78837   1.14318    0.011
 4831.00    1.35610   1.14415    0.011
 4832.00    0.88320   1.13753    0.011
 4833.00    1.06624   1.11922    0.011
 4834.00    1.26626   1.12005    0.011
 4835.00    1.39095   1.14545    0.011
 4836.00    1.51016   1.16580    0.011
 4837.00    1.48611   1.16845    0.011
 4838.00    1.46729   1.16484    0.011
 4839.00    1.51988   1.15497    0.011
 4840.00    1.55549   1.13266    0.011
 4841.00    1.43772   1.11322    0.011
 4842.00    1.35242   1.11346    0.011
 4843.00    1.48267   1.11953    0.011
 4844.00    1.54236   1.11499    0.011
 4845.00    1.23790   1.11848    0.011
 4846.00    0.98344   1.14406    0.011
 4847.00    0.93705   1.16604    0.011
 4848.00    0.91242   1.15756    0.000
 4849.00    0.96273   1.12546    0.000
 4850.00    1.02551   1.10399    0.000
 4851.00    1.12445   1.11239    0.000
 4852.00    1.20814   1.12674    0.000
 4853.00    1.25406   1.12593    0.000
 4854.00    1.27430   1.11295    0.000
 4855.00    1.23976   1.07989    0.000
 4856.00    1.27200   1.02962    0.000
 4857.00    1.42797   1.00136    0.000
 4858.00    1.50261   1.00827    0.000
 4859.00    1.44560   1.00570    0.000
 4860.00    1.41093   0.95553    0.000
 4861.00    1.40800   0.86618    0.000
 4862.00    1.41680   0.78842    0.000
 4863.00    1.44027   0.78558    0.000
 4864.00    1.47705   0.85459    0.000
 4865.00    1.52848   0.92774    0.000
 4866.00    1.53766   0.97708    0.000
 4867.00    1.50582   1.01624    0.000
 4868.00    1.43997   1.04393    0.000
 4869.00    1.34501   1.05746    0.000
 4870.00    1.29769   1.06272    0.000
 4871.00    1.28631   1.04478    0.000
 4872.00    1.25890   0.99923    0.000
 4873.00    1.22085   0.97565    0.000
 4874.00    1.23006   1.00689    0.000
 4875.00    1.26668   1.05337    0.011
 4876.00    1.36766   1.07622    0.011
 4877.00    1.50118   1.08847    0.011
 4878.00    1.38858   1.10637    0.011
 4879.00    1.16820   1.12748    0.011
 4880.00    1.18317   1.15299    0.011
 4881.00    1.28660   1.16302    0.011
 4882.00    1.48939   1.13882    0.011
 4883.00    1.72386   1.11458    0.011
 4884.00    1.68164   1.11838    0.011
 4885.00    1.56565   1.11961    0.011
 4886.00    1.39573   1.09274    0.011
 4887.00    1.21405   1.06286    0.011
 4888.00    1.30912   1.06042    0.011
 4889.00    1.45216   1.07673    0.011
 4890.00    1.30089   1.07972    0.011
 4891.00    1.11085   1.05095    0.011
 4892.00    1.26032   1.01608    0.011
 4893.00    1.44133   1.03290    0.011
 4894.00    1.52221   1.10486    0.011
 4895.00    1.59742   1.17853    0.011
 4896.00    1.60032   1.22379    0.011
 4897.00    1.60185   1.24067    0.011
 4898.00    1.63378   1.23895    0.011
 4899.00    1.66218   1.22737    0.011
 4900.00    1.60683   1.20242    0.011
 4901.00    1.56196   1.17406    0.011
 4902.00    1.65258   1.16573    0.011
 4903.00    1.71783   1.16653    0.010
 4904.00    1.56241   1.15483    0.010
 4905.00    1.42892   1.14950    0.010
 4906.00    1.43652   1.17374    0.010
 4907.00    1.44254   1.20702    0.010
 4908.00    1.44065   1.21232    0.010
 4909.00    1.43587   1.18385    0.010
 4910.00    1.41926   1.14186    0.010
 4911.00    1.39959   1.10852    0.010
 4912.00    1.36955   1.10283    0.010
 4913.00    1.36167   1.12445    0.010
 4914.00    1.41691   1.15241    0.010
 4915.00    1.45233   1.17582    0.010
 4916.00    1.43954   1.19767    0.010
 4917.00    1.39760   1.20611    0.010
 4918.00    1.29446   1.17811    0.010
 4919.00    1.20886   1.10837    0.010
 4920.00    1.15527   1.02338    0.010
 4921.00    1.14832   0.96505    0.010
 4922.00    1.21574   0.96157    0.010
 4923.00    1.31168   1.00855    0.010
 4924.00    1.44751   1.06132    0.010
 4925.00    1.49735   1.08343    0.010
 4926.00    1.44127   1.09394    0.010
 4927.00    1.38521   1.12685    0.010
 4928.00    1.32918   1.16972    0.010
 4929.00    1.34983   1.20089    0.010
 4930.00    1.44391   1.22440    0.010
 4931.00    1.46280   1.23757    0.010
 4932.00    1.41820   1.23482    0.010
 4933.00    1.46990   1.21259    0.010
 4934.00    1.59322   1.16782    0.010
 4935.00    1.63411   1.13370    0.010
 4936.00    1.62117   1.14251    0.010
 4937.00    1.53717   1.15847    0.010
 4938.00    1.41255   1.13305    0.010
 4939.00    1.33661   1.07919    0.010
 4940.00    1.28491   1.05112    0.000
 4941.00    1.32008   1.08043    0.000
 4942.00    1.39265   1.13985    0.000
 4943.00    1.36303   1.18285    0.000
 4944.00    1.29568   1.20551    0.000
 4945.00    1.47731   1.21840    0.000
 4946.00    1.73683   1.21324    0.000
 4947.00    1.79511   1.19936    0.000
 4948.00    1.80089   1.20262    0.000
 4949.00    1.48271   1.21936    0.000
 4950.00    1.09554   1.23099    0.000
 4951.00    1.18861   1.23825    0.000
 4952.00    1.36261   1.24570    0.000
 4953.00    1.50920   1.24139    0.000
 4954.00    1.65230   1.22045    0.000
 4955.00    1.63272   1.19727    0.000
 4956.00    1.59870   1.17339    0.000
 4957.00    1.67740   1.12372    0.000
 4958.00    1.76204   1.04512    0.000
 4959.00    1.47583   1.00592    0.000
 4960.00    1.18948   1.05674    0.000
 4961.00    1.44857   1.13980    0.000
 4962.00    1.68902   1.18231    0.000
 4963.00    1.52415   1.18641    0.000
 4964.00    1.36127   1.18394    0.000
 4965.00    1.22277   1.17276    0.000
 4966.00    1.11237   1.14004    0.000
 4967.00    1.23735   1.10736    0.000
 4968.00    1.34822   1.09860    0.000
 4969.00    1.37098   1.10586    0.000
 4970.00    1.37698   1.11800    0.000
 4971.00    1.30083   1.13189    0.000
 4972.00    1.25037   1.14829    0.000
 4973.00    1.30217   1.16846    0.000
 4974.00    1.36982   1.18602    0.000
 4975.00    1.48990   1.19695    0.000
 4976.00    1.58793   1.19844    0.000
 4977.00    1.62431   1.18845    0.000
 4978.00    1.58751   1.16894    0.000
 4979.00    1.37571   1.14085    0.000
 4980.00    1.27303   1.11651    0.000
 4981.00    1.39572   1.10455    0.000
 4982.00    1.48521   1.08321    0.000
 4983.00    1.51501   1.03752    0.000
 4984.00    1.50811   0.99920    0.000
 4985.00    1.44356   1.00181    0.000
 4986.00    1.36251   1.03365    0.000
 4987.00    1.25869   1.07321    0.000
 4988.00    1.19607   1.11526    0.000
 4989.00    1.18347   1.14477    0.000
 4990.00    1.23167   1.14781    0.000
 4991.00    1.34496   1.13317    0.000
 4992.00    1.35423   1.12045    0.000
 4993.00    1.26530   1.12465    0.000
 4994.00    1.32606   1.13276    0.000
 4995.00    1.51142   1.13045    0.000
 4996.00    1.51505   1.13418    0.000
 4997.00    1.38550   1.14701    0.000
 4998.00    1.31293   1.15110    0.000
 4999.00    1.27703   1.13885    0.000
 5000.00    1.26396   1.10846    0.000
 5001.00    1.26374   1.07165    0.000
 5002.00    1.35149   1.05077    0.000
 5003.00    1.48233   1.05051    0.000
 5004.00    1.46627   1.05893    0.000
 5005.00    1.38800   1.05641    0.000
 5006.00    1.33471   1.03051    0.000
 5007.00    1.29048   1.00073    0.000
 5008.00    1.33838   1.00751    0.000
 5009.00    1.41455   1.05540    0.000
 5010.00    1.42361   1.09994    0.000
 5011.00    1.41554   1.10951    0.000
 5012.00    1.42058   1.08974    0.000
 5013.00    1.42834   1.05113    0.000
 5014.00    1.37959   1.00790    0.000
 5015.00    1.32159   0.97981    0.000
 5016.00    1.29953   0.98039    0.000
 5017.00    1.28188   1.00532    0.000
 5018.00    1.14695   1.02722    0.000
 5019.00    1.00209   1.03444    0.000
 5020.00    1.04295   1.04406    0.000
 5021.00    1.09288   1.05973    0.000
 5022.00    1.24563   1.06260    0.000
 5023.00    1.39688   1.05083    0.000
 5024.00    1.35978   1.05194    0.000
 5025.00    1.32601   1.07629    0.000
 5026.00    1.35891   1.09880    0.000
 5027.00    1.38530   1.09974    0.000
 5028.00    1.33572   1.08094    0.000
 5029.00    1.30819   1.06907    0.010
 5030.00    1.45859   1.08779    0.010
 5031.00    1.58399   1.11804    0.010
 5032.00    1.55785   1.13941    0.010
 5033.00    1.49874   1.16060    0.010
 5034.00    1.28200   1.18279    0.010
 5035.00    1.09855   1.18179    0.010
 5036.00    1.04478   1.14097    0.010
 5037.00    1.03259   1.09035    0.010
 5038.00    1.15525   1.07461    0.010
 5039.00    1.23756   1.07783    0.010
 5040.00    1.20911   1.05238    0.010
 5041.00    1.20106   0.99427    0.010
 5042.00    1.24095   0.94779    0.010
 5043.00    1.28377   0.96517    0.010
 5044.00    1.33254   1.04043    0.010
 5045.00    1.35361   1.11538    0.010
 5046.00    1.32567   1.16456    0.010
 5047.00    1.29259   1.19057    0.010
 5048.00    1.25156   1.17949    0.010
 5049.00    1.22250   1.13024    0.010
 5050.00    1.20970   1.07988    0.010
 5051.00    1.18795   1.06024    0.010
 5052.00    1.15549   1.06319    0.010
 5053.00    1.16328   1.07353    0.010
 5054.00    1.21356   1.09473    0.010
 5055.00    1.31560   1.12546    0.010
 5056.00    1.46583   1.14847    0.010
 5057.00    1.49646   1.15553    0.010
 5058.00    1.42893   1.15859    0.010
 5059.00    1.40263   1.16814    0.010
 5060.00    1.40612   1.17759    0.010
 5061.00    1.31838   1.18611    0.010
 5062.00    1.17281   1.19979    0.010
 5063.00    1.24049   1.20691    0.010
 5064.00    1.42640   1.18540    0.010
 5065.00    1.41360   1.13171    0.010
 5066.00    1.30499   1.08167    0.010
 5067.00    1.16879   1.07372    0.010
 5068.00    1.02111   1.08876    0.010
 5069.00    1.20189   1.09253    0.010
 5070.00    1.49963   1.09634    0.010
 5071.00    1.48710   1.11471    0.010
 5072.00    1.38126   1.12262    0.010
 5073.00    1.11217   1.10628    0.010
 5074.00    0.80230   1.09769    0.010
 5075.00    1.05488   1.11103    0.010
 5076.00    1.42143   1.11890    0.010
 5077.00    1.35542   1.11503    0.010
 5078.00    1.22067   1.11600    0.010
 5079.00    1.22138   1.10501    0.010
 5080.00    1.23811   1.05605    0.010
 5081.00    1.17771   1.00381    0.010
 5082.00    1.11111   0.99877    0.009
 5083.00    1.11048   1.02705    0.009
 5084.00    1.11282   1.04880    0.009
 5085.00    1.20279   1.06387    0.009
 5086.00    1.29251   1.08730    0.009
 5087.00    1.31760   1.10971    0.009
 5088.00    1.34033   1.11850    0.009
 5089.00    1.31924   1.12113    0.009
 5090.00    1.30093   1.12818    0.009
 5091.00    1.31350   1.13558    0.009
 5092.00    1.31240   1.14009    0.009
 5093.00    1.20477   1.15116    0.010
 5094.00    1.12164   1.16932    0.010
 5095.00    1.18288   1.17566    0.010
 5096.00    1.22968   1.15923    0.010
 5097.00    1.20907   1.13014    0.009
 5098.00    1.18298   1.09753    0.009
 5099.00    1.13598   1.06058    0.009
 5100.00    1.13020   1.03187    0.009
 5101.00    1.25548   1.04007    0.009
 5102.00    1.31961   1.08257    0.009
 5103.00    1.21884   1.11877    0.009
 5104.00    1.13590   1.12403    0.009
 5105.00    1.09422   1.11074    0.009
 5106.00    1.13415   1.09943    0.009
 5107.00    1.33736   1.09074    0.009
 5108.00    1.43241   1.07527    0.009
 5109.00    1.33901   1.06042    0.009
 5110.00    1.24319   1.05502    0.009
 5111.00    1.14366   1.05428    0.010
 5112.00    1.15610   1.06527    0.010
 5113.00    1.31855   1.09013    0.010
 5114.00    1.33575   1.11048    0.010
 5115.00    1.18152   1.12300    0.010
 5116.00    1.19514   1.13538    0.010
 5117.00    1.38341   1.14894    0.010
 5118.00    1.45784   1.16580    0.010
 5119.00    1.42780   1.17865    0.010
 5120.00    1.30638   1.17458    0.010
 5121.00    1.11106   1.15348    0.010
 5122.00    1.17876   1.12425    0.010
 5123.00    1.43371   1.09199    0.010
 5124.00    1.40055   1.05534    0.010
 5125.00    1.18743   1.02619    0.010
 5126.00    1.13620   1.02280    0.010
 5127.00    1.17334   1.03530    0.010
 5128.00    1.16575   1.04105    0.010
 5129.00    1.13693   1.03831    0.010
 5130.00    1.10008   1.03805    0.010
 5131.00    1.05995   1.04844    0.010
 5132.00    1.15048   1.07080    0.010
 5133.00    1.28669   1.09231    0.010
 5134.00    1.26807   1.10188    0.010
 5135.00    1.20381   1.11041    0.010
 5136.00    1.19808   1.12748    0.010
 5137.00    1.20665   1.13170    0.010
 5138.00    1.27127   1.10782    0.010
 5139.00    1.34696   1.07339    0.010
 5140.00    1.30870   1.05083    0.010
 5141.00    1.25286   1.05717    0.010
 5142.00    1.21195   1.07632    0.010
 5143.00    1.17273   1.06833    0.010
 5144.00    1.12618   1.04868    0.010
 5145.00    1.07907   1.05402    0.010
 5146.00    1.18345   1.06460    0.010
 5147.00    1.29407   1.05514    0.010
 5148.00    1.08251   1.04103    0.010
 5149.00    0.87466   1.04212    0.010
 5150.00    0.93488   1.05692    0.010
 5151.00    1.00199   1.06448    0.010
 5152.00    1.18855   1.05356    0.010
 5153.00    1.35539   1.03851    0.010
 5154.00    1.31251   1.03272    0.010
 5155.00    1.27998   1.03821    0.010
 5156.00    1.32528   1.05777    0.010
 5157.00    1.37236   1.09008    0.010
 5158.00    1.42968   1.12440    0.010
 5159.00    1.48283   1.14637    0.010
 5160.00    1.51696   1.14987    0.010
 5161.00    1.48947   1.14746    0.009
 5162.00    1.23211   1.14330    0.009
 5163.00    1.02554   1.12529    0.009
 5164.00    0.97743   1.09949    0.009
 5165.00    0.97611   1.07121    0.009
 5166.00    1.09874   1.01874    0.009
 5167.00    1.16839   0.93337    0.009
 5168.00    1.11758   0.84711    0.009
 5169.00    1.07949   0.81059    0.009
 5170.00    1.06645   0.84345    0.009
 5171.00    1.07598   0.89910    0.009
 5172.00    1.12422   0.90071    0.009
 5173.00    1.17312   0.83892    0.009
 5174.00    1.22303   0.79978    0.009
 5175.00    1.23887   0.85107    0.009
 5176.00    1.20974   0.95092    0.009
 5177.00    1.20907   1.02177    0.009
 5178.00    1.24153   1.05060    0.009
 5179.00    1.31111   1.06318    0.009
 5180.00    1.41877   1.06464    0.009
 5181.00    1.41267   1.04755    0.009
 5182.00    1.30363   1.00696    0.009
 5183.00    1.21687   0.93406    0.009
 5184.00    1.14788   0.84323    0.009
 5185.00    1.10921   0.80099    0.009
 5186.00    1.09181   0.85776    0.009
 5187.00    1.15711   0.96856    0.009
 5188.00    1.27330   1.05198    0.009
 5189.00    1.35715   1.08399    0.009
 5190.00    1.42361   1.09635    0.000
 5191.00    1.24147   1.10387    0.000
 5192.00    0.94330   1.07554    0.000
 5193.00    1.02144   1.01571    0.000
 5194.00    1.25097   0.98678    0.000
 5195.00    1.30321   1.00617    0.000
 5196.00    1.29461   1.03087    0.000
 5197.00    1.28700   1.04715    0.000
 5198.00    1.27967   1.07090    0.000
 5199.00    1.25182   1.09860    0.000
 5200.00    1.21906   1.11958    0.000
 5201.00    1.26860   1.12916    0.000
 5202.00    1.33398   1.12477    0.000
 5203.00    1.22062   1.11048    0.000
 5204.00    1.08053   1.08930    0.000
 5205.00    1.07542   1.04914    0.000
 5206.00    1.08509   0.99123    0.000
 5207.00    1.02825   0.95008    0.000
 5208.00    0.96660   0.94022    0.000
 5209.00    1.12030   0.93690    0.000
 5210.00    1.28204   0.93979    0.000
 5211.00    1.22643   0.97150    0.010
 5212.00    1.17244   1.02738    0.009
 5213.00    1.21361   1.08611    0.009
 5214.00    1.24740   1.12827    0.009
 5215.00    1.16140   1.13768    0.010
 5216.00    1.09094   1.11345    0.010
 5217.00    1.17873   1.08266    0.010
 5218.00    1.25661   1.07886    0.010
 5219.00    1.26243   1.10627    0.009
 5220.00    1.26720   1.14162    0.009
 5221.00    1.26618   1.16455    0.009
 5222.00    1.25987   1.17386    0.009
 5223.00    1.23004   1.16962    0.010
 5224.00    1.21629   1.14355    0.010
 5225.00    1.26125   1.09439    0.009
 5226.00    1.29420   1.03276    0.009
 5227.00    1.29040   0.97505    0.009
 5228.00    1.29187   0.95140    0.009
 5229.00    1.30707   0.99173    0.009
 5230.00    1.28950   1.07120    0.009
 5231.00    1.19862   1.13167    0.009
 5232.00    1.15341   1.15253    0.009
 5233.00    1.19671   1.13721    0.009
 5234.00    1.22486   1.10014    0.009
 5235.00    1.22744   1.07825    0.009
 5236.00    1.23331   1.09213    0.009
 5237.00    1.24408   1.13095    0.009
 5238.00    1.24475   1.17198    0.009
 5239.00    1.23229   1.19351    0.009
 5240.00    1.17861   1.19183    0.009
 5241.00    1.07765   1.18264    0.009
 5242.00    1.12782   1.17922    0.009
 5243.00    1.33088   1.17845    0.009
 5244.00    1.38909   1.17883    0.009
 5245.00    1.31808   1.18958    0.009
 5246.00    1.30603   1.19738    0.009
 5247.00    1.34032   1.16802    0.009
 5248.00    1.37332   1.11199    0.009
 5249.00    1.40541   1.08294    0.009
 5250.00    1.33110   1.08660    0.009
 5251.00    1.19228   1.08291    0.009
 5252.00    1.21480   1.07494    0.009
 5253.00    1.32269   1.09059    0.009
 5254.00    1.42219   1.11597    0.010
 5255.00    1.51783   1.11939    0.010
 5256.00    1.36721   1.10692    0.009
 5257.00    1.11922   1.11919    0.009
 5258.00    1.03570   1.16657    0.010
 5259.00    1.00759   1.21190    0.010
 5260.00    1.08072   1.22486    0.010
 5261.00    1.18250   1.20388    0.010
 5262.00    1.21296   1.15864    0.010
 5263.00    1.22679   1.09896    0.010
 5264.00    1.28951   1.03665    0.010
 5265.00    1.36141   0.98497    0.010
 5266.00    1.19026   0.95051    0.010
 5267.00    0.98390   0.94260    0.010
 5268.00    0.95639   0.96931    0.010
 5269.00    0.94769   0.98908    0.010
 5270.00    1.02422   0.94999    0.010
 5271.00    1.10655   0.90108    0.010
 5272.00    1.33376   0.93011    0.010
 5273.00    1.56582   1.01647    0.010
 5274.00    1.43953   1.07895    0.010
 5275.00    1.31173   1.09435    0.010
 5276.00    1.14825   1.08746    0.010
 5277.00    0.99109   1.09407    0.010
 5278.00    0.93022   1.13714    0.010
 5279.00    0.89075   1.19063    0.009
 5280.00    1.05998   1.21088    0.009
 5281.00    1.20388   1.19040    0.009
 5282.00    1.16944   1.15181    0.009
 5283.00    1.14315   1.11680    0.009
 5284.00    1.16108   1.09366    0.009
 5285.00    1.18073   1.09393    0.009
 5286.00    1.20791   1.13494    0.009
 5287.00    1.22759   1.19980    0.009
 5288.00    1.22041   1.24145    0.009
 5289.00    1.27765   1.24358    0.009
 5290.00    1.52833   1.23468    0.009
 5291.00    1.66876   1.23986    0.009
 5292.00    1.52732   1.25062    0.009
 5293.00    1.36903   1.24758    0.009
 5294.00    1.17369   1.23158    0.009
 5295.00    1.05966   1.21764    0.009
 5296.00    1.10077   1.20249    0.009
 5297.00    1.11900   1.16290    0.009
 5298.00    1.09911   1.09851    0.009
 5299.00    1.10729   1.05325    0.009
 5300.00    1.15643   1.06607    0.009
 5301.00    1.19884   1.11064    0.009
 5302.00    1.23259   1.13512    0.009
 5303.00    1.23178   1.14224    0.009
 5304.00    1.19189   1.16691    0.009
 5305.00    1.16342   1.21197    0.009
 5306.00    1.14634   1.24912    0.009
 5307.00    1.13823   1.25610    0.009
 5308.00    1.13801   1.23963    0.009
 5309.00    1.20219   1.22862    0.009
 5310.00    1.31627   1.23912    0.009
 5311.00    1.38016   1.25586    0.009
 5312.00    1.40985   1.25949    0.009
 5313.00    1.29470   1.24944    0.009
 5314.00    1.09307   1.23519    0.009
 5315.00    1.07626   1.22494    0.009
 5316.00    1.15574   1.21762    0.009
 5317.00    1.20931   1.20632    0.009
 5318.00    1.25119   1.19616    0.009
 5319.00    1.31921   1.19677    0.009
 5320.00    1.39739   1.20149    0.009
 5321.00    1.40366   1.20149    0.009
 5322.00    1.38617   1.19878    0.009
 5323.00    1.28651   1.19096    0.009
 5324.00    1.16406   1.16823    0.009
 5325.00    1.12405   1.13668    0.009
 5326.00    1.10285   1.12204    0.009
 5327.00    1.05648   1.11622    0.009
 5328.00    1.00553   1.07003    0.009
 5329.00    1.00902   0.98812    0.009
 5330.00    1.02015   0.95702    0.009
 5331.00    1.09586   1.01913    0.009
 5332.00    1.17809   1.10924    0.009
 5333.00    1.21255   1.15713    0.009
 5334.00    1.24396   1.16855    0.009
 5335.00    1.15682   1.18510    0.009
 5336.00    1.06662   1.21264    0.009
 5337.00    1.17085   1.22633    0.009
 5338.00    1.27285   1.22057    0.009
 5339.00    1.31087   1.20611    0.009
 5340.00    1.34135   1.17614    0.009
 5341.00    1.26367   1.12717    0.009
 5342.00    1.20288   1.09707    0.009
 5343.00    1.30023   1.11919    0.009
 5344.00    1.38630   1.16544    0.009
 5345.00    1.39548   1.19074    0.009
 5346.00    1.39928   1.18490    0.009
 5347.00    1.37468   1.16858    0.009
 5348.00    1.34994   1.16226    0.009
 5349.00    1.32461   1.15621    0.009
 5350.00    1.29251   1.14213    0.009
 5351.00    1.23670   1.14556    0.009
 5352.00    1.20312   1.17994    0.009
 5353.00    1.23510   1.21886    0.009
 5354.00    1.25502   1.24008    0.009
 5355.00    1.24463   1.25504    0.009
 5356.00    1.24350   1.27561    0.009
 5357.00    1.26238   1.29108    0.009
 5358.00    1.25315   1.29486    0.009
 5359.00    1.19113   1.29333    0.009
 5360.00    1.14729   1.28950    0.009
 5361.00    1.13326   1.27944    0.009
 5362.00    1.16551   1.25829    0.009
 5363.00    1.26434   1.23229    0.009
 5364.00    1.30389   1.21535    0.009
 5365.00    1.26846   1.20526    0.009
 5366.00    1.21928   1.19223    0.009
 5367.00    1.15477   1.18250    0.009
 5368.00    1.10213   1.18065   -2.000
 5369.00    1.06118   1.17593   -2.000
 5370.00    1.08214   1.15182   -2.000
 5371.00    1.15680   1.10182   -2.000
 5372.00    1.14544   1.05492   -2.000
 5373.00    1.06837   1.06005   -2.000
 5374.00    1.12153   1.12433   -2.000
 5375.00    1.26212   1.19918   -2.000
 5376.00    1.26353   1.24186   -2.000
 5377.00    1.18308   1.24780   -2.000
 5378.00    1.22559   1.23610   -2.000
 5379.00    1.33116   1.23265   -2.000
 5380.00    1.40502   1.24076   -2.000
 5381.00    1.46479   1.24124   -2.000
 5382.00    1.45558   1.22845   -2.000
 5383.00    1.42005   1.21224    0.009
 5384.00    1.34592   1.19948    0.009
 5385.00    1.25927   1.19942    0.009
 5386.00    1.23449   1.21453    0.009
 5387.00    1.22651   1.22775    0.009
 5388.00    1.26447   1.22705    0.009
 5389.00    1.31266   1.21522    0.009
 5390.00    1.30450   1.19388    0.009
 5391.00    1.28632   1.16783    0.009
 5392.00    1.14068   1.14981    0.008
 5393.00    0.97775   1.14500    0.008
 5394.00    1.04462   1.14660    0.009
 5395.00    1.13369   1.14750    0.009
 5396.00    1.09620   1.14149    0.009
 5397.00    1.05110   1.11640    0.009
 5398.00    1.16166   1.08116    0.009
 5399.00    1.27586   1.08026    0.009
 5400.00    1.32083   1.12248    0.009
 5401.00    1.36240   1.16044    0.009
 5402.00    1.31605   1.17392    0.009
 5403.00    1.26710   1.17952    0.009
 5404.00    1.18304   1.16872    0.009
 5405.00    1.11317   1.12126    0.009
 5406.00    1.17094   1.05761    0.009
 5407.00    1.22553   1.02656    0.009
 5408.00    1.25909   1.04925    0.009
 5409.00    1.27755   1.09058    0.009
 5410.00    1.21841   1.10187    0.009
 5411.00    1.17057   1.08885    0.009
 5412.00    1.16970   1.09929    0.009
 5413.00    1.18491   1.14402    0.009
 5414.00    1.25537   1.18550    0.009
 5415.00    1.28957   1.19934    0.009
 5416.00    1.21887   1.20084    0.009
 5417.00    1.20878   1.21457    0.009
 5418.00    1.34833   1.23813    0.009
 5419.00    1.41275   1.24834    0.009
 5420.00    1.31720   1.23541    0.009
 5421.00    1.26278   1.21184    0.009
 5422.00    1.28441   1.19912    0.009
 5423.00    1.32340   1.20392    0.009
 5424.00    1.39042   1.20271    0.009
 5425.00    1.39367   1.18299    0.009
 5426.00    1.30652   1.17707    0.009
 5427.00    1.23638   1.20641    0.009
 5428.00    1.18745   1.23944    0.009
 5429.00    1.16741   1.22824    0.009
 5430.00    1.17911   1.16642    0.009
 5431.00    1.16509   1.11456    0.009
 5432.00    1.12613   1.12189    0.009
 5433.00    1.19445   1.14761    0.009
 5434.00    1.35448   1.13973    0.009
 5435.00    1.38685   1.11124    0.009
 5436.00    1.32311   1.09619    0.009
 5437.00    1.31714   1.10788    0.009
 5438.00    1.34940   1.14288    0.008
 5439.00    1.35666   1.19143    0.008
 5440.00    1.34945   1.23798    0.008
 5441.00    1.26359   1.26780    0.008
 5442.00    1.13802   1.27929    0.008
 5443.00    1.19166   1.28079    0.008
 5444.00    1.32361   1.27685    0.008
 5445.00    1.32466   1.25789    0.008
 5446.00    1.27662   1.21021    0.008
 5447.00    1.17287   1.14072    0.008
 5448.00    1.05139   1.08980    0.008
 5449.00    1.01725   1.09830    0.008
 5450.00    1.00633   1.15052    0.008
 5451.00    1.07569   1.19511    0.008
 5452.00    1.16252   1.20924    0.008
 5453.00    1.21427   1.20169    0.008
 5454.00    1.25997   1.18110    0.009
 5455.00    1.22022   1.14489    0.009
 5456.00    1.16928   1.09883    0.008
 5457.00    1.15692   1.07818    0.008
 5458.00    1.14812   1.11088    0.008
 5459.00    1.26584   1.17044    0.009
 5460.00    1.39068   1.20849    0.009
 5461.00    1.40933   1.20853    0.009
 5462.00    1.42568   1.18607    0.009
 5463.00    1.45034   1.15788    0.009
 5464.00    1.46536   1.13483    0.009
 5465.00    1.25421   1.13500    0.009
 5466.00    1.06493   1.15894    0.009
 5467.00    1.15663   1.17898    0.009
 5468.00    1.25192   1.18574    0.009
 5469.00    1.37824   1.19142    0.009
 5470.00    1.48257   1.19166    0.009
 5471.00    1.44588   1.17870    0.009
 5472.00    1.40395   1.16627    0.009
 5473.00    1.33574   1.16216    0.009
 5474.00    1.28560   1.15284    0.009
 5475.00    1.30883   1.13811    0.009
 5476.00    1.30473   1.12414    0.009
 5477.00    1.20867   1.09720    0.008
 5478.00    1.13309   1.07041   -2.000
 5479.00    1.11568   1.08688   -2.000
 5480.00    1.08845   1.13591   -2.000
 5481.00    1.03738   1.15739   -2.000
 5482.00    1.26089   1.13443   -2.000
 5483.00    2.05963   1.11187   -2.000
 5484.00    2.43791   1.12516   -2.000
 5485.00    2.05049   1.16401   -2.000
 5486.00    1.51742   1.20023   -2.000
 5487.00    0.75249   1.20813   -2.000
 5488.00    0.25997   1.18314   -2.000
 5489.00    0.14798   1.15612   -2.000
 5490.00    0.46291   1.15479   -2.000
 5491.00    1.30267   1.16825   -2.000
 5492.00    1.83552   1.18053   -2.000
 5493.00    2.03575   1.18887   -2.000
 5494.00    1.93818   1.18588   -2.000
 5495.00    1.55595   1.17687   -2.000
 5496.00    1.35394   1.17797   -2.000
 5497.00    1.30384   1.17991   -2.000
 5498.00    1.30478   1.16801   -2.000
 5499.00    1.34359   1.16308   -2.000
 5500.00    1.39074   1.18339   -2.000
 5501.00    1.44330   1.19961   -2.000
 5502.00    1.39870   1.18352    0.008
 5503.00    1.29866   1.15592    0.008
 5504.00    1.30340   1.14705    0.008
 5505.00    1.36021   1.15339    0.008
 5506.00    1.29354   1.15215    0.008
 5507.00    1.17381   1.13522    0.009
 5508.00    1.17131   1.12630    0.008
 5509.00    1.21201   1.14567    0.008
 5510.00    1.26148   1.17133    0.008
 5511.00    1.31369   1.17547    0.008
 5512.00    1.33906   1.15719    0.009
 5513.00    1.35745   1.12704    0.009
 5514.00    1.28977   1.10337    0.008
 5515.00    1.20382   1.10101    0.008
 5516.00    1.25550   1.11506    0.008
 5517.00    1.33029   1.13497    0.009
 5518.00    1.25282   1.15904    0.009
 5519.00    1.15608   1.18963    0.008
 5520.00    1.18452   1.21704    0.008
 5521.00    1.22400   1.22592    0.008
 5522.00    1.23712   1.21995    0.016
 5523.00    1.24885   1.21405    0.905
 5524.00    1.19004   1.21295   -1.000
 5525.00    1.13189   1.21136   -1.000
 5526.00    1.22370   1.20270   -1.000
 5527.00    1.30997   1.18347   -1.000
 5528.00    1.27705   1.15304   -1.000
 5529.00    1.23997   1.12231   -1.000
 5530.00    1.15217   1.11870   -1.000
 5531.00    1.08362   1.15040   -1.000
 5532.00    1.17550   1.18572   -1.000
 5533.00    1.25417   1.19749    0.113
 5534.00    1.25073   1.19174    0.014
 5535.00    1.24179   1.18143    0.008
 5536.00    1.20592   1.17121    0.008
 5537.00    1.18620   1.16868    0.008
 5538.00    1.23061   1.17538    0.008
 5539.00    1.27654   1.18205    0.008
 5540.00    1.32747   1.19112    0.008
 5541.00    1.34525   1.20926    0.008
 5542.00    1.27054   1.22605    0.008
 5543.00    1.22026   1.22562    0.008
 5544.00    1.22827   1.20918    0.008
 5545.00    1.21231   1.19538    0.010
 5546.00    1.14696   1.19297    0.025
 5547.00    1.08728   1.19331   -1.000
 5548.00    1.03779   1.19829   -1.000
 5549.00    1.08427   1.21700   -1.000
 5550.00    1.28124   1.23894   -1.000
 5551.00    1.36603   1.24913   -1.000
 5552.00    1.29638   1.24824   -1.000
 5553.00    1.28019   1.23952    0.037
 5554.00    1.32881   1.22272    0.012
 5555.00    1.33004   1.20438    0.008
 5556.00    1.28064   1.19642    0.008
 5557.00    1.23905   1.19996    0.008
 5558.00    1.20483   1.20297    0.008
 5559.00    1.18688   1.20098    0.008
 5560.00    1.18245   1.20136    0.008
 5561.00    1.22752   1.20363    0.008
 5562.00    1.30880   1.19942    0.008
 5563.00    1.31841   1.18713    0.008
 5564.00    1.28199   1.17532    0.008
 5565.00    1.27748   1.17252    0.008
 5566.00    1.29092   1.17157    0.008
 5567.00    1.27103   1.16302    0.008
 5568.00    1.23487   1.15607    0.008
 5569.00    1.21307   1.15764    0.008
 5570.00    1.19735   1.15925    0.008
 5571.00    1.19001   1.16237    0.008
 5572.00    1.18570   1.17287    0.008
 5573.00    1.21751   1.17373    0.008
 5574.00    1.26038   1.16085    0.008
 5575.00    1.33935   1.16343    0.008
 5576.00    1.42752   1.18316    0.008
 5577.00    1.48125   1.19392    0.008
 5578.00    1.52784   1.19620    0.008
 5579.00    1.40624   1.19951    0.008
 5580.00    1.25721   1.20122    0.008
 5581.00    1.22522   1.20374    0.008
 5582.00    1.20753   1.20488    0.008
 5583.00    1.29968   1.19809    0.008
 5584.00    1.40106   1.19018    0.008
 5585.00    1.46885   1.18342    0.008
 5586.00    1.53502   1.16571    0.008
 5587.00    1.36511   1.13123    0.008
 5588.00    1.19574   1.09000    0.008
 5589.00    1.26849   1.06183    0.008
 5590.00    1.33763   1.05939    0.008
 5591.00    1.33490   1.07959    0.008
 5592.00    1.33453   1.10830    0.009
 5593.00    1.36160   1.12786    0.008
 5594.00    1.37356   1.13237    0.008
 5595.00    1.26414   1.13255    0.009
 5596.00    1.16615   1.14681    0.009
 5597.00    1.13723   1.17804    0.009
 5598.00    1.14523   1.19468    0.009
 5599.00    1.32925   1.17394    0.009
 5600.00    1.46149   1.14131    0.009
 5601.00    1.39261   1.12335    0.009
 5602.00    1.32637   1.11225    0.009
 5603.00    1.26866   1.10100    0.009
 5604.00    1.21602   1.10306    0.009
 5605.00    1.17725   1.13106    0.009
 5606.00    1.15072   1.17551    0.009
 5607.00    1.15293   1.21353    0.008
 5608.00    1.17536   1.23297    0.008
 5609.00    1.23883   1.23588    0.008
 5610.00    1.24413   1.23067    0.008
 5611.00    1.14671   1.22639    0.008
 5612.00    1.10628   1.22928    0.008
 5613.00    1.15390   1.23756    0.008
 5614.00    1.21451   1.23508    0.008
 5615.00    1.29274   1.19864    0.008
 5616.00    1.34763   1.13267    0.008
 5617.00    1.37461   1.08815    0.008
 5618.00    1.37326   1.10079    0.008
 5619.00    1.34208   1.13763    0.008
 5620.00    1.26946   1.15511    0.008
 5621.00    1.15835   1.15720    0.008
 5622.00    1.14012   1.16678    0.008
 5623.00    1.19798   1.18177    0.008
 5624.00    1.21601   1.17710    0.008
 5625.00    1.20533   1.14276    0.008
 5626.00    1.21754   1.10827    0.008
 5627.00    1.24426   1.10868    0.008
 5628.00    1.26305   1.13639    0.008
 5629.00    1.27746   1.16340    0.008
 5630.00    1.25059   1.18446    0.008
 5631.00    1.20386   1.20364    0.008
 5632.00    1.17851   1.21553    0.008
 5633.00    1.16205   1.21653    0.008
 5634.00    1.07539   1.20952    0.008
 5635.00    0.96380   1.19768    0.008
 5636.00    1.02959   1.18292    0.008
 5637.00    1.14859   1.16642    0.008
 5638.00    1.18036   1.15154    0.008
 5639.00    1.19041   1.14644    0.008
 5640.00    1.16865   1.15280    0.008
 5641.00    1.14045   1.15718    0.008
 5642.00    1.11194   1.14974    0.008
 5643.00    1.08339   1.14217    0.008
 5644.00    1.07332   1.14673    0.008
 5645.00    1.06542   1.15698    0.008
 5646.00    1.09900   1.16556    0.008
 5647.00    1.13589   1.17311    0.008
 5648.00    1.28123   1.17998    0.008
 5649.00    1.43140   1.18285    0.008
 5650.00    1.40329   1.17930    0.008
 5651.00    1.37281   1.17649    0.008
 5652.00    1.32545   1.18507    0.008
 5653.00    1.27551   1.20167    0.008
 5654.00    1.17783   1.20904    0.008
 5655.00    1.08640   1.19653    0.008
 5656.00    1.06413   1.17746    0.008
 5657.00    1.04409   1.17080    0.008
 5658.00    1.04129   1.16147    0.008
 5659.00    1.03710   1.12609    0.008
 5660.00    1.02474   1.09437    0.008
 5661.00    1.02700   1.10537    0.008
 5662.00    1.09735   1.13312    0.008
 5663.00    1.16076   1.13779    0.008
 5664.00    1.19783   1.13335    0.008
 5665.00    1.21574   1.14831    0.008
 5666.00    1.17287   1.17491    0.008
 5667.00    1.15823   1.18750    0.008
 5668.00    1.21959   1.17868    0.008
 5669.00    1.25237   1.16376    0.008
 5670.00    1.21923   1.15909    0.008
 5671.00    1.18660   1.16431    0.008
 5672.00    1.15496   1.17377    0.008
 5673.00    1.16024   1.19070    0.008
 5674.00    1.22970   1.21447    0.008
 5675.00    1.24205   1.22956    0.008
 5676.00    1.16743   1.22748    0.008
 5677.00    1.14566   1.22291    0.008
 5678.00    1.19457   1.22669    0.008
 5679.00    1.17814   1.22717    0.008
 5680.00    1.08473   1.21696    0.008
 5681.00    1.05019   1.20632    0.008
 5682.00    1.07679   1.19776    0.008
 5683.00    1.16077   1.18163    0.008
 5684.00    1.29732   1.16499    0.008
 5685.00    1.27778   1.16670    0.008
 5686.00    1.13221   1.18060    0.008
 5687.00    1.09027   1.18164    0.008
 5688.00    1.12197   1.16468    0.008
 5689.00    1.13203   1.14996    0.008
 5690.00    1.12859   1.15491    0.008
 5691.00    1.14337   1.17666    0.008
 5692.00    1.16806   1.20150    0.008
 5693.00    1.18442   1.22142    0.008
 5694.00    1.19683   1.23277    0.008
 5695.00    1.12913   1.23121    0.008
 5696.00    1.02871   1.22157    0.008
 5697.00    1.02655   1.21450    0.008
 5698.00    1.05865   1.20857    0.008
 5699.00    1.11414   1.19475    0.008
 5700.00    1.17649   1.17787    0.008
 5701.00    1.20185   1.16585    0.008
 5702.00    1.21820   1.15283    0.008
 5703.00    1.17067   1.14062    0.008
 5704.00    1.11056   1.14381    0.008
 5705.00    1.12944   1.16133    0.008
 5706.00    1.16045   1.17176    0.008
 5707.00    1.15813   1.16018    0.008
 5708.00    1.15202   1.13481    0.008
 5709.00    1.11489   1.10990    0.008
 5710.00    1.07541   1.09272    0.008
 5711.00    1.09236   1.09029    0.008
 5712.00    1.11160   1.09899    0.008
 5713.00    1.14165   1.11051    0.008
 5714.00    1.17157   1.13353    0.008
 5715.00    1.19264   1.16793    0.008
 5716.00    1.21308   1.19482    0.008
 5717.00    1.22269   1.20841    0.008
 5718.00    1.23254   1.21376    0.008
 5719.00    1.24496   1.21447    0.008
 5720.00    1.25801   1.21746    0.008
 5721.00    1.27576   1.22534    0.008
 5722.00    1.29350   1.23483    0.008
 5723.00    1.31112   1.24557    0.008
 5724.00    1.30219   1.25501    0.008
 5725.00    1.17263   1.25739    0.008
 5726.00    1.05957   1.25109    0.008
 5727.00    1.00791   1.23453    0.008
 5728.00    1.01335   1.21113    0.008
 5729.00    1.19654   1.20043    0.008
 5730.00    1.32924   1.21266    0.008
 5731.00    1.32853   1.22451    0.008
 5732.00    1.30857   1.21440    0.008
 5733.00    1.24492   1.19964    0.008
 5734.00    1.22872   1.20650    0.008
 5735.00    1.30578   1.22848    0.008
 5736.00    1.34467   1.24303    0.008
 5737.00    1.31818   1.24264    0.008
 5738.00    1.29839   1.23387    0.008
 5739.00    1.28864   1.22587    0.008
 5740.00    1.27637   1.22275    0.000
 5741.00    1.26078   1.22312    0.000
 5742.00    1.25733   1.22396    0.000
 5743.00    1.26800   1.22179    0.000
 5744.00    1.26854   1.21768    0.000
 5745.00    1.25870   1.22158    0.000
 5746.00    1.28899   1.23747    0.000
 5747.00    1.35552   1.24991    0.000
 5748.00    1.37798   1.24020    0.000
 5749.00    1.36535   1.21436    0.000
 5750.00    1.28373   1.20253    0.000
 5751.00    1.15378   1.21775    0.000
 5752.00    1.10500   1.23479    0.000
 5753.00    1.10606   1.22526    0.000
 5754.00    1.18106   1.19200    0.000
 5755.00    1.29572   1.16381    0.000
 5756.00    1.34113   1.16772    0.000
 5757.00    1.35427   1.20185    0.000
 5758.00    1.34639   1.23847    0.000
 5759.00    1.33007   1.25557    0.000
 5760.00    1.25027   1.24886    0.000
 5761.00    1.14873   1.22333    0.000
 5762.00    1.17534   1.18954    0.000
 5763.00    1.23887   1.16132    0.000
 5764.00    1.23165   1.15465    0.000
 5765.00    1.20758   1.17912    0.000
 5766.00    1.17275   1.21912    0.000
 5767.00    1.13586   1.24720    0.000
 5768.00    1.15297   1.25698    0.000
 5769.00    1.17812   1.25752    0.000
 5770.00    1.18826   1.25340    0.000
 5771.00    1.19677   1.24645    0.000
 5772.00    1.21731   1.23837    0.000
 5773.00    1.23871   1.22948    0.000
 5774.00    1.24382   1.22270    0.000
 5775.00    1.24834   1.21931    0.000
 5776.00    1.29670   1.21850    0.000
 5777.00    1.34287   1.22356    0.000
 5778.00    1.30382   1.23282    0.000
 5779.00    1.26918   1.23664    0.000
 5780.00    1.30562   1.22599    0.000
 5781.00    1.33697   1.19453    0.000
 5782.00    1.31681   1.14949    0.000
 5783.00    1.30119   1.11785    0.000
 5784.00    1.31840   1.11450    0.000
 5785.00    1.33599   1.11986    0.000
 5786.00    1.35558   1.11571    0.000
 5787.00    1.36502   1.11809    0.000
 5788.00    1.32940   1.14470    0.000
 5789.00    1.28807   1.18070    0.000
 5790.00    1.22590   1.20350    0.000
 5791.00    1.18721   1.20541   -2.000
 5792.00    1.22017   1.19424   -2.000
 5793.00    1.25780   1.19164   -2.000
 5794.00    1.30751   1.20756   -2.000
 5795.00    1.29697   1.23041   -2.000
 5796.00    1.15192   1.24808   -2.000
 5797.00    1.08768   1.25041   -2.000
 5798.00    1.17979   1.23141   -2.000
 5799.00    1.28559   1.20859   -2.000
 5800.00    1.41450   1.21169   -2.000
 5801.00    1.47867   1.24140   -2.000
 5802.00    1.44716   1.27052   -2.000
 5803.00    1.41534   1.28266   -2.000
 5804.00    1.38311   1.27619   -2.000
 5805.00    1.35868   1.25334   -2.000
 5806.00    1.34315   1.22857   -2.000
 5807.00    1.31530   1.21863   -2.000
 5808.00    1.27498   1.22294   -2.000
 5809.00    1.23456   1.23105   -2.000
 5810.00    1.19404   1.23744   -2.000
 5811.00    1.19166   1.24339    0.000
 5812.00    1.21920   1.24918    0.000
 5813.00    1.21621   1.25112    0.000
 5814.00    1.19213   1.24800    0.000
 5815.00    1.15623   1.23923    0.000
 5816.00    1.11319   1.22207    0.000
 5817.00    1.13329   1.20300    0.000
 5818.00    1.18673   1.19985    0.000
 5819.00    1.23475   1.21993    0.000
 5820.00    1.28027   1.24758    0.000
 5821.00    1.34007   1.26484    0.000
 5822.00    1.40551   1.26902    0.000
 5823.00    1.40272   1.26438    0.000
 5824.00    1.37701   1.25601    0.000
 5825.00    1.34816   1.25100    0.000
 5826.00    1.31841   1.25309    0.000
 5827.00    1.24097   1.25772    0.000
 5828.00    1.15243   1.25929    0.000
 5829.00    1.18362   1.25957    0.000
 5830.00    1.23718   1.26286    0.000
 5831.00    1.24075   1.26716    0.000
 5832.00    1.23710   1.26708    0.000
 5833.00    1.18711   1.26336    0.000
 5834.00    1.13229   1.25812    0.000
 5835.00    1.20733   1.24868    0.000
 5836.00    1.29116   1.23883    0.000
 5837.00    1.28595   1.23919    0.000
 5838.00    1.27780   1.24550    0.000
 5839.00    1.26695   1.24369    0.000
 5840.00    1.25541   1.23862    0.000
 5841.00    1.22240   1.24543    0.000
 5842.00    1.19063   1.26198    0.000
 5843.00    1.17764   1.27529    0.000
 5844.00    1.16809   1.27956    0.000
 5845.00    1.19180   1.27533    0.000
 5846.00    1.21806   1.26392    0.000
 5847.00    1.26213   1.24761    0.000
 5848.00    1.29304   1.23037    0.000
 5849.00    1.25281   1.21906    0.000
 5850.00    1.21219   1.21817    0.000
 5851.00    1.16991   1.22260    0.000
 5852.00    1.13548   1.22138    0.000
 5853.00    1.12906   1.20726    0.000
 5854.00    1.12224   1.18593    0.000
 5855.00    1.11420   1.17473    0.000
 5856.00    1.14012   1.17941    0.000
 5857.00    1.25266   1.18012    0.000
 5858.00    1.32191   1.16045    0.000
 5859.00    1.29609   1.13738    0.000
 5860.00    1.24573   1.13840    0.000
 5861.00    1.14863   1.16276    0.000
 5862.00    1.06513   1.18776    0.000
 5863.00    1.00424   1.19681    0.000
 5864.00    1.00578   1.19381    0.000
 5865.00    1.09826   1.19429    0.000
 5866.00    1.18425   1.19927    0.000
 5867.00    1.26192   1.19604    0.000
 5868.00    1.31368   1.18680    0.000
 5869.00    1.33620   1.18965    0.000
 5870.00    1.30553   1.20810    0.000
 5871.00    1.22191   1.22677    0.000
 5872.00    1.17442   1.23331    0.000
 5873.00    1.15866   1.22689    0.000
 5874.00    1.21845   1.21442    0.000
 5875.00    1.33668   1.20426    0.000
 5876.00    1.35245   1.19862    0.000
 5877.00    1.29853   1.19373    0.000
 5878.00    1.22452   1.18931    0.000
 5879.00    1.13854   1.18724    0.000
 5880.00    1.11733   1.18124    0.000
 5881.00    1.12980   1.16845    0.000
 5882.00    1.13294   1.16130    0.000
 5883.00    1.13188   1.16777    0.000
 5884.00    1.07925   1.17529    0.000
 5885.00    1.00663   1.17233    0.000
 5886.00    1.01863   1.16691    0.000
 5887.00    1.05853   1.16407    0.000
 5888.00    1.06665   1.14506    0.000
 5889.00    1.06598   1.07990    0.000
 5890.00    1.02535   0.96235    0.000
 5891.00    0.97564   0.84715    0.000
 5892.00    1.01381   0.81808    0.000
 5893.00    1.06797   0.88438    0.000
 5894.00    1.05577   0.96853    0.000
 5895.00    1.03429   1.00091    0.000
 5896.00    1.04719   0.96454    0.000
 5897.00    1.06353   0.90244    0.000
 5898.00    1.14289   0.89624    0.000
 5899.00    1.22626   0.96547    0.000
 5900.00    1.21275   1.04732    0.000
 5901.00    1.19657   1.10034    0.007
 5902.00    1.23971   1.13374    0.007
 5903.00    1.27984   1.15649    0.007
 5904.00    1.23536   1.16884    0.007
 5905.00    1.19707   1.17399    0.007
 5906.00    1.24691   1.17256    0.007
 5907.00    1.28965   1.16757    0.007
 5908.00    1.26620   1.16862    0.007
 5909.00    1.23767   1.17798    0.007
 5910.00    1.17458   1.18714    0.007
 5911.00    1.12810   1.19184    0.007
 5912.00    1.16900   1.19629    0.007
 5913.00    1.20990   1.19886    0.007
 5914.00    1.25087   1.18893    0.007
 5915.00    1.27696   1.16568    0.007
 5916.00    1.25109   1.14515    0.007
 5917.00    1.20711   1.14041    0.007
 5918.00    1.10987   1.15061    0.007
 5919.00    1.03823   1.16739    0.007
 5920.00    1.03078   1.18172    0.007
 5921.00    1.05633   1.19089    0.007
 5922.00    1.15319   1.19367    0.007
 5923.00    1.22571   1.18883    0.007
 5924.00    1.25259   1.18391    0.007
 5925.00    1.28184   1.18663    0.007
 5926.00    1.31496   1.19455    0.007
 5927.00    1.30498   1.20211    0.007
 5928.00    1.23310   1.20397    0.007
 5929.00    1.18791   1.19565    0.007
 5930.00    1.17641   1.17953    0.007
 5931.00    1.17490   1.16616    0.007
 5932.00    1.18449   1.16903    0.007
 5933.00    1.16352   1.18719    0.007
 5934.00    1.11255   1.19898    0.007
 5935.00    1.11071   1.19001    0.007
 5936.00    1.15140   1.17418    0.007
 5937.00    1.17369   1.17375    0.007
 5938.00    1.18197   1.18844    0.007
 5939.00    1.17852   1.20316    0.007
 5940.00    1.16723   1.21101    0.007
 5941.00    1.14648   1.20754    0.007
 5942.00    1.12018   1.19060    0.007
 5943.00    1.10172   1.17433    0.007
 5944.00    1.08728   1.17442    0.007
 5945.00    1.08234   1.18837    0.007
 5946.00    1.08162   1.20575    0.007
 5947.00    1.10013   1.21858    0.007
 5948.00    1.12596   1.21888    0.007
 5949.00    1.11956   1.20279    0.007
 5950.00    1.10274   1.18150    0.007
 5951.00    1.09217   1.17486    0.007
 5952.00    1.08330   1.18361    0.007
 5953.00    1.11738   1.18601    0.007
 5954.00    1.16101   1.17539    0.007
 5955.00    1.17834   1.17161    0.007
 5956.00    1.19102   1.18053    0.007
 5957.00    1.17900   1.18257    0.007
 5958.00    1.16365   1.17153    0.007
 5959.00    1.16687   1.16456    0.007
 5960.00    1.17188   1.17328    0.007
 5961.00    1.19825   1.19249    0.007
 5962.00    1.22589   1.21154    0.007
 5963.00    1.22326   1.22309    0.007
 5964.00    1.21996   1.22549    0.007
 5965.00    1.23441   1.22138    0.007
 5966.00    1.24869   1.21262    0.007
 5967.00    1.25896   1.20338    0.007
 5968.00    1.26801   1.20362    0.007
 5969.00    1.26053   1.21442    0.007
 5970.00    1.25157   1.22575    0.007
 5971.00    1.22937   1.23347    0.007
 5972.00    1.20104   1.23890    0.007
 5973.00    1.13233   1.24080    0.007
 5974.00    1.07025   1.23830    0.007
 5975.00    1.04219   1.23105    0.007
 5976.00    1.03788   1.21620    0.007
 5977.00    1.13191   1.19476    0.007
 5978.00    1.21593   1.17618    0.007
 5979.00    1.26565   1.16944    0.007
 5980.00    1.29569   1.17646    0.007
 5981.00    1.26891   1.19337    0.007
 5982.00    1.23167   1.20904    0.007
 5983.00    1.16863   1.20997    0.007
 5984.00    1.11555   1.19126    0.007
 5985.00    1.08366   1.16311    0.007
 5986.00    1.08672   1.14866    0.007
 5987.00    1.15430   1.15993    0.007
 5988.00    1.22241   1.18101    0.007
 5989.00    1.29136   1.19521    0.007
 5990.00    1.32762   1.20454    0.007
 5991.00    1.31764   1.21111    0.007
 5992.00    1.27260   1.20985    0.007
 5993.00    1.18393   1.20521    0.007
 5994.00    1.13342   1.21099    0.007
 5995.00    1.12478   1.22655    0.007
 5996.00    1.12839   1.23526    0.007
 5997.00    1.14385   1.22699    0.007
 5998.00    1.16849   1.20662    0.007
 5999.00    1.20095   1.18815    0.007
 6000.00    1.21551   1.18347    0.007
 6001.00    1.21661   1.19188    0.007
 6002.00    1.20201   1.20134    0.007
 6003.00    1.17703   1.20001    0.007
 6004.00    1.17680   1.19076    0.007
 6005.00    1.19087   1.18896    0.007
 6006.00    1.15908   1.19549    0.007
 6007.00    1.10420   1.19315    0.007
 6008.00    1.04906   1.17462    0.007
 6009.00    0.99381   1.15296    0.007
 6010.00    1.02482   1.15136    0.007
 6011.00    1.08812   1.17698    0.007
 6012.00    1.16367   1.20451    0.007
 6013.00    1.24311   1.20669    0.007
 6014.00    1.20970   1.18813    0.007
 6015.00    1.14637   1.17440    0.007
 6016.00    1.10682   1.17649    0.007
 6017.00    1.07244   1.18033    0.007
 6018.00    1.09734   1.17706    0.007
 6019.00    1.13245   1.17542    0.007
 6020.00    1.22361   1.17635    0.007
 6021.00    1.32210   1.17178    0.007
 6022.00    1.30479   1.16597    0.007
 6023.00    1.27685   1.16817    0.007
 6024.00    1.23263   1.17656    0.007
 6025.00    1.18750   1.18528    0.007
 6026.00    1.21063   1.19537    0.007
 6027.00    1.23508   1.20626    0.007
 6028.00    1.24159   1.21222    0.007
 6029.00    1.24665   1.21700    0.007
 6030.00    1.21804   1.22649    0.007
 6031.00    1.19071   1.23409    0.007
 6032.00    1.17955   1.23450    0.007
 6033.00    1.16274   1.23455    0.007
 6034.00    1.09731   1.23989    0.007
 6035.00    1.04023   1.24608    0.007
 6036.00    1.03645   1.24822    0.007
 6037.00    1.03942   1.24778    0.007
 6038.00    1.07612   1.24757    0.007
 6039.00    1.12304   1.24705    0.007
 6040.00    1.21124   1.24330    0.007
 6041.00    1.28479   1.23632    0.007
 6042.00    1.30913   1.23090    0.007
 6043.00    1.31555   1.23072    0.007
 6044.00    1.27114   1.23713    0.007
 6045.00    1.23149   1.24867    0.007
 6046.00    1.20333   1.25881    0.007
 6047.00    1.18203   1.26393    0.007
 6048.00    1.17505   1.26554    0.007
 6049.00    1.17867   1.26384    0.007
 6050.00    1.20155   1.26000    0.007
 6051.00    1.21138   1.25980    0.007
 6052.00    1.20048   1.26323    0.007
 6053.00    1.20292   1.26125    0.007
 6054.00    1.22397   1.25047    0.007
 6055.00    1.24129   1.23779    0.007
 6056.00    1.25403   1.22825    0.007
 6057.00    1.26734   1.21987    0.007
 6058.00    1.28128   1.21369    0.007
 6059.00    1.28031   1.21569    0.007
 6060.00    1.26510   1.22704    0.007
 6061.00    1.24292   1.24080    0.007
 6062.00    1.21488   1.24770    0.007
 6063.00    1.18825   1.24300    0.007
 6064.00    1.16268   1.22818    0.007
 6065.00    1.16536   1.20705    0.007
 6066.00    1.18642   1.18566    0.007
 6067.00    1.23370   1.18047    0.007
 6068.00    1.29592   1.20466    0.007
 6069.00    1.32129   1.24220    0.007
 6070.00    1.32839   1.26690    0.007
 6071.00    1.34772   1.27440    0.007
 6072.00    1.37229   1.27549    0.007
 6073.00    1.35763   1.27740    0.007
 6074.00    1.32856   1.27976    0.007
 6075.00    1.27270   1.28029    0.007
 6076.00    1.20852   1.27768    0.007
 6077.00    1.14106   1.27028    0.007
 6078.00    1.07275   1.25676    0.007
 6079.00    1.08230   1.23785    0.007
 6080.00    1.10833   1.22093    0.007
 6081.00    1.14780   1.21482    0.007
 6082.00    1.18952   1.21267    0.007
 6083.00    1.20433   1.20418    0.007
 6084.00    1.21574   1.19868    0.007
 6085.00    1.21180   1.20490    0.007
 6086.00    1.20652   1.21208    0.007
 6087.00    1.19890   1.21339    0.007
 6088.00    1.19116   1.21689    0.007
 6089.00    1.18779   1.22443    0.007
 6090.00    1.18484   1.22436    0.007
 6091.00    1.20678   1.21063    0.007
 6092.00    1.22585   1.19569    0.007
 6093.00    1.18386   1.19250    0.007
 6094.00    1.14362   1.19829    0.007
 6095.00    1.12470   1.20957    0.007
 6096.00    1.11019   1.22678    0.007
 6097.00    1.13239   1.23944    0.007
 6098.00    1.15146   1.23809    0.007
 6099.00    1.15110   1.23291    0.007
 6100.00    1.15649   1.23713    0.007
 6101.00    1.18987   1.24508    0.007
 6102.00    1.21887   1.23458    0.007
 6103.00    1.23046   1.19201    0.007
 6104.00    1.23958   1.14406    0.007
 6105.00    1.24061   1.13875    0.007
 6106.00    1.24740   1.17776    0.007
 6107.00    1.27026   1.21665    0.007
 6108.00    1.28335   1.22935    0.007
 6109.00    1.27316   1.22667    0.007
 6110.00    1.25585   1.22881    0.007
 6111.00    1.22391   1.23715    0.007
 6112.00    1.19849   1.23723    0.007
 6113.00    1.18476   1.23074    0.007
 6114.00    1.17165   1.23504    0.007
 6115.00    1.15951   1.25059    0.007
 6116.00    1.14775   1.25911    0.007
 6117.00    1.13650   1.25077    0.007
 6118.00    1.13338   1.23781    0.007
 6119.00    1.14009   1.23406    0.007
 6120.00    1.16038   1.23007    0.007
 6121.00    1.19515   1.20993    0.007
 6122.00    1.18545   1.17601    0.007
 6123.00    1.13393   1.14509    0.007
 6124.00    1.08217   1.14186    0.007
 6125.00    1.03019   1.17430    0.007
 6126.00    1.04483   1.21120    0.007
 6127.00    1.10809   1.22264    0.007
 6128.00    1.14149   1.21392    0.007
 6129.00    1.15575   1.20247    0.007
 6130.00    1.17962   1.20007    0.007
 6131.00    1.20888   1.21239    0.007
 6132.00    1.21331   1.23293    0.007
 6133.00    1.20562   1.24830    0.007
 6134.00    1.17842   1.25185    0.007
 6135.00    1.14300   1.23958    0.007
 6136.00    1.14125   1.20380    0.007
 6137.00    1.15167   1.14489    0.007
 6138.00    1.14974   1.08715    0.007
 6139.00    1.14404   1.07439    0.007
 6140.00    1.13991   1.12305    0.007
 6141.00    1.13618   1.18836    0.007
 6142.00    1.12715   1.21534    0.007
 6143.00    1.11702   1.20644    0.007
 6144.00    1.14308   1.20497    0.007
 6145.00    1.17501   1.22779    0.007
 6146.00    1.19831   1.25218    0.007
 6147.00    1.22055   1.25936    0.007
 6148.00    1.19063   1.25191    0.007
 6149.00    1.15636   1.23597    0.007
 6150.00    1.14683   1.21467    0.007
 6151.00    1.13849   1.19577    0.007
 6152.00    1.17598   1.19046    0.007
 6153.00    1.21391   1.20111    0.007
 6154.00    1.23894   1.21532    0.007
 6155.00    1.26191   1.21639    0.007
 6156.00    1.24401   1.20380    0.007
 6157.00    1.23012   1.19409    0.007
 6158.00    1.26237   1.19364    0.007
 6159.00    1.29134   1.19274    0.007
 6160.00    1.29407   1.18287    0.007
 6161.00    1.28791   1.15464    0.007
 6162.00    1.22829   1.09963    0.007
 6163.00    1.16619   1.03674    0.007
 6164.00    1.09233   1.00746    0.007
 6165.00    1.04447   1.02849    0.007
 6166.00    1.09739   1.07479    0.007
 6167.00    1.13518   1.11402    0.007
 6168.00    1.12414   1.13628    0.007
 6169.00    1.10686   1.13902    0.007
 6170.00    1.07253   1.11508    0.007
 6171.00    1.04382   1.08345    0.007
 6172.00    1.02825   1.08413    0.007
 6173.00    1.03243   1.11856    0.007
 6174.00    1.07658   1.14882    0.007
 6175.00    1.11797   1.15792    0.007
 6176.00    1.15451   1.15866    0.007
 6177.00    1.17431   1.15821    0.007
 6178.00    1.16829   1.15697    0.007
 6179.00    1.14540   1.16180    0.007
 6180.00    1.09967   1.17265    0.007
 6181.00    1.03882   1.17886    0.007
 6182.00    0.95996   1.18095    0.007
 6183.00    0.93745   1.18732    0.007
 6184.00    0.97421   1.19418    0.007
 6185.00    1.00845   1.19467    0.007
 6186.00    1.04034   1.18849    0.007
 6187.00    1.05162   1.17366    0.007
 6188.00    1.04602   1.15218    0.007
 6189.00    1.05231   1.13533    0.007
 6190.00    1.06714   1.12758    0.007
 6191.00    1.08278   1.11680    0.007
 6192.00    1.09892   1.09200    0.007
 6193.00    1.11156   1.07187    0.007
 6194.00    1.12226   1.08618    0.007
 6195.00    1.13594   1.12583    0.007
 6196.00    1.15105   1.15848   -2.000
 6197.00    1.01140   1.17551   -2.000
 6198.00    0.80761   1.18433   -2.000
 6199.00    0.62692   1.18201   -2.000
 6200.00    0.45442   1.16183   -2.000
 6201.00    0.58745   1.13601   -2.000
 6202.00    0.81191   1.13039   -2.000
 6203.00    1.19608   1.15096   -2.000
 6204.00    1.61993   1.17672   -2.000
 6205.00    1.69750   1.18898   -2.000
 6206.00    1.70534   1.18908   -2.000
 6207.00    1.52477   1.18778   -2.000
 6208.00    1.31448   1.18948    0.007
 6209.00    1.21044   1.19115    0.007
 6210.00    1.11884   1.18979    0.007
 6211.00    1.08127   1.18373    0.007
 6212.00    1.04798   1.17272    0.007
 6213.00    1.08427   1.15674    0.007
 6214.00    1.12362   1.13132    0.007
 6215.00    1.15208   1.09798    0.007
 6216.00    1.17960   1.07253    0.007
 6217.00    1.16791   1.06829    0.007
 6218.00    1.15798   1.08375    0.007
 6219.00    1.18005   1.10342    0.007
 6220.00    1.20371   1.10784    0.007
 6221.00    1.24482   1.09689    0.007
 6222.00    1.27880   1.09048    0.007
 6223.00    1.25776   1.09944    0.007
 6224.00    1.23025   1.11348    0.007
 6225.00    1.16483   1.11932    0.007
 6226.00    1.12088   1.11954    0.007
 6227.00    1.17655   1.12389    0.007
 6228.00    1.22287   1.13093    0.007
 6229.00    1.23372   1.13158    0.007
 6230.00    1.22796   1.11657    0.007
 6231.00    1.16966   1.08278    0.007
 6232.00    1.13092   1.04859    0.007
 6233.00    1.14470   1.04159    0.007
 6234.00    1.15474   1.06490    0.007
 6235.00    1.15620   1.10267    0.007
 6236.00    1.15096   1.14018    0.007
 6237.00    1.13239   1.16254    0.007
 6238.00    1.11992   1.16187    0.007
 6239.00    1.11805   1.14414    0.007
 6240.00    1.11123   1.11911    0.007
 6241.00    1.09689   1.09584    0.007
 6242.00    1.09844   1.08515    0.007
 6243.00    1.12120   1.08462    0.007
 6244.00    1.13069   1.07759    0.007
 6245.00    1.12459   1.06624    0.007
 6246.00    1.12541   1.06639    0.007
 6247.00    1.13341   1.07693    0.007
 6248.00    1.11352   1.09410    0.007
 6249.00    1.06812   1.11943    0.007
 6250.00    1.03329   1.14171    0.007
 6251.00    1.00699   1.14753    0.007
 6252.00    1.00900   1.13515    0.007
 6253.00    1.03109   1.10862    0.007
 6254.00    1.02216   1.08084    0.007
 6255.00    0.99392   1.06820    0.007
 6256.00    0.98801   1.06959    0.007
 6257.00    0.99424   1.06838    0.007
 6258.00    1.04138   1.05422    0.007
 6259.00    1.10784   1.03494    0.007
 6260.00    1.13540   1.03050    0.007
 6261.00    1.14711   1.05217    0.008
 6262.00    1.13737   1.08671    0.008
 6263.00    1.12017   1.11746    0.008
 6264.00    1.11379   1.14235    0.008
 6265.00    1.11059   1.15429    0.008
 6266.00    1.20388   1.14475    0.008
 6267.00    1.32061   1.12940    0.007
 6268.00    1.33091   1.12922    0.007
 6269.00    1.32032   1.13773    0.007
 6270.00    1.29838   1.13843    0.007
 6271.00    1.27470   1.13370    0.007
 6272.00    1.27208   1.13485    0.007
 6273.00    1.27183   1.14368    0.007
 6274.00    1.23293   1.15353    0.007
 6275.00    1.19112   1.15729    0.007
 6276.00    1.16301   1.15541    0.007
 6277.00    1.13544   1.15433    0.007
 6278.00    1.10179   1.15583    0.007
 6279.00    1.06885   1.15632    0.006
 6280.00    1.06654   1.15105    0.000
 6281.00    1.06511   1.13720    0.000
 6282.00    1.07876   1.12308    0.000
 6283.00    1.09199   1.12275    0.000
 6284.00    1.10080   1.13741    0.000
 6285.00    1.10271   1.15548    0.000
 6286.00    1.05312   1.16566    0.000
 6287.00    1.01439   1.16890    0.000
 6288.00    1.03747   1.17605    0.000
 6289.00    1.06891   1.18947    0.000
 6290.00    1.13825   1.20023    0.000
 6291.00    1.20303   1.19904    0.000
 6292.00    1.25089   1.18521    0.000
 6293.00    1.29125   1.16833    0.000
 6294.00    1.30829   1.15831    0.000
 6295.00    1.32338   1.15816    0.000
 6296.00    1.33333   1.16069    0.000
 6297.00    1.33318   1.15180    0.000
 6298.00    1.31016   1.13195    0.000
 6299.00    1.27426   1.12037    0.000
 6300.00    1.21312   1.12698    0.000
 6301.00    1.16622   1.13776    0.000
 6302.00    1.14369   1.13478    0.000
 6303.00    1.12149   1.12210    0.000
 6304.00    1.09977   1.11967    0.000
 6305.00    1.08653   1.13274    0.000
 6306.00    1.08443   1.14683    0.000
 6307.00    1.09551   1.15563    0.000
 6308.00    1.12189   1.16947    0.000
 6309.00    1.15205   1.18993    0.000
 6310.00    1.18608   1.20171    0.000
 6311.00    1.21031   1.19490    0.000
 6312.00    1.22569   1.17630    0.000
 6313.00    1.20062   1.16082    0.000
 6314.00    1.14341   1.15639    0.000
 6315.00    1.10267   1.15422    0.000
 6316.00    1.07344   1.14389    0.000
 6317.00    1.07172   1.13317    0.000
 6318.00    1.08686   1.12851    0.000
 6319.00    1.13800   1.11994    0.000
 6320.00    1.20843   1.11141    0.000
 6321.00    1.26090   1.12077    0.007
 6322.00    1.30503   1.14264    0.007
 6323.00    1.31861   1.15732    0.007
 6324.00    1.31996   1.16391    0.007
 6325.00    1.31522   1.17356    0.007
 6326.00    1.30840   1.18573    0.007
 6327.00    1.25710   1.19218    0.007
 6328.00    1.19301   1.19192    0.007
 6329.00    1.14515   1.19157    0.006
 6330.00    1.10115   1.19501    0.006
 6331.00    1.09222   1.19566    0.006
 6332.00    1.09000   1.19195    0.006
 6333.00    1.08725   1.19450    0.006
 6334.00    1.08443   1.20331    0.006
 6335.00    1.08701   1.20082    0.006
 6336.00    1.09018   1.17433    0.006
 6337.00    1.13824   1.13864    0.006
 6338.00    1.18950   1.12409    0.006
 6339.00    1.23484   1.13724    0.006
 6340.00    1.27996   1.15801    0.006
 6341.00    1.22387   1.17474    0.006
 6342.00    1.16822   1.18837    0.006
 6343.00    1.14186   1.19140    0.006
 6344.00    1.11826   1.17597    0.006
 6345.00    1.13869   1.15225    0.007
 6346.00    1.15740   1.14122    0.007
 6347.00    1.15882   1.15018    0.007
 6348.00    1.16246   1.16694    0.007
 6349.00    1.18210   1.18123    0.007
 6350.00    1.19992   1.19282    0.007
 6351.00    1.20761   1.20100    0.007
 6352.00    1.20472   1.20470    0.007
 6353.00    1.15498   1.20528    0.007
 6354.00    1.11896   1.19986    0.007
 6355.00    1.13283   1.18368    0.007
 6356.00    1.14742   1.16297    0.007
 6357.00    1.16423   1.15252    0.007
 6358.00    1.17849   1.15169    0.007
 6359.00    1.18615   1.14212    0.007
 6360.00    1.18881   1.12021    0.007
 6361.00    1.18032   1.10268    0.007
 6362.00    1.17387   1.09532    0.007
 6363.00    1.17135   1.08973    0.007
 6364.00    1.18311   1.08714    0.007
 6365.00    1.21892   1.09644    0.007
 6366.00    1.22449   1.11655    0.007
 6367.00    1.18543   1.13892    0.007
 6368.00    1.14136   1.16017    0.007
 6369.00    1.09078   1.18083    0.007
 6370.00    1.06222   1.19534    0.007
 6371.00    1.05880   1.19729    0.007
 6372.00    1.08759   1.19414    0.007
 6373.00    1.14885   1.19993    0.007
 6374.00    1.17234   1.21440    0.007
 6375.00    1.16227   1.22457    0.007
 6376.00    1.13702   1.22453    0.007
 6377.00    1.09987   1.22139    0.007
 6378.00    1.11361   1.21893    0.007
 6379.00    1.16239   1.21071    0.007
 6380.00    1.18317   1.19609    0.007
 6381.00    1.18703   1.18534    0.007
 6382.00    1.20012   1.18430    0.006
 6383.00    1.21807   1.19048    0.006
 6384.00    1.19941   1.19796    0.006
 6385.00    1.16400   1.19949    0.006
 6386.00    1.13353   1.19649    0.006
 6387.00    1.10499   1.19880    0.006
 6388.00    1.08851   1.20741    0.006
 6389.00    1.07607   1.21374    0.006
 6390.00    1.05282   1.21550    0.006
 6391.00    1.02654   1.21673    0.006
 6392.00    1.00322   1.21411    0.006
 6393.00    0.98060   1.19658    0.006
 6394.00    0.96393   1.16382    0.007
 6395.00    0.94836   1.13971    0.007
 6396.00    0.99060   1.14904    0.007
 6397.00    1.04114   1.18324    0.007
 6398.00    1.10283   1.21309    0.007
 6399.00    1.16567   1.21930    0.007
 6400.00    1.16497   1.19559    0.007
 6401.00    1.16000   1.15487    0.007
 6402.00    1.17042   1.13620    0.007
 6403.00    1.18134   1.16226    0.007
 6404.00    1.18843   1.20535    0.007
 6405.00    1.19387   1.23116    0.007
 6406.00    1.14839   1.23572    0.007
 6407.00    1.10599   1.22670    0.006
 6408.00    1.10980   1.20807    0.006
 6409.00    1.11157   1.18842    0.006
 6410.00    1.09356   1.18381    0.006
 6411.00    1.08138   1.19370    0.006
 6412.00    1.10995   1.19541    0.006
 6413.00    1.14594   1.18383    0.006
 6414.00    1.22195   1.17804    0.006
 6415.00    1.27898   1.18414    0.006
 6416.00    1.25399   1.19411    0.006
 6417.00    1.22252   1.20507    0.006
 6418.00    1.16801   1.21350    0.006
 6419.00    1.12596   1.21137    0.007
 6420.00    1.12117   1.19524    0.007
 6421.00    1.11530   1.16968    0.007
 6422.00    1.10670   1.14932    0.007
 6423.00    1.09717   1.15363    0.007
 6424.00    1.08564   1.18398    0.007
 6425.00    1.06573   1.21528    0.007
 6426.00    1.02992   1.22728    0.007
 6427.00    1.00842   1.22855    0.007
 6428.00    1.01063   1.23419    0.007
 6429.00    1.03247   1.24077    0.007
 6430.00    1.08283   1.23278    0.007
 6431.00    1.10753   1.20293    0.007
 6432.00    1.09941   1.16675    0.007
 6433.00    1.09997   1.15358    0.007
 6434.00    1.11033   1.17208    0.007
 6435.00    1.11728   1.20129    0.006
 6436.00    1.12084   1.22149    0.006
 6437.00    1.11320   1.22942    0.006
 6438.00    1.09574   1.22485    0.006
 6439.00    1.10255   1.20377    0.006
 6440.00    1.12810   1.17559    0.006
 6441.00    1.13659   1.16912    0.006
 6442.00    1.13351   1.19613    0.007
 6443.00    1.13848   1.23198    0.007
 6444.00    1.14825   1.25176    0.006
 6445.00    1.19936   1.25608    0.007
 6446.00    1.27193   1.25708    0.007
 6447.00    1.28181   1.26073    0.007
 6448.00    1.26351   1.26027    0.007
 6449.00    1.22613   1.23920    0.007
 6450.00    1.18137   1.18834    0.007
 6451.00    1.13781   1.13028    0.007
 6452.00    1.09463   1.10956    0.007
 6453.00    1.04127   1.13945    0.007
 6454.00    0.98509   1.18708    0.007
 6455.00    0.97567   1.21689    0.007
 6456.00    0.97684   1.21766    0.007
 6457.00    0.99871   1.20366    0.007
 6458.00    1.02432   1.20136    0.007
 6459.00    0.99752   1.22047    0.006
 6460.00    0.96342   1.24627    0.006
 6461.00    0.94794   1.25980    0.006
 6462.00    0.93432   1.24872    0.006
 6463.00    1.00266   1.21090    0.006
 6464.00    1.07618   1.16937    0.006
 6465.00    1.14409   1.16006    0.006
 6466.00    1.21146   1.18598    0.006
 6467.00    1.16362   1.21820    0.006
 6468.00    1.11740   1.23888    0.006
 6469.00    1.11637   1.24771    0.007
 6470.00    1.11665   1.24526    0.007
 6471.00    1.13557   1.23344    0.007
 6472.00    1.15221   1.21941    0.007
 6473.00    1.14774   1.21244    0.007
 6474.00    1.14372   1.21742    0.007
 6475.00    1.14277   1.22471    0.007
 6476.00    1.13661   1.22185    0.007
 6477.00    1.10312   1.21641    0.007
 6478.00    1.06943   1.22153    0.007
 6479.00    1.03495   1.23150    0.007
 6480.00    1.01949   1.23449    0.007
 6481.00    1.07040   1.22840    0.007
 6482.00    1.11530   1.21103    0.006
 6483.00    1.14255   1.18274    0.006
 6484.00    1.16412   1.16061    0.006
 6485.00    1.17145   1.16223    0.006
 6486.00    1.17274   1.18221    0.006
 6487.00    1.16102   1.20267    0.006
 6488.00    1.14702   1.21550    0.006
 6489.00    1.12873   1.22196    0.006
 6490.00    1.11032   1.22114    0.006
 6491.00    1.09173   1.21078    0.006
 6492.00    1.05980   1.19517    0.006
 6493.00    1.00877   1.17835    0.007
 6494.00    0.97976   1.15037    0.007
 6495.00    0.97850   1.10029    0.007
 6496.00    1.00945   1.04551    0.007
 6497.00    1.07619   1.01964    0.007
 6498.00    1.11865   1.03063    0.007
 6499.00    1.13733   1.05896    0.007
 6500.00    1.13290   1.08574    0.007
 6501.00    1.10851   1.10882    0.007
 6502.00    1.09697   1.13495    0.007
 6503.00    1.09521   1.16134    0.007
 6504.00    1.10009   1.18086    0.007
 6505.00    1.10942   1.19389    0.007
 6506.00    1.11522   1.20435    0.007
 6507.00    1.11894   1.21328    0.006
 6508.00    1.15302   1.21638    0.006
 6509.00    1.20259   1.20956    0.006
 6510.00    1.21466   1.19948    0.006
 6511.00    1.21012   1.19848    0.006
 6512.00    1.15050   1.20769    0.006
 6513.00    1.06994   1.21676    0.006
 6514.00    1.06082   1.21980    0.006
 6515.00    1.07476   1.21814    0.006
 6516.00    1.07385   1.21117    0.006
 6517.00    1.06895   1.19931    0.006
 6518.00    1.05243   1.18748    0.006
 6519.00    1.03335   1.17816    0.006
 6520.00    1.09425   1.17404    0.007
 6521.00    1.16926   1.18230    0.007
 6522.00    1.14950   1.20114    0.007
 6523.00    1.11699   1.21720    0.007
 6524.00    1.07662   1.22358    0.007
 6525.00    1.03550   1.22551    0.007
 6526.00    1.06168   1.22683    0.007
 6527.00    1.09185   1.22182    0.007
 6528.00    1.09010   1.20846    0.000
 6529.00    1.08775   1.19908    0.000
 6530.00    1.11474   1.20396    0.000
 6531.00    1.14141   1.21554    0.000
 6532.00    1.15992   1.21910    0.000
 6533.00    1.17686   1.20965    0.000
 6534.00    1.17272   1.19672    0.000
 6535.00    1.16948   1.19513    0.000
 6536.00    1.17430   1.20852    0.000
 6537.00    1.18041   1.22439    0.000
 6538.00    1.19504   1.22918    0.000
 6539.00    1.21034   1.22600    0.000
 6540.00    1.22905   1.22859    0.000
 6541.00    1.23900   1.23887    0.000
 6542.00    1.21278   1.24392    0.000
 6543.00    1.19247   1.23573    0.000
 6544.00    1.19232   1.21990    0.000
 6545.00    1.19133   1.20421    0.000
 6546.00    1.18791   1.18804    0.000
 6547.00    1.19589   1.16861    0.000
 6548.00    1.23189   1.15537    0.000
 6549.00    1.25648   1.16095    0.000
 6550.00    1.25690   1.17856    0.000
 6551.00    1.23668   1.18930    0.000
 6552.00    1.17844   1.18533    0.000
 6553.00    1.13578   1.17380    0.000
 6554.00    1.11822   1.16235    0.000
 6555.00    1.11985   1.14873    0.000
 6556.00    1.14860   1.13090    0.000
 6557.00    1.19425   1.11737    0.000
 6558.00    1.26091   1.11697    0.000
 6559.00    1.32427   1.12529    0.000
 6560.00    1.38401   1.12923    0.000
 6561.00    1.41773   1.11680    0.000
 6562.00    1.42630   1.07127    0.000
 6563.00    1.41068   0.97948    0.000
 6564.00    1.37444   0.87932    0.000
 6565.00    1.32946   0.85549    0.000
 6566.00    1.27792   0.93313    0.000
 6567.00    1.23110   1.04210    0.000
 6568.00    1.18739   1.11672    0.000
 6569.00    1.14473   1.14839    0.000
 6570.00    1.10268   1.15097    0.000
 6571.00    1.12077   1.14305    0.000
 6572.00    1.16910   1.14059    0.000
 6573.00    1.20903   1.14050    0.000
 6574.00    1.24531   1.13171    0.000
 6575.00    1.24095   1.11770    0.000
 6576.00    1.22143   1.11260    0.000
 6577.00    1.25076   1.12606    0.000
 6578.00    1.29554   1.15400    0.000
 6579.00    1.37151   1.18053    0.000
 6580.00    1.45572   1.19209    0.000
 6581.00    1.44350   1.18652    0.000
 6582.00    1.41044   1.17224    0.000
 6583.00    1.35886   1.16402    0.000
 6584.00    1.30411   1.17030    0.000
 6585.00    1.23517   1.18350    0.000
 6586.00    1.16438   1.19157    0.000
 6587.00    1.12711   1.19203    0.000
 6588.00    1.09290   1.19301    0.000
 6589.00    1.07908   1.20194    0.000
 6590.00    1.06639   1.21362    0.000
 6591.00    1.10714   1.21806    0.000
 6592.00    1.14825   1.20825    0.000
 6593.00    1.11467   1.17807    0.000
 6594.00    1.07978   1.13507    0.000
 6595.00    1.01469   1.10876    0.000
 6596.00    0.95336   1.11990    0.000
 6597.00    0.93955   1.15155    0.000
 6598.00    0.93430   1.17282    0.000
 6599.00    1.00236   1.17493    0.000
 6600.00    1.06868   1.17132    0.000
 6601.00    1.12392   1.17786    0.000
 6602.00    1.17659   1.19559    0.000
 6603.00    1.21650   1.21111    0.000
 6604.00    1.24602   1.21416    0.000
 6605.00    1.23360   1.20576    0.000
 6606.00    1.21427   1.19180    0.000
 6607.00    1.17183   1.17816    0.000
 6608.00    1.13599   1.16698    0.000
 6609.00    1.11881   1.15483    0.007
 6610.00    1.10738   1.14183    0.007
 6611.00    1.10983   1.14053    0.007
 6612.00    1.11394   1.16053    0.007
 6613.00    1.12154   1.18771    0.007
 6614.00    1.12991   1.20015    0.007
 6615.00    1.13969   1.19819    0.007
 6616.00    1.11802   1.19917    0.007
 6617.00    1.04647   1.20780    0.007
 6618.00    1.01953   1.21262    0.007
 6619.00    1.05468   1.20984    0.007
 6620.00    1.09014   1.20798    0.007
 6621.00    1.12601   1.21190    0.007
 6622.00    1.16074   1.21729    0.007
 6623.00    1.19424   1.21684    0.007
 6624.00    1.20693   1.20535    0.007
 6625.00    1.19981   1.18345    0.007
 6626.00    1.18219   1.16222    0.007
 6627.00    1.15575   1.15700    0.007
 6628.00    1.12263   1.16821    0.007
 6629.00    1.08457   1.18037    0.007
 6630.00    1.08882   1.18374    0.007
 6631.00    1.12056   1.18034    0.007
 6632.00    1.08565   1.17387    0.007
 6633.00    1.01287   1.16371    0.007
 6634.00    1.01883   1.14795    0.007
 6635.00    1.06376   1.13295    0.007
 6636.00    1.10240   1.13221    0.007
 6637.00    1.13834   1.14901    0.007
 6638.00    1.15088   1.17068    0.007
 6639.00    1.15483   1.18335    0.007
 6640.00    1.13933   1.18327    0.007
 6641.00    1.11779   1.17755    0.007
 6642.00    1.11658   1.17691    0.007
 6643.00    1.12063   1.17937    0.007
 6644.00    1.14323   1.17213    0.007
 6645.00    1.16973   1.15822    0.007
 6646.00    1.16551   1.15588    0.007
 6647.00    1.15616   1.16682    0.007
 6648.00    1.12787   1.17539    0.007
 6649.00    1.09721   1.17601    0.007
 6650.00    1.14002   1.17637    0.007
 6651.00    1.18923   1.17873    0.007
 6652.00    1.16275   1.17709    0.007
 6653.00    1.13239   1.17048    0.007
 6654.00    1.12965   1.16506    0.007
 6655.00    1.12741   1.16476    0.007
 6656.00    1.12562   1.16798    0.007
 6657.00    1.12259   1.17036    0.007
 6658.00    1.09344   1.16974    0.007
 6659.00    1.06866   1.16895    0.007
 6660.00    1.09651   1.16918    0.007
 6661.00    1.11950   1.16672    0.007
 6662.00    1.10237   1.15973    0.007
 6663.00    1.08303   1.14844    0.007
 6664.00    1.05005   1.13275    0.007
 6665.00    1.02678   1.12021    0.007
 6666.00    1.05067   1.12122    0.007
 6667.00    1.06799   1.13087    0.007
 6668.00    1.05936   1.13700    0.007
 6669.00    1.06268   1.14009    0.007
 6670.00    1.10520   1.14845    0.007
 6671.00    1.12900   1.16336    0.007
 6672.00    1.10083   1.17738    0.007
 6673.00    1.07962   1.18414    0.007
 6674.00    1.07495   1.18466    0.007
 6675.00    1.04666   1.18370    0.007
 6676.00    0.96986   1.18259    0.007
 6677.00    0.92675   1.17442    0.007
 6678.00    0.94384   1.14887    0.007
 6679.00    0.97953   1.11228    0.007
 6680.00    1.04431   1.09289    0.007
 6681.00    1.10495   1.10584    0.007
 6682.00    1.15993   1.13059    0.007
 6683.00    1.17170   1.14472    0.007
 6684.00    1.13131   1.15075    0.007
 6685.00    1.10171   1.15750    0.007
 6686.00    1.08359   1.16408    0.007
 6687.00    1.08645   1.16662    0.007
 6688.00    1.10900   1.16478    0.007
 6689.00    1.06861   1.16114    0.007
 6690.00    0.97612   1.15981    0.007
 6691.00    0.94064   1.16275    0.007
 6692.00    0.94673   1.16682    0.007
 6693.00    1.02007   1.16849    0.007
 6694.00    1.13645   1.16779    0.007
 6695.00    1.13698   1.16487    0.008
 6696.00    1.07265   1.15634    0.000
 6697.00    1.11045   1.14055    0.000
 6698.00    1.19799   1.12571    0.000
 6699.00    1.13086   1.12268    0.000
 6700.00    0.99865   1.13268    0.000
 6701.00    1.01069   1.14947    0.000
 6702.00    1.07469   1.16420    0.000
 6703.00    1.06789   1.16871    0.000
 6704.00    1.03952   1.16152    0.000
 6705.00    1.05087   1.14894    0.000
 6706.00    1.07227   1.14122    0.000
 6707.00    1.06574   1.14391    0.000
 6708.00    1.05345   1.15211    0.000
 6709.00    1.03432   1.15811    0.000
 6710.00    1.01409   1.15926    0.000
 6711.00    1.05654   1.15567    0.000
 6712.00    1.10659   1.15011    0.000
 6713.00    1.20590   1.14643    0.000
 6714.00    1.30931   1.14227    0.000
 6715.00    1.22565   1.13278    0.000
 6716.00    1.13313   1.11793    0.000
 6717.00    1.10043   1.10011    0.000
 6718.00    1.06863   1.08336    0.000
 6719.00    1.04009   1.07705    0.000
 6720.00    1.01691   1.08926    0.000
 6721.00    1.09799   1.11214    0.000
 6722.00    1.17361   1.12804    0.000
 6723.00    1.18661   1.13244    0.000
 6724.00    1.19036   1.13544    0.000
 6725.00    1.12044   1.14204    0.000
 6726.00    1.07320   1.14470    0.000
 6727.00    1.16201   1.13882    0.000
 6728.00    1.23829   1.13253    0.000
 6729.00    1.25525   1.13420    0.000
 6730.00    1.25514   1.14172    0.000
 6731.00    1.18909   1.14962    0.000
 6732.00    1.14368   1.15515    0.000
 6733.00    1.16476   1.15605    0.000
 6734.00    1.16184   1.15175    0.000
 6735.00    1.09348   1.14647    0.000
 6736.00    1.06600   1.14578    0.000
 6737.00    1.13405   1.14936    0.000
 6738.00    1.16846   1.14976    0.000
 6739.00    1.13491   1.14130    0.000
 6740.00    1.09347   1.12935    0.000
 6741.00    1.03816   1.12474    0.000
 6742.00    1.01387   1.12921    0.000
 6743.00    1.03736   1.13290    0.000
 6744.00    1.03130   1.12952    0.000
 6745.00    0.98529   1.12625    0.000
 6746.00    0.99611   1.12940    0.000
 6747.00    1.07459   1.13280    0.000
 6748.00    1.08775   1.12991    0.000
 6749.00    1.03234   1.12320    0.000
 6750.00    1.00123   1.11719    0.000
 6751.00    0.99262   1.11369    0.000
 6752.00    0.98806   1.11398    0.000
 6753.00    0.98683   1.11605    0.008
 6754.00    1.00411   1.11535    0.008
 6755.00    1.03471   1.11543    0.008
 6756.00    1.12126   1.12241    0.008
 6757.00    1.24307   1.13395    0.008
 6758.00    1.27453   1.14634    0.008
 6759.00    1.25618   1.15816    0.009
 6760.00    1.32719   1.16691    0.009
 6761.00    1.44101   1.17111    0.009
 6762.00    1.49563   1.17077    0.010
 6763.00    1.52575   1.16668    0.010
 6764.00    1.37709   1.16282    0.010
 6765.00    1.16522   1.16245    0.010
 6766.00    1.21529   1.16161    0.010
 6767.00    1.34354   1.15349    0.009
 6768.00    1.34718   1.13885    0.009
 6769.00    1.31993   1.12787    0.009
 6770.00    1.29517   1.12816    0.009
 6771.00    1.27089   1.13352    0.009
 6772.00    1.33931   1.13422    0.008
 6773.00    1.42230   1.13359    0.008
 6774.00    1.23247   1.14112    0.008
 6775.00    1.01082   1.15628    0.008
 6776.00    1.05943   1.17065    0.008
 6777.00    1.12935   1.17900    0.008
 6778.00    1.11058   1.18143    0.008
 6779.00    1.08796   1.18138    0.008
 6780.00    1.11525   1.18291    0.008
 6781.00    1.14111   1.18456    0.008
 6782.00    1.07576   1.17975    0.009
 6783.00    1.01861   1.16413    0.009
 6784.00    1.10982   1.13972    0.009
 6785.00    1.18408   1.11502    0.009
 6786.00    1.07290   1.10060    0.009
 6787.00    0.98550   1.10116    0.009
 6788.00    1.08101   1.11373    0.009
 6789.00    1.14661   1.13111    0.009
 6790.00    1.03792   1.14403    0.009
 6791.00    0.97652   1.14820    0.008
 6792.00    1.13381   1.14867    0.009
 6793.00    1.25430   1.14887    0.009
 6794.00    1.23568   1.14494    0.008
 6795.00    1.18832   1.13693    0.008
 6796.00    1.05021   1.13171    0.008
 6797.00    0.95851   1.13242    0.008
 6798.00    0.99113   1.13701    0.008
 6799.00    1.03514   1.14299    0.008
 6800.00    1.10533   1.14796    0.008
 6801.00    1.16698   1.15195    0.008
 6802.00    1.21162   1.15669    0.008
 6803.00    1.25643   1.16105    0.008
 6804.00    1.30152   1.16145    0.008
 6805.00    1.28297   1.15755    0.008
 6806.00    1.16792   1.15422    0.008
 6807.00    1.08372   1.15352    0.008
 6808.00    1.04063   1.15231    0.008
 6809.00    1.02002   1.15113    0.008
 6810.00    1.02580   1.15155    0.008
 6811.00    1.07533   1.15102    0.008
 6812.00    1.17016   1.15050    0.009
 6813.00    1.18335   1.15316    0.009
 6814.00    1.12201   1.15531    0.009
 6815.00    1.10138   1.15119    0.009
 6816.00    1.11351   1.14307    0.009
 6817.00    1.10954   1.14126    0.008
 6818.00    1.09417   1.15080    0.008
 6819.00    1.13988   1.16232    0.008
 6820.00    1.22354   1.16416    0.008
 6821.00    1.21696   1.15704    0.008
 6822.00    1.16142   1.15175    0.008
 6823.00    1.15389   1.15631    0.008
 6824.00    1.16899   1.16771    0.008
 6825.00    1.12384   1.17722    0.008
 6826.00    1.05418   1.18072    0.008
 6827.00    0.97991   1.17910    0.008
 6828.00    0.90404   1.17205    0.008
 6829.00    0.95999   1.15942    0.008
 6830.00    1.05450   1.14833    0.008
 6831.00    1.13541   1.14838    0.008
 6832.00    1.21302   1.15818    0.009
 6833.00    1.22016   1.16658    0.009
 6834.00    1.21352   1.16788    0.009
 6835.00    1.12360   1.16816    0.008
 6836.00    1.02099   1.17314    0.008
 6837.00    1.12045   1.17812    0.008
 6838.00    1.24259   1.17588    0.009
 6839.00    1.19085   1.16611    0.009
 6840.00    1.12612   1.15149    0.009
 6841.00    1.12872   1.13369    0.008
 6842.00    1.13401   1.11598    0.008
 6843.00    1.15717   1.10472    0.008
 6844.00    1.18140   1.10703    0.008
 6845.00    1.24329   1.12377    0.008
 6846.00    1.29542   1.14591    0.008
 6847.00    1.18257   1.16203    0.008
 6848.00    1.08959   1.16875    0.008
 6849.00    1.20443   1.17047    0.008
 6850.00    1.29830   1.17014    0.008
 6851.00    1.23636   1.16742    0.008
 6852.00    1.17833   1.16394    0.008
 6853.00    1.14239   1.16252    0.008
 6854.00    1.10226   1.16153    0.008
 6855.00    1.04327   1.15431    0.008
 6856.00    1.00613   1.13809    0.008
 6857.00    1.04992   1.12305    0.008
 6858.00    1.06461   1.12076    0.008
 6859.00    0.98921   1.12841    0.008
 6860.00    0.93661   1.13605    0.008
 6861.00    0.94403   1.13654    0.008
 6862.00    0.98539   1.12759    0.008
 6863.00    1.10344   1.11862    0.008
 6864.00    1.16337   1.12506    0.008
 6865.00    1.10952   1.14653    0.008
 6866.00    1.04719   1.16490    0.008
 6867.00    0.97039   1.16633    0.008
 6868.00    0.94859   1.15202    0.008
 6869.00    1.00898   1.13293    0.008
 6870.00    1.06292   1.12401    0.008
 6871.00    1.10839   1.13124    0.008
 6872.00    1.13777   1.14177    0.008
 6873.00    1.14853   1.14165    0.008
 6874.00    1.14172   1.13565    0.008
 6875.00    1.11699   1.13532    0.008
 6876.00    1.12781   1.14053    0.008
 6877.00    1.17063   1.14587    0.008
 6878.00    1.17380   1.15268    0.008
 6879.00    1.14550   1.16297    0.008
 6880.00    1.11730   1.17149    0.008
 6881.00    1.08916   1.17174    0.008
 6882.00    1.06176   1.16259    0.008
 6883.00    1.03480   1.14773    0.008
 6884.00    1.06909   1.13573    0.008
 6885.00    1.13609   1.13574    0.008
 6886.00    1.15040   1.14626    0.008
 6887.00    1.14027   1.15642    0.008
 6888.00    1.11179   1.16268    0.008
 6889.00    1.07598   1.17043    0.008
 6890.00    1.05193   1.18015    0.008
 6891.00    1.03190   1.18820    0.008
 6892.00    1.01840   1.19370    0.008
 6893.00    1.00677   1.19512    0.008
 6894.00    1.03771   1.19148    0.008
 6895.00    1.07873   1.18669    0.008
 6896.00    1.09560   1.18310    0.008
 6897.00    1.10787   1.17952    0.008
 6898.00    1.11284   1.17841    0.008
 6899.00    1.11674   1.18244    0.008
 6900.00    1.12303   1.18637    0.008
 6901.00    1.12959   1.18407    0.009
 6902.00    1.18495   1.18035    0.008
 6903.00    1.24375   1.18394    0.008
 6904.00    1.03266   1.19199    0.008
 6905.00    0.81187   1.19498    0.008
 6906.00    0.92871   1.19224    0.008
 6907.00    1.04421   1.19140    0.008
 6908.00    1.07447   1.19631    0.008
 6909.00    1.10220   1.20289    0.008
 6910.00    1.08981   1.20669    0.008
 6911.00    1.07977   1.20747    0.008
 6912.00    1.09321   1.20468    0.008
 6913.00    1.09664   1.19695    0.008
 6914.00    1.02802   1.18529    0.008
 6915.00    0.98293   1.17325    0.008
 6916.00    1.06751   1.16675    0.008
 6917.00    1.12615   1.16857    0.008
 6918.00    1.07040   1.17334    0.008
 6919.00    1.03442   1.17734    0.008
 6920.00    1.07015   1.18329    0.008
 6921.00    1.10672   1.19213    0.008
 6922.00    1.14590   1.20078    0.008
 6923.00    1.14308   1.20512    0.008
 6924.00    1.03172   1.20061    0.008
 6925.00    0.99176   1.18486    0.008
 6926.00    1.11051   1.16378    0.008
 6927.00    1.22513   1.15063    0.008
 6928.00    1.33179   1.15367    0.008
 6929.00    1.38916   1.16801    0.008
 6930.00    1.36369   1.18219    0.008
 6931.00    1.30203   1.18985    0.008
 6932.00    1.18710   1.19105    0.008
 6933.00    1.09570   1.18630    0.008
 6934.00    1.03480   1.17718    0.008
 6935.00    1.01940   1.17160    0.008
 6936.00    1.05592   1.17679    0.008
 6937.00    1.01926   1.18716    0.008
 6938.00    0.90898   1.19228    0.008
 6939.00    0.92526   1.19189    0.008
 6940.00    1.05386   1.19330    0.008
 6941.00    1.10883   1.20013    0.008
 6942.00    1.10623   1.20811    0.008
 6943.00    1.11653   1.20910    0.008
 6944.00    1.13570   1.19905    0.008
 6945.00    1.14907   1.18129    0.012
 6946.00    1.15895   1.16391    0.047
 6947.00    1.18824   1.15762   -1.000
 6948.00    1.22775   1.16803   -1.000
 6949.00    1.21823   1.18700   -1.000
 6950.00    1.18633   1.20143   -1.000
 6951.00    1.16963   1.20500   -1.000
 6952.00    1.15889   1.19735   -1.000
 6953.00    1.14214   1.18379   -1.000
 6954.00    1.12337   1.17286   -1.000
 6955.00    1.13988   1.16822   -1.000
 6956.00    1.16630   1.17037   -1.000
 6957.00    1.14921   1.18001   -1.000
 6958.00    1.12204   1.19286   -1.000
 6959.00    1.13453   1.20153   -1.000
 6960.00    1.15438   1.20423   -1.000
 6961.00    1.19972   1.20504   -1.000
 6962.00    1.24870   1.20746   -1.000
 6963.00    1.23914   1.21151   -1.000
 6964.00    1.22352   1.21561   -1.000
 6965.00    1.21391   1.21819   -1.000
 6966.00    1.20469   1.21664   -1.000
 6967.00    1.17490   1.21109   -1.000
 6968.00    1.14445   1.20923   -1.000
 6969.00    1.15336   1.21716   -1.000
 6970.00    1.16298   1.22779   -1.000
 6971.00    1.19443   1.22906   -1.000
 6972.00    1.22043   1.22026 3777.412
 6973.00    1.16534   1.21305   -1.000
 6974.00    1.11553   1.21599   -1.000
 6975.00    1.11633   1.22166   -1.000
 6976.00    1.11135   1.21704   -1.000
 6977.00    1.06617   1.20070   -1.000
 6978.00    1.03332   1.17724   -1.000
 6979.00    1.06669   1.14795   -1.000
 6980.00    1.11037   1.12244   -1.000
 6981.00    1.19845   1.12087   -1.000
 6982.00    1.26540   1.14782   -1.000
 6983.00    1.25732   1.18426   -1.000
 6984.00    1.25275   1.21244   -1.000
 6985.00    1.25864   1.22850   -1.000
 6986.00    1.28070   1.23502   -1.000
 6987.00    1.34384   1.23576   -1.000
 6988.00    1.37520   1.23331   -1.000
 6989.00    1.33709   1.22693   -1.000
 6990.00    1.29873   1.21562   -1.000
 6991.00    1.25990   1.20461   -1.000
 6992.00    1.22623   1.20326   -1.000
 6993.00    1.20112   1.21305   -1.000
 6994.00    1.20921   1.22426   -1.000
 6995.00    1.26548   1.22735   -1.000
 6996.00    1.28485   1.22329   -1.000
 6997.00    1.25713   1.22033   -1.000
 6998.00    1.22836   1.22179   -1.000
 6999.00    1.19842   1.22135   -1.000
 7000.00    1.16080   1.21135   -1.000
 7001.00    1.11558   1.19480   -1.000
 7002.00    1.13197   1.18611   -1.000
 7003.00    1.20226   1.19337   -1.000
 7004.00    1.26504   1.20574   -1.000
 7005.00    1.32205   1.20735   -1.000
 7006.00    1.30453   1.19769   -1.000
 7007.00    1.23649   1.18907   -1.000
 7008.00    1.17375   1.18943   -1.000
 7009.00    1.11415   1.19716   -1.000
 7010.00    1.13198   1.20748   -1.000
 7011.00    1.18992   1.21504   -1.000
 7012.00    1.21188   1.21567   -1.000
 7013.00    1.21770   1.21293   -1.000
 7014.00    1.23059   1.21379   -1.000
 7015.00    1.24621   1.21440   -1.000
 7016.00    1.18421   1.20124   -1.000
 7017.00    1.09673   1.17198   -1.000
 7018.00    1.08431   1.14858   -1.000
 7019.00    1.09253   1.15591   -1.000
 7020.00    1.16031   1.18935   -1.000
 7021.00    1.24155   1.22224   -1.000
 7022.00    1.23688   1.23813   -1.000
 7023.00    1.21669   1.23595   -1.000
 7024.00    1.21964   1.21840   -1.000
 7025.00    1.22580   1.19408   -1.000
 7026.00    1.22529   1.17916   -1.000
 7027.00    1.22411   1.18269   -1.000
 7028.00    1.17491   1.19667   -1.000
 7029.00    1.12271   1.20852   -1.000
 7030.00    1.18574   1.21595   -1.000
 7031.00    1.25199   1.22245   -1.000
 7032.00    1.30417   1.22755   -1.000
 7033.00    1.35100   1.22828   -1.000
 7034.00    1.25102   1.22520   -1.000
 7035.00    1.16015   1.22277   -1.000
 7036.00    1.19718   1.22483   -1.000
 7037.00    1.23030   1.23013 3777.412
 7038.00    1.22746   1.22898   -1.000
 7039.00    1.22774   1.21253   -1.000
 7040.00    1.24906   1.19365   -1.000
 7041.00    1.26868   1.19892   -1.000
 7042.00    1.27936   1.23175   -1.000
 7043.00    1.29788   1.26784   -1.000
 7044.00    1.34935   1.28613   -1.000
 7045.00    1.37999   1.28307   -1.000
 7046.00    1.33816   1.26728   -1.000
 7047.00    1.28882   1.25468   -1.000
 7048.00    1.21754   1.25754   -1.000
 7049.00    1.15570   1.27285   -1.000
 7050.00    1.11744   1.28752   -2.000
 7051.00    1.08564   1.29139   -2.000
 7052.00    1.06773   1.28109   -2.000
 7053.00    1.07736   1.25541   -2.000
 7054.00    1.13840   1.21636   -2.000
 7055.00    1.19397   1.17535   -2.000
 7056.00    1.24062   1.14766   -2.000
 7057.00    1.25416   1.14118   -2.000
 7058.00    1.22033   1.15147   -2.000
 7059.00    1.23231   1.16322   -2.000
 7060.00    1.30195   1.16090   -2.000
 7061.00    1.34063   1.14360   -2.000
 7062.00    1.34499   1.12619   -2.000
 7063.00    1.30624   1.12197   -2.000
 7064.00    1.22534   1.12963   -2.000
 7065.00    1.23321   1.14115   -2.000
 7066.00    1.31764   1.14963   -2.000
 7067.00    1.31347   1.14774   -2.000
 7068.00    1.24198   1.13267   -2.000
 7069.00    1.20778   1.11234   -2.000
 7070.00    1.19849   1.10158   -2.000
 7071.00    1.23156   1.11151   -2.000
 7072.00    1.28941   1.13753   -2.000
 7073.00    1.34099   1.16207   -2.000
 7074.00    1.38939   1.17401   -2.000
 7075.00    1.37140   1.17641   -2.000
 7076.00    1.32411   1.17539   -2.000
 7077.00    1.29196   1.17355   -2.000
 7078.00    1.26554   1.17306   -2.000
 7079.00    1.26552   1.17589   -2.000
 7080.00    1.27399   1.18143   -2.000
 7081.00    1.30769   1.18806   -2.000
 7082.00    1.34819   1.19374   -2.000
 7083.00    1.31398   1.19175   -2.000
 7084.00    1.26326   1.17386   -2.000
 7085.00    1.18688   1.14172   -2.000
 7086.00    1.10599   1.11070   -2.000
 7087.00    1.14282   1.09676   -2.000
 7088.00    1.19542   1.09715   -2.000
 7089.00    1.30252   1.09519   -2.000
 7090.00    1.41479   1.08496   -2.000
 7091.00    1.39640   1.07425   -2.000
 7092.00    1.37034   1.06995   -2.000
 7093.00    1.34818   1.07243   -2.000
 7094.00    1.32625   1.07666   -2.000
 7095.00    1.32379   1.07853   -2.000
 7096.00    1.31965   1.07909   -2.000
 7097.00    1.27397   1.08030   -2.000
 7098.00    1.23242   1.08323   -2.000
 7099.00    1.24579   1.08940   -2.000
 7100.00    1.24803   1.09927   -2.000
 7101.00    1.15156   1.10924   -2.000
 7102.00    1.07827   1.11281   -2.000
 7103.00    1.15637   1.10762   -2.000
 7104.00    1.22210   1.09966   -2.000
 7105.00    1.22482   1.09868   -2.000
 7106.00    1.22837   1.10706   -2.000
 7107.00    1.23531   1.11531   -2.000
 7108.00    1.23200   1.11440   -2.000
 7109.00    1.19378   1.10833   -2.000
 7110.00    1.17674   1.10535   -2.000
 7111.00    1.22056   1.10318   -2.000
 7112.00    1.24004   1.09537   -2.000
 7113.00    1.19982   1.08657   -2.000
 7114.00    1.15522   1.08741   -2.000
 7115.00    1.10136   1.09842   -2.000
 7116.00    1.09500   1.11060   -2.000
 7117.00    1.17601   1.11842   -2.000
 7118.00    1.21926   1.12231   -2.000
 7119.00    1.20184   1.12296   -2.000
 7120.00    1.17710   1.12103   -2.000
 7121.00    1.14205   1.11815   -2.000
 7122.00    1.09703   1.11482   -2.000
 7123.00    1.03964   1.11051   -2.000
 7124.00    1.10110   1.10755   -2.000
 7125.00    1.29251   1.10785   -2.000
 7126.00    1.30642   1.10437   -2.000
 7127.00    1.14917   1.08978   -2.000
 7128.00    1.10115   1.07165   -2.000
 7129.00    1.14604   1.06290   -2.000
 7130.00    1.20710   1.06179   -2.000
 7131.00    1.28028   1.05566   -2.000
 7132.00    1.23045   1.04274   -2.000
 7133.00    1.09970   1.03623   -2.000
 7134.00    0.98249   1.04505   -2.000
 7135.00    0.87308   1.06333   -2.000
 7136.00    0.97436   1.08003   -2.000
 7137.00    1.18136   1.08994   -2.000
 7138.00    1.14911   1.09523   -2.000
 7139.00    1.01297   1.09699   -2.000
 7140.00    1.12664   1.09195   -2.000
 7141.00    1.33338   1.08413   -2.000
 7142.00    1.30657   1.08456   -2.000
 7143.00    1.20599   1.09353   -2.000
 7144.00    1.07732   1.10044   -2.000
 7145.00    0.94126   1.10101   -2.000
 7146.00    1.04063   1.09922   -2.000
 7147.00    1.19074   1.09693   -2.000
 7148.00    1.27774   1.09018   -2.000
 7149.00    1.35395   1.07595   -2.000
 7150.00    1.17603   1.06211   -2.000
 7151.00    0.96522   1.06096   -2.000
 7152.00    1.14302   1.07297   -2.000
 7153.00    1.35612   1.09057   -2.000
 7154.00    1.33287   1.10869   -2.000
 7155.00    1.29668   1.12098   -2.000
 7156.00    1.23692   1.12159   -2.000
 7157.00    1.17686   1.11683   -2.000
 7158.00    1.13472   1.11933   -2.000
 7159.00    1.10436   1.12707   -2.000
 7160.00    1.34137   1.12615   -2.000
 7161.00    1.56844   1.11470   -2.000
 7162.00    1.67032   1.10572   -2.000
 7163.00    1.73251   1.10703   -2.000
 7164.00    1.45617   1.10965   -2.000
 7165.00    1.19370   1.09901   -2.000
 7166.00    1.01914   1.07724   -2.000
 7167.00    0.91266   1.06541   -2.000
 7168.00    1.14429   1.07789   -2.000
 7169.00    1.36563   1.10452   -2.000
 7170.00    1.54555   1.12452   -2.000
 7171.00    1.64700   1.12982   -2.000
 7172.00    1.48626   1.12948   -2.000
 7173.00    1.30454   1.13447   -2.000
 7174.00    1.06364   1.14382   -2.000
 7175.00    0.92877   1.14822   -2.000
 7176.00    1.04967   1.14222   -2.000
 7177.00    1.15165   1.12960   -2.000
 7178.00    1.21425   1.12135   -2.000
 7179.00    1.24765   1.12496   -2.000
 7180.00    1.22820   1.13120   -2.000
 7181.00    1.21016   1.12319   -2.000
 7182.00    1.19438   1.10176   -2.000
 7183.00    1.16030   1.08858   -2.000
 7184.00    1.10080   1.09979   -2.000
 7185.00    1.03171   1.12594   -2.000
 7186.00    0.95087   1.14391   -2.000
 7187.00    1.01446   1.14091   -2.000
 7188.00    1.23373   1.11974   -2.000
 7189.00    1.27812   1.09271   -2.000
 7190.00    1.15622   1.07579   -2.000
 7191.00    1.17564   1.07781   -2.000
 7192.00    1.31353   1.09324   -2.000
 7193.00    1.31667   1.10752   -2.000
 7194.00    1.22035   1.11115   -2.000
 7195.00    1.15635   1.10981   -2.000
 7196.00    1.11330   1.11420   -2.000
 7197.00    1.06934   1.12184   -2.000
 7198.00    1.02487   1.12221   -2.000
 7199.00    1.10736   1.11625   -2.000
 7200.00    1.25255   1.11484   -2.000
 7201.00    1.44701   1.12004   -2.000
 7202.00    1.66251   1.12335   -2.000
 7203.00    1.52179   1.12132   -2.000
 7204.00    1.25072   1.12173   -2.000
 7205.00    1.07670   1.13132   -2.000
 7206.00    0.93274   1.14235   -2.000
 7207.00    0.97514   1.13785   -2.000
 7208.00    1.06564   1.11198   -2.000
 7209.00    1.06524   1.08156   -2.000
 7210.00    1.04573   1.07072   -2.000
 7211.00    1.02588   1.08624   -2.000
 7212.00    1.00599   1.11528   -2.000
 7213.00    1.08032   1.13865   -2.000
 7214.00    1.16642   1.14375   -2.000
 7215.00    1.16405   1.13384   -2.000
 7216.00    1.15402   1.12276   -2.000
 7217.00    1.05333   1.12056   -2.000
 7218.00    0.94803   1.12921   -2.000
