###################################################################
## OUTPUT of StarlightChains_v04.for    [Cid@UFSC - 01/Apr/2007] ##
###################################################################

## Some input info
KUG0210-078._60_34.txt                   [arq_obs]
Base.CB07.vall.4m                        [arq_base]
Masks.EmLines.NEW.gm                     [arq_masks]
StCv04.C11.config                        [arq_config]
   66                                    [N_base]
    0                                    [N_YAV_components = # of components with extra extinction!]
    0                                    [i_FitPowerLaw (1/0 = Yes/No)]
-9.99                                    [alpha_PowerLaw]
CCM                                      [red_law_option]
 1.458241                                [q_norm = A(l_norm)/A(V)]

## (Re)Sampling Parameters
 3741.00                                 [l_ini (A)]
 7218.00                                 [l_fin (A)]
    1.00                                 [dl    (A)]     (OBS: dl_cushion =    50.00 A)

## Normalization info
 4020.00                                 [l_norm (A) - for base]
 4010.00                                 [llow_norm (A) - window for f_obs]
 4060.00                                 [lupp_norm (A) - window for f_obs]
1.174074E-17                             [fobs_norm (in input units)]

## S/N
 3691.00                                 [llow_SN (A) - window for S/N]
 7268.00                                 [lupp_SN (A) - window for S/N]
   1.547                                 [S/N in S/N window]
   3.512                                 [S/N in norm. window]
   0.006                                 [S/N_err in S/N window]
   0.013                                 [S/N_err in norm. window]
  1.0000                                 [fscale_chi2]

## etc...
    -2008031                             [idum_orig]
  2414                                   [NOl_eff]
  2390                                   [Nl_eff]
    24    NSIGMA                         [Ntot_cliped & clip_method]
   945070                                [Nglobal_steps]
   7                                     [N_chains]
  43                                     [NEX0s_base = N_base in EX0s-fits]
 0   0   1       24   2.0   2.409E+03    [Clip-Bug, RC-Crash & Burn-In warning-flags, n_censored_weights, wei_nsig_threshold & wei_limit]
    26     26.466     25.763      0.703  [idt_all, wdt_TotTime, wdt_UsrTime & wdt_SysTime (sec)]

## Synthesis Results - Best model ##

 1.05650E-05                             [chi2/Nl_eff]
    45.02891                             [adev (%)]

    97.91950                             [sum-of-x (%)]
 3.00101E-18                             [Flux_tot (units of input spectrum!)]
 9.47315E-15                             [Mini_tot (???)]
 5.62933E-15                             [Mcor_tot (???)]

 164.15                                  [v0_min  (km/s)]
 455.28                                  [vd_min  (km/s)]
-1.0000                                  [AV_min  (mag)]
 0.0000                                  [YAV_min (mag)]

# j     x_j(%)      Mini_j(%)     Mcor_j(%)     age_j(yr)     Z_j      (L/M)_j    YAV?  Mstars   component_j        a/Fe...       SSP_chi2r SSP_adev(%)   SSP_AV   SSP_x(%)
  1      0.2163     6.3958E-03    1.0763E-02    1.000000E+06  0.00400  1.094E-02    0   1.0000   age020_m42            0.0000     1.5087E-05    54.4984   1.2675    80.4125
  2      0.0000     0.0000E+00    0.0000E+00    3.160000E+06  0.00400  4.007E-02    0   0.9999   age045_m42            0.0000     1.2802E-05    49.1101   0.4386    87.7882
  3      0.0000     0.0000E+00    0.0000E+00    5.010000E+06  0.00400  2.539E-02    0   0.9488   age055_m42            0.0000     1.3763E-05    51.3775   0.8071    84.7844
  4      0.0000     0.0000E+00    0.0000E+00    6.610000E+06  0.00400  2.620E-02    0   0.9220   age061_m42            0.0000     1.2692E-05    48.7266   0.3661    87.9190
  5      0.0000     0.0000E+00    0.0000E+00    1.000000E+07  0.00400  1.322E-02    0   0.8862   age070_m42            0.0000     1.3236E-05    52.1398   0.1903    87.6331
  6      0.0000     0.0000E+00    0.0000E+00    1.445000E+07  0.00400  7.883E-03    0   0.8571   age078_m42            0.0000     1.3778E-05    53.1734   0.5288    85.2397
  7      0.0000     0.0000E+00    0.0000E+00    2.512000E+07  0.00400  5.251E-03    0   0.8174   age090_m42            0.0000     1.3142E-05    52.2640   0.0689    87.9258
  8      0.0000     0.0000E+00    0.0000E+00    4.000000E+07  0.00400  3.649E-03    0   0.7851   age104_m42            0.0000     1.2724E-05    51.0795  -0.1854    89.2058
  9      0.0000     0.0000E+00    0.0000E+00    5.500000E+07  0.00400  3.098E-03    0   0.7629   age110_m42            0.0000     1.2156E-05    48.3681  -0.1012    90.5703
 10      0.0000     0.0000E+00    0.0000E+00    1.015200E+08  0.00400  2.228E-03    0   0.7207   age116_m42            0.0000     1.1737E-05    46.3012  -0.1295    91.6930
 11      0.0000     0.0000E+00    0.0000E+00    2.861200E+08  0.00400  1.093E-03    0   0.6648   age125_m42            0.0000     1.1375E-05    45.8551  -0.6912    94.1189
 12      0.0000     0.0000E+00    0.0000E+00    5.088000E+08  0.00400  6.597E-04    0   0.6365   age130_m42            0.0000     1.0837E-05    42.8564  -0.7817    96.5595
 13      1.7855     2.7094E+00    2.6436E+00    1.434000E+09  0.00400  2.132E-04    0   0.5798   age139_m42            0.0000     1.2180E-05    71.0636  -1.0000    90.9395
 14      0.0000     0.0000E+00    0.0000E+00    4.250000E+09  0.00400  5.895E-05    0   0.5377   age158_m42            0.0000     1.6295E-05    91.0815  -1.0000    81.2695
 15      0.0000     0.0000E+00    0.0000E+00    7.500000E+09  0.00400  3.510E-05    0   0.5212   age171_m42            0.0000     1.8549E-05    99.0399  -1.0000    77.6963
 16      0.0000     0.0000E+00    0.0000E+00    1.300000E+10  0.00400  2.005E-05    0   0.5034   age193_m42            0.0000     2.0896E-05   105.8258  -1.0000    74.3844
 17      0.0000     0.0000E+00    0.0000E+00    1.800000E+10  0.00400  1.525E-05    0   0.4967   age213_m42            0.0000     2.1195E-05   106.9183  -1.0000    73.6122
 18      0.0000     0.0000E+00    0.0000E+00    1.000000E+06  0.00800  1.238E-02    0   1.0000   age020_m52            0.0000     1.5107E-05    54.4823   1.2633    80.5792
 19      0.0000     0.0000E+00    0.0000E+00    3.160000E+06  0.00800  3.074E-02    0   0.9966   age045_m52            0.0000     1.4903E-05    53.9037   1.1766    81.4975
 20      0.0085     1.0356E-04    1.6456E-04    5.010000E+06  0.00800  2.668E-02    0   0.9443   age055_m52            0.0000     1.4100E-05    52.3146   0.9098    83.6953
 21      2.6949     4.0817E-02    6.3035E-02    6.610000E+06  0.00800  2.136E-02    0   0.9177   age061_m52            0.0000     1.3472E-05    52.8855  -0.3050    88.5589
 22      0.0000     0.0000E+00    0.0000E+00    1.000000E+07  0.00800  1.215E-02    0   0.8827   age070_m52            0.0000     1.3762E-05    53.8882   0.4082    86.6417
 23      1.3499     5.0100E-02    7.2101E-02    1.445000E+07  0.00800  8.717E-03    0   0.8552   age078_m52            0.0000     1.3612E-05    52.8506   0.4900    86.4905
 24      0.0000     0.0000E+00    0.0000E+00    2.512000E+07  0.00800  5.592E-03    0   0.8162   age090_m52            0.0000     1.3058E-05    52.1311   0.1304    88.9948
 25      0.0000     0.0000E+00    0.0000E+00    4.000000E+07  0.00800  3.896E-03    0   0.7841   age104_m52            0.0000     1.2513E-05    50.2480  -0.0016    90.5260
 26      0.0000     0.0000E+00    0.0000E+00    1.015200E+08  0.00800  2.148E-03    0   0.7226   age116_m52            0.0000     1.1878E-05    47.4708  -0.1308    91.7687
 27      0.0000     0.0000E+00    0.0000E+00    2.861200E+08  0.00800  9.925E-04    0   0.6683   age125_m52            0.0000     1.0788E-05    42.9076  -0.7132    97.4124
 28      6.1948     6.3806E+00    6.5906E+00    9.047900E+08  0.00800  3.141E-04    0   0.6138   age135_m52            0.0000     1.1118E-05    61.3190  -1.0000    97.4630
 29      0.4217     7.9374E-01    7.8180E-01    1.434000E+09  0.00800  1.719E-04    0   0.5853   age139_m52            0.0000     1.4830E-05    86.4968  -1.0000    87.0532
 30      0.0000     0.0000E+00    0.0000E+00    2.500000E+09  0.00800  7.872E-05    0   0.5600   age150_m52            0.0000     1.8172E-05    97.9162  -1.0000    80.4861
 31      0.0000     0.0000E+00    0.0000E+00    4.250000E+09  0.00800  4.336E-05    0   0.5426   age158_m52            0.0000     1.8593E-05    98.6971  -1.0000    79.4064
 32      0.0000     0.0000E+00    0.0000E+00    6.250000E+09  0.00800  3.159E-05    0   0.5319   age166_m52            0.0000     2.1473E-05   106.5682  -1.0000    75.7808
 33      0.1386     3.2954E+00    2.8132E+00    1.300000E+10  0.00800  1.361E-05    0   0.5073   age193_m52            0.0000     2.9343E-05   123.6156  -1.0000    65.8891
 34      0.0000     0.0000E+00    0.0000E+00    1.800000E+10  0.00800  9.886E-06    0   0.4990   age213_m52            0.0000     3.1845E-05   126.4798  -1.0000    63.2530
 35      0.0000     0.0000E+00    0.0000E+00    1.000000E+06  0.02000  1.544E-02    0   1.0000   age020_m62            0.0000     1.5181E-05    54.5759   1.2616    80.7271
 36      0.0000     0.0000E+00    0.0000E+00    3.160000E+06  0.02000  3.762E-02    0   0.9858   age045_m62            0.0000     1.5135E-05    54.2143   1.1935    81.5801
 37      0.0249     2.4469E-04    3.8468E-04    5.010000E+06  0.02000  3.296E-02    0   0.9342   age055_m62            0.0000     1.3307E-05    49.9640   0.7368    86.4400
 38      1.5319     4.2947E-02    6.4040E-02    8.710000E+06  0.02000  1.154E-02    0   0.8861   age067_m62            0.0000     1.5654E-05    59.6151  -0.0000    85.4016
 39      0.3436     1.4508E-02    2.0684E-02    1.445000E+07  0.02000  7.663E-03    0   0.8472   age078_m62            0.0000     1.4078E-05    56.0812   0.1114    87.4575
 40      1.1360     8.1092E-02    1.1052E-01    2.512000E+07  0.02000  4.532E-03    0   0.8099   age090_m62            0.0000     1.3901E-05    55.7547   0.1036    87.1836
 41      0.0000     0.0000E+00    0.0000E+00    5.500000E+07  0.02000  2.733E-03    0   0.7595   age110_m62            0.0000     1.2680E-05    50.6324  -0.0088    89.7057
 42      6.0307     1.4252E+00    1.6752E+00    1.609000E+08  0.02000  1.369E-03    0   0.6985   age120_m62            0.0000     1.1410E-05    45.1748  -0.2925    94.6420
 43     20.4730     7.3488E+00    8.3030E+00    2.861200E+08  0.02000  9.013E-04    0   0.6714   age125_m62            0.0000     1.0694E-05    41.7791  -0.6231    99.0373
 44     23.4963     1.5119E+01    1.6407E+01    5.088000E+08  0.02000  5.028E-04    0   0.6449   age130_m62            0.0000     9.9581E-06    41.6378  -1.0000   103.2599
 45     28.3545     3.7781E+01    3.9286E+01    9.047900E+08  0.02000  2.428E-04    0   0.6179   age135_m62            0.0000     1.1485E-05    64.0125  -1.0000    96.4314
 46      0.0000     0.0000E+00    0.0000E+00    1.434000E+09  0.02000  1.263E-04    0   0.5908   age139_m62            0.0000     1.4667E-05    82.9888  -1.0000    88.5405
 47      0.0331     1.7868E-01    1.7058E-01    2.500000E+09  0.02000  5.985E-05    0   0.5673   age150_m62            0.0000     1.8903E-05    98.3003  -1.0000    81.2593
 48      0.0000     0.0000E+00    0.0000E+00    4.250000E+09  0.02000  3.271E-05    0   0.5468   age158_m62            0.0000     2.3505E-05   109.7883  -1.0000    74.8492
 49      0.0000     0.0000E+00    0.0000E+00    1.000000E+10  0.02000  1.360E-05    0   0.5167   age181_m62            0.0000     3.0064E-05   121.4790  -1.0000    67.2444
 50      0.0000     0.0000E+00    0.0000E+00    1.800000E+10  0.02000  7.124E-06    0   0.5013   age213_m62            0.0000     3.4768E-05   127.2116  -1.0000    62.0599
 51      0.2085     2.6019E-03    4.3777E-03    1.000000E+06  0.05000  2.592E-02    0   0.9998   age020_m72            0.0000     1.5421E-05    55.1565   1.2666    80.5288
 52      0.0000     0.0000E+00    0.0000E+00    3.160000E+06  0.05000  4.845E-02    0   0.9577   age045_m72            0.0000     1.4363E-05    52.3212   1.0391    83.3650
 53      0.0000     0.0000E+00    0.0000E+00    5.010000E+06  0.05000  3.072E-02    0   0.9147   age055_m72            0.0000     1.4484E-05    55.3219   0.6572    84.9269
 54      2.2269     4.9516E-02    7.3969E-02    6.610000E+06  0.05000  1.455E-02    0   0.8877   age061_m72            0.0000     1.6419E-05    64.5825   0.1723    84.1864
 55      0.0351     1.2508E-03    1.7941E-03    1.000000E+07  0.05000  9.074E-03    0   0.8524   age070_m72            0.0000     1.4469E-05    55.1572   0.8322    84.6884
 56      0.6651     5.0630E-02    6.7326E-02    2.512000E+07  0.05000  4.250E-03    0   0.7902   age090_m72            0.0000     1.3413E-05    52.8958   0.4988    87.0118
 57      0.0000     0.0000E+00    0.0000E+00    4.000000E+07  0.05000  3.087E-03    0   0.7618   age104_m72            0.0000     1.3034E-05    52.1991   0.2662    88.5376
 58      0.0000     0.0000E+00    0.0000E+00    1.015200E+08  0.05000  1.700E-03    0   0.7096   age116_m72            0.0000     1.1698E-05    46.7661  -0.1084    93.3630
 59      0.0000     0.0000E+00    0.0000E+00    2.861200E+08  0.05000  7.384E-04    0   0.6633   age125_m72            0.0000     1.0208E-05    39.5189  -0.8294   102.0047
 60      0.0000     0.0000E+00    0.0000E+00    5.088000E+08  0.05000  3.819E-04    0   0.6372   age130_m72            0.0000     1.0213E-05    50.5381  -1.0000   101.6853
 61      0.0000     0.0000E+00    0.0000E+00    9.047900E+08  0.05000  1.676E-04    0   0.6110   age135_m72            0.0000     1.4274E-05    79.0951  -1.0000    91.0770
 62      0.0000     0.0000E+00    0.0000E+00    1.434000E+09  0.05000  8.837E-05    0   0.5874   age139_m72            0.0000     1.9058E-05    98.2200  -1.0000    82.5672
 63      0.0000     0.0000E+00    0.0000E+00    2.500000E+09  0.05000  4.233E-05    0   0.5598   age150_m72            0.0000     2.3800E-05   109.6543  -1.0000    75.5712
 64      0.2995     6.7525E+00    5.9646E+00    6.250000E+09  0.05000  1.435E-05    0   0.5249   age166_m72            0.0000     3.2028E-05   124.5199  -1.0000    64.8862
 65      0.0000     0.0000E+00    0.0000E+00    1.300000E+10  0.05000  6.513E-06    0   0.5036   age193_m72            0.0000     3.8473E-05   131.4278  -1.0000    59.0924
 66      0.2501     1.7876E+01    1.4875E+01    1.800000E+10  0.05000  4.527E-06    0   0.4945   age213_m72            0.0000     4.2454E-05   134.4900  -1.0000    55.2248


## Synthesis Results - Average & Chains ##

# j      x_j: min, <> & last-chain-values for 1 ...  7 chains
  1      0.2163      0.5660      2.1265      2.1401      2.4927      1.9970      0.9051      1.6140      2.0689
  2      0.0000      1.0502      0.9627      0.5031      0.8960      2.9068      2.1711      4.0749      0.0000
  3      0.0000      0.4663      1.7053      0.4082      0.0816      3.6216      0.0000      0.0000      2.2414
  4      0.0000      0.7192      1.9636      0.9462      0.8350      0.4450      0.6764      0.0000      0.0000
  5      0.0000      0.8909      0.0000      0.0000      0.4154      3.6088      0.0000      1.6319      0.1192
  6      0.0000      0.6358      0.0000      0.0000      0.9331      1.0829      0.7444      1.2766      4.3004
  7      0.0000      0.7441      0.6705      2.2305      1.7570      1.5578      2.9772      2.8743      0.0006
  8      0.0000      0.4887      0.6105      0.0000      1.9059      0.0000      1.8034      0.4326      1.6742
  9      0.0000      0.5978      0.4369      0.0000      0.5177      0.5910      0.0000      1.1291      0.0000
 10      0.0000      0.7063      0.8687      0.3821      0.5878      0.0000      1.9210      1.5173      0.7483
 11      0.0000      0.7409      0.0713      0.0000      0.2716      1.9128      1.4201      0.7386      1.0220
 12      0.0000      0.7664      0.0000      4.2928      3.0190      0.0000      1.5995      2.0481      0.0000
 13      1.7855      0.6974      0.0000      1.0460      0.0000      0.2426      0.6844      0.1644      0.0000
 14      0.0000      0.7037      0.3572      0.2000      0.7719      0.0000      1.0094      0.0000      2.0100
 15      0.0000      0.5940      1.4139      0.6239      0.0000      0.6103      1.4099      0.0000      0.3028
 16      0.0000      0.8331      0.0000      0.0000      0.0000      3.7605      2.6605      0.1034      0.4271
 17      0.0000      0.6187      1.0349      0.4049      0.0000      1.8242      1.1020      0.3823      3.7067
 18      0.0000      0.6246      2.1246      0.0000      0.8676      0.9554      0.1951      1.6242      2.4097
 19      0.0000      0.6451      2.6719      0.7778      0.2894      0.3470      1.1691      0.9271      0.0000
 20      0.0085      0.7330      4.2539      2.0642      0.0000      0.1868      1.6827      0.2307      0.0000
 21      2.6949      0.6009      0.0000      0.8832      0.1302      0.2249      1.4926      1.8346      0.5142
 22      0.0000      0.6968      0.1444      0.8948      0.0000      0.6758      0.4014      0.0078      1.0351
 23      1.3499      0.7036      0.0000      1.5102      1.6139      0.3535      0.2028      2.1127      1.4156
 24      0.0000      0.8879      3.5138      1.5847      2.3373      0.9075      0.0000      0.0785      0.7182
 25      0.0000      0.5841      0.7203      1.2912      1.4818      0.1207      0.2779      0.6484      5.4572
 26      0.0000      0.8989      0.0933      2.3778      0.3096      0.2547      1.3788      4.8300      3.7370
 27      0.0000      0.5952      3.8446      0.0000      1.1765      0.3420      1.8430      1.9270      3.8387
 28      6.1948      0.8944      0.6922      1.2254      2.0152      4.7319      0.0000      0.4059      3.1108
 29      0.4217     40.9128     23.0050     22.1042     28.3993     20.8710     21.1142     16.4662     12.5775
 30      0.0000      0.6674      0.0000      1.2633      0.5897      0.0824      0.8045      0.6217      0.7426
 31      0.0000      0.5042      0.9130      0.0000      0.0000      0.5055      0.6763      2.6419      0.4762
 32      0.0000      0.6302      0.0000      0.0000      0.5235      3.1595      0.0000      0.1472      2.0811
 33      0.1386      0.5560      0.3127      0.6305      0.0000      0.0000      0.0000      3.3626      1.0443
 34      0.0000      1.1247      0.0000      0.0000      1.0993      2.2009      0.0000      0.7813      2.5864
 35      0.0000      0.6234      0.8633      2.0707      1.5011      0.1776      0.7051      0.9015      0.9488
 36      0.0000      0.4475      3.3657      0.5990      0.8020      1.8229      0.0000      0.4182      2.0766
 37      0.0249      0.7932      0.0000      1.6079      0.5036      2.6478      0.0000      1.9139      1.7388
 38      1.5319      0.9089      0.9878      3.8994      2.9540      2.2681      1.5873      0.5233      1.3982
 39      0.3436      0.6770      1.4029      0.9540      0.5751      1.3541      0.0000      2.2119      1.2631
 40      1.1360      0.6829      0.4050      2.2952      0.9454      0.7189      1.9410      1.0544      0.6100
 41      0.0000      0.5586      3.3218      2.9617      0.0000      0.0000      2.0883      0.5884      2.1867
 42      6.0307      0.6781      3.7877      4.5338      3.9573      1.0907      1.4293      0.1447      0.1806
 43     20.4730      0.8463      1.0033      2.5215      0.4886      0.0188      0.0000      3.7177      0.0000
 44     23.4963      0.8308      0.0366      2.1317      3.3799      0.9578      0.0000      2.6100      0.2892
 45     28.3545      0.6822      0.1399      0.5436      0.2702      1.5892      1.2681      1.7547      0.5434
 46      0.0000      0.7537      0.5864      1.2019      3.4750      1.3467      2.1637      0.9381      0.5404
 47      0.0331      0.8554      1.1752      5.4365      0.4877      0.5501      3.0432      0.1848      1.0437
 48      0.0000      0.5404      0.0000      0.0000      0.0000      0.6428      0.1113      2.2647      1.3554
 49      0.0000      0.7706      0.4155      0.0000      3.3962      0.6307      3.3691      1.3118      1.4136
 50      0.0000      2.2837      4.1181      2.2690      0.6158      1.8346      0.4230      0.0000      1.8376
 51      0.2085      1.0592      1.4675      1.6572      2.3431      1.3751      0.8287      5.7731      2.1538
 52      0.0000      0.6997      1.2145      2.3340      1.7600      1.3085      3.5077      0.3630      0.5984
 53      0.0000      0.7502      0.0486      0.4489      0.0240      1.6430      1.2667      2.4186      2.0954
 54      2.2269      0.8218      2.8047      2.1049      0.0000      4.4584      0.0000      0.2804      0.0000
 55      0.0351      0.5550      1.2381      1.8485      1.9660      2.8336      5.1709      0.0000      0.0000
 56      0.6651      0.6164      2.0697      2.0849      0.7827      1.9567      0.3473      0.6726      3.4095
 57      0.0000      0.6565      1.0742      0.0000      0.9635      0.3971      2.4535      1.2027      0.5577
 58      0.0000      1.0740      0.1778      2.5490      1.2187      0.5757      0.7207      1.5726      2.0171
 59      0.0000      0.8734      0.6531      0.0000      1.4739      0.1860      0.0000      2.6902      0.0000
 60      0.0000      0.7292      2.0489      0.0000      0.0000      1.1957      0.5058      0.0000      0.0000
 61      0.0000      0.4939      2.7221      2.3042      1.1871      0.0000      0.0000      0.6116      0.7744
 62      0.0000      0.4919      1.9087      0.0000      1.2904      0.0000      0.6851      0.0000      2.1241
 63      0.0000      1.0774      2.3601      0.0000      0.0000      1.3805      0.1057      0.0000      2.2803
 64      0.2995      0.6715      0.0000      1.2336      0.0000      1.6843      1.0975      0.0000      0.0000
 65      0.0000      6.7337      4.8286      3.1573      4.7758      1.3844      7.5883      7.0000      4.5738
 66      0.2501      9.6615      3.1754      1.8866      7.5963      6.7619      6.0921      4.9151      5.4880

# j      m_j: min, <> & last-chain-values for 1 ...  7 chains
  1  1.0763E-02  2.4181E-03  1.5324E-02  2.2323E-02  1.4257E-02  1.1939E-02  4.7790E-03  1.0007E-02  1.1465E-02
  2  0.0000E+00  1.2249E-03  1.8939E-03  1.4327E-03  1.3990E-03  4.7444E-03  3.1293E-03  6.8973E-03  0.0000E+00
  3  0.0000E+00  8.1445E-04  5.0237E-03  1.7405E-03  1.9074E-04  8.8519E-03  0.0000E+00  0.0000E+00  5.0781E-03
  4  0.0000E+00  1.1829E-03  5.4475E-03  3.7994E-03  1.8387E-03  1.0242E-03  1.3749E-03  0.0000E+00  0.0000E+00
  5  0.0000E+00  2.7916E-03  0.0000E+00  0.0000E+00  1.7423E-03  1.5823E-02  0.0000E+00  7.4200E-03  4.8430E-04
  6  0.0000E+00  3.2314E-03  0.0000E+00  0.0000E+00  6.3484E-03  7.7012E-03  4.6752E-03  9.4149E-03  2.8347E-02
  7  0.0000E+00  5.4141E-03  8.2281E-03  3.9620E-02  1.7113E-02  1.5861E-02  2.6769E-02  3.0349E-02  5.4091E-06
  8  0.0000E+00  4.9148E-03  1.0355E-02  0.0000E+00  2.5659E-02  0.0000E+00  2.2412E-02  6.3136E-03  2.1838E-02
  9  0.0000E+00  6.8811E-03  8.4814E-03  0.0000E+00  7.9774E-03  9.5185E-03  0.0000E+00  1.8860E-02  0.0000E+00
 10  0.0000E+00  1.0679E-02  2.2153E-02  1.4105E-02  1.1897E-02  0.0000E+00  3.5892E-02  3.3292E-02  1.4674E-02
 11  0.0000E+00  2.1065E-02  3.4167E-03  0.0000E+00  1.0337E-02  7.6099E-02  4.9892E-02  3.0470E-02  3.7685E-02
 12  0.0000E+00  3.4562E-02  0.0000E+00  4.7263E-01  1.8226E-01  0.0000E+00  8.9142E-02  1.3404E-01  0.0000E+00
 13  2.6436E+00  8.8649E-02  0.0000E+00  3.2461E-01  0.0000E+00  4.3160E-02  1.0751E-01  3.0323E-02  0.0000E+00
 14  0.0000E+00  3.0004E-01  2.5683E-01  2.0812E-01  4.4055E-01  0.0000E+00  5.3180E-01  0.0000E+00  1.1115E+00
 15  0.0000E+00  4.1226E-01  1.6551E+00  1.0572E+00  0.0000E+00  5.9271E-01  1.2093E+00  0.0000E+00  2.7257E-01
 16  0.0000E+00  9.7765E-01  0.0000E+00  0.0000E+00  0.0000E+00  6.1756E+00  3.8583E+00  1.7608E-01  6.5010E-01
 17  0.0000E+00  9.4186E-01  2.6572E+00  1.5050E+00  0.0000E+00  3.8862E+00  2.0732E+00  8.4463E-01  7.3193E+00
 18  0.0000E+00  2.3581E-03  1.3529E-02  0.0000E+00  4.3851E-03  5.0478E-03  9.1022E-04  8.8988E-03  1.1801E-02
 19  0.0000E+00  9.7758E-04  6.8288E-03  2.8775E-03  5.8707E-04  7.3577E-04  2.1892E-03  2.0387E-03  0.0000E+00
 20  1.6456E-04  1.2127E-03  1.1869E-02  8.3370E-03  0.0000E+00  4.3243E-04  3.4401E-03  5.5391E-04  0.0000E+00
 21  6.3035E-02  1.2068E-03  0.0000E+00  4.3298E-03  3.5012E-04  6.3187E-04  3.7042E-03  5.3463E-03  1.3394E-03
 22  0.0000E+00  2.3661E-03  8.2680E-04  7.4184E-03  0.0000E+00  3.2114E-03  1.6843E-03  3.8451E-05  4.5591E-03
 23  7.2101E-02  3.2263E-03  0.0000E+00  1.6907E-02  9.9073E-03  2.2686E-03  1.1492E-03  1.4059E-02  8.4198E-03
 24  0.0000E+00  6.0580E-03  4.0432E-02  2.6395E-02  2.1346E-02  8.6637E-03  0.0000E+00  7.7709E-04  6.3551E-03
 25  0.0000E+00  5.4946E-03  1.1429E-02  2.9654E-02  1.8661E-02  1.5895E-03  3.2303E-03  8.8516E-03  6.6585E-02
 26  0.0000E+00  1.4135E-02  2.4755E-03  9.1279E-02  6.5169E-03  5.6032E-03  2.6792E-02  1.1021E-01  7.6216E-02
 27  0.0000E+00  1.8733E-02  2.0408E-01  0.0000E+00  4.9571E-02  1.5063E-02  7.1682E-02  8.8012E-02  1.5670E-01
 28  6.5906E+00  8.1695E-02  1.0664E-01  2.7326E-01  2.4641E-01  6.0482E-01  0.0000E+00  5.3798E-02  3.6855E-01
 29  7.8180E-01  6.5114E+00  6.1750E+00  8.5883E+00  6.0505E+00  4.6481E+00  4.1525E+00  3.8029E+00  2.5963E+00
 30  0.0000E+00  2.2192E-01  0.0000E+00  1.0255E+00  2.6248E-01  3.8356E-02  3.3058E-01  2.9999E-01  3.2027E-01
 31  0.0000E+00  2.9495E-01  9.0065E-01  0.0000E+00  0.0000E+00  4.1372E-01  4.8882E-01  2.2424E+00  3.6130E-01
 32  0.0000E+00  4.9599E-01  0.0000E+00  0.0000E+00  5.5156E-01  3.4796E+00  0.0000E+00  1.6817E-01  2.1244E+00
 33  2.8132E+00  9.6864E-01  9.1877E-01  2.6816E+00  0.0000E+00  0.0000E+00  0.0000E+00  8.5015E+00  2.3598E+00
 34  0.0000E+00  2.6535E+00  0.0000E+00  0.0000E+00  3.4719E+00  7.2662E+00  0.0000E+00  2.6749E+00  7.9147E+00
 35  0.0000E+00  1.8874E-03  4.4080E-03  1.5304E-02  6.0833E-03  7.5249E-04  2.6378E-03  3.9602E-03  3.7254E-03
 36  0.0000E+00  5.4815E-04  6.9529E-03  1.7912E-03  1.3149E-03  3.1243E-03  0.0000E+00  7.4323E-04  3.2990E-03
 37  3.8468E-04  1.0509E-03  0.0000E+00  5.2003E-03  8.9314E-04  4.9087E-03  0.0000E+00  3.6794E-03  2.9879E-03
 38  6.4040E-02  3.2620E-03  5.9797E-03  3.4167E-02  1.4193E-02  1.1391E-02  7.0400E-03  2.7253E-03  6.5089E-03
 39  2.0684E-02  3.4985E-03  1.2227E-02  1.2035E-02  3.9787E-03  9.7919E-03  0.0000E+00  1.6587E-02  8.4660E-03
 40  1.1052E-01  5.7045E-03  5.7059E-03  4.6804E-02  1.0572E-02  8.4028E-03  2.0035E-02  1.2781E-02  6.6090E-03
 41  0.0000E+00  7.2557E-03  7.2774E-02  9.3921E-02  0.0000E+00  0.0000E+00  3.3521E-02  1.1091E-02  3.6842E-02
 42  1.6752E+00  1.6173E-02  1.5235E-01  2.6397E-01  1.2634E-01  3.6401E-02  4.2123E-02  5.0068E-03  5.5856E-03
 43  8.3030E+00  2.9467E-02  5.8921E-02  2.1434E-01  2.2776E-02  9.1405E-04  0.0000E+00  1.8785E-01  0.0000E+00
 44  1.6407E+01  4.9811E-02  3.7022E-03  3.1199E-01  2.7126E-01  8.0356E-02  0.0000E+00  2.2707E-01  2.2492E-02
 45  3.9286E+01  8.1146E-02  2.8062E-02  1.5787E-01  4.3023E-02  2.6454E-01  1.8640E-01  3.0289E-01  8.3834E-02
 46  0.0000E+00  1.6479E-01  2.1626E-01  6.4154E-01  1.0171E+00  4.1205E-01  5.8460E-01  2.9766E-01  1.5326E-01
 47  1.7058E-01  3.7900E-01  8.7817E-01  5.8802E+00  2.8928E-01  3.4103E-01  1.6662E+00  1.1879E-01  5.9976E-01
 48  0.0000E+00  4.2229E-01  0.0000E+00  0.0000E+00  0.0000E+00  7.0284E-01  1.0746E-01  2.5679E+00  1.3737E+00
 49  0.0000E+00  1.3685E+00  1.2444E+00  0.0000E+00  8.0736E+00  1.5674E+00  7.3935E+00  3.3805E+00  3.2560E+00
 50  0.0000E+00  7.5114E+00  2.2845E+01  1.8219E+01  2.7114E+00  8.4441E+00  1.7192E+00  0.0000E+00  7.8395E+00
 51  4.3777E-03  1.9096E-03  4.4624E-03  7.2941E-03  5.6552E-03  3.4694E-03  1.8464E-03  1.5104E-02  5.0366E-03
 52  0.0000E+00  6.4648E-04  1.8926E-03  5.2647E-03  2.1769E-03  1.6917E-03  4.0049E-03  4.8666E-04  7.1712E-04
 53  0.0000E+00  1.0441E-03  1.1415E-04  1.5252E-03  4.4759E-05  3.1999E-03  2.1786E-03  4.8847E-03  3.7825E-03
 54  7.3969E-02  2.3436E-03  1.3490E-02  1.4654E-02  0.0000E+00  1.7792E-02  0.0000E+00  1.1605E-03  0.0000E+00
 55  1.7941E-03  2.4369E-03  9.1686E-03  1.9815E-02  1.1556E-02  1.7411E-02  2.8058E-02  0.0000E+00  0.0000E+00
 56  6.7326E-02  5.3567E-03  3.0337E-02  4.4235E-02  9.1054E-03  2.3796E-02  3.7303E-03  8.4820E-03  3.8432E-02
 57  0.0000E+00  7.5730E-03  2.0898E-02  0.0000E+00  1.4878E-02  6.4098E-03  3.4973E-02  2.0132E-02  8.3444E-03
 58  0.0000E+00  2.0955E-02  5.8514E-03  1.2141E-01  3.1829E-02  1.5719E-02  1.7377E-02  4.4524E-02  5.1044E-02
 59  0.0000E+00  3.6674E-02  4.6249E-02  0.0000E+00  8.2846E-02  1.0926E-02  0.0000E+00  1.6392E-01  0.0000E+00
 60  0.0000E+00  5.6871E-02  2.6951E-01  0.0000E+00  0.0000E+00  1.3049E-01  4.8748E-02  0.0000E+00  0.0000E+00
 61  0.0000E+00  8.4170E-02  7.8233E-01  9.5856E-01  2.7080E-01  0.0000E+00  0.0000E+00  1.5124E-01  1.7115E-01
 62  0.0000E+00  1.5285E-01  1.0002E+00  0.0000E+00  5.3672E-01  0.0000E+00  2.6305E-01  0.0000E+00  8.5598E-01
 63  0.0000E+00  6.6600E-01  2.4606E+00  0.0000E+00  0.0000E+00  1.1941E+00  8.0717E-02  0.0000E+00  1.8283E+00
 64  5.9646E+00  1.1481E+00  0.0000E+00  5.1491E+00  0.0000E+00  4.0297E+00  2.3187E+00  0.0000E+00  0.0000E+00
 65  0.0000E+00  2.4337E+01  2.9433E+01  2.7858E+01  2.3106E+01  7.0018E+00  3.3891E+01  3.6713E+01  2.1441E+01
 66  1.4875E+01  4.9331E+01  2.7345E+01  2.3516E+01  5.1921E+01  4.8312E+01  3.8438E+01  3.6417E+01  3.6344E+01

# AV, chi2 & Mass for <> & i_chain = 1 ...  7 solutions
AV      -1.0000     -0.9888     -1.0000     -1.0000     -1.0000     -1.0000     -1.0000     -1.0000     -1.0000
chi2 1.0565E-05  2.1097E-05  1.5255E-05  1.4396E-05  1.6286E-05  1.6796E-05  1.6179E-05  1.5463E-05  1.6474E-05
Mass 5.6293E-15  6.6563E-14  3.8876E-14  2.6858E-14  4.8980E-14  4.6856E-14  5.3059E-14  4.5184E-14  5.0552E-14
 164.15                                  [v0_min (km/s) before EX0s...]
 455.28                                  [vd_min (km/s) before EX0s...]


## Synthetic spectrum (Best Model) ##l_obs f_obs f_syn wei
 3478    [Nl_obs]
 3741.00   -0.10243   0.52742    0.000
 3742.00    0.12420   0.53057    0.000
 3743.00    0.04073   0.53233    0.000
 3744.00    0.05209   0.53292    0.000
 3745.00    0.11871   0.53240    0.030
 3746.00    0.33856   0.53086    0.029
 3747.00    0.63623   0.52896    0.029
 3748.00    0.37412   0.52606    0.029
 3749.00   -0.13414   0.52416    0.000
 3750.00   -0.15669   0.52230    0.000
 3751.00    0.00414   0.52218    0.028
 3752.00    0.17990   0.52453    0.027
 3753.00    0.36046   0.52976    0.027
 3754.00    0.37603   0.53731    0.027
 3755.00    0.34738   0.54588    0.027
 3756.00    0.49060   0.55576    0.027
 3757.00    0.67155   0.56544    0.027
 3758.00    0.68772   0.57469    0.027
 3759.00    0.67512   0.58246    0.027
 3760.00    0.56717   0.58904    0.027
 3761.00    0.44654   0.59420    0.027
 3762.00    0.19429   0.59722    0.027
 3763.00   -0.07033   0.59753    0.000
 3764.00   -0.09939   0.59559    0.000
 3765.00   -0.11485   0.59175    0.000
 3766.00    0.22801   0.58616    0.026
 3767.00    0.57803   0.58047    0.026
 3768.00    0.76523   0.57454    0.026
 3769.00    0.93731   0.56948    0.027
 3770.00    0.74216   0.56615    0.026
 3771.00    0.53779   0.56507    0.026
 3772.00    0.21277   0.56673    0.026
 3773.00   -0.05003   0.57187    0.000
 3774.00    0.23330   0.58109    0.026
 3775.00    0.48367   0.59289    0.026
 3776.00    0.52031   0.60675    0.026
 3777.00    0.54408   0.62283    0.026
 3778.00    0.50274   0.63980    0.026
 3779.00    0.48576   0.65731    0.026
 3780.00    0.56853   0.67410    0.026
 3781.00    0.56078   0.68971    0.026
 3782.00    0.24602   0.70330    0.025
 3783.00   -0.05112   0.71342    0.000
 3784.00   -0.29790   0.72051    0.000
 3785.00   -0.42540   0.72371    0.000
 3786.00   -0.26148   0.72356    0.000
 3787.00   -0.05129   0.71927    0.000
 3788.00    0.25641   0.71094    0.026
 3789.00    0.49800   0.70001    0.026
 3790.00    0.61849   0.68617    0.026
 3791.00    0.60653   0.67022    0.025
 3792.00    0.38256   0.65276    0.025
 3793.00    0.21850   0.63494    0.025
 3794.00    0.13861   0.61715    0.025
 3795.00    0.13355   0.60006    0.025
 3796.00    0.22096   0.58513    0.025
 3797.00    0.31224   0.57295    0.025
 3798.00    0.40774   0.56435    0.025
 3799.00    0.31512   0.55949    0.025
 3800.00    0.04172   0.55938    0.025
 3801.00   -0.15999   0.56417    0.000
 3802.00   -0.30096   0.57334    0.000
 3803.00   -0.28506   0.58627    0.000
 3804.00   -0.15212   0.60198    0.000
 3805.00   -0.05425   0.62026    0.000
 3806.00    0.02064   0.63921    0.026
 3807.00    0.09448   0.65890    0.026
 3808.00    0.16773   0.67856    0.025
 3809.00    0.20116   0.69767    0.025
 3810.00    0.21469   0.71565    0.025
 3811.00    0.21307   0.73131    0.025
 3812.00    0.20489   0.74467    0.026
 3813.00    0.22527   0.75474    0.026
 3814.00    0.25624   0.76220    0.026
 3815.00    0.30194   0.76673    0.025
 3816.00    0.35226   0.76970    0.025
 3817.00    0.31441   0.77115    0.025
 3818.00    0.25343   0.77016    0.025
 3819.00    0.40169   0.76700    0.025
 3820.00    0.59479   0.76119    0.025
 3821.00    0.54259   0.75336    0.025
 3822.00    0.44877   0.74339    0.024
 3823.00    0.36567   0.73246    0.024
 3824.00    0.28394   0.72011    0.024
 3825.00    0.38922   0.70548    0.024
 3826.00    0.51128   0.68866    0.024
 3827.00    0.55441   0.67013    0.025
 3828.00    0.59329   0.65075    0.025
 3829.00    0.57405   0.63044    0.025
 3830.00    0.55372   0.61032    0.025
 3831.00    0.53985   0.59079    0.025
 3832.00    0.52674   0.57210    0.025
 3833.00    0.53030   0.55481    0.025
 3834.00    0.53141   0.53981    0.025
 3835.00    0.50200   0.52837    0.025
 3836.00    0.48426   0.52106    0.025
 3837.00    0.56503   0.51825    0.025
 3838.00    0.65568   0.52026    0.025
 3839.00    0.80844   0.52710    0.025
 3840.00    0.90960   0.53761    0.025
 3841.00    0.75616   0.55211    0.026
 3842.00    0.61514   0.57011    0.026
 3843.00    0.52387   0.59072    0.026
 3844.00    0.42043   0.61344    0.026
 3845.00    0.27654   0.63673    0.026
 3846.00    0.27421   0.66071    0.027
 3847.00    0.66938   0.68386    0.000
 3848.00    0.93024   0.70576    0.000
 3849.00    0.86850   0.72657    0.000
 3850.00    0.79604   0.74529    0.000
 3851.00    0.70135   0.76203    0.000
 3852.00    0.55298   0.77704    0.000
 3853.00    0.30782   0.79032    0.000
 3854.00    0.23895   0.80177    0.000
 3855.00    0.44814   0.81116    0.000
 3856.00    0.59109   0.81934    0.000
 3857.00    0.64236   0.82652    0.000
 3858.00    0.70614   0.83211    0.000
 3859.00    0.78514   0.83770    0.000
 3860.00    0.77424   0.84209    0.000
 3861.00    0.66677   0.84560    0.000
 3862.00    0.59677   0.84880    0.000
 3863.00    0.56228   0.85151    0.000
 3864.00    0.61448   0.85380    0.000
 3865.00    0.73911   0.85435    0.000
 3866.00    0.81177   0.85428    0.000
 3867.00    0.84621   0.85286    0.000
 3868.00    0.71006   0.85067    0.000
 3869.00    0.46371   0.84787    0.000
 3870.00    0.27746   0.84355    0.000
 3871.00    0.12517   0.83782    0.000
 3872.00    0.07217   0.82976    0.000
 3873.00    0.06802   0.82023    0.000
 3874.00    0.17252   0.80996    0.000
 3875.00    0.32323   0.79891    0.000
 3876.00    0.54628   0.78658    0.000
 3877.00    0.79569   0.77218    0.000
 3878.00    0.70327   0.75589    0.000
 3879.00    0.50547   0.73852    0.000
 3880.00    0.20330   0.71958    0.000
 3881.00   -0.12566   0.70031    0.000
 3882.00   -0.09586   0.68091    0.000
 3883.00    0.00895   0.66007    0.023
 3884.00    0.26561   0.63929    0.024
 3885.00    0.54730   0.61939    0.025
 3886.00    0.50285   0.60154    0.025
 3887.00    0.41800   0.58579    0.025
 3888.00    0.42825   0.57182    0.025
 3889.00    0.44664   0.56167    0.025
 3890.00    0.39969   0.55521    0.025
 3891.00    0.34948   0.55313    0.025
 3892.00    0.66226   0.55603    0.025
 3893.00    0.97303   0.56246    0.026
 3894.00    0.77013   0.57275    0.025
 3895.00    0.57336   0.58547    0.025
 3896.00    0.50175   0.60163    0.025
 3897.00    0.43544   0.62016    0.024
 3898.00    0.43169   0.63962    0.024
 3899.00    0.46842   0.66071    0.023
 3900.00    0.83491   0.68056    0.023
 3901.00    1.10649   0.70067    0.023
 3902.00    0.79833   0.72028    0.022
 3903.00    0.53987   0.73931    0.021
 3904.00    0.52056   0.75791    0.021
 3905.00    0.48161   0.77369    0.021
 3906.00    0.36574   0.78925    0.021
 3907.00    0.26836   0.80338    0.021
 3908.00    0.23122   0.81599    0.021
 3909.00    0.26109   0.82837    0.022
 3910.00    0.47573   0.83890    0.022
 3911.00    0.66750   0.84812    0.022
 3912.00    0.80524   0.85562    0.023
 3913.00    0.89761   0.86109    0.024
 3914.00    0.89735   0.86607    0.024
 3915.00    0.85441   0.86929    0.024
 3916.00    0.73566   0.87093    0.024
 3917.00    0.63189   0.87193    0.024
 3918.00    0.55139   0.87061    0.024
 3919.00    0.52475   0.86853    0.024
 3920.00    0.57161   0.86436    0.024
 3921.00    0.63599   0.85893    0.024
 3922.00    0.72141   0.85307    0.024
 3923.00    0.90411   0.84476    0.025
 3924.00    1.18982   0.83606    0.025
 3925.00    1.20379   0.82523    0.025
 3926.00    0.96390   0.81322    0.024
 3927.00    0.82920   0.79973    0.024
 3928.00    0.78113   0.78423    0.025
 3929.00    0.89667   0.77000    0.025
 3930.00    1.13080   0.75581    0.026
 3931.00    1.07829   0.74283    0.026
 3932.00    0.84336   0.73073    0.026
 3933.00    0.82507   0.71931    0.026
 3934.00    0.92734   0.71141    0.025
 3935.00    0.95921   0.70613    0.026
 3936.00    0.95701   0.70489    0.027
 3937.00    0.69219   0.70782    0.027
 3938.00    0.31757   0.71276    0.026
 3939.00    0.35915   0.71994    0.026
 3940.00    0.54960   0.72868    0.026
 3941.00    0.54213   0.73979    0.025
 3942.00    0.47484   0.75257    0.025
 3943.00    0.66615   0.76473    0.026
 3944.00    0.92241   0.77610    0.026
 3945.00    1.11561   0.78652    0.026
 3946.00    1.29596   0.79552    0.027
 3947.00    0.95917   0.80309    0.027
 3948.00    0.53958   0.80899    0.026
 3949.00    0.41710   0.81276    0.026
 3950.00    0.33009   0.81425    0.026
 3951.00    0.49764   0.81328    0.026
 3952.00    0.68592   0.81106    0.026
 3953.00    1.03083   0.80730    0.026
 3954.00    1.38295   0.80073    0.027
 3955.00    1.03131   0.79159    0.026
 3956.00    0.68251   0.78018    0.025
 3957.00    0.95007   0.76685    0.026
 3958.00    1.19032   0.75089    0.026
 3959.00    0.91342   0.73275    0.026
 3960.00    0.67668   0.71296    0.000
 3961.00    0.89249   0.69117    0.000
 3962.00    1.08820   0.66726    0.000
 3963.00    1.12603   0.64118    0.000
 3964.00    1.12645   0.61547    0.000
 3965.00    0.90488   0.59115    0.000
 3966.00    0.70638   0.56766    0.000
 3967.00    0.61618   0.54580    0.000
 3968.00    0.52997   0.52579    0.000
 3969.00    0.45909   0.50989    0.000
 3970.00    0.44034   0.49906    0.000
 3971.00    0.58821   0.49297    0.000
 3972.00    0.71515   0.49234    0.000
 3973.00    0.78537   0.49677    0.000
 3974.00    0.84653   0.50608    0.000
 3975.00    0.88663   0.51984    0.000
 3976.00    0.96362   0.53730    0.000
 3977.00    1.11469   0.55849    0.000
 3978.00    1.25459   0.58240    0.000
 3979.00    1.37496   0.60752    0.000
 3980.00    1.44257   0.63348    0.000
 3981.00    1.42943   0.65890    0.026
 3982.00    1.36898   0.68398    0.026
 3983.00    1.24491   0.70815    0.026
 3984.00    0.95881   0.73013    0.026
 3985.00    0.48080   0.75147    0.026
 3986.00    0.42280   0.77080    0.026
 3987.00    0.80336   0.78843    0.026
 3988.00    1.04220   0.80456    0.026
 3989.00    1.15051   0.81813    0.026
 3990.00    1.11264   0.83122    0.026
 3991.00    0.95609   0.84245    0.025
 3992.00    1.01048   0.85213    0.025
 3993.00    1.21559   0.86109    0.026
 3994.00    1.22649   0.86865    0.026
 3995.00    1.11562   0.87565    0.027
 3996.00    0.83039   0.88123    0.026
 3997.00    0.44959   0.88566    0.026
 3998.00    0.43232   0.89007    0.026
 3999.00    0.58820   0.89391    0.026
 4000.00    0.61191   0.89692    0.026
 4001.00    0.58131   0.89989    0.026
 4002.00    0.75460   0.90227    0.025
 4003.00    0.99950   0.90458    0.025
 4004.00    0.92006   0.90667    0.025
 4005.00    0.74451   0.90840    0.025
 4006.00    0.70730   0.91090    0.025
 4007.00    0.70407   0.91266    0.025
 4008.00    0.80635   0.91495    0.025
 4009.00    0.92960   0.91757    0.026
 4010.00    0.81851   0.92034    0.025
 4011.00    0.67101   0.92307    0.025
 4012.00    0.85116   0.92469    0.025
 4013.00    1.06899   0.92771    0.025
 4014.00    1.08398   0.93072    0.025
 4015.00    1.08330   0.93369    0.025
 4016.00    1.31243   0.93611    0.025
 4017.00    1.55123   0.93741    0.025
 4018.00    1.51404   0.93949    0.025
 4019.00    1.47042   0.94040    0.025
 4020.00    1.25512   0.94108    0.025
 4021.00    1.05395   0.94168    0.024
 4022.00    1.10168   0.94112    0.025
 4023.00    1.13373   0.94064    0.025
 4024.00    0.99700   0.93897    0.025
 4025.00    0.88362   0.93686    0.025
 4026.00    0.94744   0.93536    0.025
 4027.00    0.96521   0.93306    0.024
 4028.00    0.71734   0.93108    0.024
 4029.00    0.51693   0.92924    0.024
 4030.00    0.53400   0.92675    0.024
 4031.00    0.54261   0.92537    0.024
 4032.00    0.51953   0.92397    0.024
 4033.00    0.51588   0.92335    0.027
 4034.00    0.57315   0.92395    0.064
 4035.00    0.71380   0.92347   -1.000
 4036.00    1.07625   0.92394   -1.000
 4037.00    1.31678   0.92473   -1.000
 4038.00    1.27892   0.92557   -1.000
 4039.00    1.18996   0.92727   -1.000
 4040.00    1.00000   0.92718   -1.000
 4041.00    0.85107   0.92701   -1.000
 4042.00    0.77283   0.92727   -1.000
 4043.00    0.77725   0.92677   -1.000
 4044.00    0.90637   0.92688   -1.000
 4045.00    1.00681   0.92546    0.116
 4046.00    1.06924   0.92327    0.035
 4047.00    1.13872   0.92195    0.025
 4048.00    1.21645   0.92035    0.025
 4049.00    1.35092   0.91976    0.025
 4050.00    1.54382   0.91854    0.026
 4051.00    1.51835   0.91628    0.026
 4052.00    1.29459   0.91442    0.025
 4053.00    1.03039   0.91269    0.025
 4054.00    0.73381   0.91159    0.025
 4055.00    0.71847   0.91019    0.025
 4056.00    0.90116   0.90806    0.026
 4057.00    0.88312   0.90551    0.026
 4058.00    0.74110   0.90295    0.026
 4059.00    0.94304   0.90056    0.026
 4060.00    1.33060   0.89816    0.026
 4061.00    1.20758   0.89584    0.025
 4062.00    0.84526   0.89326    0.024
 4063.00    0.63857   0.89028    0.024
 4064.00    0.49474   0.88736    0.024
 4065.00    0.69393   0.88496    0.025
 4066.00    1.01139   0.88259    0.025
 4067.00    0.99902   0.88033    0.025
 4068.00    0.89088   0.87750    0.024
 4069.00    0.71735   0.87431    0.024
 4070.00    0.52813   0.87212    0.024
 4071.00    0.67229   0.86931    0.025
 4072.00    0.88106   0.86613    0.025
 4073.00    1.23703   0.86279    0.025
 4074.00    1.61519   0.85894    0.025
 4075.00    1.46952   0.85643    0.025
 4076.00    1.26590   0.85350    0.025
 4077.00    0.82491   0.84944    0.024
 4078.00    0.36652   0.84580    0.024
 4079.00    0.41887   0.84209    0.024
 4080.00    0.49077   0.83935    0.024
 4081.00    0.70877   0.83686    0.024
 4082.00    0.92221   0.83280    0.024
 4083.00    0.93341   0.82870    0.024
 4084.00    0.94413   0.82434    0.024
 4085.00    0.94702   0.81942    0.024
 4086.00    0.94711   0.81431    0.024
 4087.00    0.91840   0.80720    0.023
 4088.00    0.88273   0.79893    0.023
 4089.00    0.79599   0.78951    0.023
 4090.00    0.72489   0.77810    0.023
 4091.00    0.74143   0.76563    0.023
 4092.00    0.76659   0.75095    0.000
 4093.00    0.83032   0.73500    0.000
 4094.00    0.88936   0.71821    0.000
 4095.00    0.93118   0.69987    0.000
 4096.00    0.93680   0.68108    0.000
 4097.00    0.83105   0.66184    0.000
 4098.00    0.74588   0.64335    0.000
 4099.00    0.71451   0.62668    0.000
 4100.00    0.72834   0.61158    0.000
 4101.00    0.84368   0.59839    0.000
 4102.00    0.92964   0.58792    0.000
 4103.00    0.95841   0.58119    0.000
 4104.00    0.95628   0.57837    0.000
 4105.00    0.90173   0.57949    0.000
 4106.00    0.89004   0.58354    0.000
 4107.00    0.94205   0.59057    0.000
 4108.00    1.17841   0.60122    0.000
 4109.00    1.65565   0.61419    0.000
 4110.00    1.66068   0.62919    0.000
 4111.00    1.12218   0.64540    0.000
 4112.00    0.93002   0.66183    0.000
 4113.00    1.08940   0.67888    0.024
 4114.00    1.15807   0.69553    0.024
 4115.00    1.14552   0.71134    0.024
 4116.00    1.09567   0.72652    0.024
 4117.00    1.01637   0.74040    0.024
 4118.00    0.96081   0.75272    0.024
 4119.00    0.92173   0.76374    0.025
 4120.00    0.90091   0.77341    0.036
 4121.00    0.89122   0.78210    0.140
 4122.00    0.89020   0.78964   -1.000
 4123.00    0.89379   0.79536   -1.000
 4124.00    0.84487   0.80025   -1.000
 4125.00    0.77173   0.80464   -1.000
 4126.00    0.86791   0.80854   -1.000
 4127.00    1.03133   0.81167   -1.000
 4128.00    1.09706   0.81378   -1.000
 4129.00    1.12974   0.81582   -1.000
 4130.00    1.05739   0.81828    0.059
 4131.00    0.95516   0.82085    0.026
 4132.00    0.97119   0.82287    0.024
 4133.00    1.01498   0.82499    0.024
 4134.00    1.06657   0.82715    0.024
 4135.00    1.11964   0.82998    0.024
 4136.00    0.86796   0.83322    0.023
 4137.00    0.57179   0.83548    0.023
 4138.00    0.70411   0.83802    0.023
 4139.00    0.88197   0.84010    0.023
 4140.00    0.91520   0.84211    0.023
 4141.00    0.93842   0.84443    0.024
 4142.00    1.06555   0.84568    0.024
 4143.00    1.19625   0.84636    0.024
 4144.00    1.24010   0.84672    0.024
 4145.00    1.27922   0.84714    0.024
 4146.00    1.16804   0.84748    0.024
 4147.00    1.06764   0.84765    0.024
 4148.00    1.13380   0.84716    0.024
 4149.00    1.19413   0.84639    0.024
 4150.00    1.19708   0.84676    0.023
 4151.00    1.16558   0.84662    0.023
 4152.00    0.88942   0.84670    0.023
 4153.00    0.66135   0.84682    0.022
 4154.00    0.69575   0.84623    0.022
 4155.00    0.70940   0.84717    0.022
 4156.00    0.63232   0.84768    0.022
 4157.00    0.58121   0.84823    0.022
 4158.00    0.62351   0.84915    0.022
 4159.00    0.64601   0.84921    0.022
 4160.00    0.60881   0.85051    0.022
 4161.00    0.57648   0.85123    0.022
 4162.00    0.55664   0.85171    0.022
 4163.00    0.61658   0.85219    0.022
 4164.00    0.85275   0.85147    0.022
 4165.00    0.99916   0.85147    0.022
 4166.00    0.97366   0.85069    0.022
 4167.00    0.95493   0.84906    0.022
 4168.00    0.94748   0.84723    0.022
 4169.00    0.90384   0.84440    0.022
 4170.00    0.80718   0.84193    0.022
 4171.00    0.79744   0.83942    0.022
 4172.00    0.89966   0.83601    0.022
 4173.00    1.05078   0.83264    0.022
 4174.00    1.25741   0.82968    0.022
 4175.00    1.25785   0.82734    0.022
 4176.00    1.05194   0.82549    0.022
 4177.00    0.92232   0.82359    0.022
 4178.00    0.86004   0.82173    0.022
 4179.00    0.88205   0.82094    0.022
 4180.00    0.96962   0.82165    0.022
 4181.00    0.91842   0.82220    0.022
 4182.00    0.77233   0.82254    0.022
 4183.00    0.94702   0.82307    0.022
 4184.00    1.31399   0.82390    0.023
 4185.00    1.36067   0.82660    0.023
 4186.00    1.23983   0.82851    0.022
 4187.00    1.01629   0.82885    0.022
 4188.00    0.74617   0.82984    0.022
 4189.00    0.78693   0.83097    0.022
 4190.00    0.94900   0.83277    0.022
 4191.00    0.75674   0.83364    0.022
 4192.00    0.44679   0.83270    0.022
 4193.00    0.43615   0.83235    0.022
 4194.00    0.50892   0.83258    0.022
 4195.00    0.77192   0.83217    0.022
 4196.00    1.07857   0.83075    0.023
 4197.00    1.01218   0.82924    0.023
 4198.00    0.87724   0.82791    0.023
 4199.00    0.98390   0.82704    0.023
 4200.00    1.12472   0.82636    0.023
 4201.00    0.92874   0.82477    0.023
 4202.00    0.69842   0.82410    0.022
 4203.00    0.61054   0.82420    0.022
 4204.00    0.53193   0.82422    0.022
 4205.00    0.53503   0.82537    0.022
 4206.00    0.54107   0.82593    0.022
 4207.00    0.82463   0.82610    0.022
 4208.00    1.09212   0.82777    0.023
 4209.00    0.88753   0.82927    0.023
 4210.00    0.69693   0.83045    0.023
 4211.00    0.70979   0.83153    0.023
 4212.00    0.72820   0.83147    0.023
 4213.00    0.79910   0.83225    0.023
 4214.00    0.86853   0.83312    0.022
 4215.00    0.92786   0.83216    0.022
 4216.00    0.94406   0.83146    0.022
 4217.00    0.73106   0.83085    0.022
 4218.00    0.57858   0.82963    0.022
 4219.00    0.68459   0.82800    0.022
 4220.00    0.74874   0.82546    0.022
 4221.00    0.66542   0.82311    0.022
 4222.00    0.62277   0.82136    0.021
 4223.00    0.70060   0.81917    0.022
 4224.00    0.79342   0.81576    0.022
 4225.00    0.92406   0.81282    0.022
 4226.00    0.97742   0.81083    0.022
 4227.00    0.86286   0.80856    0.021
 4228.00    0.76632   0.80737    0.021
 4229.00    0.70373   0.80597    0.021
 4230.00    0.66979   0.80435    0.021
 4231.00    0.68298   0.80442    0.020
 4232.00    0.71446   0.80382    0.020
 4233.00    0.77231   0.80426    0.020
 4234.00    0.84099   0.80624    0.020
 4235.00    0.92343   0.80646    0.020
 4236.00    0.95607   0.80748    0.020
 4237.00    0.93300   0.80891    0.020
 4238.00    0.87009   0.80942    0.020
 4239.00    0.76787   0.81145    0.020
 4240.00    0.68615   0.81301    0.019
 4241.00    0.62226   0.81386    0.019
 4242.00    0.67177   0.81474    0.020
 4243.00    0.80823   0.81456    0.020
 4244.00    0.98779   0.81503    0.021
 4245.00    1.19641   0.81574    0.021
 4246.00    1.22382   0.81546    0.021
 4247.00    1.14425   0.81413    0.021
 4248.00    1.00386   0.81330    0.021
 4249.00    0.83216   0.81341    0.021
 4250.00    0.80430   0.81211    0.021
 4251.00    0.84062   0.81036    0.021
 4252.00    0.82435   0.80863    0.021
 4253.00    0.78791   0.80793    0.021
 4254.00    0.77269   0.80829    0.020
 4255.00    0.76439   0.80656    0.020
 4256.00    0.78131   0.80530    0.020
 4257.00    0.80510   0.80568    0.020
 4258.00    0.77435   0.80556    0.020
 4259.00    0.73137   0.80546    0.020
 4260.00    0.78698   0.80476    0.021
 4261.00    0.86022   0.80488    0.021
 4262.00    1.07357   0.80608    0.021
 4263.00    1.30609   0.80546    0.021
 4264.00    1.23012   0.80435    0.021
 4265.00    1.12402   0.80377    0.021
 4266.00    1.00645   0.80282    0.020
 4267.00    0.88819   0.80214    0.020
 4268.00    0.97295   0.80045    0.021
 4269.00    1.06174   0.79803    0.021
 4270.00    0.86967   0.79676    0.020
 4271.00    0.68325   0.79423    0.020
 4272.00    0.64613   0.79126    0.020
 4273.00    0.61199   0.79003    0.020
 4274.00    0.61873   0.78809    0.020
 4275.00    0.63946   0.78670    0.020
 4276.00    0.78729   0.78510    0.021
 4277.00    0.92456   0.78278    0.021
 4278.00    0.99143   0.78338    0.021
 4279.00    1.02066   0.78279    0.021
 4280.00    0.85496   0.78093    0.021
 4281.00    0.74016   0.78082    0.021
 4282.00    0.83782   0.77939   -2.000
 4283.00    0.91389   0.77855   -2.000
 4284.00    0.91547   0.77776   -2.000
 4285.00    0.90253   0.77481   -2.000
 4286.00    0.84740   0.77242   -2.000
 4287.00    0.85582   0.76973   -2.000
 4288.00    1.02189   0.76692   -2.000
 4289.00    1.24237   0.76451   -2.000
 4290.00    1.57918   0.76055   -2.000
 4291.00    1.59636   0.75609   -2.000
 4292.00    1.02006   0.75299   -2.000
 4293.00    0.72713   0.74986   -2.000
 4294.00    0.89377   0.74477   -2.000
 4295.00    0.91370   0.74009   -2.000
 4296.00    0.72492   0.73603   -2.000
 4297.00    0.59981   0.73235   -2.000
 4298.00    0.55442   0.72916    0.021
 4299.00    0.54070   0.72290    0.021
 4300.00    0.56193   0.71806    0.021
 4301.00    0.59272   0.71573    0.021
 4302.00    0.63281   0.71149    0.021
 4303.00    0.63844   0.70849    0.021
 4304.00    0.61449   0.70487    0.021
 4305.00    0.64401   0.70129    0.021
 4306.00    0.71392   0.70136    0.021
 4307.00    0.76069   0.69998    0.021
 4308.00    0.79208   0.69889    0.021
 4309.00    0.83135   0.70017    0.021
 4310.00    0.87521   0.70066    0.021
 4311.00    0.95290   0.70227    0.021
 4312.00    1.04775   0.70393    0.021
 4313.00    0.95346   0.70553    0.021
 4314.00    0.77619   0.70828    0.020
 4315.00    0.81212   0.71047    0.020
 4316.00    0.92837   0.71298    0.020
 4317.00    0.90298   0.71414    0.021
 4318.00    0.83232   0.71418    0.021
 4319.00    0.82196   0.71456    0.021
 4320.00    0.82771   0.71342    0.021
 4321.00    0.85291   0.71231    0.021
 4322.00    0.88235   0.70949    0.021
 4323.00    0.90564   0.70447    0.021
 4324.00    0.92786   0.70058    0.021
 4325.00    0.89570   0.69468    0.021
 4326.00    0.85635   0.68707    0.021
 4327.00    0.72007   0.68026    0.021
 4328.00    0.57473   0.67195    0.021
 4329.00    0.90066   0.66267    0.021
 4330.00    1.25353   0.65194    0.000
 4331.00    1.21871   0.64039    0.000
 4332.00    1.17264   0.63036    0.000
 4333.00    0.87097   0.61945    0.000
 4334.00    0.58544   0.60647    0.000
 4335.00    0.68735   0.59347    0.000
 4336.00    0.77766   0.58120    0.000
 4337.00    0.71689   0.56885    0.000
 4338.00    0.66791   0.55761    0.000
 4339.00    0.72191   0.54825    0.000
 4340.00    0.77985   0.53978    0.000
 4341.00    0.86328   0.53360    0.000
 4342.00    0.92007   0.52936    0.000
 4343.00    0.84240   0.52699    0.000
 4344.00    0.81170   0.52786    0.000
 4345.00    0.97267   0.53027    0.000
 4346.00    1.04019   0.53573    0.000
 4347.00    0.79156   0.54486    0.000
 4348.00    0.73095   0.55343    0.000
 4349.00    1.20687   0.56310    0.000
 4350.00    1.49735   0.57600    0.000
 4351.00    1.33576   0.58829    0.021
 4352.00    1.15503   0.60014    0.021
 4353.00    0.93402   0.61328    0.020
 4354.00    0.79490   0.62659    0.020
 4355.00    0.80549   0.63932    0.020
 4356.00    0.82216   0.64992    0.025
 4357.00    0.84856   0.66036    0.069
 4358.00    0.87783   0.67255   -1.000
 4359.00    0.91114   0.68278   -1.000
 4360.00    0.98677   0.69094   -1.000
 4361.00    1.11461   0.69976   -1.000
 4362.00    1.12247   0.70820   -1.000
 4363.00    0.99985   0.71464   -1.000
 4364.00    0.94275   0.71936    0.073
 4365.00    0.94853   0.72432    0.025
 4366.00    0.93490   0.72957    0.019
 4367.00    0.90485   0.73284    0.019
 4368.00    0.92298   0.73468    0.019
 4369.00    0.97700   0.73702    0.020
 4370.00    0.87493   0.73908    0.020
 4371.00    0.67074   0.73914    0.020
 4372.00    0.59857   0.73822    0.020
 4373.00    0.60202   0.73829    0.019
 4374.00    0.62308   0.73858    0.019
 4375.00    0.65293   0.73766    0.019
 4376.00    0.80845   0.73606    0.019
 4377.00    1.01820   0.73502    0.019
 4378.00    1.05677   0.73456    0.019
 4379.00    1.03201   0.73234    0.020
 4380.00    0.98808   0.72900    0.020
 4381.00    0.93814   0.72759    0.020
 4382.00    0.76373   0.72693    0.020
 4383.00    0.55676   0.72550    0.019
 4384.00    0.57870   0.72343    0.019
 4385.00    0.64955   0.72182    0.019
 4386.00    0.73332   0.72210    0.019
 4387.00    0.81927   0.72142    0.019
 4388.00    0.91875   0.71960    0.019
 4389.00    1.01996   0.71992    0.019
 4390.00    0.97643   0.72150    0.019
 4391.00    0.91999   0.72298    0.019
 4392.00    1.00272   0.72348    0.019
 4393.00    1.09287   0.72475    0.019
 4394.00    0.98072   0.72760    0.019
 4395.00    0.86539   0.72882    0.019
 4396.00    0.81373   0.72966    0.019
 4397.00    0.77150   0.73104    0.019
 4398.00    0.93673   0.73247    0.019
 4399.00    1.08366   0.73438    0.019
 4400.00    1.00458   0.73440    0.019
 4401.00    0.92107   0.73427    0.019
 4402.00    0.80035   0.73580    0.019
 4403.00    0.72353   0.73636    0.019
 4404.00    0.92182   0.73607    0.019
 4405.00    1.08450   0.73552    0.019
 4406.00    1.07203   0.73571    0.019
 4407.00    1.02845   0.73730    0.019
 4408.00    0.86071   0.73731    0.019
 4409.00    0.73540   0.73647    0.019
 4410.00    0.75084   0.73767    0.019
 4411.00    0.77428   0.73859    0.019
 4412.00    0.82015   0.73819    0.019
 4413.00    0.86224   0.73853    0.019
 4414.00    0.89527   0.73911    0.019
 4415.00    0.94409   0.73999    0.019
 4416.00    1.02557   0.74073    0.019
 4417.00    1.04072   0.74077    0.019
 4418.00    0.93647   0.74186    0.019
 4419.00    0.87603   0.74179    0.019
 4420.00    0.88454   0.74109    0.019
 4421.00    0.91755   0.74255    0.018
 4422.00    0.98441   0.74268    0.019
 4423.00    1.04314   0.74222    0.019
 4424.00    1.09201   0.74288    0.019
 4425.00    1.03645   0.74318    0.019
 4426.00    0.86894   0.74359    0.019
 4427.00    0.81110   0.74230    0.019
 4428.00    0.85700   0.74174    0.018
 4429.00    0.86743   0.74281    0.018
 4430.00    0.84828   0.74148    0.019
 4431.00    0.88123   0.74048    0.019
 4432.00    0.95242   0.73995    0.019
 4433.00    1.01798   0.73930    0.019
 4434.00    1.07992   0.73982    0.019
 4435.00    0.98973   0.73826    0.019
 4436.00    0.81374   0.73758    0.019
 4437.00    0.78771   0.73862    0.019
 4438.00    0.83529   0.73734    0.019
 4439.00    0.91132   0.73669    0.019
 4440.00    0.99943   0.73650    0.019
 4441.00    1.05247   0.73591    0.019
 4442.00    1.09277   0.73708    0.019
 4443.00    1.02030   0.73675    0.019
 4444.00    0.91316   0.73551    0.019
 4445.00    0.90876   0.73647    0.019
 4446.00    0.93068   0.73630    0.019
 4447.00    1.00321   0.73465    0.019
 4448.00    1.08631   0.73410    0.019
 4449.00    1.09447   0.73344    0.019
 4450.00    1.09033   0.73266    0.019
 4451.00    0.99730   0.73136    0.019
 4452.00    0.89331   0.72862    0.019
 4453.00    0.88908   0.72765    0.019
 4454.00    0.89334   0.72705    0.018
 4455.00    0.91870   0.72350    0.018
 4456.00    0.94509   0.72120    0.018
 4457.00    0.99050   0.72070    0.018
 4458.00    1.03248   0.71802    0.019
 4459.00    0.84015   0.71551    0.018
 4460.00    0.65793   0.71479    0.018
 4461.00    0.68083   0.71367    0.000
 4462.00    0.71052   0.71268    0.000
 4463.00    0.82015   0.71184    0.000
 4464.00    0.91521   0.71131    0.000
 4465.00    0.89222   0.71204    0.000
 4466.00    0.87712   0.71183    0.000
 4467.00    0.90999   0.71171    0.000
 4468.00    0.92802   0.71352    0.000
 4469.00    0.87487   0.71429    0.000
 4470.00    0.82104   0.71473    0.000
 4471.00    0.76456   0.71665    0.000
 4472.00    0.76918   0.71776    0.000
 4473.00    0.97246   0.71841    0.000
 4474.00    1.10691   0.71976    0.000
 4475.00    1.05199   0.72067    0.000
 4476.00    0.97951   0.72154    0.000
 4477.00    0.86566   0.72173    0.000
 4478.00    0.77504   0.72111    0.000
 4479.00    0.73173   0.72197    0.000
 4480.00    0.75922   0.72259    0.000
 4481.00    0.91224   0.72178    0.000
 4482.00    1.00276   0.72202    0.018
 4483.00    0.99634   0.72201    0.018
 4484.00    1.01823   0.72143    0.018
 4485.00    1.07867   0.72115    0.018
 4486.00    1.05082   0.72029    0.018
 4487.00    0.91712   0.72043    0.018
 4488.00    0.84728   0.72088    0.018
 4489.00    0.84495   0.72060    0.018
 4490.00    0.90739   0.72118    0.018
 4491.00    1.03022   0.72168    0.019
 4492.00    1.11409   0.72227    0.019
 4493.00    1.16593   0.72307    0.019
 4494.00    1.02847   0.72348    0.018
 4495.00    0.75405   0.72480    0.018
 4496.00    0.75457   0.72599    0.018
 4497.00    0.92973   0.72694    0.018
 4498.00    0.96683   0.72812    0.019
 4499.00    0.92724   0.72946    0.018
 4500.00    0.87131   0.73188    0.018
 4501.00    0.80749   0.73358    0.018
 4502.00    0.78147   0.73445    0.018
 4503.00    0.77121   0.73638    0.018
 4504.00    0.90501   0.73784    0.018
 4505.00    1.09021   0.73863    0.018
 4506.00    1.06716   0.73960    0.018
 4507.00    0.98132   0.74068    0.018
 4508.00    0.85742   0.74135    0.018
 4509.00    0.72399   0.74066    0.018
 4510.00    0.74272   0.74046    0.018
 4511.00    0.79239   0.74030    0.018
 4512.00    0.84609   0.73881    0.018
 4513.00    0.90043   0.73767    0.018
 4514.00    0.92530   0.73610    0.018
 4515.00    0.94666   0.73415    0.018
 4516.00    0.97823   0.73206    0.018
 4517.00    1.01063   0.72922    0.018
 4518.00    0.89042   0.72779    0.018
 4519.00    0.76327   0.72494    0.018
 4520.00    0.81280   0.72090    0.018
 4521.00    0.86160   0.71953    0.018
 4522.00    0.76195   0.71619    0.018
 4523.00    0.66905   0.71223    0.018
 4524.00    0.70279   0.71051    0.018
 4525.00    0.72591   0.70685    0.018
 4526.00    0.62999   0.70412    0.018
 4527.00    0.55094   0.70198    0.018
 4528.00    0.60385   0.69841    0.018
 4529.00    0.65871   0.69768    0.018
 4530.00    0.72511   0.69559    0.018
 4531.00    0.78293   0.69259    0.018
 4532.00    0.80056   0.69294    0.018
 4533.00    0.81125   0.69201    0.018
 4534.00    0.79542   0.69151    0.018
 4535.00    0.80693   0.69229    0.018
 4536.00    0.90565   0.69185    0.018
 4537.00    0.95926   0.69298    0.018
 4538.00    0.89100   0.69367    0.018
 4539.00    0.81266   0.69392    0.018
 4540.00    0.71096   0.69597    0.018
 4541.00    0.63723   0.69611    0.018
 4542.00    0.61955   0.69608    0.018
 4543.00    0.65466   0.69672    0.018
 4544.00    0.78190   0.69660    0.017
 4545.00    0.88409   0.69740    0.017
 4546.00    0.94800   0.69594    0.018
 4547.00    0.90519   0.69458    0.018
 4548.00    0.71914   0.69546    0.018
 4549.00    0.67305   0.69318    0.018
 4550.00    0.79240   0.69182    0.000
 4551.00    0.83207   0.69252    0.000
 4552.00    0.78867   0.69034    0.000
 4553.00    0.77149   0.68979    0.000
 4554.00    0.77842   0.69029    0.000
 4555.00    0.77957   0.68927    0.000
 4556.00    0.77605   0.69040    0.000
 4557.00    0.81977   0.69031    0.000
 4558.00    0.89717   0.68994    0.000
 4559.00    0.89891   0.69269    0.000
 4560.00    0.85329   0.69299    0.000
 4561.00    0.75067   0.69311    0.000
 4562.00    0.61686   0.69546    0.000
 4563.00    0.65887   0.69572    0.000
 4564.00    0.78446   0.69692    0.000
 4565.00    0.84470   0.69867    0.000
 4566.00    0.87814   0.69851    0.000
 4567.00    0.78357   0.70006    0.000
 4568.00    0.64415   0.70028    0.000
 4569.00    0.72681   0.69946    0.000
 4570.00    0.87510   0.70123    0.000
 4571.00    0.81462   0.70062    0.000
 4572.00    0.70300   0.69939    0.000
 4573.00    0.59823   0.69995    0.000
 4574.00    0.49481   0.69859    0.000
 4575.00    0.66510   0.69801    0.000
 4576.00    0.87775   0.69743    0.000
 4577.00    0.84259   0.69486    0.000
 4578.00    0.77906   0.69441    0.000
 4579.00    0.92346   0.69331    0.000
 4580.00    1.08383   0.69007    0.000
 4581.00    0.89150   0.68953    0.000
 4582.00    0.68450   0.68873    0.000
 4583.00    0.71823   0.68595    0.000
 4584.00    0.75410   0.68514    0.000
 4585.00    0.79232   0.68433    0.000
 4586.00    0.83363   0.68260    0.000
 4587.00    0.92877   0.68234    0.000
 4588.00    1.01199   0.68141    0.000
 4589.00    0.96776   0.68026    0.000
 4590.00    0.91818   0.68095    0.000
 4591.00    0.82816   0.68045    0.000
 4592.00    0.74159   0.67967    0.000
 4593.00    0.67484   0.68080    0.000
 4594.00    0.63175   0.68061    0.000
 4595.00    0.69681   0.68033    0.000
 4596.00    0.75482   0.68159    0.000
 4597.00    0.78648   0.68139    0.000
 4598.00    0.83645   0.68163    0.000
 4599.00    0.94369   0.68281    0.000
 4600.00    0.98343   0.68265    0.000
 4601.00    0.84399   0.68346    0.000
 4602.00    0.72251   0.68460    0.000
 4603.00    0.64192   0.68475    0.000
 4604.00    0.62224   0.68587    0.000
 4605.00    0.72277   0.68685    0.000
 4606.00    0.77455   0.68757    0.000
 4607.00    0.74253   0.68860    0.000
 4608.00    0.76382   0.68918    0.000
 4609.00    0.86539   0.69015    0.000
 4610.00    0.89248   0.69063    0.000
 4611.00    0.82102   0.69112    0.000
 4612.00    0.74749   0.69212    0.000
 4613.00    0.67157   0.69151    0.000
 4614.00    0.69712   0.69193    0.000
 4615.00    0.82695   0.69276    0.000
 4616.00    0.83433   0.69130    0.000
 4617.00    0.73071   0.69162    0.000
 4618.00    0.69642   0.69206    0.000
 4619.00    0.71752   0.69034    0.000
 4620.00    0.73324   0.69047    0.000
 4621.00    0.74517   0.69037    0.000
 4622.00    0.74698   0.68886    0.000
 4623.00    0.74256   0.68873    0.000
 4624.00    0.69238   0.68806    0.000
 4625.00    0.61757   0.68709    0.000
 4626.00    0.62734   0.68680    0.000
 4627.00    0.67668   0.68546    0.000
 4628.00    0.68085   0.68458    0.000
 4629.00    0.66680   0.68428    0.000
 4630.00    0.72858   0.68275    0.000
 4631.00    0.81645   0.68131    0.000
 4632.00    0.71874   0.68077    0.000
 4633.00    0.56727   0.67962    0.000
 4634.00    0.62292   0.67763    0.000
 4635.00    0.72819   0.67665    0.000
 4636.00    0.63595   0.67591    0.000
 4637.00    0.50556   0.67357    0.000
 4638.00    0.61895   0.67236    0.000
 4639.00    0.76893   0.67191    0.000
 4640.00    0.71716   0.66956    0.000
 4641.00    0.64318   0.66825    0.000
 4642.00    0.79102   0.66770    0.000
 4643.00    0.95499   0.66579    0.000
 4644.00    0.88702   0.66494    0.000
 4645.00    0.81027   0.66392    0.000
 4646.00    0.75037   0.66248    0.000
 4647.00    0.69461   0.66260    0.000
 4648.00    0.78894   0.66144    0.000
 4649.00    0.87037   0.66045    0.000
 4650.00    0.74089   0.66119    0.000
 4651.00    0.62288   0.66012    0.000
 4652.00    0.62231   0.65986    0.000
 4653.00    0.62628   0.66100    0.000
 4654.00    0.66340   0.66007    0.000
 4655.00    0.70184   0.66023    0.000
 4656.00    0.74764   0.66119    0.000
 4657.00    0.77899   0.66022    0.000
 4658.00    0.74594   0.66034    0.000
 4659.00    0.70147   0.66076    0.000
 4660.00    0.61519   0.65952    0.000
 4661.00    0.59013   0.65913    0.000
 4662.00    0.75291   0.65882    0.000
 4663.00    0.84801   0.65727    0.000
 4664.00    0.76660   0.65627    0.000
 4665.00    0.72435   0.65543    0.000
 4666.00    0.76986   0.65379    0.000
 4667.00    0.77600   0.65262    0.000
 4668.00    0.70568   0.65180    0.000
 4669.00    0.63428   0.65044    0.000
 4670.00    0.56103   0.64982    0.000
 4671.00    0.59112   0.64952    0.000
 4672.00    0.77453   0.64844    0.000
 4673.00    0.83710   0.64848    0.000
 4674.00    0.74205   0.64891    0.000
 4675.00    0.71487   0.64821    0.000
 4676.00    0.76567   0.64877    0.000
 4677.00    0.80091   0.64974    0.000
 4678.00    0.82038   0.64929    0.000
 4679.00    0.78117   0.64980    0.000
 4680.00    0.68952   0.65091    0.000
 4681.00    0.66659   0.65069    0.000
 4682.00    0.69777   0.65087    0.000
 4683.00    0.69996   0.65162    0.000
 4684.00    0.68207   0.65143    0.000
 4685.00    0.74724   0.65126    0.000
 4686.00    0.86287   0.65156    0.000
 4687.00    0.86971   0.65133    0.000
 4688.00    0.81887   0.65096    0.000
 4689.00    0.72663   0.65087    0.000
 4690.00    0.61535   0.65039    0.000
 4691.00    0.50379   0.64991    0.000
 4692.00    0.39212   0.64942    0.000
 4693.00    0.56776   0.64846    0.000
 4694.00    0.84041   0.64782    0.000
 4695.00    0.88656   0.64715    0.000
 4696.00    0.86843   0.64574    0.000
 4697.00    0.81252   0.64464    0.000
 4698.00    0.74776   0.64383    0.000
 4699.00    0.64141   0.64239    0.000
 4700.00    0.52724   0.64101    0.000
 4701.00    0.65502   0.64002    0.000
 4702.00    0.81798   0.63876    0.000
 4703.00    0.80099   0.63742    0.000
 4704.00    0.76498   0.63664    0.000
 4705.00    0.67739   0.63596    0.000
 4706.00    0.58627   0.63504    0.000
 4707.00    0.69676   0.63470    0.000
 4708.00    0.81412   0.63458    0.000
 4709.00    0.72725   0.63428    0.000
 4710.00    0.64410   0.63473    0.000
 4711.00    0.69213   0.63527    0.000
 4712.00    0.73410   0.63552    0.000
 4713.00    0.68325   0.63661    0.000
 4714.00    0.63618   0.63758    0.000
 4715.00    0.62619   0.63828    0.000
 4716.00    0.63148   0.63969    0.000
 4717.00    0.74482   0.64069    0.000
 4718.00    0.82618   0.64138    0.000
 4719.00    0.73358   0.64270    0.000
 4720.00    0.64599   0.64352    0.000
 4721.00    0.58016   0.64370    0.000
 4722.00    0.55776   0.64417    0.000
 4723.00    0.69113   0.64456    0.000
 4724.00    0.77893   0.64420    0.000
 4725.00    0.72958   0.64370    0.000
 4726.00    0.70271   0.64364    0.000
 4727.00    0.73343   0.64269    0.000
 4728.00    0.77421   0.64137    0.000
 4729.00    0.83715   0.64117    0.000
 4730.00    0.85182   0.63989    0.000
 4731.00    0.77418   0.63830    0.000
 4732.00    0.68708   0.63835    0.000
 4733.00    0.58419   0.63716    0.000
 4734.00    0.52041   0.63591    0.000
 4735.00    0.51384   0.63640    0.000
 4736.00    0.52899   0.63546    0.000
 4737.00    0.57206   0.63497    0.000
 4738.00    0.59642   0.63592    0.000
 4739.00    0.59959   0.63520    0.000
 4740.00    0.57577   0.63542    0.000
 4741.00    0.52499   0.63659    0.000
 4742.00    0.56153   0.63593    0.000
 4743.00    0.67501   0.63649    0.000
 4744.00    0.73326   0.63754    0.000
 4745.00    0.74865   0.63681    0.000
 4746.00    0.73925   0.63727    0.000
 4747.00    0.71292   0.63784    0.000
 4748.00    0.72601   0.63697    0.000
 4749.00    0.76266   0.63701    0.000
 4750.00    0.75119   0.63687    0.000
 4751.00    0.71461   0.63583    0.000
 4752.00    0.63305   0.63534    0.000
 4753.00    0.53113   0.63443    0.000
 4754.00    0.57995   0.63323    0.000
 4755.00    0.68744   0.63229    0.000
 4756.00    0.81936   0.63073    0.000
 4757.00    0.95936   0.62942    0.000
 4758.00    0.85841   0.62824    0.000
 4759.00    0.69047   0.62633    0.000
 4760.00    0.63760   0.62506    0.000
 4761.00    0.61104   0.62393    0.015
 4762.00    0.62860   0.62203    0.015
 4763.00    0.65424   0.62097    0.015
 4764.00    0.62491   0.62012    0.015
 4765.00    0.58784   0.61869    0.016
 4766.00    0.61605   0.61811    0.015
 4767.00    0.65089   0.61764    0.015
 4768.00    0.65480   0.61690    0.015
 4769.00    0.65672   0.61700    0.015
 4770.00    0.67520   0.61692    0.015
 4771.00    0.69404   0.61676    0.016
 4772.00    0.63715   0.61749    0.016
 4773.00    0.58417   0.61767    0.016
 4774.00    0.64467   0.61770    0.016
 4775.00    0.69239   0.61872    0.016
 4776.00    0.55546   0.61897    0.015
 4777.00    0.43440   0.61873    0.015
 4778.00    0.46274   0.61962    0.015
 4779.00    0.50590   0.61977    0.015
 4780.00    0.65049   0.61898    0.015
 4781.00    0.75672   0.61952    0.015
 4782.00    0.65981   0.61955    0.015
 4783.00    0.57913   0.61825    0.015
 4784.00    0.56762   0.61848    0.015
 4785.00    0.54978   0.61851    0.015
 4786.00    0.50967   0.61701    0.015
 4787.00    0.48515   0.61715    0.015
 4788.00    0.50668   0.61729    0.015
 4789.00    0.51787   0.61594    0.015
 4790.00    0.50302   0.61621    0.015
 4791.00    0.51992   0.61649    0.015
 4792.00    0.60568   0.61547    0.015
 4793.00    0.66823   0.61585    0.015
 4794.00    0.68713   0.61617    0.015
 4795.00    0.69435   0.61540    0.015
 4796.00    0.68238   0.61564    0.015
 4797.00    0.65735   0.61584    0.015
 4798.00    0.61351   0.61512    0.016
 4799.00    0.56922   0.61498    0.016
 4800.00    0.52437   0.61497    0.016
 4801.00    0.52138   0.61416    0.016
 4802.00    0.56515   0.61357    0.015
 4803.00    0.58666   0.61339    0.016
 4804.00    0.58624   0.61251    0.016
 4805.00    0.55809   0.61164    0.016
 4806.00    0.50585   0.61142    0.016
 4807.00    0.53816   0.61063    0.016
 4808.00    0.63519   0.60970    0.015
 4809.00    0.68695   0.60957    0.015
 4810.00    0.70826   0.60901    0.015
 4811.00    0.68126   0.60817    0.015
 4812.00    0.62580   0.60810    0.015
 4813.00    0.51746   0.60782    0.015
 4814.00    0.38197   0.60704    0.015
 4815.00    0.41936   0.60689    0.016
 4816.00    0.53372   0.60675    0.016
 4817.00    0.56056   0.60579    0.016
 4818.00    0.55392   0.60540    0.016
 4819.00    0.64248   0.60519    0.016
 4820.00    0.76199   0.60382    0.016
 4821.00    0.64212   0.60308    0.016
 4822.00    0.45707   0.60264    0.015
 4823.00    0.49478   0.60078    0.016
 4824.00    0.58226   0.59972    0.016
 4825.00    0.54167   0.59897    0.016
 4826.00    0.47826   0.59676    0.016
 4827.00    0.50382   0.59550    0.016
 4828.00    0.54151   0.59445    0.016
 4829.00    0.51115   0.59207    0.016
 4830.00    0.47418   0.59069    0.015
 4831.00    0.53346   0.58934    0.015
 4832.00    0.59858   0.58694    0.015
 4833.00    0.51155   0.58536    0.015
 4834.00    0.42148   0.58363    0.015
 4835.00    0.51143   0.58120    0.015
 4836.00    0.59840   0.57921    0.015
 4837.00    0.60759   0.57693    0.015
 4838.00    0.60980   0.57433    0.015
 4839.00    0.51669   0.57168    0.015
 4840.00    0.43808   0.56861    0.015
 4841.00    0.49045   0.56559    0.015
 4842.00    0.53780   0.56199    0.015
 4843.00    0.55181   0.55786    0.015
 4844.00    0.56004   0.55410    0.015
 4845.00    0.53842   0.54929    0.015
 4846.00    0.53798   0.54378    0.015
 4847.00    0.62575   0.53896    0.015
 4848.00    0.67986   0.53270    0.000
 4849.00    0.61806   0.52555    0.000
 4850.00    0.59700   0.51946    0.000
 4851.00    0.69408   0.51181    0.000
 4852.00    0.71954   0.50306    0.000
 4853.00    0.56778   0.49592    0.000
 4854.00    0.49490   0.48744    0.000
 4855.00    0.59034   0.47778    0.000
 4856.00    0.58002   0.47043    0.000
 4857.00    0.37373   0.46239    0.000
 4858.00    0.28786   0.45322    0.000
 4859.00    0.39692   0.44710    0.000
 4860.00    0.46079   0.44120    0.000
 4861.00    0.46051   0.43433    0.000
 4862.00    0.46554   0.43094    0.000
 4863.00    0.47721   0.42861    0.000
 4864.00    0.46057   0.42554    0.000
 4865.00    0.41278   0.42572    0.000
 4866.00    0.47116   0.42746    0.000
 4867.00    0.63267   0.42864    0.000
 4868.00    0.63191   0.43220    0.000
 4869.00    0.49217   0.43725    0.000
 4870.00    0.43149   0.44194    0.000
 4871.00    0.43046   0.44778    0.000
 4872.00    0.45451   0.45457    0.000
 4873.00    0.49518   0.46129    0.000
 4874.00    0.49974   0.46802    0.000
 4875.00    0.48333   0.47491    0.015
 4876.00    0.48889   0.48206    0.015
 4877.00    0.50557   0.48855    0.014
 4878.00    0.52946   0.49439    0.014
 4879.00    0.55650   0.50076    0.014
 4880.00    0.54393   0.50640    0.015
 4881.00    0.51646   0.51075    0.015
 4882.00    0.50943   0.51571    0.014
 4883.00    0.50892   0.52039    0.014
 4884.00    0.49522   0.52341    0.014
 4885.00    0.47801   0.52691    0.014
 4886.00    0.53291   0.53086    0.014
 4887.00    0.60355   0.53309    0.015
 4888.00    0.59018   0.53547    0.015
 4889.00    0.56224   0.53912    0.015
 4890.00    0.55610   0.54111    0.015
 4891.00    0.55284   0.54285    0.015
 4892.00    0.61800   0.54649    0.015
 4893.00    0.68952   0.54857    0.015
 4894.00    0.58170   0.54998    0.015
 4895.00    0.46372   0.55359    0.015
 4896.00    0.45437   0.55573    0.015
 4897.00    0.44910   0.55683    0.015
 4898.00    0.61715   0.56007    0.015
 4899.00    0.77852   0.56200    0.015
 4900.00    0.78115   0.56264    0.015
 4901.00    0.78047   0.56509    0.015
 4902.00    0.73705   0.56650    0.015
 4903.00    0.69066   0.56659    0.015
 4904.00    0.61836   0.56794    0.015
 4905.00    0.55935   0.56868    0.015
 4906.00    0.58587   0.56826    0.015
 4907.00    0.60817   0.56846    0.015
 4908.00    0.60925   0.56849    0.015
 4909.00    0.59951   0.56768    0.015
 4910.00    0.54578   0.56693    0.015
 4911.00    0.51907   0.56627    0.015
 4912.00    0.58359   0.56519    0.015
 4913.00    0.64125   0.56384    0.015
 4914.00    0.67940   0.56263    0.015
 4915.00    0.67677   0.56133    0.015
 4916.00    0.57491   0.55988    0.015
 4917.00    0.50633   0.55841    0.015
 4918.00    0.50760   0.55703    0.015
 4919.00    0.52548   0.55598    0.015
 4920.00    0.57366   0.55477    0.015
 4921.00    0.56702   0.55349    0.015
 4922.00    0.47295   0.55326    0.015
 4923.00    0.44709   0.55285    0.015
 4924.00    0.51671   0.55183    0.015
 4925.00    0.57904   0.55249    0.015
 4926.00    0.63241   0.55313    0.015
 4927.00    0.63724   0.55236    0.015
 4928.00    0.58936   0.55356    0.015
 4929.00    0.56155   0.55509    0.015
 4930.00    0.55294   0.55438    0.015
 4931.00    0.52530   0.55560    0.015
 4932.00    0.48157   0.55758    0.015
 4933.00    0.43797   0.55675    0.015
 4934.00    0.39446   0.55761    0.015
 4935.00    0.40023   0.55964    0.015
 4936.00    0.43819   0.55870    0.015
 4937.00    0.49486   0.55921    0.015
 4938.00    0.56222   0.56115    0.015
 4939.00    0.54298   0.56027    0.015
 4940.00    0.48061   0.56065    0.000
 4941.00    0.51332   0.56253    0.000
 4942.00    0.58697   0.56184    0.000
 4943.00    0.61002   0.56223    0.000
 4944.00    0.61439   0.56399    0.000
 4945.00    0.65669   0.56342    0.000
 4946.00    0.71085   0.56374    0.000
 4947.00    0.65156   0.56517    0.000
 4948.00    0.56267   0.56444    0.000
 4949.00    0.49999   0.56443    0.000
 4950.00    0.44289   0.56529    0.000
 4951.00    0.47646   0.56412    0.000
 4952.00    0.52532   0.56365    0.000
 4953.00    0.49518   0.56391    0.000
 4954.00    0.45500   0.56221    0.000
 4955.00    0.53040   0.56137    0.000
 4956.00    0.61605   0.56127    0.000
 4957.00    0.45954   0.55927    0.000
 4958.00    0.29025   0.55830    0.000
 4959.00    0.35838   0.55819    0.000
 4960.00    0.43011   0.55631    0.000
 4961.00    0.42773   0.55542    0.000
 4962.00    0.42987   0.55553    0.000
 4963.00    0.53013   0.55410    0.000
 4964.00    0.62371   0.55341    0.000
 4965.00    0.63531   0.55367    0.000
 4966.00    0.64282   0.55278    0.000
 4967.00    0.61617   0.55223    0.000
 4968.00    0.57032   0.55245    0.000
 4969.00    0.40459   0.55188    0.000
 4970.00    0.27554   0.55131    0.000
 4971.00    0.32630   0.55130    0.000
 4972.00    0.38019   0.55071    0.000
 4973.00    0.44652   0.54985    0.000
 4974.00    0.49403   0.54951    0.000
 4975.00    0.47931   0.54865    0.000
 4976.00    0.44987   0.54727    0.000
 4977.00    0.37926   0.54665    0.000
 4978.00    0.34469   0.54549    0.000
 4979.00    0.39633   0.54359    0.000
 4980.00    0.43010   0.54283    0.000
 4981.00    0.42698   0.54165    0.000
 4982.00    0.42177   0.53949    0.000
 4983.00    0.41282   0.53884    0.000
 4984.00    0.41641   0.53798    0.000
 4985.00    0.43969   0.53599    0.000
 4986.00    0.44530   0.53565    0.000
 4987.00    0.42652   0.53533    0.000
 4988.00    0.44056   0.53376    0.000
 4989.00    0.49445   0.53382    0.000
 4990.00    0.49271   0.53388    0.000
 4991.00    0.43141   0.53269    0.000
 4992.00    0.42080   0.53297    0.000
 4993.00    0.45804   0.53303    0.000
 4994.00    0.49195   0.53189    0.000
 4995.00    0.52309   0.53213    0.000
 4996.00    0.53301   0.53177    0.000
 4997.00    0.52739   0.53034    0.000
 4998.00    0.52234   0.53030    0.000
 4999.00    0.51766   0.52936    0.000
 5000.00    0.51010   0.52751    0.000
 5001.00    0.50093   0.52714    0.000
 5002.00    0.54973   0.52572    0.000
 5003.00    0.62694   0.52357    0.000
 5004.00    0.60704   0.52299    0.000
 5005.00    0.54603   0.52137    0.000
 5006.00    0.49227   0.51914    0.000
 5007.00    0.44115   0.51855    0.000
 5008.00    0.50954   0.51704    0.000
 5009.00    0.61459   0.51491    0.000
 5010.00    0.62293   0.51448    0.000
 5011.00    0.60657   0.51330    0.000
 5012.00    0.50405   0.51135    0.000
 5013.00    0.38363   0.51120    0.000
 5014.00    0.33047   0.51051    0.000
 5015.00    0.28833   0.50882    0.000
 5016.00    0.31330   0.50905    0.000
 5017.00    0.34650   0.50899    0.000
 5018.00    0.43075   0.50766    0.000
 5019.00    0.51932   0.50829    0.000
 5020.00    0.49784   0.50898    0.000
 5021.00    0.47099   0.50809    0.000
 5022.00    0.48559   0.50901    0.000
 5023.00    0.50031   0.51044    0.000
 5024.00    0.48363   0.51002    0.000
 5025.00    0.46970   0.51096    0.000
 5026.00    0.51108   0.51283    0.000
 5027.00    0.53812   0.51279    0.000
 5028.00    0.39767   0.51342    0.000
 5029.00    0.28746   0.51521    0.014
 5030.00    0.42138   0.51534    0.014
 5031.00    0.52140   0.51546    0.015
 5032.00    0.41590   0.51664    0.015
 5033.00    0.34448   0.51670    0.015
 5034.00    0.43603   0.51640    0.015
 5035.00    0.49360   0.51664    0.015
 5036.00    0.41882   0.51654    0.014
 5037.00    0.38931   0.51613    0.014
 5038.00    0.50659   0.51549    0.015
 5039.00    0.58993   0.51528    0.015
 5040.00    0.58010   0.51523    0.015
 5041.00    0.54677   0.51408    0.015
 5042.00    0.45822   0.51386    0.015
 5043.00    0.42692   0.51451    0.015
 5044.00    0.51201   0.51337    0.015
 5045.00    0.54498   0.51324    0.014
 5046.00    0.48576   0.51457    0.014
 5047.00    0.46673   0.51386    0.014
 5048.00    0.50995   0.51387    0.015
 5049.00    0.49778   0.51553    0.014
 5050.00    0.41029   0.51544    0.014
 5051.00    0.38399   0.51560    0.014
 5052.00    0.43091   0.51711    0.014
 5053.00    0.45007   0.51754    0.014
 5054.00    0.43992   0.51792    0.014
 5055.00    0.46454   0.51893    0.014
 5056.00    0.52153   0.51948    0.014
 5057.00    0.57250   0.52005    0.014
 5058.00    0.61852   0.52048    0.014
 5059.00    0.61207   0.52071    0.014
 5060.00    0.56772   0.52133    0.014
 5061.00    0.48683   0.52119    0.014
 5062.00    0.38276   0.52069    0.014
 5063.00    0.36386   0.52117    0.014
 5064.00    0.39218   0.52072    0.014
 5065.00    0.39910   0.51934    0.014
 5066.00    0.39571   0.51941    0.014
 5067.00    0.39768   0.51891    0.014
 5068.00    0.40187   0.51687    0.014
 5069.00    0.43666   0.51632    0.014
 5070.00    0.48236   0.51592    0.014
 5071.00    0.49658   0.51376    0.014
 5072.00    0.50134   0.51262    0.014
 5073.00    0.46587   0.51228    0.014
 5074.00    0.42035   0.51052    0.014
 5075.00    0.45571   0.50906    0.014
 5076.00    0.50746   0.50867    0.014
 5077.00    0.48396   0.50757    0.014
 5078.00    0.44850   0.50624    0.014
 5079.00    0.44050   0.50584    0.014
 5080.00    0.43574   0.50544    0.014
 5081.00    0.43227   0.50460    0.013
 5082.00    0.42890   0.50426    0.013
 5083.00    0.40913   0.50434    0.013
 5084.00    0.38862   0.50422    0.013
 5085.00    0.41223   0.50413    0.013
 5086.00    0.43674   0.50438    0.013
 5087.00    0.48042   0.50478    0.013
 5088.00    0.51920   0.50503    0.013
 5089.00    0.46696   0.50522    0.013
 5090.00    0.42360   0.50562    0.013
 5091.00    0.47923   0.50605    0.013
 5092.00    0.52143   0.50617    0.013
 5093.00    0.45896   0.50613    0.013
 5094.00    0.39227   0.50631    0.013
 5095.00    0.30064   0.50638    0.014
 5096.00    0.23741   0.50590    0.014
 5097.00    0.30671   0.50551    0.014
 5098.00    0.35035   0.50542    0.014
 5099.00    0.29622   0.50482    0.013
 5100.00    0.27563   0.50401    0.013
 5101.00    0.36174   0.50373    0.013
 5102.00    0.41279   0.50330    0.013
 5103.00    0.36928   0.50247    0.013
 5104.00    0.35695   0.50203    0.014
 5105.00    0.41673   0.50193    0.014
 5106.00    0.42798   0.50140    0.014
 5107.00    0.34212   0.50087    0.014
 5108.00    0.27126   0.50115    0.014
 5109.00    0.22653   0.50115    0.014
 5110.00    0.26320   0.50050    0.014
 5111.00    0.42403   0.50110    0.014
 5112.00    0.52596   0.50156    0.014
 5113.00    0.54896   0.50058    0.014
 5114.00    0.53095   0.50107    0.014
 5115.00    0.46454   0.50182    0.015
 5116.00    0.41055   0.50060    0.015
 5117.00    0.36948   0.50061    0.015
 5118.00    0.37066   0.50121    0.015
 5119.00    0.41062   0.49993    0.014
 5120.00    0.47556   0.49930    0.014
 5121.00    0.56073   0.49935    0.015
 5122.00    0.51224   0.49822    0.014
 5123.00    0.36859   0.49702    0.014
 5124.00    0.33259   0.49637    0.014
 5125.00    0.36382   0.49558    0.014
 5126.00    0.39443   0.49409    0.014
 5127.00    0.42471   0.49292    0.014
 5128.00    0.45410   0.49265    0.014
 5129.00    0.48309   0.49121    0.014
 5130.00    0.50017   0.48968    0.014
 5131.00    0.51239   0.48992    0.014
 5132.00    0.46569   0.48892    0.014
 5133.00    0.39840   0.48716    0.014
 5134.00    0.41323   0.48767    0.014
 5135.00    0.45226   0.48732    0.014
 5136.00    0.49208   0.48532    0.014
 5137.00    0.53209   0.48575    0.014
 5138.00    0.51553   0.48612    0.014
 5139.00    0.48780   0.48383    0.014
 5140.00    0.51931   0.48386    0.014
 5141.00    0.55995   0.48501    0.014
 5142.00    0.53673   0.48259    0.014
 5143.00    0.50624   0.48205    0.014
 5144.00    0.48864   0.48373    0.014
 5145.00    0.47202   0.48150    0.014
 5146.00    0.43318   0.48061    0.014
 5147.00    0.39343   0.48250    0.014
 5148.00    0.32568   0.48076    0.014
 5149.00    0.26232   0.47970    0.014
 5150.00    0.39397   0.48136    0.014
 5151.00    0.51888   0.48030    0.013
 5152.00    0.52714   0.47928    0.014
 5153.00    0.52766   0.48015    0.014
 5154.00    0.44571   0.47949    0.014
 5155.00    0.37892   0.47865    0.014
 5156.00    0.42624   0.47847    0.014
 5157.00    0.46631   0.47765    0.014
 5158.00    0.46488   0.47670    0.014
 5159.00    0.44978   0.47536    0.014
 5160.00    0.37237   0.47404    0.014
 5161.00    0.31393   0.47273    0.014
 5162.00    0.32621   0.47019    0.014
 5163.00    0.35286   0.46826    0.014
 5164.00    0.42432   0.46672    0.014
 5165.00    0.49132   0.46328    0.014
 5166.00    0.54649   0.46075    0.014
 5167.00    0.55017   0.45933    0.014
 5168.00    0.43676   0.45593    0.014
 5169.00    0.34282   0.45310    0.014
 5170.00    0.28720   0.45214    0.014
 5171.00    0.27792   0.44997    0.014
 5172.00    0.34818   0.44740    0.014
 5173.00    0.38814   0.44677    0.014
 5174.00    0.38256   0.44632    0.014
 5175.00    0.36517   0.44476    0.014
 5176.00    0.33217   0.44457    0.014
 5177.00    0.33040   0.44568    0.014
 5178.00    0.36495   0.44509    0.014
 5179.00    0.34487   0.44458    0.013
 5180.00    0.26873   0.44633    0.013
 5181.00    0.24514   0.44734    0.013
 5182.00    0.26908   0.44687    0.013
 5183.00    0.31045   0.44775    0.013
 5184.00    0.36570   0.44941    0.013
 5185.00    0.34016   0.44948    0.013
 5186.00    0.25794   0.44952    0.013
 5187.00    0.26192   0.45133    0.013
 5188.00    0.31895   0.45190    0.013
 5189.00    0.35465   0.45130    0.014
 5190.00    0.37889   0.45312    0.000
 5191.00    0.36483   0.45412    0.000
 5192.00    0.33289   0.45353    0.000
 5193.00    0.36571   0.45583    0.000
 5194.00    0.42458   0.45662    0.000
 5195.00    0.43624   0.45510    0.000
 5196.00    0.43170   0.45764    0.000
 5197.00    0.40125   0.45902    0.000
 5198.00    0.36331   0.45659    0.000
 5199.00    0.42678   0.45815    0.000
 5200.00    0.51447   0.46043    0.000
 5201.00    0.39428   0.45825    0.000
 5202.00    0.23407   0.45822    0.000
 5203.00    0.32187   0.46049    0.000
 5204.00    0.44675   0.45925    0.000
 5205.00    0.42874   0.45811    0.000
 5206.00    0.39507   0.46004    0.000
 5207.00    0.42653   0.46002    0.000
 5208.00    0.46268   0.45814    0.000
 5209.00    0.48747   0.45953    0.000
 5210.00    0.51184   0.46079    0.000
 5211.00    0.40910   0.45893    0.014
 5212.00    0.30980   0.45962    0.014
 5213.00    0.35728   0.46172    0.013
 5214.00    0.40116   0.46060    0.013
 5215.00    0.38693   0.46083    0.013
 5216.00    0.37456   0.46278    0.013
 5217.00    0.38110   0.46236    0.014
 5218.00    0.39746   0.46246    0.014
 5219.00    0.48525   0.46369    0.014
 5220.00    0.55838   0.46327    0.014
 5221.00    0.54985   0.46320    0.014
 5222.00    0.51788   0.46386    0.014
 5223.00    0.38166   0.46301    0.014
 5224.00    0.28840   0.46286    0.014
 5225.00    0.35203   0.46371    0.014
 5226.00    0.42537   0.46249    0.014
 5227.00    0.52843   0.46170    0.014
 5228.00    0.56557   0.46305    0.014
 5229.00    0.43117   0.46213    0.014
 5230.00    0.32439   0.46062    0.014
 5231.00    0.27940   0.46260    0.013
 5232.00    0.25506   0.46273    0.013
 5233.00    0.27074   0.46085    0.013
 5234.00    0.29958   0.46301    0.013
 5235.00    0.35066   0.46456    0.014
 5236.00    0.37574   0.46313    0.014
 5237.00    0.36230   0.46454    0.014
 5238.00    0.36185   0.46656    0.014
 5239.00    0.37831   0.46598    0.013
 5240.00    0.34150   0.46648    0.013
 5241.00    0.24360   0.46843    0.013
 5242.00    0.22308   0.46878    0.013
 5243.00    0.28083   0.46847    0.013
 5244.00    0.32297   0.46969    0.013
 5245.00    0.35119   0.47041    0.013
 5246.00    0.33839   0.46950    0.014
 5247.00    0.29335   0.46970    0.014
 5248.00    0.29886   0.47054    0.014
 5249.00    0.33933   0.46950    0.014
 5250.00    0.38287   0.46846    0.014
 5251.00    0.42828   0.46897    0.014
 5252.00    0.42250   0.46825    0.014
 5253.00    0.38964   0.46627    0.014
 5254.00    0.40614   0.46592    0.014
 5255.00    0.44530   0.46538    0.014
 5256.00    0.48432   0.46319    0.014
 5257.00    0.52328   0.46200    0.014
 5258.00    0.42477   0.46111    0.014
 5259.00    0.27997   0.45881    0.014
 5260.00    0.37591   0.45701    0.014
 5261.00    0.54000   0.45589    0.014
 5262.00    0.52853   0.45341    0.014
 5263.00    0.47608   0.45102    0.014
 5264.00    0.45294   0.45031    0.014
 5265.00    0.43531   0.44804    0.014
 5266.00    0.41880   0.44482    0.014
 5267.00    0.40245   0.44475    0.014
 5268.00    0.46843   0.44392    0.014
 5269.00    0.54308   0.44043    0.014
 5270.00    0.47859   0.44067    0.014
 5271.00    0.40463   0.44215    0.014
 5272.00    0.36071   0.43943    0.014
 5273.00    0.31781   0.43921    0.014
 5274.00    0.35115   0.44270    0.014
 5275.00    0.38348   0.44206    0.014
 5276.00    0.38067   0.44136    0.014
 5277.00    0.38288   0.44531    0.014
 5278.00    0.46156   0.44677    0.014
 5279.00    0.52736   0.44642    0.014
 5280.00    0.46751   0.44978    0.014
 5281.00    0.40984   0.45227    0.014
 5282.00    0.36763   0.45264    0.014
 5283.00    0.34130   0.45501    0.014
 5284.00    0.40109   0.45750    0.014
 5285.00    0.44513   0.45866    0.014
 5286.00    0.42074   0.46016    0.014
 5287.00    0.39574   0.46164    0.014
 5288.00    0.36851   0.46292    0.014
 5289.00    0.34920   0.46432    0.014
 5290.00    0.35369   0.46511    0.014
 5291.00    0.37381   0.46566    0.014
 5292.00    0.43389   0.46667    0.014
 5293.00    0.48001   0.46716    0.014
 5294.00    0.49542   0.46696    0.014
 5295.00    0.49076   0.46730    0.014
 5296.00    0.44782   0.46765    0.014
 5297.00    0.42809   0.46709    0.014
 5298.00    0.44701   0.46690    0.014
 5299.00    0.41176   0.46734    0.014
 5300.00    0.29747   0.46676    0.014
 5301.00    0.25469   0.46610    0.014
 5302.00    0.30369   0.46679    0.014
 5303.00    0.36597   0.46676    0.014
 5304.00    0.44325   0.46597    0.014
 5305.00    0.43960   0.46656    0.014
 5306.00    0.35524   0.46692    0.014
 5307.00    0.31271   0.46638    0.014
 5308.00    0.30698   0.46677    0.014
 5309.00    0.31463   0.46708    0.014
 5310.00    0.33265   0.46645    0.014
 5311.00    0.35984   0.46653    0.013
 5312.00    0.39327   0.46681    0.013
 5313.00    0.37106   0.46583    0.013
 5314.00    0.31561   0.46516    0.014
 5315.00    0.31273   0.46529    0.013
 5316.00    0.33724   0.46411    0.013
 5317.00    0.37782   0.46264    0.013
 5318.00    0.42567   0.46222    0.013
 5319.00    0.48398   0.46092    0.013
 5320.00    0.54637   0.45907    0.013
 5321.00    0.50464   0.45814    0.013
 5322.00    0.42849   0.45707    0.013
 5323.00    0.38697   0.45531    0.013
 5324.00    0.35504   0.45370    0.013
 5325.00    0.37257   0.45286    0.013
 5326.00    0.40138   0.45190    0.013
 5327.00    0.35431   0.44990    0.013
 5328.00    0.29339   0.44885    0.013
 5329.00    0.34429   0.44905    0.013
 5330.00    0.41086   0.44777    0.013
 5331.00    0.40289   0.44616    0.013
 5332.00    0.38739   0.44674    0.013
 5333.00    0.37689   0.44700    0.013
 5334.00    0.36671   0.44611    0.013
 5335.00    0.40317   0.44651    0.013
 5336.00    0.44077   0.44709    0.013
 5337.00    0.37869   0.44710    0.013
 5338.00    0.31796   0.44778    0.013
 5339.00    0.29574   0.44821    0.013
 5340.00    0.27621   0.44828    0.013
 5341.00    0.29531   0.44935    0.013
 5342.00    0.31352   0.45010    0.013
 5343.00    0.32342   0.44985    0.013
 5344.00    0.32544   0.45090    0.013
 5345.00    0.27369   0.45224    0.013
 5346.00    0.23873   0.45211    0.013
 5347.00    0.29235   0.45316    0.013
 5348.00    0.33943   0.45460    0.013
 5349.00    0.35874   0.45440    0.013
 5350.00    0.35327   0.45539    0.013
 5351.00    0.26091   0.45700    0.013
 5352.00    0.20276   0.45677    0.013
 5353.00    0.24548   0.45717    0.013
 5354.00    0.28595   0.45885    0.013
 5355.00    0.32078   0.45904    0.013
 5356.00    0.37427   0.45864    0.013
 5357.00    0.46815   0.45960    0.013
 5358.00    0.50998   0.46001    0.013
 5359.00    0.45405   0.45927    0.013
 5360.00    0.38719   0.45924    0.013
 5361.00    0.30240   0.45911    0.013
 5362.00    0.26223   0.45818    0.013
 5363.00    0.28622   0.45760    0.013
 5364.00    0.31446   0.45685    0.013
 5365.00    0.34806   0.45567    0.013
 5366.00    0.37915   0.45497    0.013
 5367.00    0.40744   0.45396    0.013
 5368.00    0.41053   0.45285   -2.000
 5369.00    0.38884   0.45238   -2.000
 5370.00    0.39935   0.45128   -2.000
 5371.00    0.43778   0.45035   -2.000
 5372.00    0.48839   0.45047   -2.000
 5373.00    0.54830   0.44961   -2.000
 5374.00    0.57380   0.44854   -2.000
 5375.00    0.57619   0.44920   -2.000
 5376.00    0.56657   0.44936   -2.000
 5377.00    0.54990   0.44845   -2.000
 5378.00    0.49829   0.44914   -2.000
 5379.00    0.42876   0.44972   -2.000
 5380.00    0.40599   0.44869   -2.000
 5381.00    0.40397   0.44913   -2.000
 5382.00    0.43241   0.45001   -2.000
 5383.00    0.47246   0.44871    0.013
 5384.00    0.40070   0.44846    0.013
 5385.00    0.29267   0.44951    0.013
 5386.00    0.32291   0.44808    0.013
 5387.00    0.39068   0.44676    0.013
 5388.00    0.32893   0.44781    0.013
 5389.00    0.23833   0.44688    0.013
 5390.00    0.29016   0.44448    0.012
 5391.00    0.36729   0.44472    0.012
 5392.00    0.37405   0.44450    0.012
 5393.00    0.37127   0.44164    0.012
 5394.00    0.33186   0.44064    0.013
 5395.00    0.28890   0.44112    0.013
 5396.00    0.35204   0.43877    0.013
 5397.00    0.42155   0.43653    0.013
 5398.00    0.38677   0.43720    0.013
 5399.00    0.34982   0.43602    0.013
 5400.00    0.40319   0.43298    0.013
 5401.00    0.45306   0.43325    0.013
 5402.00    0.41255   0.43375    0.013
 5403.00    0.37954   0.43116    0.013
 5404.00    0.44826   0.43029    0.014
 5405.00    0.50454   0.43158    0.015
 5406.00    0.44890   0.43055    0.016
 5407.00    0.40576   0.42910    0.016
 5408.00    0.44521   0.42999    0.015
 5409.00    0.46959   0.43033    0.015
 5410.00    0.41647   0.42959    0.014
 5411.00    0.36281   0.43050    0.013
 5412.00    0.30686   0.43158    0.013
 5413.00    0.27200   0.43103    0.013
 5414.00    0.30957   0.43148    0.013
 5415.00    0.34506   0.43327    0.013
 5416.00    0.37455   0.43372    0.013
 5417.00    0.36501   0.43345    0.013
 5418.00    0.25912   0.43443    0.013
 5419.00    0.20940   0.43546    0.013
 5420.00    0.27925   0.43554    0.013
 5421.00    0.31709   0.43594    0.013
 5422.00    0.29573   0.43641    0.013
 5423.00    0.30493   0.43614    0.013
 5424.00    0.36349   0.43629    0.013
 5425.00    0.41139   0.43684    0.013
 5426.00    0.44419   0.43636    0.013
 5427.00    0.46713   0.43575    0.013
 5428.00    0.47778   0.43604    0.013
 5429.00    0.45337   0.43573    0.013
 5430.00    0.39043   0.43540    0.013
 5431.00    0.38213   0.43593    0.013
 5432.00    0.42681   0.43497    0.013
 5433.00    0.43159   0.43415    0.013
 5434.00    0.40225   0.43536    0.012
 5435.00    0.34631   0.43533    0.012
 5436.00    0.27034   0.43422    0.012
 5437.00    0.27363   0.43465    0.012
 5438.00    0.32936   0.43534    0.012
 5439.00    0.34350   0.43465    0.012
 5440.00    0.33354   0.43455    0.012
 5441.00    0.32598   0.43573    0.012
 5442.00    0.31962   0.43546    0.012
 5443.00    0.32774   0.43483    0.012
 5444.00    0.34218   0.43556    0.012
 5445.00    0.35396   0.43552    0.012
 5446.00    0.36473   0.43472    0.012
 5447.00    0.35559   0.43475    0.012
 5448.00    0.34011   0.43463    0.012
 5449.00    0.40268   0.43358    0.012
 5450.00    0.48600   0.43314    0.012
 5451.00    0.46767   0.43355    0.012
 5452.00    0.42721   0.43295    0.013
 5453.00    0.39215   0.43220    0.013
 5454.00    0.35802   0.43232    0.013
 5455.00    0.35135   0.43157    0.013
 5456.00    0.34828   0.43057    0.012
 5457.00    0.33027   0.43091    0.013
 5458.00    0.31087   0.43038    0.013
 5459.00    0.36742   0.42888    0.013
 5460.00    0.42824   0.42919    0.013
 5461.00    0.39826   0.43003    0.013
 5462.00    0.36644   0.42889    0.013
 5463.00    0.35400   0.42780    0.013
 5464.00    0.34119   0.42879    0.013
 5465.00    0.31971   0.42855    0.013
 5466.00    0.30018   0.42632    0.013
 5467.00    0.30548   0.42675    0.013
 5468.00    0.31765   0.42798    0.013
 5469.00    0.38930   0.42578    0.013
 5470.00    0.44401   0.42442    0.013
 5471.00    0.39009   0.42623    0.013
 5472.00    0.35606   0.42582    0.013
 5473.00    0.42174   0.42303    0.013
 5474.00    0.46231   0.42350    0.013
 5475.00    0.40102   0.42478    0.013
 5476.00    0.36242   0.42216    0.013
 5477.00    0.40025   0.42108    0.013
 5478.00    0.42965   0.42347   -2.000
 5479.00    0.43514   0.42233   -2.000
 5480.00    0.42392   0.41958   -2.000
 5481.00    0.37215   0.42127   -2.000
 5482.00    0.39036   0.42290   -2.000
 5483.00    0.55514   0.42064   -2.000
 5484.00    0.70467   0.42015   -2.000
 5485.00    0.82644   0.42251   -2.000
 5486.00    1.05952   0.42182   -2.000
 5487.00    1.46979   0.42036   -2.000
 5488.00    1.59115   0.42255   -2.000
 5489.00    1.30893   0.42334   -2.000
 5490.00    1.07350   0.42105   -2.000
 5491.00    0.89557   0.42168   -2.000
 5492.00    0.61614   0.42395   -2.000
 5493.00    0.22670   0.42269   -2.000
 5494.00    0.05754   0.42159   -2.000
 5495.00    0.09895   0.42330   -2.000
 5496.00    0.20474   0.42307   -2.000
 5497.00    0.36479   0.42142   -2.000
 5498.00    0.41996   0.42235   -2.000
 5499.00    0.39729   0.42283   -2.000
 5500.00    0.38487   0.42090   -2.000
 5501.00    0.37913   0.42065   -2.000
 5502.00    0.36471   0.42163    0.012
 5503.00    0.34533   0.42065    0.012
 5504.00    0.35671   0.41967    0.012
 5505.00    0.38337   0.41984    0.013
 5506.00    0.38072   0.41928    0.013
 5507.00    0.36548   0.41872    0.012
 5508.00    0.33327   0.41900    0.012
 5509.00    0.29482   0.41842    0.012
 5510.00    0.34905   0.41771    0.012
 5511.00    0.43221   0.41833    0.013
 5512.00    0.38317   0.41828    0.013
 5513.00    0.29973   0.41766    0.013
 5514.00    0.32049   0.41805    0.013
 5515.00    0.36337   0.41815    0.013
 5516.00    0.37261   0.41769    0.013
 5517.00    0.37621   0.41799    0.013
 5518.00    0.35978   0.41860    0.013
 5519.00    0.34081   0.41840    0.013
 5520.00    0.35212   0.41811    0.013
 5521.00    0.36611   0.41846    0.012
 5522.00    0.35446   0.41869    0.012
 5523.00    0.34146   0.41859    0.012
 5524.00    0.27636   0.41833    0.012
 5525.00    0.21130   0.41820    0.012
 5526.00    0.22339   0.41851    0.012
 5527.00    0.23542   0.41822    0.012
 5528.00    0.24605   0.41748    0.012
 5529.00    0.26387   0.41786    0.012
 5530.00    0.36944   0.41804    0.012
 5531.00    0.46331   0.41683    0.012
 5532.00    0.45966   0.41680    0.012
 5533.00    0.45166   0.41795    0.012
 5534.00    0.41656   0.41748    0.012
 5535.00    0.39800   0.41664    0.012
 5536.00    0.46024   0.41748    0.012
 5537.00    0.49920   0.41792    0.012
 5538.00    0.44576   0.41694    0.012
 5539.00    0.39950   0.41728    0.012
 5540.00    0.37692   0.41846    0.012
 5541.00    0.35465   0.41818    0.012
 5542.00    0.33324   0.41791    0.012
 5543.00    0.31862   0.41880    0.012
 5544.00    0.32021   0.41936    0.012
 5545.00    0.33782   0.41905    0.012
 5546.00    0.38848   0.41895    0.012
 5547.00    0.40695   0.41948    0.012
 5548.00    0.36772   0.41966    0.012
 5549.00    0.33834   0.41937    0.012
 5550.00    0.32443   0.41943    0.012
 5551.00    0.31114   0.41977    0.012
 5552.00    0.29872   0.41960    0.012
 5553.00    0.30686   0.41910    0.012
 5554.00    0.33992   0.41905    0.012
 5555.00    0.34664   0.41889    0.012
 5556.00    0.32523   0.41820    0.012
 5557.00    0.32958   0.41777    0.012
 5558.00    0.35820   0.41746    0.012
 5559.00    0.37484   0.41681    0.012
 5560.00    0.38153   0.41639    0.012
 5561.00    0.34704   0.41595    0.012
 5562.00    0.28243   0.41491    0.012
 5563.00    0.23341   0.41436    0.012
 5564.00    0.19442   0.41439    0.012
 5565.00    0.20663   0.41311    0.012
 5566.00    0.24762   0.41190    0.012
 5567.00    0.29873   0.41254    0.012
 5568.00    0.35479   0.41195    0.012
 5569.00    0.33141   0.41001    0.012
 5570.00    0.27445   0.41042    0.012
 5571.00    0.26131   0.41106    0.012
 5572.00    0.26404   0.40899    0.012
 5573.00    0.28826   0.40826    0.012
 5574.00    0.31906   0.40984    0.012
 5575.00    0.36098   0.40865    0.012
 5576.00    0.40572   0.40666    0.012
 5577.00    0.38077   0.40798    0.011
 5578.00    0.34138   0.40825    0.011
 5579.00    0.32204   0.40595    0.011
 5580.00    0.30598   0.40579    0.011
 5581.00    0.34085   0.40670    0.011
 5582.00    0.38194   0.40508    0.011
 5583.00    0.36171   0.40382    0.011
 5584.00    0.33632   0.40442    0.012
 5585.00    0.34818   0.40371    0.012
 5586.00    0.36185   0.40216    0.011
 5587.00    0.34447   0.40186    0.012
 5588.00    0.32665   0.40172    0.012
 5589.00    0.31018   0.40067    0.012
 5590.00    0.29700   0.39971    0.012
 5591.00    0.34900   0.39937    0.012
 5592.00    0.39742   0.39915    0.012
 5593.00    0.40437   0.39883    0.012
 5594.00    0.41714   0.39823    0.012
 5595.00    0.47662   0.39816    0.012
 5596.00    0.52775   0.39852    0.013
 5597.00    0.52835   0.39796    0.013
 5598.00    0.51731   0.39761    0.013
 5599.00    0.45070   0.39873    0.013
 5600.00    0.39162   0.39931    0.013
 5601.00    0.36177   0.39853    0.013
 5602.00    0.33336   0.39902    0.012
 5603.00    0.30959   0.40044    0.012
 5604.00    0.30636   0.40025    0.012
 5605.00    0.35937   0.40004    0.012
 5606.00    0.39805   0.40134    0.012
 5607.00    0.40312   0.40207    0.012
 5608.00    0.40244   0.40148    0.012
 5609.00    0.39010   0.40204    0.012
 5610.00    0.39273   0.40310    0.012
 5611.00    0.42176   0.40246    0.012
 5612.00    0.43931   0.40214    0.012
 5613.00    0.43914   0.40301    0.012
 5614.00    0.40013   0.40297    0.012
 5615.00    0.30841   0.40218    0.012
 5616.00    0.26318   0.40254    0.011
 5617.00    0.27347   0.40268    0.011
 5618.00    0.29620   0.40134    0.011
 5619.00    0.33205   0.40103    0.011
 5620.00    0.34064   0.40162    0.011
 5621.00    0.32392   0.40102    0.011
 5622.00    0.29694   0.40043    0.011
 5623.00    0.26158   0.40066    0.011
 5624.00    0.26763   0.40035    0.011
 5625.00    0.30355   0.39976    0.011
 5626.00    0.31365   0.39991    0.011
 5627.00    0.30742   0.39975    0.011
 5628.00    0.33685   0.39930    0.011
 5629.00    0.38603   0.39961    0.011
 5630.00    0.39532   0.39961    0.011
 5631.00    0.38543   0.39917    0.011
 5632.00    0.36816   0.39948    0.011
 5633.00    0.34783   0.39960    0.011
 5634.00    0.31486   0.39887    0.011
 5635.00    0.27740   0.39887    0.011
 5636.00    0.28903   0.39925    0.011
 5637.00    0.31540   0.39858    0.011
 5638.00    0.32809   0.39828    0.011
 5639.00    0.33738   0.39876    0.011
 5640.00    0.32452   0.39824    0.011
 5641.00    0.30718   0.39744    0.011
 5642.00    0.31068   0.39791    0.011
 5643.00    0.31748   0.39788    0.011
 5644.00    0.33636   0.39666    0.011
 5645.00    0.35666   0.39667    0.012
 5646.00    0.33425   0.39718    0.012
 5647.00    0.30843   0.39614    0.012
 5648.00    0.34538   0.39541    0.012
 5649.00    0.38511   0.39616    0.012
 5650.00    0.37824   0.39583    0.012
 5651.00    0.37100   0.39420    0.011
 5652.00    0.37210   0.39442    0.011
 5653.00    0.37330   0.39501    0.011
 5654.00    0.37629   0.39344    0.011
 5655.00    0.37781   0.39251    0.011
 5656.00    0.36313   0.39364    0.011
 5657.00    0.34486   0.39315    0.011
 5658.00    0.29867   0.39111    0.011
 5659.00    0.26029   0.39157    0.011
 5660.00    0.26780   0.39257    0.011
 5661.00    0.27603   0.39082    0.011
 5662.00    0.28763   0.38994    0.011
 5663.00    0.30274   0.39158    0.011
 5664.00    0.33120   0.39151    0.011
 5665.00    0.36329   0.38987    0.011
 5666.00    0.40691   0.39068    0.011
 5667.00    0.42651   0.39199    0.011
 5668.00    0.38152   0.39100    0.011
 5669.00    0.34136   0.39079    0.011
 5670.00    0.31233   0.39236    0.011
 5671.00    0.31358   0.39245    0.011
 5672.00    0.37527   0.39178    0.011
 5673.00    0.40075   0.39274    0.011
 5674.00    0.36323   0.39353    0.011
 5675.00    0.34523   0.39297    0.011
 5676.00    0.35695   0.39330    0.011
 5677.00    0.36076   0.39421    0.012
 5678.00    0.35400   0.39365    0.012
 5679.00    0.33904   0.39321    0.012
 5680.00    0.31442   0.39405    0.012
 5681.00    0.30213   0.39409    0.012
 5682.00    0.30264   0.39320    0.012
 5683.00    0.34698   0.39331    0.011
 5684.00    0.43148   0.39374    0.012
 5685.00    0.45238   0.39294    0.012
 5686.00    0.42192   0.39235    0.011
 5687.00    0.38299   0.39264    0.011
 5688.00    0.33805   0.39253    0.011
 5689.00    0.31637   0.39194    0.011
 5690.00    0.30919   0.39159    0.011
 5691.00    0.32473   0.39140    0.011
 5692.00    0.35264   0.39118    0.011
 5693.00    0.36405   0.39094    0.011
 5694.00    0.36763   0.39034    0.011
 5695.00    0.36451   0.39008    0.011
 5696.00    0.35866   0.39022    0.011
 5697.00    0.37349   0.38950    0.011
 5698.00    0.39552   0.38841    0.011
 5699.00    0.36888   0.38855    0.011
 5700.00    0.32791   0.38870    0.011
 5701.00    0.33046   0.38728    0.011
 5702.00    0.34361   0.38654    0.011
 5703.00    0.34093   0.38706    0.011
 5704.00    0.33514   0.38626    0.011
 5705.00    0.32473   0.38472    0.011
 5706.00    0.31361   0.38499    0.011
 5707.00    0.30462   0.38545    0.011
 5708.00    0.29588   0.38409    0.011
 5709.00    0.32614   0.38352    0.011
 5710.00    0.35935   0.38443    0.011
 5711.00    0.34493   0.38413    0.011
 5712.00    0.32858   0.38323    0.011
 5713.00    0.30536   0.38401    0.011
 5714.00    0.28228   0.38488    0.011
 5715.00    0.26715   0.38446    0.011
 5716.00    0.25426   0.38472    0.011
 5717.00    0.27996   0.38589    0.011
 5718.00    0.30213   0.38629    0.011
 5719.00    0.28697   0.38638    0.011
 5720.00    0.26779   0.38721    0.011
 5721.00    0.21850   0.38807    0.011
 5722.00    0.18329   0.38846    0.011
 5723.00    0.22841   0.38889    0.011
 5724.00    0.27256   0.38953    0.011
 5725.00    0.31230   0.39019    0.011
 5726.00    0.33569   0.39056    0.011
 5727.00    0.29831   0.39057    0.011
 5728.00    0.27445   0.39092    0.011
 5729.00    0.29265   0.39152    0.011
 5730.00    0.31266   0.39143    0.011
 5731.00    0.33745   0.39125    0.011
 5732.00    0.35726   0.39175    0.011
 5733.00    0.36580   0.39195    0.011
 5734.00    0.37076   0.39136    0.011
 5735.00    0.36868   0.39125    0.011
 5736.00    0.36613   0.39164    0.011
 5737.00    0.36274   0.39131    0.011
 5738.00    0.36259   0.39087    0.011
 5739.00    0.36726   0.39102    0.011
 5740.00    0.35246   0.39096    0.000
 5741.00    0.31198   0.39042    0.000
 5742.00    0.28098   0.39018    0.000
 5743.00    0.26098   0.39010    0.000
 5744.00    0.26768   0.38968    0.000
 5745.00    0.30170   0.38939    0.000
 5746.00    0.30219   0.38929    0.000
 5747.00    0.27240   0.38889    0.000
 5748.00    0.26522   0.38842    0.000
 5749.00    0.27606   0.38823    0.000
 5750.00    0.29245   0.38782    0.000
 5751.00    0.31274   0.38726    0.000
 5752.00    0.33292   0.38710    0.000
 5753.00    0.35304   0.38704    0.000
 5754.00    0.32190   0.38659    0.000
 5755.00    0.26326   0.38608    0.000
 5756.00    0.23877   0.38594    0.000
 5757.00    0.23019   0.38569    0.000
 5758.00    0.27544   0.38525    0.000
 5759.00    0.34230   0.38507    0.000
 5760.00    0.36622   0.38527    0.000
 5761.00    0.37544   0.38517    0.000
 5762.00    0.33771   0.38467    0.000
 5763.00    0.28644   0.38454    0.000
 5764.00    0.28217   0.38468    0.000
 5765.00    0.28909   0.38448    0.000
 5766.00    0.36710   0.38413    0.000
 5767.00    0.45875   0.38438    0.000
 5768.00    0.43589   0.38451    0.000
 5769.00    0.39597   0.38399    0.000
 5770.00    0.37422   0.38358    0.000
 5771.00    0.35444   0.38366    0.000
 5772.00    0.41624   0.38351    0.000
 5773.00    0.48389   0.38286    0.000
 5774.00    0.47121   0.38254    0.000
 5775.00    0.45556   0.38246    0.000
 5776.00    0.42663   0.38195    0.000
 5777.00    0.39902   0.38100    0.000
 5778.00    0.42056   0.38059    0.000
 5779.00    0.43770   0.38051    0.000
 5780.00    0.38422   0.37970    0.000
 5781.00    0.33069   0.37876    0.000
 5782.00    0.27659   0.37864    0.000
 5783.00    0.23118   0.37847    0.000
 5784.00    0.24874   0.37746    0.000
 5785.00    0.26951   0.37704    0.000
 5786.00    0.30813   0.37733    0.000
 5787.00    0.33659   0.37684    0.000
 5788.00    0.32005   0.37626    0.000
 5789.00    0.30795   0.37666    0.000
 5790.00    0.31201   0.37694    0.000
 5791.00    0.31965   0.37658   -2.000
 5792.00    0.33824   0.37690   -2.000
 5793.00    0.36808   0.37740   -2.000
 5794.00    0.42711   0.37723   -2.000
 5795.00    0.48046   0.37759   -2.000
 5796.00    0.52115   0.37849   -2.000
 5797.00    0.56128   0.37864   -2.000
 5798.00    0.60036   0.37867   -2.000
 5799.00    0.60447   0.37957   -2.000
 5800.00    0.54961   0.37991   -2.000
 5801.00    0.48495   0.37955   -2.000
 5802.00    0.40582   0.38019   -2.000
 5803.00    0.34140   0.38112   -2.000
 5804.00    0.29608   0.38085   -2.000
 5805.00    0.28163   0.38061   -2.000
 5806.00    0.30252   0.38136   -2.000
 5807.00    0.33511   0.38163   -2.000
 5808.00    0.37952   0.38108   -2.000
 5809.00    0.39982   0.38124   -2.000
 5810.00    0.39863   0.38190   -2.000
 5811.00    0.38229   0.38170    0.000
 5812.00    0.35406   0.38111    0.000
 5813.00    0.36106   0.38140    0.000
 5814.00    0.39238   0.38193    0.000
 5815.00    0.38475   0.38158    0.000
 5816.00    0.35356   0.38120    0.000
 5817.00    0.37650   0.38165    0.000
 5818.00    0.42802   0.38193    0.000
 5819.00    0.46565   0.38137    0.000
 5820.00    0.49691   0.38125    0.000
 5821.00    0.47165   0.38197    0.000
 5822.00    0.42411   0.38203    0.000
 5823.00    0.39995   0.38142    0.000
 5824.00    0.38365   0.38155    0.000
 5825.00    0.38206   0.38221    0.000
 5826.00    0.38462   0.38197    0.000
 5827.00    0.37799   0.38142    0.000
 5828.00    0.36922   0.38187    0.000
 5829.00    0.39200   0.38230    0.000
 5830.00    0.42068   0.38170    0.000
 5831.00    0.39359   0.38126    0.000
 5832.00    0.35845   0.38188    0.000
 5833.00    0.37402   0.38198    0.000
 5834.00    0.39490   0.38106    0.000
 5835.00    0.36852   0.38090    0.000
 5836.00    0.33895   0.38142    0.000
 5837.00    0.35125   0.38099    0.000
 5838.00    0.36494   0.38002    0.000
 5839.00    0.37521   0.38017    0.000
 5840.00    0.38564   0.38039    0.000
 5841.00    0.40134   0.37938    0.000
 5842.00    0.41630   0.37854    0.000
 5843.00    0.42002   0.37869    0.000
 5844.00    0.41871   0.37841    0.000
 5845.00    0.36860   0.37723    0.000
 5846.00    0.32091   0.37659    0.000
 5847.00    0.29015   0.37650    0.000
 5848.00    0.26931   0.37569    0.000
 5849.00    0.30210   0.37446    0.000
 5850.00    0.32880   0.37394    0.000
 5851.00    0.32914   0.37369    0.000
 5852.00    0.32925   0.37271    0.000
 5853.00    0.32854   0.37155    0.000
 5854.00    0.32533   0.37107    0.000
 5855.00    0.31468   0.37071    0.000
 5856.00    0.30761   0.36975    0.000
 5857.00    0.30968   0.36903    0.000
 5858.00    0.30987   0.36883    0.000
 5859.00    0.30591   0.36841    0.000
 5860.00    0.30096   0.36768    0.000
 5861.00    0.29413   0.36734    0.000
 5862.00    0.31185   0.36730    0.000
 5863.00    0.37038   0.36704    0.000
 5864.00    0.41165   0.36685    0.000
 5865.00    0.42778   0.36673    0.000
 5866.00    0.42995   0.36666    0.000
 5867.00    0.41423   0.36667    0.000
 5868.00    0.41757   0.36667    0.000
 5869.00    0.44242   0.36641    0.000
 5870.00    0.44941   0.36635    0.000
 5871.00    0.43863   0.36652    0.000
 5872.00    0.41800   0.36614    0.000
 5873.00    0.38871   0.36564    0.000
 5874.00    0.37440   0.36558    0.000
 5875.00    0.37167   0.36527    0.000
 5876.00    0.34662   0.36436    0.000
 5877.00    0.30639   0.36376    0.000
 5878.00    0.28435   0.36318    0.000
 5879.00    0.27317   0.36186    0.000
 5880.00    0.29717   0.36066    0.000
 5881.00    0.33947   0.35982    0.000
 5882.00    0.35313   0.35848    0.000
 5883.00    0.35387   0.35700    0.000
 5884.00    0.33300   0.35571    0.000
 5885.00    0.30375   0.35361    0.000
 5886.00    0.32126   0.35137    0.000
 5887.00    0.35418   0.35047    0.000
 5888.00    0.38642   0.34932    0.000
 5889.00    0.41846   0.34708    0.000
 5890.00    0.38542   0.34587    0.000
 5891.00    0.33758   0.34496    0.000
 5892.00    0.31806   0.34254    0.000
 5893.00    0.30369   0.34116    0.000
 5894.00    0.32455   0.34199    0.000
 5895.00    0.35034   0.34146    0.000
 5896.00    0.33308   0.33956    0.000
 5897.00    0.31150   0.33993    0.000
 5898.00    0.30826   0.34095    0.000
 5899.00    0.30619   0.34009    0.000
 5900.00    0.32855   0.34044    0.000
 5901.00    0.35149   0.34287    0.011
 5902.00    0.33061   0.34328    0.010
 5903.00    0.31012   0.34247    0.010
 5904.00    0.30084   0.34429    0.010
 5905.00    0.29114   0.34663    0.010
 5906.00    0.27569   0.34683    0.011
 5907.00    0.26007   0.34774    0.011
 5908.00    0.24301   0.35015    0.011
 5909.00    0.22932   0.35080    0.011
 5910.00    0.23852   0.35044    0.010
 5911.00    0.25046   0.35206    0.010
 5912.00    0.27677   0.35387    0.010
 5913.00    0.29969   0.35393    0.010
 5914.00    0.30826   0.35421    0.010
 5915.00    0.31600   0.35544    0.010
 5916.00    0.32085   0.35598    0.010
 5917.00    0.32144   0.35577    0.010
 5918.00    0.30956   0.35617    0.010
 5919.00    0.29717   0.35682    0.010
 5920.00    0.28352   0.35696    0.010
 5921.00    0.28180   0.35688    0.010
 5922.00    0.30582   0.35703    0.010
 5923.00    0.31851   0.35731    0.010
 5924.00    0.30993   0.35743    0.010
 5925.00    0.30611   0.35733    0.010
 5926.00    0.31005   0.35710    0.010
 5927.00    0.31295   0.35735    0.010
 5928.00    0.31433   0.35768    0.010
 5929.00    0.30732   0.35739    0.010
 5930.00    0.28970   0.35694    0.010
 5931.00    0.28011   0.35728    0.010
 5932.00    0.27945   0.35765    0.010
 5933.00    0.26822   0.35709    0.010
 5934.00    0.24661   0.35679    0.010
 5935.00    0.25413   0.35744    0.010
 5936.00    0.28685   0.35748    0.010
 5937.00    0.30032   0.35642    0.010
 5938.00    0.29910   0.35632    0.010
 5939.00    0.28155   0.35724    0.010
 5940.00    0.25304   0.35705    0.010
 5941.00    0.24565   0.35598    0.010
 5942.00    0.25065   0.35619    0.010
 5943.00    0.25417   0.35687    0.010
 5944.00    0.25693   0.35602    0.010
 5945.00    0.27672   0.35513    0.010
 5946.00    0.30407   0.35594    0.010
 5947.00    0.32486   0.35643    0.010
 5948.00    0.34314   0.35513    0.010
 5949.00    0.35341   0.35451    0.010
 5950.00    0.36108   0.35548    0.010
 5951.00    0.35319   0.35560    0.010
 5952.00    0.34108   0.35442    0.010
 5953.00    0.32426   0.35441    0.010
 5954.00    0.30640   0.35529    0.010
 5955.00    0.30582   0.35481    0.010
 5956.00    0.30831   0.35396    0.010
 5957.00    0.32562   0.35451    0.010
 5958.00    0.34493   0.35529    0.010
 5959.00    0.30825   0.35469    0.010
 5960.00    0.26618   0.35427    0.010
 5961.00    0.23340   0.35489    0.010
 5962.00    0.20118   0.35519    0.010
 5963.00    0.20729   0.35484    0.010
 5964.00    0.21423   0.35486    0.010
 5965.00    0.19690   0.35529    0.010
 5966.00    0.18093   0.35528    0.010
 5967.00    0.19961   0.35519    0.010
 5968.00    0.21744   0.35522    0.010
 5969.00    0.22384   0.35530    0.010
 5970.00    0.22987   0.35529    0.010
 5971.00    0.23255   0.35521    0.010
 5972.00    0.23541   0.35491    0.010
 5973.00    0.23936   0.35463    0.010
 5974.00    0.24046   0.35471    0.010
 5975.00    0.22694   0.35455    0.010
 5976.00    0.22172   0.35404    0.010
 5977.00    0.25088   0.35381    0.010
 5978.00    0.28382   0.35389    0.010
 5979.00    0.32974   0.35337    0.010
 5980.00    0.35535   0.35252    0.010
 5981.00    0.32238   0.35252    0.010
 5982.00    0.28539   0.35270    0.010
 5983.00    0.23850   0.35199    0.010
 5984.00    0.20776   0.35123    0.010
 5985.00    0.21131   0.35155    0.010
 5986.00    0.21760   0.35164    0.010
 5987.00    0.22894   0.35069    0.010
 5988.00    0.24061   0.35031    0.010
 5989.00    0.25283   0.35100    0.010
 5990.00    0.27200   0.35083    0.010
 5991.00    0.30102   0.34975    0.010
 5992.00    0.32585   0.34984    0.010
 5993.00    0.34546   0.35049    0.010
 5994.00    0.33570   0.34993    0.010
 5995.00    0.29372   0.34921    0.010
 5996.00    0.25401   0.34976    0.010
 5997.00    0.21649   0.35007    0.010
 5998.00    0.18908   0.34910    0.010
 5999.00    0.17029   0.34862    0.010
 6000.00    0.17202   0.34921    0.010
 6001.00    0.18918   0.34909    0.010
 6002.00    0.19387   0.34830    0.010
 6003.00    0.19033   0.34822    0.010
 6004.00    0.19366   0.34817    0.010
 6005.00    0.20097   0.34750    0.010
 6006.00    0.22770   0.34724    0.010
 6007.00    0.26422   0.34756    0.010
 6008.00    0.30123   0.34712    0.010
 6009.00    0.33845   0.34618    0.010
 6010.00    0.36106   0.34620    0.010
 6011.00    0.37821   0.34646    0.010
 6012.00    0.35871   0.34567    0.010
 6013.00    0.32757   0.34517    0.010
 6014.00    0.28479   0.34577    0.010
 6015.00    0.23892   0.34549    0.010
 6016.00    0.22966   0.34429    0.010
 6017.00    0.22835   0.34455    0.010
 6018.00    0.24716   0.34561    0.010
 6019.00    0.26944   0.34494    0.010
 6020.00    0.30101   0.34378    0.010
 6021.00    0.33380   0.34466    0.010
 6022.00    0.33521   0.34563    0.010
 6023.00    0.33374   0.34459    0.010
 6024.00    0.33908   0.34417    0.010
 6025.00    0.34480   0.34562    0.010
 6026.00    0.33891   0.34600    0.010
 6027.00    0.33255   0.34484    0.010
 6028.00    0.30520   0.34529    0.010
 6029.00    0.27893   0.34680    0.010
 6030.00    0.27788   0.34662    0.010
 6031.00    0.27638   0.34586    0.010
 6032.00    0.26904   0.34686    0.010
 6033.00    0.26381   0.34792    0.010
 6034.00    0.27667   0.34732    0.010
 6035.00    0.28913   0.34722    0.010
 6036.00    0.29911   0.34833    0.010
 6037.00    0.31034   0.34867    0.010
 6038.00    0.32791   0.34798    0.010
 6039.00    0.34053   0.34836    0.010
 6040.00    0.33314   0.34928    0.010
 6041.00    0.32226   0.34902    0.010
 6042.00    0.29965   0.34851    0.010
 6043.00    0.28190   0.34905    0.010
 6044.00    0.27791   0.34950    0.010
 6045.00    0.27688   0.34888    0.010
 6046.00    0.28301   0.34869    0.010
 6047.00    0.27789   0.34920    0.010
 6048.00    0.24924   0.34912    0.010
 6049.00    0.23517   0.34833    0.010
 6050.00    0.24760   0.34835    0.010
 6051.00    0.26481   0.34883    0.010
 6052.00    0.28961   0.34832    0.010
 6053.00    0.29657   0.34763    0.010
 6054.00    0.27866   0.34777    0.010
 6055.00    0.26382   0.34799    0.010
 6056.00    0.25275   0.34736    0.010
 6057.00    0.23387   0.34684    0.010
 6058.00    0.20653   0.34700    0.010
 6059.00    0.20057   0.34704    0.010
 6060.00    0.21503   0.34645    0.010
 6061.00    0.24558   0.34595    0.010
 6062.00    0.28967   0.34615    0.010
 6063.00    0.31441   0.34620    0.010
 6064.00    0.32481   0.34577    0.010
 6065.00    0.30719   0.34546    0.010
 6066.00    0.27132   0.34567    0.010
 6067.00    0.25126   0.34566    0.010
 6068.00    0.24021   0.34525    0.010
 6069.00    0.26327   0.34510    0.010
 6070.00    0.30324   0.34525    0.010
 6071.00    0.29904   0.34512    0.010
 6072.00    0.27590   0.34471    0.010
 6073.00    0.23321   0.34463    0.010
 6074.00    0.18335   0.34455    0.010
 6075.00    0.17686   0.34431    0.010
 6076.00    0.18387   0.34430    0.010
 6077.00    0.20907   0.34409    0.010
 6078.00    0.23899   0.34338    0.010
 6079.00    0.23766   0.34319    0.010
 6080.00    0.22970   0.34348    0.010
 6081.00    0.20803   0.34287    0.010
 6082.00    0.18406   0.34188    0.010
 6083.00    0.18735   0.34199    0.010
 6084.00    0.19408   0.34229    0.010
 6085.00    0.20886   0.34123    0.010
 6086.00    0.22435   0.34030    0.010
 6087.00    0.22064   0.34088    0.010
 6088.00    0.21594   0.34095    0.010
 6089.00    0.22618   0.33964    0.010
 6090.00    0.23660   0.33918    0.010
 6091.00    0.24000   0.33990    0.010
 6092.00    0.24230   0.33968    0.010
 6093.00    0.22102   0.33858    0.010
 6094.00    0.20158   0.33838    0.010
 6095.00    0.20463   0.33888    0.010
 6096.00    0.21039   0.33870    0.010
 6097.00    0.23871   0.33807    0.010
 6098.00    0.26188   0.33779    0.010
 6099.00    0.25326   0.33780    0.010
 6100.00    0.24214   0.33784    0.010
 6101.00    0.21893   0.33771    0.010
 6102.00    0.19383   0.33748    0.010
 6103.00    0.16125   0.33733    0.010
 6104.00    0.13471   0.33738    0.010
 6105.00    0.12809   0.33724    0.010
 6106.00    0.13205   0.33696    0.010
 6107.00    0.16545   0.33704    0.010
 6108.00    0.19584   0.33728    0.010
 6109.00    0.21906   0.33687    0.010
 6110.00    0.23537   0.33627    0.010
 6111.00    0.23746   0.33657    0.010
 6112.00    0.23365   0.33700    0.010
 6113.00    0.21929   0.33667    0.010
 6114.00    0.20750   0.33597    0.010
 6115.00    0.19973   0.33596    0.010
 6116.00    0.19041   0.33640    0.010
 6117.00    0.17897   0.33609    0.010
 6118.00    0.16192   0.33520    0.010
 6119.00    0.13809   0.33510    0.010
 6120.00    0.14376   0.33552    0.010
 6121.00    0.18090   0.33500    0.010
 6122.00    0.21746   0.33421    0.010
 6123.00    0.25347   0.33421    0.010
 6124.00    0.27656   0.33426    0.010
 6125.00    0.28894   0.33340    0.010
 6126.00    0.28109   0.33287    0.010
 6127.00    0.25849   0.33330    0.010
 6128.00    0.24951   0.33294    0.010
 6129.00    0.24927   0.33149    0.009
 6130.00    0.25912   0.33127    0.009
 6131.00    0.27463   0.33226    0.009
 6132.00    0.28497   0.33163    0.009
 6133.00    0.29279   0.32985    0.010
 6134.00    0.29739   0.32986    0.010
 6135.00    0.30064   0.33099    0.010
 6136.00    0.29075   0.33028    0.010
 6137.00    0.27611   0.32872    0.010
 6138.00    0.25375   0.32898    0.010
 6139.00    0.22902   0.32987    0.010
 6140.00    0.22856   0.32891    0.010
 6141.00    0.23426   0.32777    0.010
 6142.00    0.23658   0.32855    0.010
 6143.00    0.23820   0.32913    0.010
 6144.00    0.24358   0.32767    0.010
 6145.00    0.24958   0.32683    0.010
 6146.00    0.23710   0.32801    0.010
 6147.00    0.22237   0.32845    0.010
 6148.00    0.22492   0.32701    0.010
 6149.00    0.22890   0.32621    0.010
 6150.00    0.22329   0.32692    0.010
 6151.00    0.21722   0.32706    0.009
 6152.00    0.21577   0.32613    0.009
 6153.00    0.21486   0.32531    0.009
 6154.00    0.24105   0.32506    0.009
 6155.00    0.26714   0.32495    0.009
 6156.00    0.29123   0.32457    0.009
 6157.00    0.31182   0.32346    0.010
 6158.00    0.29211   0.32244    0.010
 6159.00    0.27504   0.32253    0.010
 6160.00    0.27920   0.32251    0.010
 6161.00    0.28583   0.32090    0.010
 6162.00    0.30726   0.31970    0.010
 6163.00    0.32446   0.32051    0.010
 6164.00    0.32151   0.32047    0.010
 6165.00    0.31716   0.31829    0.010
 6166.00    0.30741   0.31762    0.010
 6167.00    0.29242   0.31921    0.010
 6168.00    0.26054   0.31884    0.010
 6169.00    0.22762   0.31656    0.010
 6170.00    0.19188   0.31691    0.010
 6171.00    0.16284   0.31885    0.010
 6172.00    0.14945   0.31802    0.010
 6173.00    0.15178   0.31629    0.010
 6174.00    0.18592   0.31763    0.010
 6175.00    0.21575   0.31926    0.010
 6176.00    0.23798   0.31800    0.010
 6177.00    0.24052   0.31717    0.010
 6178.00    0.21268   0.31899    0.010
 6179.00    0.20014   0.31979    0.010
 6180.00    0.20831   0.31844    0.009
 6181.00    0.22303   0.31863    0.009
 6182.00    0.24556   0.32021    0.009
 6183.00    0.25346   0.31985    0.009
 6184.00    0.24598   0.31883    0.009
 6185.00    0.23145   0.31992    0.009
 6186.00    0.21037   0.32082    0.010
 6187.00    0.19925   0.31954    0.010
 6188.00    0.19625   0.31904    0.010
 6189.00    0.19439   0.32056    0.010
 6190.00    0.19335   0.32072    0.010
 6191.00    0.20379   0.31914    0.010
 6192.00    0.22150   0.31923    0.009
 6193.00    0.27739   0.32067    0.010
 6194.00    0.35437   0.32022    0.010
 6195.00    0.48586   0.31884    0.010
 6196.00    0.64354   0.31947   -2.000
 6197.00    0.84976   0.32064   -2.000
 6198.00    1.07611   0.31977   -2.000
 6199.00    1.08424   0.31874   -2.000
 6200.00    1.01503   0.31971   -2.000
 6201.00    0.80888   0.32058   -2.000
 6202.00    0.56175   0.31955   -2.000
 6203.00    0.36083   0.31878   -2.000
 6204.00    0.17138   0.31969   -2.000
 6205.00    0.13547   0.32022   -2.000
 6206.00    0.13047   0.31925   -2.000
 6207.00    0.16648   0.31857   -2.000
 6208.00    0.20895   0.31907    0.010
 6209.00    0.20973   0.31930    0.010
 6210.00    0.20562   0.31850    0.009
 6211.00    0.23578   0.31775    0.009
 6212.00    0.26865   0.31774    0.009
 6213.00    0.29854   0.31775    0.009
 6214.00    0.32829   0.31716    0.009
 6215.00    0.30083   0.31639    0.009
 6216.00    0.27248   0.31604    0.009
 6217.00    0.23111   0.31586    0.009
 6218.00    0.19198   0.31531    0.009
 6219.00    0.19390   0.31457    0.009
 6220.00    0.19743   0.31425    0.010
 6221.00    0.21874   0.31407    0.010
 6222.00    0.23836   0.31338    0.010
 6223.00    0.24493   0.31265    0.010
 6224.00    0.25121   0.31260    0.010
 6225.00    0.25570   0.31252    0.010
 6226.00    0.25826   0.31170    0.010
 6227.00    0.25182   0.31106    0.010
 6228.00    0.24626   0.31125    0.010
 6229.00    0.24400   0.31122    0.010
 6230.00    0.23839   0.31043    0.010
 6231.00    0.22220   0.30992    0.010
 6232.00    0.20491   0.31005    0.010
 6233.00    0.18469   0.30994    0.010
 6234.00    0.17341   0.30935    0.010
 6235.00    0.18271   0.30898    0.009
 6236.00    0.19425   0.30898    0.009
 6237.00    0.21025   0.30876    0.009
 6238.00    0.22416   0.30824    0.009
 6239.00    0.23443   0.30797    0.009
 6240.00    0.22433   0.30792    0.009
 6241.00    0.18327   0.30766    0.009
 6242.00    0.16519   0.30716    0.009
 6243.00    0.17781   0.30687    0.009
 6244.00    0.19669   0.30678    0.009
 6245.00    0.22296   0.30662    0.009
 6246.00    0.24438   0.30615    0.009
 6247.00    0.26077   0.30582    0.009
 6248.00    0.26031   0.30587    0.009
 6249.00    0.24444   0.30565    0.009
 6250.00    0.23596   0.30503    0.010
 6251.00    0.23345   0.30488    0.010
 6252.00    0.23244   0.30525    0.010
 6253.00    0.23251   0.30493    0.010
 6254.00    0.24902   0.30432    0.010
 6255.00    0.27578   0.30463    0.010
 6256.00    0.29720   0.30507    0.010
 6257.00    0.31572   0.30449    0.010
 6258.00    0.34957   0.30425    0.010
 6259.00    0.39067   0.30505    0.010
 6260.00    0.43243   0.30537    0.011
 6261.00    0.47446   0.30476    0.012
 6262.00    0.46253   0.30497    0.012
 6263.00    0.43182   0.30599    0.012
 6264.00    0.34783   0.30607    0.012
 6265.00    0.24822   0.30553    0.012
 6266.00    0.18592   0.30616    0.011
 6267.00    0.13268   0.30731    0.010
 6268.00    0.15406   0.30714    0.010
 6269.00    0.19008   0.30666    0.009
 6270.00    0.23139   0.30754    0.009
 6271.00    0.27351   0.30858    0.009
 6272.00    0.27536   0.30816    0.009
 6273.00    0.27267   0.30783    0.009
 6274.00    0.23376   0.30878    0.009
 6275.00    0.19213   0.30949    0.009
 6276.00    0.16917   0.30898    0.009
 6277.00    0.14696   0.30877    0.009
 6278.00    0.14144   0.30952    0.009
 6279.00    0.13693   0.30994    0.009
 6280.00    0.16830   0.30957    0.000
 6281.00    0.20064   0.30940    0.000
 6282.00    0.24964   0.30980    0.000
 6283.00    0.29326   0.31005    0.000
 6284.00    0.28026   0.30983    0.000
 6285.00    0.26987   0.30959    0.000
 6286.00    0.27898   0.30975    0.000
 6287.00    0.28495   0.30998    0.000
 6288.00    0.27307   0.30976    0.000
 6289.00    0.25952   0.30935    0.000
 6290.00    0.23841   0.30934    0.000
 6291.00    0.22354   0.30961    0.000
 6292.00    0.23184   0.30940    0.000
 6293.00    0.23573   0.30877    0.000
 6294.00    0.22593   0.30860    0.000
 6295.00    0.21689   0.30898    0.000
 6296.00    0.20984   0.30879    0.000
 6297.00    0.21194   0.30798    0.000
 6298.00    0.23475   0.30772    0.000
 6299.00    0.25294   0.30816    0.000
 6300.00    0.26208   0.30799    0.000
 6301.00    0.25950   0.30719    0.000
 6302.00    0.23687   0.30689    0.000
 6303.00    0.22411   0.30727    0.000
 6304.00    0.22615   0.30716    0.000
 6305.00    0.24223   0.30653    0.000
 6306.00    0.27678   0.30620    0.000
 6307.00    0.30043   0.30648    0.000
 6308.00    0.31144   0.30654    0.000
 6309.00    0.31363   0.30604    0.000
 6310.00    0.30680   0.30558    0.000
 6311.00    0.28455   0.30582    0.000
 6312.00    0.24837   0.30617    0.000
 6313.00    0.21625   0.30573    0.000
 6314.00    0.18734   0.30504    0.000
 6315.00    0.17233   0.30528    0.000
 6316.00    0.16703   0.30598    0.000
 6317.00    0.17331   0.30559    0.000
 6318.00    0.18667   0.30468    0.000
 6319.00    0.20177   0.30491    0.000
 6320.00    0.21780   0.30590    0.000
 6321.00    0.21796   0.30560    0.009
 6322.00    0.21072   0.30456    0.009
 6323.00    0.20406   0.30476    0.009
 6324.00    0.19761   0.30587    0.009
 6325.00    0.19990   0.30570    0.009
 6326.00    0.20517   0.30468    0.009
 6327.00    0.20474   0.30477    0.009
 6328.00    0.20268   0.30578    0.009
 6329.00    0.21047   0.30576    0.009
 6330.00    0.22060   0.30484    0.009
 6331.00    0.23084   0.30469    0.010
 6332.00    0.24110   0.30549    0.010
 6333.00    0.25407   0.30568    0.009
 6334.00    0.26743   0.30479    0.009
 6335.00    0.25834   0.30426    0.009
 6336.00    0.24683   0.30491    0.010
 6337.00    0.22307   0.30537    0.010
 6338.00    0.19845   0.30439    0.009
 6339.00    0.19001   0.30347    0.009
 6340.00    0.18217   0.30415    0.009
 6341.00    0.18047   0.30482    0.009
 6342.00    0.17777   0.30364    0.009
 6343.00    0.13941   0.30250    0.009
 6344.00    0.10261   0.30336    0.009
 6345.00    0.09076   0.30410    0.009
 6346.00    0.08549   0.30268    0.009
 6347.00    0.14655   0.30153    0.009
 6348.00    0.20441   0.30263    0.009
 6349.00    0.23917   0.30328    0.009
 6350.00    0.26343   0.30163    0.009
 6351.00    0.22963   0.30062    0.009
 6352.00    0.19846   0.30189    0.009
 6353.00    0.17898   0.30229    0.009
 6354.00    0.16483   0.30053    0.009
 6355.00    0.17005   0.29984    0.009
 6356.00    0.18251   0.30118    0.009
 6357.00    0.21707   0.30125    0.009
 6358.00    0.24977   0.29949    0.009
 6359.00    0.27767   0.29913    0.009
 6360.00    0.29490   0.30048    0.010
 6361.00    0.28835   0.30034    0.010
 6362.00    0.27521   0.29874    0.010
 6363.00    0.24933   0.29874    0.010
 6364.00    0.23095   0.30007    0.010
 6365.00    0.22520   0.29983    0.010
 6366.00    0.22430   0.29853    0.010
 6367.00    0.23055   0.29885    0.009
 6368.00    0.23074   0.30010    0.009
 6369.00    0.22304   0.29986    0.009
 6370.00    0.21547   0.29891    0.009
 6371.00    0.20803   0.29945    0.009
 6372.00    0.20724   0.30057    0.009
 6373.00    0.21317   0.30032    0.009
 6374.00    0.20950   0.29970    0.009
 6375.00    0.19730   0.30034    0.009
 6376.00    0.18535   0.30121    0.009
 6377.00    0.17358   0.30091    0.009
 6378.00    0.17593   0.30056    0.009
 6379.00    0.18802   0.30119    0.009
 6380.00    0.20621   0.30167    0.009
 6381.00    0.22809   0.30127    0.009
 6382.00    0.22947   0.30116    0.009
 6383.00    0.22004   0.30168    0.009
 6384.00    0.19656   0.30170    0.009
 6385.00    0.16666   0.30124    0.009
 6386.00    0.16741   0.30140    0.009
 6387.00    0.18022   0.30170    0.009
 6388.00    0.19770   0.30122    0.009
 6389.00    0.21676   0.30084    0.009
 6390.00    0.23058   0.30131    0.009
 6391.00    0.24294   0.30129    0.009
 6392.00    0.25043   0.30038    0.009
 6393.00    0.25680   0.30027    0.009
 6394.00    0.24289   0.30102    0.009
 6395.00    0.22520   0.30059    0.010
 6396.00    0.20878   0.29941    0.009
 6397.00    0.19254   0.29971    0.009
 6398.00    0.20341   0.30063    0.009
 6399.00    0.21711   0.29977    0.009
 6400.00    0.23594   0.29854    0.009
 6401.00    0.25511   0.29931    0.009
 6402.00    0.26963   0.30022    0.009
 6403.00    0.28399   0.29896    0.009
 6404.00    0.25072   0.29790    0.009
 6405.00    0.21776   0.29905    0.009
 6406.00    0.19475   0.29975    0.009
 6407.00    0.17510   0.29827    0.009
 6408.00    0.20575   0.29751    0.009
 6409.00    0.23430   0.29883    0.010
 6410.00    0.24250   0.29924    0.010
 6411.00    0.24798   0.29774    0.010
 6412.00    0.23441   0.29731    0.010
 6413.00    0.22467   0.29858    0.010
 6414.00    0.23551   0.29870    0.010
 6415.00    0.24472   0.29739    0.009
 6416.00    0.24686   0.29725    0.009
 6417.00    0.24702   0.29831    0.009
 6418.00    0.24015   0.29823    0.009
 6419.00    0.23152   0.29723    0.009
 6420.00    0.21763   0.29729    0.009
 6421.00    0.21273   0.29806    0.009
 6422.00    0.23069   0.29790    0.009
 6423.00    0.25095   0.29723    0.009
 6424.00    0.27624   0.29741    0.009
 6425.00    0.28488   0.29793    0.009
 6426.00    0.26187   0.29769    0.009
 6427.00    0.24443   0.29725    0.009
 6428.00    0.23620   0.29757    0.009
 6429.00    0.22882   0.29792    0.009
 6430.00    0.22266   0.29751    0.010
 6431.00    0.21517   0.29720    0.010
 6432.00    0.20597   0.29771    0.010
 6433.00    0.20781   0.29792    0.010
 6434.00    0.22210   0.29728    0.009
 6435.00    0.24338   0.29707    0.009
 6436.00    0.27162   0.29777    0.009
 6437.00    0.27082   0.29782    0.009
 6438.00    0.24458   0.29693    0.009
 6439.00    0.23237   0.29685    0.009
 6440.00    0.23099   0.29769    0.009
 6441.00    0.22661   0.29752    0.009
 6442.00    0.22018   0.29644    0.009
 6443.00    0.21283   0.29651    0.009
 6444.00    0.20491   0.29736    0.009
 6445.00    0.21666   0.29693    0.009
 6446.00    0.23862   0.29581    0.009
 6447.00    0.23101   0.29601    0.009
 6448.00    0.21010   0.29673    0.009
 6449.00    0.20029   0.29609    0.009
 6450.00    0.19476   0.29504    0.010
 6451.00    0.19555   0.29533    0.010
 6452.00    0.19842   0.29587    0.009
 6453.00    0.19759   0.29517    0.009
 6454.00    0.19575   0.29426    0.009
 6455.00    0.21167   0.29455    0.009
 6456.00    0.23161   0.29499    0.009
 6457.00    0.24026   0.29437    0.009
 6458.00    0.24686   0.29360    0.010
 6459.00    0.22362   0.29384    0.010
 6460.00    0.19622   0.29430    0.010
 6461.00    0.17605   0.29385    0.009
 6462.00    0.15660   0.29314    0.009
 6463.00    0.16376   0.29332    0.009
 6464.00    0.17260   0.29388    0.009
 6465.00    0.16643   0.29360    0.009
 6466.00    0.15985   0.29286    0.009
 6467.00    0.15880   0.29296    0.009
 6468.00    0.15868   0.29361    0.009
 6469.00    0.18446   0.29343    0.009
 6470.00    0.21057   0.29260    0.009
 6471.00    0.24133   0.29259    0.009
 6472.00    0.26458   0.29326    0.009
 6473.00    0.21819   0.29307    0.009
 6474.00    0.17385   0.29211    0.009
 6475.00    0.14338   0.29198    0.009
 6476.00    0.11873   0.29258    0.009
 6477.00    0.12456   0.29230    0.009
 6478.00    0.13077   0.29116    0.009
 6479.00    0.13865   0.29090    0.009
 6480.00    0.14425   0.29140    0.009
 6481.00    0.14189   0.29094    0.009
 6482.00    0.14299   0.28962    0.009
 6483.00    0.15424   0.28923    0.009
 6484.00    0.16435   0.28962    0.009
 6485.00    0.17160   0.28897    0.009
 6486.00    0.17351   0.28752    0.009
 6487.00    0.16391   0.28705    0.009
 6488.00    0.15809   0.28734    0.009
 6489.00    0.15935   0.28660    0.009
 6490.00    0.16445   0.28514    0.009
 6491.00    0.17584   0.28465    0.009
 6492.00    0.18479   0.28490    0.009
 6493.00    0.19023   0.28426    0.009
 6494.00    0.19206   0.28298    0.009
 6495.00    0.18932   0.28255    0.009
 6496.00    0.18779   0.28284    0.009
 6497.00    0.18759   0.28250    0.009
 6498.00    0.19793   0.28161    0.009
 6499.00    0.21859   0.28130    0.009
 6500.00    0.23069   0.28169    0.009
 6501.00    0.23540   0.28175    0.009
 6502.00    0.22516   0.28131    0.009
 6503.00    0.20352   0.28114    0.009
 6504.00    0.18092   0.28158    0.009
 6505.00    0.15766   0.28200    0.009
 6506.00    0.16379   0.28193    0.009
 6507.00    0.18714   0.28181    0.009
 6508.00    0.21278   0.28223    0.009
 6509.00    0.23958   0.28283    0.009
 6510.00    0.23778   0.28292    0.009
 6511.00    0.22331   0.28274    0.009
 6512.00    0.20044   0.28307    0.009
 6513.00    0.17436   0.28367    0.009
 6514.00    0.17054   0.28370    0.009
 6515.00    0.17391   0.28339    0.009
 6516.00    0.18819   0.28363    0.009
 6517.00    0.20542   0.28411    0.009
 6518.00    0.21041   0.28395    0.009
 6519.00    0.21270   0.28353    0.009
 6520.00    0.20661   0.28372    0.009
 6521.00    0.19904   0.28404    0.009
 6522.00    0.18878   0.28368    0.009
 6523.00    0.17815   0.28321    0.009
 6524.00    0.17932   0.28338    0.009
 6525.00    0.18162   0.28352    0.009
 6526.00    0.17578   0.28300    0.009
 6527.00    0.16947   0.28257    0.009
 6528.00    0.16219   0.28269    0.000
 6529.00    0.15505   0.28259    0.000
 6530.00    0.17301   0.28196    0.000
 6531.00    0.19075   0.28158    0.000
 6532.00    0.20315   0.28159    0.000
 6533.00    0.21530   0.28117    0.000
 6534.00    0.22414   0.28038    0.000
 6535.00    0.23203   0.28002    0.000
 6536.00    0.23155   0.27984    0.000
 6537.00    0.23037   0.27901    0.000
 6538.00    0.22461   0.27795    0.000
 6539.00    0.21563   0.27749    0.000
 6540.00    0.19018   0.27709    0.000
 6541.00    0.16921   0.27581    0.000
 6542.00    0.16678   0.27428    0.000
 6543.00    0.16909   0.27357    0.000
 6544.00    0.18761   0.27297    0.000
 6545.00    0.20563   0.27122    0.000
 6546.00    0.22221   0.26904    0.000
 6547.00    0.23225   0.26794    0.000
 6548.00    0.22618   0.26722    0.000
 6549.00    0.21443   0.26509    0.000
 6550.00    0.19062   0.26215    0.000
 6551.00    0.17845   0.26062    0.000
 6552.00    0.18771   0.25999    0.000
 6553.00    0.20491   0.25768    0.000
 6554.00    0.23491   0.25405    0.000
 6555.00    0.25324   0.25224    0.000
 6556.00    0.25510   0.25204    0.000
 6557.00    0.26293   0.24989    0.000
 6558.00    0.27819   0.24590    0.000
 6559.00    0.29755   0.24417    0.000
 6560.00    0.32141   0.24478    0.000
 6561.00    0.32760   0.24324    0.000
 6562.00    0.31672   0.23944    0.000
 6563.00    0.28789   0.23824    0.000
 6564.00    0.24377   0.23989    0.000
 6565.00    0.21879   0.23933    0.000
 6566.00    0.20818   0.23634    0.000
 6567.00    0.21415   0.23602    0.000
 6568.00    0.23105   0.23861    0.000
 6569.00    0.22495   0.23912    0.000
 6570.00    0.20556   0.23737    0.000
 6571.00    0.18037   0.23799    0.000
 6572.00    0.15227   0.24109    0.000
 6573.00    0.15506   0.24243    0.000
 6574.00    0.17129   0.24196    0.000
 6575.00    0.20299   0.24330    0.000
 6576.00    0.24045   0.24632    0.000
 6577.00    0.23516   0.24798    0.000
 6578.00    0.21634   0.24849    0.000
 6579.00    0.18610   0.25016    0.000
 6580.00    0.15284   0.25263    0.000
 6581.00    0.13451   0.25415    0.000
 6582.00    0.11941   0.25517    0.000
 6583.00    0.14462   0.25682    0.000
 6584.00    0.17673   0.25851    0.000
 6585.00    0.19198   0.25958    0.000
 6586.00    0.20504   0.26074    0.000
 6587.00    0.18172   0.26219    0.000
 6588.00    0.15507   0.26312    0.000
 6589.00    0.14178   0.26366    0.000
 6590.00    0.12923   0.26473    0.000
 6591.00    0.12103   0.26597    0.000
 6592.00    0.11334   0.26633    0.000
 6593.00    0.14531   0.26640    0.000
 6594.00    0.17653   0.26733    0.000
 6595.00    0.19050   0.26842    0.000
 6596.00    0.20221   0.26842    0.000
 6597.00    0.18519   0.26818    0.000
 6598.00    0.17231   0.26898    0.000
 6599.00    0.19490   0.26999    0.000
 6600.00    0.21637   0.26983    0.000
 6601.00    0.23072   0.26940    0.000
 6602.00    0.24405   0.27012    0.000
 6603.00    0.25230   0.27108    0.000
 6604.00    0.26117   0.27086    0.000
 6605.00    0.27250   0.27033    0.000
 6606.00    0.27471   0.27099    0.000
 6607.00    0.24637   0.27194    0.000
 6608.00    0.21562   0.27169    0.000
 6609.00    0.17807   0.27110    0.009
 6610.00    0.15137   0.27170    0.009
 6611.00    0.15092   0.27263    0.009
 6612.00    0.14547   0.27236    0.009
 6613.00    0.12961   0.27171    0.009
 6614.00    0.11766   0.27222    0.009
 6615.00    0.11281   0.27309    0.009
 6616.00    0.11483   0.27282    0.009
 6617.00    0.12776   0.27212    0.009
 6618.00    0.14539   0.27249    0.009
 6619.00    0.16955   0.27325    0.009
 6620.00    0.18844   0.27296    0.009
 6621.00    0.20087   0.27224    0.009
 6622.00    0.22135   0.27245    0.009
 6623.00    0.25054   0.27302    0.009
 6624.00    0.27804   0.27272    0.009
 6625.00    0.30394   0.27202    0.009
 6626.00    0.29454   0.27206    0.009
 6627.00    0.25552   0.27244    0.009
 6628.00    0.22057   0.27215    0.009
 6629.00    0.18864   0.27152    0.009
 6630.00    0.17498   0.27141    0.009
 6631.00    0.17317   0.27160    0.009
 6632.00    0.16448   0.27139    0.009
 6633.00    0.15187   0.27092    0.009
 6634.00    0.14938   0.27070    0.009
 6635.00    0.15189   0.27070    0.009
 6636.00    0.15616   0.27062    0.009
 6637.00    0.16119   0.27040    0.009
 6638.00    0.16048   0.27011    0.009
 6639.00    0.15767   0.26991    0.009
 6640.00    0.17044   0.26995    0.009
 6641.00    0.18806   0.27003    0.009
 6642.00    0.19387   0.26974    0.009
 6643.00    0.19664   0.26933    0.009
 6644.00    0.19865   0.26941    0.009
 6645.00    0.20051   0.26976    0.009
 6646.00    0.20511   0.26953    0.009
 6647.00    0.21016   0.26893    0.009
 6648.00    0.21336   0.26896    0.009
 6649.00    0.21632   0.26947    0.009
 6650.00    0.19431   0.26933    0.009
 6651.00    0.17013   0.26861    0.009
 6652.00    0.14560   0.26853    0.009
 6653.00    0.12106   0.26907    0.009
 6654.00    0.13780   0.26897    0.009
 6655.00    0.15511   0.26823    0.009
 6656.00    0.16025   0.26805    0.009
 6657.00    0.16553   0.26851    0.009
 6658.00    0.17352   0.26844    0.009
 6659.00    0.18031   0.26773    0.009
 6660.00    0.17269   0.26750    0.009
 6661.00    0.16366   0.26784    0.009
 6662.00    0.14301   0.26777    0.009
 6663.00    0.12400   0.26718    0.009
 6664.00    0.11502   0.26692    0.009
 6665.00    0.10927   0.26713    0.009
 6666.00    0.11914   0.26707    0.009
 6667.00    0.12787   0.26665    0.009
 6668.00    0.13211   0.26641    0.010
 6669.00    0.14550   0.26645    0.010
 6670.00    0.18896   0.26639    0.009
 6671.00    0.21599   0.26620    0.009
 6672.00    0.19740   0.26603    0.009
 6673.00    0.17447   0.26586    0.009
 6674.00    0.14121   0.26576    0.009
 6675.00    0.12601   0.26583    0.009
 6676.00    0.14790   0.26579    0.009
 6677.00    0.17084   0.26543    0.009
 6678.00    0.19567   0.26521    0.009
 6679.00    0.19527   0.26549    0.009
 6680.00    0.15544   0.26562    0.009
 6681.00    0.13992   0.26515    0.009
 6682.00    0.15774   0.26480    0.009
 6683.00    0.16837   0.26515    0.009
 6684.00    0.17030   0.26545    0.009
 6685.00    0.18396   0.26500    0.009
 6686.00    0.21013   0.26455    0.009
 6687.00    0.23488   0.26482    0.010
 6688.00    0.25831   0.26518    0.010
 6689.00    0.26258   0.26487    0.010
 6690.00    0.25100   0.26442    0.010
 6691.00    0.24572   0.26450    0.009
 6692.00    0.24503   0.26475    0.009
 6693.00    0.23209   0.26462    0.009
 6694.00    0.21131   0.26428    0.009
 6695.00    0.20363   0.26414    0.009
 6696.00    0.20327   0.26417    0.000
 6697.00    0.19967   0.26416    0.000
 6698.00    0.19447   0.26398    0.000
 6699.00    0.19172   0.26369    0.000
 6700.00    0.19000   0.26346    0.000
 6701.00    0.17933   0.26347    0.000
 6702.00    0.16544   0.26345    0.000
 6703.00    0.15873   0.26311    0.000
 6704.00    0.15419   0.26266    0.000
 6705.00    0.16025   0.26257    0.000
 6706.00    0.16898   0.26267    0.000
 6707.00    0.16570   0.26240    0.000
 6708.00    0.15994   0.26182    0.000
 6709.00    0.17644   0.26155    0.000
 6710.00    0.19655   0.26168    0.000
 6711.00    0.18642   0.26159    0.000
 6712.00    0.17263   0.26101    0.000
 6713.00    0.18405   0.26052    0.000
 6714.00    0.19756   0.26060    0.000
 6715.00    0.22023   0.26077    0.000
 6716.00    0.24334   0.26033    0.000
 6717.00    0.24026   0.25964    0.000
 6718.00    0.23591   0.25961    0.000
 6719.00    0.18095   0.26005    0.000
 6720.00    0.12759   0.25987    0.000
 6721.00    0.10533   0.25908    0.000
 6722.00    0.08624   0.25888    0.000
 6723.00    0.10357   0.25950    0.000
 6724.00    0.12018   0.25965    0.000
 6725.00    0.13101   0.25887    0.000
 6726.00    0.14368   0.25847    0.000
 6727.00    0.16739   0.25913    0.000
 6728.00    0.18794   0.25956    0.000
 6729.00    0.19352   0.25889    0.000
 6730.00    0.19757   0.25832    0.000
 6731.00    0.19568   0.25886    0.000
 6732.00    0.19086   0.25944    0.000
 6733.00    0.17664   0.25894    0.000
 6734.00    0.16019   0.25825    0.000
 6735.00    0.13767   0.25855    0.000
 6736.00    0.13031   0.25914    0.000
 6737.00    0.15836   0.25882    0.000
 6738.00    0.18166   0.25810    0.000
 6739.00    0.19540   0.25813    0.000
 6740.00    0.19960   0.25862    0.000
 6741.00    0.18701   0.25848    0.000
 6742.00    0.19111   0.25785    0.000
 6743.00    0.22090   0.25766    0.000
 6744.00    0.23412   0.25798    0.000
 6745.00    0.22493   0.25798    0.000
 6746.00    0.21417   0.25751    0.000
 6747.00    0.20154   0.25724    0.000
 6748.00    0.19943   0.25742    0.000
 6749.00    0.20836   0.25748    0.000
 6750.00    0.22262   0.25720    0.000
 6751.00    0.24180   0.25699    0.000
 6752.00    0.25388   0.25709    0.000
 6753.00    0.26015   0.25713    0.011
 6754.00    0.27246   0.25701    0.011
 6755.00    0.28910   0.25695    0.011
 6756.00    0.28476   0.25703    0.011
 6757.00    0.26720   0.25703    0.011
 6758.00    0.22386   0.25697    0.011
 6759.00    0.16631   0.25704    0.011
 6760.00    0.15897   0.25717    0.011
 6761.00    0.17568   0.25712    0.011
 6762.00    0.15947   0.25704    0.011
 6763.00    0.12963   0.25714    0.011
 6764.00    0.13281   0.25732    0.011
 6765.00    0.14768   0.25729    0.011
 6766.00    0.20906   0.25715    0.011
 6767.00    0.28433   0.25717    0.011
 6768.00    0.31726   0.25734    0.011
 6769.00    0.33970   0.25739    0.011
 6770.00    0.32172   0.25722    0.011
 6771.00    0.29561   0.25709    0.011
 6772.00    0.27769   0.25717    0.011
 6773.00    0.26105   0.25730    0.010
 6774.00    0.28495   0.25715    0.010
 6775.00    0.31357   0.25690    0.010
 6776.00    0.27515   0.25687    0.010
 6777.00    0.23145   0.25699    0.010
 6778.00    0.18868   0.25687    0.010
 6779.00    0.14595   0.25661    0.011
 6780.00    0.13075   0.25647    0.011
 6781.00    0.11636   0.25650    0.011
 6782.00    0.12595   0.25639    0.011
 6783.00    0.13412   0.25620    0.011
 6784.00    0.11653   0.25604    0.010
 6785.00    0.10322   0.25592    0.010
 6786.00    0.13673   0.25577    0.010
 6787.00    0.17192   0.25570    0.010
 6788.00    0.22010   0.25562    0.010
 6789.00    0.25897   0.25539    0.010
 6790.00    0.24356   0.25515    0.010
 6791.00    0.22691   0.25517    0.010
 6792.00    0.20445   0.25523    0.011
 6793.00    0.18901   0.25497    0.011
 6794.00    0.20007   0.25465    0.011
 6795.00    0.20381   0.25471    0.011
 6796.00    0.18445   0.25489    0.010
 6797.00    0.17509   0.25469    0.010
 6798.00    0.19248   0.25430    0.010
 6799.00    0.20881   0.25435    0.011
 6800.00    0.22268   0.25466    0.010
 6801.00    0.21859   0.25453    0.010
 6802.00    0.17878   0.25410    0.010
 6803.00    0.14579   0.25409    0.010
 6804.00    0.12461   0.25445    0.010
 6805.00    0.11856   0.25443    0.010
 6806.00    0.13547   0.25398    0.010
 6807.00    0.15949   0.25387    0.010
 6808.00    0.19299   0.25423    0.010
 6809.00    0.20701   0.25438    0.010
 6810.00    0.19815   0.25395    0.010
 6811.00    0.19841   0.25365    0.010
 6812.00    0.20812   0.25400    0.010
 6813.00    0.21993   0.25434    0.011
 6814.00    0.23366   0.25398    0.011
 6815.00    0.23921   0.25348    0.011
 6816.00    0.23818   0.25374    0.011
 6817.00    0.24785   0.25428    0.011
 6818.00    0.26509   0.25403    0.010
 6819.00    0.26673   0.25337    0.010
 6820.00    0.25867   0.25348    0.010
 6821.00    0.26466   0.25411    0.010
 6822.00    0.27826   0.25406    0.010
 6823.00    0.28660   0.25337    0.010
 6824.00    0.29245   0.25317    0.010
 6825.00    0.27881   0.25374    0.010
 6826.00    0.25725   0.25396    0.010
 6827.00    0.24228   0.25337    0.010
 6828.00    0.22961   0.25284    0.010
 6829.00    0.22338   0.25315    0.010
 6830.00    0.21903   0.25360    0.010
 6831.00    0.20340   0.25326    0.010
 6832.00    0.18505   0.25252    0.010
 6833.00    0.19702   0.25243    0.010
 6834.00    0.21493   0.25290    0.010
 6835.00    0.24431   0.25287    0.010
 6836.00    0.27543   0.25216    0.011
 6837.00    0.27631   0.25173    0.011
 6838.00    0.27379   0.25201    0.011
 6839.00    0.22953   0.25220    0.011
 6840.00    0.18214   0.25172    0.011
 6841.00    0.18272   0.25112    0.011
 6842.00    0.18522   0.25109    0.011
 6843.00    0.16837   0.25137    0.010
 6844.00    0.15374   0.25124    0.010
 6845.00    0.23217   0.25066    0.010
 6846.00    0.30263   0.25033    0.010
 6847.00    0.23838   0.25053    0.010
 6848.00    0.18018   0.25069    0.010
 6849.00    0.18538   0.25030    0.010
 6850.00    0.18829   0.24978    0.010
 6851.00    0.17428   0.24979    0.010
 6852.00    0.16531   0.25011    0.010
 6853.00    0.18495   0.24998    0.010
 6854.00    0.20129   0.24942    0.010
 6855.00    0.20272   0.24918    0.010
 6856.00    0.19970   0.24953    0.010
 6857.00    0.18020   0.24964    0.010
 6858.00    0.17524   0.24914    0.010
 6859.00    0.21530   0.24871    0.010
 6860.00    0.24333   0.24899    0.010
 6861.00    0.23971   0.24927    0.010
 6862.00    0.23906   0.24886    0.010
 6863.00    0.24513   0.24834    0.010
 6864.00    0.24418   0.24854    0.010
 6865.00    0.22945   0.24889    0.010
 6866.00    0.21265   0.24860    0.010
 6867.00    0.19229   0.24815    0.010
 6868.00    0.16834   0.24823    0.010
 6869.00    0.13903   0.24851    0.010
 6870.00    0.11071   0.24840    0.010
 6871.00    0.08371   0.24812    0.010
 6872.00    0.08211   0.24804    0.010
 6873.00    0.10990   0.24825    0.010
 6874.00    0.14191   0.24839    0.010
 6875.00    0.17822   0.24822    0.010
 6876.00    0.18899   0.24793    0.010
 6877.00    0.17678   0.24810    0.010
 6878.00    0.14604   0.24847    0.010
 6879.00    0.10062   0.24840    0.010
 6880.00    0.09988   0.24807    0.010
 6881.00    0.13032   0.24822    0.010
 6882.00    0.16690   0.24857    0.010
 6883.00    0.20723   0.24855    0.010
 6884.00    0.21591   0.24843    0.010
 6885.00    0.20766   0.24863    0.010
 6886.00    0.16670   0.24881    0.010
 6887.00    0.11057   0.24874    0.010
 6888.00    0.14071   0.24886    0.010
 6889.00    0.20533   0.24917    0.010
 6890.00    0.21753   0.24922    0.010
 6891.00    0.21186   0.24906    0.010
 6892.00    0.18830   0.24925    0.010
 6893.00    0.15961   0.24965    0.010
 6894.00    0.18193   0.24979    0.010
 6895.00    0.21632   0.24957    0.010
 6896.00    0.23436   0.24957    0.010
 6897.00    0.24928   0.24990    0.010
 6898.00    0.22795   0.25033    0.010
 6899.00    0.20126   0.25019    0.010
 6900.00    0.20107   0.24978    0.010
 6901.00    0.20373   0.24992    0.010
 6902.00    0.21400   0.25064    0.010
 6903.00    0.22481   0.25064    0.010
 6904.00    0.21679   0.24988    0.010
 6905.00    0.20809   0.24978    0.010
 6906.00    0.17600   0.25061    0.010
 6907.00    0.14405   0.25078    0.010
 6908.00    0.11980   0.24992    0.010
 6909.00    0.09650   0.24957    0.010
 6910.00    0.08813   0.25020    0.010
 6911.00    0.08464   0.25052    0.009
 6912.00    0.12998   0.24982    0.010
 6913.00    0.16509   0.24929    0.010
 6914.00    0.12664   0.24958    0.010
 6915.00    0.09463   0.24994    0.010
 6916.00    0.09810   0.24950    0.010
 6917.00    0.09937   0.24895    0.010
 6918.00    0.09088   0.24896    0.010
 6919.00    0.09559   0.24922    0.010
 6920.00    0.14814   0.24898    0.010
 6921.00    0.19538   0.24852    0.010
 6922.00    0.22651   0.24842    0.010
 6923.00    0.24132   0.24858    0.010
 6924.00    0.21395   0.24841    0.010
 6925.00    0.17811   0.24801    0.010
 6926.00    0.12343   0.24801    0.010
 6927.00    0.10088   0.24816    0.010
 6928.00    0.14022   0.24792    0.010
 6929.00    0.16924   0.24753    0.010
 6930.00    0.18090   0.24765    0.010
 6931.00    0.18340   0.24789    0.010
 6932.00    0.17241   0.24759    0.010
 6933.00    0.15604   0.24712    0.010
 6934.00    0.13271   0.24724    0.010
 6935.00    0.14552   0.24761    0.010
 6936.00    0.19956   0.24743    0.010
 6937.00    0.21321   0.24691    0.010
 6938.00    0.18620   0.24690    0.010
 6939.00    0.18811   0.24732    0.010
 6940.00    0.21566   0.24725    0.011
 6941.00    0.19158   0.24674    0.010
 6942.00    0.12711   0.24659    0.010
 6943.00    0.10766   0.24701    0.010
 6944.00    0.11917   0.24705    0.011
 6945.00    0.12640   0.24661    0.010
 6946.00    0.13106   0.24640    0.010
 6947.00    0.13680   0.24672    0.010
 6948.00    0.14312   0.24684    0.010
 6949.00    0.17682   0.24648    0.010
 6950.00    0.22302   0.24630    0.010
 6951.00    0.20361   0.24656    0.010
 6952.00    0.15843   0.24671    0.010
 6953.00    0.13372   0.24639    0.010
 6954.00    0.11586   0.24626    0.010
 6955.00    0.14783   0.24651    0.010
 6956.00    0.19381   0.24670    0.010
 6957.00    0.15873   0.24650    0.010
 6958.00    0.10491   0.24632    0.010
 6959.00    0.13794   0.24651    0.010
 6960.00    0.18711   0.24678    0.010
 6961.00    0.17028   0.24665    0.011
 6962.00    0.14401   0.24632    0.011
 6963.00    0.18200   0.24652    0.011
 6964.00    0.22665   0.24691    0.011
 6965.00    0.20972   0.24676    0.011
 6966.00    0.18869   0.24622    0.011
 6967.00    0.22389   0.24640    0.011
 6968.00    0.26089   0.24691    0.011
 6969.00    0.21602   0.24673    0.010
 6970.00    0.17311   0.24601    0.010
 6971.00    0.18993   0.24605    0.010
 6972.00    0.20641   0.24668    0.010
 6973.00    0.21782   0.24659    0.010
 6974.00    0.22533   0.24581    0.010
 6975.00    0.19537   0.24558    0.010
 6976.00    0.16024   0.24617    0.010
 6977.00    0.08919   0.24633    0.010
 6978.00    0.03812   0.24567    0.010
 6979.00    0.09429   0.24516    0.010
 6980.00    0.14412   0.24562    0.010
 6981.00    0.16664   0.24600    0.010
 6982.00    0.17669   0.24550    0.011
 6983.00    0.14251   0.24492    0.010
 6984.00    0.11766   0.24530    0.010
 6985.00    0.12066   0.24575    0.010
 6986.00    0.12973   0.24534    0.010
 6987.00    0.15422   0.24483    0.010
 6988.00    0.16197   0.24516    0.010
 6989.00    0.13314   0.24559    0.010
 6990.00    0.11505   0.24530    0.010
 6991.00    0.11734   0.24489    0.010
 6992.00    0.14090   0.24510    0.010
 6993.00    0.19965   0.24540    0.010
 6994.00    0.23430   0.24515    0.010
 6995.00    0.23399   0.24477    0.010
 6996.00    0.22766   0.24490    0.010
 6997.00    0.21364   0.24516    0.010
 6998.00    0.19991   0.24488    0.010
 6999.00    0.18652   0.24439    0.010
 7000.00    0.17098   0.24447    0.010
 7001.00    0.15329   0.24483    0.010
 7002.00    0.16034   0.24458    0.010
 7003.00    0.18902   0.24386    0.010
 7004.00    0.17515   0.24375    0.011
 7005.00    0.12850   0.24426    0.011
 7006.00    0.10466   0.24420    0.011
 7007.00    0.09628   0.24335    0.010
 7008.00    0.13348   0.24298    0.010
 7009.00    0.19774   0.24354    0.010
 7010.00    0.20775   0.24370    0.010
 7011.00    0.18966   0.24289    0.010
 7012.00    0.18018   0.24240    0.010
 7013.00    0.17457   0.24293    0.010
 7014.00    0.14955   0.24321    0.010
 7015.00    0.11705   0.24249    0.010
 7016.00    0.09867   0.24189    0.010
 7017.00    0.08494   0.24238    0.010
 7018.00    0.09720   0.24291    0.010
 7019.00    0.11662   0.24239    0.010
 7020.00    0.11532   0.24160    0.010
 7021.00    0.10933   0.24187    0.011
 7022.00    0.13268   0.24264    0.011
 7023.00    0.16132   0.24249    0.011
 7024.00    0.17587   0.24167    0.011
 7025.00    0.18846   0.24165    0.011
 7026.00    0.23837   0.24242    0.011
 7027.00    0.29198   0.24264    0.011
 7028.00    0.23554   0.24206    0.011
 7029.00    0.17221   0.24179    0.011
 7030.00    0.16335   0.24233    0.011
 7031.00    0.15608   0.24282    0.011
 7032.00    0.15937   0.24257    0.011
 7033.00    0.16221   0.24219    0.010
 7034.00    0.15245   0.24247    0.010
 7035.00    0.14440   0.24304    0.010
 7036.00    0.16028   0.24311    0.010
 7037.00    0.17330   0.24274    0.010
 7038.00    0.15990   0.24267    0.010
 7039.00    0.15364   0.24311    0.010
 7040.00    0.19552   0.24347    0.011
 7041.00    0.22817   0.24327    0.011
 7042.00    0.21256   0.24287    0.011
 7043.00    0.20058   0.24296    0.011
 7044.00    0.20390   0.24335    0.011
 7045.00    0.20078   0.24326    0.011
 7046.00    0.17528   0.24271    0.011
 7047.00    0.15444   0.24256    0.011
 7048.00    0.14723   0.24278    0.011
 7049.00    0.14348   0.24261    0.011
 7050.00    0.14834   0.24203   -2.000
 7051.00    0.15244   0.24168   -2.000
 7052.00    0.15488   0.24163   -2.000
 7053.00    0.16318   0.24134   -2.000
 7054.00    0.18242   0.24070   -2.000
 7055.00    0.19282   0.24019   -2.000
 7056.00    0.18878   0.23999   -2.000
 7057.00    0.18483   0.23970   -2.000
 7058.00    0.18100   0.23901   -2.000
 7059.00    0.21022   0.23825   -2.000
 7060.00    0.28104   0.23794   -2.000
 7061.00    0.26816   0.23785   -2.000
 7062.00    0.16248   0.23731   -2.000
 7063.00    0.14380   0.23644   -2.000
 7064.00    0.21022   0.23599   -2.000
 7065.00    0.22739   0.23605   -2.000
 7066.00    0.20209   0.23576   -2.000
 7067.00    0.17402   0.23492   -2.000
 7068.00    0.14385   0.23435   -2.000
 7069.00    0.16111   0.23446   -2.000
 7070.00    0.21003   0.23443   -2.000
 7071.00    0.25208   0.23376   -2.000
 7072.00    0.29012   0.23309   -2.000
 7073.00    0.28583   0.23308   -2.000
 7074.00    0.25998   0.23321   -2.000
 7075.00    0.20524   0.23271   -2.000
 7076.00    0.13775   0.23196   -2.000
 7077.00    0.13282   0.23181   -2.000
 7078.00    0.15162   0.23199   -2.000
 7079.00    0.17996   0.23160   -2.000
 7080.00    0.21137   0.23082   -2.000
 7081.00    0.21295   0.23050   -2.000
 7082.00    0.20649   0.23059   -2.000
 7083.00    0.21611   0.23024   -2.000
 7084.00    0.22929   0.22940   -2.000
 7085.00    0.22979   0.22898   -2.000
 7086.00    0.22805   0.22905   -2.000
 7087.00    0.19254   0.22875   -2.000
 7088.00    0.15251   0.22784   -2.000
 7089.00    0.13215   0.22723   -2.000
 7090.00    0.11366   0.22736   -2.000
 7091.00    0.10339   0.22726   -2.000
 7092.00    0.09360   0.22648   -2.000
 7093.00    0.17081   0.22575   -2.000
 7094.00    0.24943   0.22575   -2.000
 7095.00    0.22839   0.22589   -2.000
 7096.00    0.20875   0.22551   -2.000
 7097.00    0.22383   0.22477   -2.000
 7098.00    0.23731   0.22452   -2.000
 7099.00    0.22941   0.22484   -2.000
 7100.00    0.21649   0.22488   -2.000
 7101.00    0.15902   0.22432   -2.000
 7102.00    0.11059   0.22384   -2.000
 7103.00    0.12117   0.22415   -2.000
 7104.00    0.13706   0.22449   -2.000
 7105.00    0.18007   0.22429   -2.000
 7106.00    0.21247   0.22375   -2.000
 7107.00    0.20126   0.22376   -2.000
 7108.00    0.18376   0.22418   -2.000
 7109.00    0.14478   0.22436   -2.000
 7110.00    0.13949   0.22398   -2.000
 7111.00    0.23093   0.22369   -2.000
 7112.00    0.26933   0.22392   -2.000
 7113.00    0.17755   0.22421   -2.000
 7114.00    0.11146   0.22412   -2.000
 7115.00    0.09972   0.22380   -2.000
 7116.00    0.09033   0.22376   -2.000
 7117.00    0.08526   0.22386   -2.000
 7118.00    0.08580   0.22392   -2.000
 7119.00    0.09537   0.22386   -2.000
 7120.00    0.12950   0.22375   -2.000
 7121.00    0.19828   0.22354   -2.000
 7122.00    0.25044   0.22342   -2.000
 7123.00    0.28199   0.22361   -2.000
 7124.00    0.02350   0.22374   -2.000
 7125.00   -0.55211   0.22337   -2.000
 7126.00   -0.55534   0.22289   -2.000
 7127.00   -0.00659   0.22306   -2.000
 7128.00    0.26566   0.22361   -2.000
 7129.00    0.30278   0.22340   -2.000
 7130.00    0.29398   0.22258   -2.000
 7131.00    0.25077   0.22245   -2.000
 7132.00    0.29044   0.22324   -2.000
 7133.00    0.38462   0.22347   -2.000
 7134.00    0.33280   0.22264   -2.000
 7135.00    0.19688   0.22207   -2.000
 7136.00    0.14400   0.22271   -2.000
 7137.00    0.13280   0.22342   -2.000
 7138.00    0.09786   0.22294   -2.000
 7139.00    0.05262   0.22209   -2.000
 7140.00    0.06488   0.22232   -2.000
 7141.00    0.09858   0.22327   -2.000
 7142.00    0.10897   0.22320   -2.000
 7143.00    0.11201   0.22232   -2.000
 7144.00    0.10772   0.22221   -2.000
 7145.00    0.10150   0.22308   -2.000
 7146.00    0.11307   0.22331   -2.000
 7147.00    0.12846   0.22261   -2.000
 7148.00    0.27617   0.22234   -2.000
 7149.00    0.44648   0.22294   -2.000
 7150.00    0.33124   0.22334   -2.000
 7151.00    0.17902   0.22283   -2.000
 7152.00    0.25821   0.22240   -2.000
 7153.00    0.35841   0.22288   -2.000
 7154.00    0.30837   0.22341   -2.000
 7155.00    0.25011   0.22292   -2.000
 7156.00    0.18173   0.22237   -2.000
 7157.00    0.11468   0.22289   -2.000
 7158.00    0.18826   0.22348   -2.000
 7159.00    0.26283   0.22302   -2.000
 7160.00    0.36002   0.22233   -2.000
 7161.00    0.46023   0.22272   -2.000
 7162.00    0.59837   0.22341   -2.000
 7163.00    0.70216   0.22320   -2.000
 7164.00    0.51286   0.22239   -2.000
 7165.00    0.32409   0.22239   -2.000
 7166.00    0.13871   0.22315   -2.000
 7167.00    0.01094   0.22326   -2.000
 7168.00    0.16924   0.22246   -2.000
 7169.00    0.29563   0.22213   -2.000
 7170.00    0.29361   0.22277   -2.000
 7171.00    0.27588   0.22301   -2.000
 7172.00    0.20567   0.22245   -2.000
 7173.00    0.14825   0.22206   -2.000
 7174.00    0.12691   0.22246   -2.000
 7175.00    0.13309   0.22262   -2.000
 7176.00    0.20565   0.22220   -2.000
 7177.00    0.23126   0.22187   -2.000
 7178.00    0.15906   0.22210   -2.000
 7179.00    0.14473   0.22224   -2.000
 7180.00    0.23515   0.22174   -2.000
 7181.00    0.30644   0.22141   -2.000
 7182.00    0.34744   0.22167   -2.000
 7183.00    0.33739   0.22185   -2.000
 7184.00    0.25640   0.22127   -2.000
 7185.00    0.16988   0.22080   -2.000
 7186.00    0.07657   0.22117   -2.000
 7187.00    0.12391   0.22149   -2.000
 7188.00    0.32287   0.22091   -2.000
 7189.00    0.33440   0.22029   -2.000
 7190.00    0.16773   0.22068   -2.000
 7191.00    0.09872   0.22108   -2.000
 7192.00    0.11159   0.22063   -2.000
 7193.00    0.11894   0.21986   -2.000
 7194.00    0.12223   0.22005   -2.000
 7195.00    0.09702   0.22082   -2.000
 7196.00    0.05334   0.22073   -2.000
 7197.00    0.09217   0.21979   -2.000
 7198.00    0.17783   0.21946   -2.000
 7199.00    0.29190   0.22043   -2.000
 7200.00    0.42001   0.22088   -2.000
 7201.00    0.52935   0.22004   -2.000
 7202.00    0.63067   0.21936   -2.000
 7203.00    0.47978   0.22007   -2.000
 7204.00    0.23662   0.22083   -2.000
 7205.00    0.11547   0.22047   -2.000
 7206.00    0.03210   0.21968   -2.000
 7207.00    0.07457   0.21974   -2.000
 7208.00    0.14951   0.22068   -2.000
 7209.00    0.18725   0.22105   -2.000
 7210.00    0.21717   0.22036   -2.000
 7211.00    0.22162   0.21980   -2.000
 7212.00    0.22184   0.22047   -2.000
 7213.00    0.31399   0.22122   -2.000
 7214.00    0.41763   0.22099   -2.000
 7215.00    0.37269   0.22052   -2.000
 7216.00    0.31488   0.22076   -2.000
 7217.00    0.21831   0.22140   -2.000
 7218.00    0.11977   0.22160   -2.000
