###################################################################
## OUTPUT of StarlightChains_v04.for    [Cid@UFSC - 01/Apr/2007] ##
###################################################################

## Some input info
KUG0210-078._28_18.txt                   [arq_obs]
Base.CB07.vall.4m                        [arq_base]
Masks.EmLines.NEW.gm                     [arq_masks]
StCv04.C11.config                        [arq_config]
   66                                    [N_base]
    0                                    [N_YAV_components = # of components with extra extinction!]
    0                                    [i_FitPowerLaw (1/0 = Yes/No)]
-9.99                                    [alpha_PowerLaw]
CCM                                      [red_law_option]
 1.458241                                [q_norm = A(l_norm)/A(V)]

## (Re)Sampling Parameters
 3741.00                                 [l_ini (A)]
 7218.00                                 [l_fin (A)]
    1.00                                 [dl    (A)]     (OBS: dl_cushion =    50.00 A)

## Normalization info
 4020.00                                 [l_norm (A) - for base]
 4010.00                                 [llow_norm (A) - window for f_obs]
 4060.00                                 [lupp_norm (A) - window for f_obs]
8.006921E-18                             [fobs_norm (in input units)]

## S/N
 3691.00                                 [llow_SN (A) - window for S/N]
 7268.00                                 [lupp_SN (A) - window for S/N]
   3.093                                 [S/N in S/N window]
   4.338                                 [S/N in norm. window]
   0.007                                 [S/N_err in S/N window]
   0.009                                 [S/N_err in norm. window]
  1.0000                                 [fscale_chi2]

## etc...
    -2007367                             [idum_orig]
  2423                                   [NOl_eff]
  2208                                   [Nl_eff]
   215    NSIGMA                         [Ntot_cliped & clip_method]
  7663950                                [Nglobal_steps]
   7                                     [N_chains]
  32                                     [NEX0s_base = N_base in EX0s-fits]
 0   0   1      215   2.0   5.183E+03    [Clip-Bug, RC-Crash & Burn-In warning-flags, n_censored_weights, wei_nsig_threshold & wei_limit]
    54     54.543     54.020      0.523  [idt_all, wdt_TotTime, wdt_UsrTime & wdt_SysTime (sec)]

## Synthesis Results - Best model ##

 5.34734E-06                             [chi2/Nl_eff]
    18.67182                             [adev (%)]

   102.84583                             [sum-of-x (%)]
 5.28749E-18                             [Flux_tot (units of input spectrum!)]
 9.14426E-14                             [Mini_tot (???)]
 4.68146E-14                             [Mcor_tot (???)]

   3.30                                  [v0_min  (km/s)]
  70.99                                  [vd_min  (km/s)]
-0.3299                                  [AV_min  (mag)]
 0.0000                                  [YAV_min (mag)]

# j     x_j(%)      Mini_j(%)     Mcor_j(%)     age_j(yr)     Z_j      (L/M)_j    YAV?  Mstars   component_j        a/Fe...       SSP_chi2r SSP_adev(%)   SSP_AV   SSP_x(%)
  1      0.0128     6.5726E-05    1.2838E-04    1.000000E+06  0.00400  1.094E-02    0   1.0000   age020_m42            0.0000     5.9294E-06    21.3036   1.9897    94.5199
  2      0.0000     0.0000E+00    0.0000E+00    3.160000E+06  0.00400  4.007E-02    0   0.9999   age045_m42            0.0000     5.7874E-06    20.5381   1.3711    96.9794
  3      0.0000     0.0000E+00    0.0000E+00    5.010000E+06  0.00400  2.539E-02    0   0.9488   age055_m42            0.0000     5.8674E-06    20.8638   1.6416    96.4432
  4      0.0000     0.0000E+00    0.0000E+00    6.610000E+06  0.00400  2.620E-02    0   0.9220   age061_m42            0.0000     5.7679E-06    20.3442   1.3068    97.0214
  5      0.0000     0.0000E+00    0.0000E+00    1.000000E+07  0.00400  1.322E-02    0   0.8862   age070_m42            0.0000     5.6359E-06    19.3051   1.0600    98.7388
  6      0.0000     0.0000E+00    0.0000E+00    1.445000E+07  0.00400  7.883E-03    0   0.8571   age078_m42            0.0000     5.7259E-06    19.6616   1.3497    97.4730
  7      0.0047     5.0326E-05    8.0351E-05    2.512000E+07  0.00400  5.251E-03    0   0.8174   age090_m42            0.0000     5.6216E-06    19.1090   0.9460    98.9082
  8      0.0000     0.0000E+00    0.0000E+00    4.000000E+07  0.00400  3.649E-03    0   0.7851   age104_m42            0.0000     5.5952E-06    19.0663   0.7317    99.1442
  9      0.8252     1.4976E-02    2.2317E-02    5.500000E+07  0.00400  3.098E-03    0   0.7629   age110_m42            0.0000     5.6411E-06    19.3727   0.8870    98.6385
 10      0.4581     1.1561E-02    1.6274E-02    1.015200E+08  0.00400  2.228E-03    0   0.7207   age116_m42            0.0000     5.6588E-06    19.5514   0.9098    98.4196
 11      0.3234     1.6634E-02    2.1601E-02    2.861200E+08  0.00400  1.093E-03    0   0.6648   age125_m42            0.0000     5.5268E-06    18.7658   0.3909    99.8072
 12      7.7764     6.6275E-01    8.2397E-01    5.088000E+08  0.00400  6.597E-04    0   0.6365   age130_m42            0.0000     5.5205E-06    19.0353   0.3820   100.1612
 13     30.5559     8.0579E+00    9.1257E+00    1.434000E+09  0.00400  2.132E-04    0   0.5798   age139_m42            0.0000     5.3565E-06    18.9106  -0.5766   101.4050
 14      0.0000     0.0000E+00    0.0000E+00    4.250000E+09  0.00400  5.895E-05    0   0.5377   age158_m42            0.0000     5.4891E-06    19.3556  -1.0000    97.6557
 15      6.8799     1.1020E+01    1.1219E+01    7.500000E+09  0.00400  3.510E-05    0   0.5212   age171_m42            0.0000     5.6579E-06    19.2372  -1.0000    93.0230
 16      0.0000     0.0000E+00    0.0000E+00    1.300000E+10  0.00400  2.005E-05    0   0.5034   age193_m42            0.0000     5.9614E-06    19.9508  -1.0000    88.8530
 17     10.4074     3.8370E+01    3.7226E+01    1.800000E+10  0.00400  1.525E-05    0   0.4967   age213_m42            0.0000     6.0091E-06    20.1578  -1.0000    88.0277
 18      4.7247     2.1457E-02    4.1912E-02    1.000000E+06  0.00800  1.238E-02    0   1.0000   age020_m52            0.0000     5.9169E-06    21.3299   1.9815    94.8266
 19      2.6917     4.9231E-03    9.5836E-03    3.160000E+06  0.00800  3.074E-02    0   0.9966   age045_m52            0.0000     5.9266E-06    21.3490   1.9084    95.5245
 20      0.0404     8.5158E-05    1.5707E-04    5.010000E+06  0.00800  2.668E-02    0   0.9443   age055_m52            0.0000     5.8728E-06    20.9136   1.7065    96.2540
 21      0.0000     0.0000E+00    0.0000E+00    6.610000E+06  0.00800  2.136E-02    0   0.9177   age061_m52            0.0000     5.5159E-06    19.3284   0.5462   100.3558
 22      0.0000     0.0000E+00    0.0000E+00    1.000000E+07  0.00800  1.215E-02    0   0.8827   age070_m52            0.0000     5.6352E-06    19.0871   1.2319    99.0732
 23      0.0000     0.0000E+00    0.0000E+00    1.445000E+07  0.00800  8.717E-03    0   0.8552   age078_m52            0.0000     5.6908E-06    19.4979   1.3274    98.4326
 24      1.8602     1.8703E-02    2.9817E-02    2.512000E+07  0.00800  5.592E-03    0   0.8162   age090_m52            0.0000     5.5990E-06    18.9199   1.0171    99.8391
 25      0.0000     0.0000E+00    0.0000E+00    4.000000E+07  0.00800  3.896E-03    0   0.7841   age104_m52            0.0000     5.5974E-06    18.9498   0.9414    99.9172
 26      0.0000     0.0000E+00    0.0000E+00    1.015200E+08  0.00800  2.148E-03    0   0.7226   age116_m52            0.0000     5.6045E-06    19.2502   0.8824    99.2337
 27      0.0000     0.0000E+00    0.0000E+00    2.861200E+08  0.00800  9.925E-04    0   0.6683   age125_m52            0.0000     5.5066E-06    18.9718   0.4485   101.0548
 28      0.0000     0.0000E+00    0.0000E+00    9.047900E+08  0.00800  3.141E-04    0   0.6138   age135_m52            0.0000     5.4120E-06    19.0487  -0.3331   103.8308
 29      0.0000     0.0000E+00    0.0000E+00    1.434000E+09  0.00800  1.719E-04    0   0.5853   age139_m52            0.0000     5.3840E-06    19.2017  -0.9519   103.0538
 30      0.0000     0.0000E+00    0.0000E+00    2.500000E+09  0.00800  7.872E-05    0   0.5600   age150_m52            0.0000     5.6645E-06    19.1332  -1.0000    95.7819
 31      0.0000     0.0000E+00    0.0000E+00    4.250000E+09  0.00800  4.336E-05    0   0.5426   age158_m52            0.0000     5.7136E-06    19.2227  -1.0000    94.6130
 32      0.0000     0.0000E+00    0.0000E+00    6.250000E+09  0.00800  3.159E-05    0   0.5319   age166_m52            0.0000     6.1089E-06    20.1509  -1.0000    89.9260
 33      0.0000     0.0000E+00    0.0000E+00    1.300000E+10  0.00800  1.361E-05    0   0.5073   age193_m52            0.0000     7.6797E-06    25.1493  -1.0000    78.2847
 34      0.0000     0.0000E+00    0.0000E+00    1.800000E+10  0.00800  9.886E-06    0   0.4990   age213_m52            0.0000     8.2744E-06    26.4242  -1.0000    75.1728
 35      0.0000     0.0000E+00    0.0000E+00    1.000000E+06  0.02000  1.544E-02    0   1.0000   age020_m62            0.0000     5.9112E-06    21.3548   1.9733    95.1938
 36      0.0000     0.0000E+00    0.0000E+00    3.160000E+06  0.02000  3.762E-02    0   0.9858   age045_m62            0.0000     5.9339E-06    21.4418   1.9084    96.1373
 37      0.0000     0.0000E+00    0.0000E+00    5.010000E+06  0.02000  3.296E-02    0   0.9342   age055_m62            0.0000     5.8410E-06    20.8245   1.6142    97.0949
 38      0.0000     0.0000E+00    0.0000E+00    8.710000E+06  0.02000  1.154E-02    0   0.8861   age067_m62            0.0000     5.4593E-06    17.8006   0.7153   102.6165
 39      0.1331     9.7666E-04    1.6162E-03    1.445000E+07  0.02000  7.663E-03    0   0.8472   age078_m62            0.0000     5.5251E-06    18.4318   0.9002   101.0535
 40      0.0000     0.0000E+00    0.0000E+00    2.512000E+07  0.02000  4.532E-03    0   0.8099   age090_m62            0.0000     5.5410E-06    18.3137   0.9016   100.5080
 41      0.0000     0.0000E+00    0.0000E+00    5.500000E+07  0.02000  2.733E-03    0   0.7595   age110_m62            0.0000     5.5893E-06    18.9594   0.9135    99.6332
 42      0.0000     0.0000E+00    0.0000E+00    1.609000E+08  0.02000  1.369E-03    0   0.6985   age120_m62            0.0000     5.5741E-06    19.1062   0.7865   100.5274
 43      0.0000     0.0000E+00    0.0000E+00    2.861200E+08  0.02000  9.013E-04    0   0.6714   age125_m62            0.0000     5.5304E-06    19.0498   0.5666   102.0273
 44      0.0000     0.0000E+00    0.0000E+00    5.088000E+08  0.02000  5.028E-04    0   0.6449   age130_m62            0.0000     5.5162E-06    19.3696   0.1966   103.6957
 45      0.0145     3.3521E-03    4.0458E-03    9.047900E+08  0.02000  2.428E-04    0   0.6179   age135_m62            0.0000     5.4848E-06    19.6080  -0.4195   103.7928
 46      0.0000     0.0000E+00    0.0000E+00    1.434000E+09  0.02000  1.263E-04    0   0.5908   age139_m62            0.0000     5.5337E-06    19.9280  -0.8967   103.2869
 47      0.1040     9.7712E-02    1.0827E-01    2.500000E+09  0.02000  5.985E-05    0   0.5673   age150_m62            0.0000     5.8493E-06    19.5028  -1.0000    96.3104
 48      2.7205     4.6760E+00    4.9943E+00    4.250000E+09  0.02000  3.271E-05    0   0.5468   age158_m62            0.0000     6.5738E-06    21.1467  -1.0000    88.3793
 49      0.0000     0.0000E+00    0.0000E+00    1.000000E+10  0.02000  1.360E-05    0   0.5167   age181_m62            0.0000     7.9868E-06    24.6299  -1.0000    79.4493
 50      4.6715     3.6868E+01    3.6100E+01    1.800000E+10  0.02000  7.124E-06    0   0.5013   age213_m62            0.0000     9.1944E-06    27.1415  -1.0000    73.5742
 51     22.4681     4.8735E-02    9.5175E-02    1.000000E+06  0.05000  2.592E-02    0   0.9998   age020_m72            0.0000     5.9166E-06    21.3740   1.9563    95.5808
 52      0.0000     0.0000E+00    0.0000E+00    3.160000E+06  0.05000  4.845E-02    0   0.9577   age045_m72            0.0000     5.9385E-06    21.3544   1.8166    96.4071
 53      0.0000     0.0000E+00    0.0000E+00    5.010000E+06  0.05000  3.072E-02    0   0.9147   age055_m72            0.0000     5.6912E-06    19.3588   1.4183    98.8882
 54      0.0000     0.0000E+00    0.0000E+00    6.610000E+06  0.05000  1.455E-02    0   0.8877   age061_m72            0.0000     5.4985E-06    18.2246   0.7692   103.6262
 55      0.0000     0.0000E+00    0.0000E+00    1.000000E+07  0.05000  9.074E-03    0   0.8524   age070_m72            0.0000     5.7394E-06    19.5867   1.5950    98.5708
 56      1.2077     1.5977E-02    2.4660E-02    2.512000E+07  0.05000  4.250E-03    0   0.7902   age090_m72            0.0000     5.6840E-06    19.0367   1.3497    98.6388
 57      4.9656     9.0437E-02    1.3457E-01    4.000000E+07  0.05000  3.087E-03    0   0.7618   age104_m72            0.0000     5.6266E-06    18.7135   1.1529    99.3199
 58      0.0000     0.0000E+00    0.0000E+00    1.015200E+08  0.05000  1.700E-03    0   0.7096   age116_m72            0.0000     5.5763E-06    18.8640   0.9310   100.2932
 59      0.0000     0.0000E+00    0.0000E+00    2.861200E+08  0.05000  7.384E-04    0   0.6633   age125_m72            0.0000     5.5585E-06    19.1866   0.4372   102.9440
 60      0.0000     0.0000E+00    0.0000E+00    5.088000E+08  0.05000  3.819E-04    0   0.6372   age130_m72            0.0000     5.5633E-06    19.6956  -0.0751   104.6980
 61      0.0000     0.0000E+00    0.0000E+00    9.047900E+08  0.05000  1.676E-04    0   0.6110   age135_m72            0.0000     5.7092E-06    20.7042  -0.8321   104.3263
 62      0.0000     0.0000E+00    0.0000E+00    1.434000E+09  0.05000  8.837E-05    0   0.5874   age139_m72            0.0000     5.8820E-06    19.5219  -1.0000    97.5919
 63      0.0000     0.0000E+00    0.0000E+00    2.500000E+09  0.05000  4.233E-05    0   0.5598   age150_m72            0.0000     6.7137E-06    21.2351  -1.0000    89.0334
 64      0.0000     0.0000E+00    0.0000E+00    6.250000E+09  0.05000  1.435E-05    0   0.5249   age166_m72            0.0000     8.5416E-06    25.8486  -1.0000    76.7441
 65      0.0000     0.0000E+00    0.0000E+00    1.300000E+10  0.05000  6.513E-06    0   0.5036   age193_m72            0.0000     1.0285E-05    29.2401  -1.0000    70.3735
 66      0.0000     0.0000E+00    0.0000E+00    1.800000E+10  0.05000  4.527E-06    0   0.4945   age213_m72            0.0000     1.1445E-05    31.1134  -1.0000    66.1682


## Synthesis Results - Average & Chains ##

# j      x_j: min, <> & last-chain-values for 1 ...  7 chains
  1      0.0128     19.7162     19.7831     18.3358     19.0597     18.5618     21.0519     19.6716     19.7873
  2      0.0000      0.1780      0.2723      0.2152      0.0942      0.0381      0.0120      0.6429      0.4109
  3      0.0000      0.2139      1.1360      0.0231      0.3616      0.0470      0.0000      0.0000      1.2700
  4      0.0000      0.1999      0.8383      0.0535      0.1482      0.0000      0.1254      0.6132      0.3062
  5      0.0000      0.2246      1.0808      0.0741      0.1258      0.0126      0.0363      0.0000      0.5938
  6      0.0000      0.2215      0.3143      0.0273      0.0000      0.0000      0.0273      0.1200      0.0000
  7      0.0047      0.1536      0.5317      0.0110      0.4794      0.0000      0.0109      0.1720      0.0000
  8      0.0000      0.1531      0.0000      0.0306      0.0000      0.0000      0.2484      0.0000      0.2978
  9      0.8252      0.1987      0.0000      0.1351      0.7435      0.1859      0.0301      0.0000      0.1249
 10      0.4581      0.1493      0.1765      0.0000      0.3530      0.0001      0.0193      0.4614      0.0000
 11      0.3234      0.1569      0.9109      0.2279      0.2298      0.0499      0.0709      0.1829      0.4189
 12      7.7764      0.1403      0.3715      0.0821      0.3636      0.0717      0.0157      0.1933      0.0000
 13     30.5559      0.2176      0.0231      0.0643      0.4807      0.1171      0.1191      0.6992      1.6175
 14      0.0000      0.1908      0.4352      0.0587      0.0160      0.0677      0.0454      0.1596      0.0000
 15      6.8799      8.0518      7.3859      7.3818      7.3024      8.7807      9.1375      7.4756      7.5683
 16      0.0000      0.1574      0.2979      0.0914      0.1100      0.1343      0.0094      0.0000      0.3573
 17     10.4074      1.1156      0.2806      1.1792      2.2474      1.0644      1.3064      2.1346      1.4107
 18      4.7247      9.4550      7.8366     11.7656      9.5541     12.1993      8.9949      8.2065      5.8761
 19      2.6917      0.1928      0.4236      0.1274      0.8066      0.2470      0.0498      0.3407      0.1583
 20      0.0404      0.1750      0.9802      0.1417      0.9640      0.0022      0.1369      0.1180      0.0000
 21      0.0000      0.2017      0.0000      0.0000      1.2849      0.0000      0.0328      0.0537      1.1986
 22      0.0000      0.2370      0.0000      0.0946      0.1532      0.0726      0.0329      0.0000      0.7344
 23      0.0000      0.1892      0.2625      0.1649      0.2211      0.0013      0.0077      1.4120      0.0000
 24      1.8602      0.1541      0.0000      0.0581      0.9009      0.0497      0.0183      0.1219      0.6780
 25      0.0000      0.1607      0.0000      0.0364      0.2417      0.1559      0.0009      0.5280      0.3104
 26      0.0000      0.1255      0.4327      0.0000      0.0630      0.0358      0.0000      0.1609      0.0000
 27      0.0000      0.2065      0.3412      0.4558      0.1524      0.0223      0.0000      0.1651      0.0000
 28      0.0000      0.1703      0.5299      0.0756      0.0000      0.0921      0.0905      0.0000      0.5719
 29      0.0000     37.0645     28.2049     45.4293     31.4770     43.3666     41.3865     29.6360     29.8415
 30      0.0000      0.1953      0.0000      0.0143      0.1329      0.0000      0.0160      0.3061      0.0817
 31      0.0000      0.1909      0.6539      0.0000      0.0000      0.0914      0.1432      0.0000      1.6443
 32      0.0000      0.1732      0.1570      0.0093      0.0000      0.0585      0.0103      0.9657      0.8268
 33      0.0000      0.1609      0.6621      0.2246      0.0000      0.0691      0.0606      0.1058      0.0000
 34      0.0000      0.1789      0.9948      0.0880      0.0756      0.0413      0.1287      0.5561      1.0033
 35      0.0000      0.1902      0.0000      0.2631      0.0000      0.0928      0.1560      0.0000      1.3025
 36      0.0000      0.1660      1.2978      0.0002      0.0873      0.0000      0.0956      0.0625      0.3158
 37      0.0000      0.1748      0.0387      0.0000      0.0000      0.0155      0.1073      0.0000      1.6590
 38      0.0000      0.1656      0.6486      0.0681      0.0000      0.0000      0.0022      0.1207      0.0000
 39      0.1331      0.3020      1.4348      0.0199      0.5787      0.0821      0.0000      1.9753      1.6013
 40      0.0000      0.1745      0.0000      0.0403      0.0000      0.0868      0.0000      0.5709      0.1835
 41      0.0000      0.2016      0.0000      0.0055      0.0000      0.0188      0.0000      0.2018      0.0000
 42      0.0000      0.1545      0.1730      0.0000      0.2127      0.0335      0.0843      0.1151      0.0000
 43      0.0000      0.1659      0.3985      0.1024      0.1124      0.0943      0.1876      0.2905      0.2663
 44      0.0000      0.1892      0.1294      0.1503      0.0000      0.0862      0.0000      0.0385      0.2253
 45      0.0145      0.1618      0.0000      0.1181      1.3344      0.1851      0.0178      0.3345      0.0000
 46      0.0000      0.1730      0.0000      0.0337      0.2827      0.0000      0.0000      0.4951      0.0000
 47      0.1040      0.1920      0.3396      0.0879      0.7970      0.0255      0.1255      0.7759      0.6187
 48      2.7205      0.1751      1.4068      0.0000      0.7040      0.0272      0.0827      0.0000      0.4985
 49      0.0000      0.2761      0.0000      0.0488      0.0000      0.1379      0.0000      1.0654      0.3546
 50      4.6715      0.1938      0.0000      0.0063      0.6784      0.0932      0.0149      2.2246      0.5337
 51     22.4681      0.2295      1.0636      0.0223      0.2609      0.0000      0.0705      0.8629      1.3583
 52      0.0000      0.2143      1.7009      0.1556      0.0000      0.0153      0.0000      0.0000      0.0000
 53      0.0000      0.2199      0.7761      0.2243      0.1780      0.0000      0.1244      1.1733      0.0000
 54      0.0000      0.1233      0.1677      0.0808      0.0734      0.0000      0.0337      0.0890      0.5204
 55      0.0000      0.2369      0.0000      0.2542      0.1852      0.0000      0.1249      0.2674      1.2464
 56      1.2077      0.2382      0.5083      0.0000      1.1028      0.1120      0.2830      0.0000      0.0757
 57      4.9656      0.1965      0.3966      0.0562      1.2263      0.0414      0.0474      0.2669      0.2338
 58      0.0000      0.1467      0.1159      0.0000      0.2912      0.0518      0.0314      0.9164      0.8694
 59      0.0000      0.1577      0.1437      0.0415      0.3918      0.0000      0.0058      0.0806      0.2725
 60      0.0000      9.1238      8.5395      7.0542      8.3202      8.6711     10.3705      7.1879      5.4633
 61      0.0000      0.1476      0.3329      0.0466      0.9658      0.0000      0.0220      0.6854      0.0000
 62      0.0000      0.1987      0.1884      0.0000      0.0000      0.0127      0.1651      0.0017      0.6977
 63      0.0000      0.1763      0.3372      0.0000      0.0000      0.0292      0.0259      0.4284      0.3208
 64      0.0000      0.1649      0.6547      0.0007      0.0000      0.0000      0.0000      0.0000      0.0000
 65      0.0000      0.1411      0.0000      0.0145      0.0000      0.0310      0.0446      0.1743      0.0000
 66      0.0000      0.1594      0.1163      0.1298      0.3975      0.0289      0.0174      0.3300      0.3546

# j      m_j: min, <> & last-chain-values for 1 ...  7 chains
  1  1.2838E-04  4.5219E-01  4.4863E-01  4.7423E-01  4.0002E-01  4.7048E-01  5.3146E-01  2.9132E-01  3.7153E-01
  2  0.0000E+00  1.1146E-03  1.6860E-03  1.5194E-03  5.3965E-04  2.6359E-04  8.2509E-05  2.5993E-03  2.1063E-03
  3  0.0000E+00  2.0053E-03  1.0532E-02  2.4437E-04  3.1027E-03  4.8670E-04  0.0000E+00  0.0000E+00  9.7486E-03
  4  0.0000E+00  1.7647E-03  7.3192E-03  5.3237E-04  1.1971E-03  0.0000E+00  1.2192E-03  3.4960E-03  2.2133E-03
  5  0.0000E+00  3.7785E-03  1.7975E-02  1.4049E-03  1.9357E-03  2.3417E-04  6.7182E-04  0.0000E+00  8.1772E-03
  6  0.0000E+00  6.0425E-03  8.4779E-03  8.3842E-04  0.0000E+00  0.0000E+00  8.1927E-04  2.1144E-03  0.0000E+00
  7  8.0351E-05  5.9997E-03  2.0532E-02  4.8576E-04  1.7135E-02  0.0000E+00  4.6858E-04  4.3383E-03  0.0000E+00
  8  0.0000E+00  8.2629E-03  0.0000E+00  1.8614E-03  0.0000E+00  0.0000E+00  1.4760E-02  0.0000E+00  1.3161E-02
  9  2.2317E-02  1.2278E-02  0.0000E+00  9.4136E-03  4.2038E-02  1.2691E-02  2.0440E-03  0.0000E+00  6.3180E-03
 10  1.6274E-02  1.2121E-02  1.4166E-02  0.0000E+00  2.6219E-02  7.0680E-06  1.7202E-03  2.4179E-02  0.0000E+00
 11  2.1601E-02  2.3949E-02  1.3745E-01  3.9213E-02  3.2098E-02  8.4201E-03  1.1905E-02  1.8027E-02  5.2341E-02
 12  8.2397E-01  3.3962E-02  8.8916E-02  2.2416E-02  8.0559E-02  1.9173E-02  4.1851E-03  3.0216E-02  0.0000E+00
 13  9.1257E+00  1.4846E-01  1.5562E-02  4.9501E-02  3.0017E-01  8.8332E-02  8.9447E-02  3.0805E-01  9.0359E-01
 14  0.0000E+00  4.3665E-01  9.8490E-01  1.5140E-01  3.3449E-02  1.7129E-01  1.1440E-01  2.3583E-01  0.0000E+00
 15  1.1219E+01  2.9999E+01  2.7209E+01  3.1014E+01  2.4897E+01  3.6155E+01  3.7473E+01  1.7984E+01  2.3085E+01
 16  0.0000E+00  9.9182E-01  1.8555E+00  6.4950E-01  6.3404E-01  9.3466E-01  6.5066E-02  0.0000E+00  1.8426E+00
 17  3.7226E+01  9.1173E+00  2.2671E+00  1.0867E+01  1.6807E+01  9.6132E+00  1.1751E+01  1.1264E+01  9.4379E+00
 18  4.1912E-02  1.9163E-01  1.5704E-01  2.6891E-01  1.7720E-01  2.7324E-01  2.0066E-01  1.0740E-01  9.7498E-02
 19  9.5836E-03  1.5686E-03  3.4074E-03  1.1684E-03  6.0043E-03  2.2208E-03  4.4586E-04  1.7893E-03  1.0544E-03
 20  1.5707E-04  1.5542E-03  8.6071E-03  1.4186E-03  7.8342E-03  2.1612E-05  1.3381E-03  6.7691E-04  0.0000E+00
 21  0.0000E+00  2.1742E-03  0.0000E+00  0.0000E+00  1.2676E-02  0.0000E+00  3.8959E-04  3.7392E-04  1.0578E-02
 22  0.0000E+00  4.3199E-03  0.0000E+00  1.9445E-03  2.5553E-03  1.4623E-03  6.5934E-04  0.0000E+00  1.0960E-02
 23  0.0000E+00  4.6583E-03  6.3899E-03  4.5785E-03  4.9806E-03  3.5380E-05  2.0955E-04  2.2444E-02  0.0000E+00
 24  2.9817E-02  5.6431E-03  0.0000E+00  2.4000E-03  3.0192E-02  2.0105E-03  7.3762E-04  2.8818E-03  2.0329E-02
 25  0.0000E+00  8.1144E-03  0.0000E+00  2.0750E-03  1.1167E-02  8.7025E-03  4.7742E-05  1.7215E-02  1.2833E-02
 26  0.0000E+00  1.0593E-02  3.6115E-02  0.0000E+00  4.8634E-03  3.3368E-03  0.0000E+00  8.7689E-03  0.0000E+00
 27  0.0000E+00  3.4882E-02  5.6994E-02  8.6843E-02  2.3560E-02  4.1594E-03  0.0000E+00  1.8010E-02  0.0000E+00
 28  0.0000E+00  8.3492E-02  2.5690E-01  4.1828E-02  0.0000E+00  4.9879E-02  4.8850E-02  0.0000E+00  2.2956E-01
 29  0.0000E+00  3.1665E+01  2.3825E+01  4.3767E+01  2.4608E+01  4.0944E+01  3.8919E+01  1.6348E+01  2.0871E+01
 30  0.0000E+00  3.4858E-01  0.0000E+00  2.8751E-02  2.1704E-01  0.0000E+00  3.1462E-02  3.5282E-01  1.1934E-01
 31  0.0000E+00  5.9933E-01  2.0301E+00  0.0000E+00  0.0000E+00  3.1707E-01  4.9494E-01  0.0000E+00  4.2267E+00
 32  0.0000E+00  7.3171E-01  6.5572E-01  4.4285E-02  0.0000E+00  2.7294E-01  4.7704E-02  2.6343E+00  2.8597E+00
 33  0.0000E+00  1.5046E+00  6.1228E+00  2.3692E+00  0.0000E+00  7.1387E-01  6.2432E-01  6.3895E-01  0.0000E+00
 34  0.0000E+00  2.2654E+00  1.2458E+01  1.2574E+00  8.7656E-01  5.7803E-01  1.7943E+00  4.5474E+00  1.0402E+01
 35  0.0000E+00  3.0917E-03  0.0000E+00  4.8209E-03  0.0000E+00  1.6668E-03  2.7908E-03  0.0000E+00  1.7329E-02
 36  0.0000E+00  1.0918E-03  8.4370E-03  1.3905E-06  5.2540E-04  0.0000E+00  6.9204E-04  2.6532E-04  1.6999E-03
 37  0.0000E+00  1.2428E-03  2.7179E-04  0.0000E+00  0.0000E+00  1.2201E-04  8.3969E-04  0.0000E+00  9.6587E-03
 38  0.0000E+00  3.1897E-03  1.2356E-02  1.4793E-03  0.0000E+00  0.0000E+00  4.7006E-05  1.5018E-03  0.0000E+00
 39  1.6162E-03  8.3786E-03  3.9355E-02  6.2316E-04  1.4690E-02  2.5183E-03  0.0000E+00  3.5382E-02  3.6365E-02
 40  0.0000E+00  7.8248E-03  0.0000E+00  2.0363E-03  0.0000E+00  4.3021E-03  0.0000E+00  1.6529E-02  6.7375E-03
 41  0.0000E+00  1.4058E-02  0.0000E+00  4.3211E-04  0.0000E+00  1.4500E-03  0.0000E+00  9.0839E-03  0.0000E+00
 42  0.0000E+00  1.9777E-02  2.1903E-02  0.0000E+00  2.4915E-02  4.7461E-03  1.1876E-02  9.5171E-03  0.0000E+00
 43  0.0000E+00  3.1003E-02  7.3644E-02  2.1576E-02  1.9232E-02  1.9480E-02  3.8592E-02  3.5064E-02  4.0744E-02
 44  0.0000E+00  6.0877E-02  4.1186E-02  5.4555E-02  0.0000E+00  3.0652E-02  0.0000E+00  8.0090E-03  5.9365E-02
 45  4.0458E-03  1.0334E-01  0.0000E+00  8.5039E-02  7.7971E-01  1.3064E-01  1.2489E-02  1.3793E-01  0.0000E+00
 46  0.0000E+00  2.0303E-01  0.0000E+00  4.4542E-02  3.0363E-01  0.0000E+00  0.0000E+00  3.7520E-01  0.0000E+00
 47  1.0827E-01  4.5675E-01  7.9866E-01  2.3563E-01  1.7345E+00  6.7013E-02  3.2860E-01  1.1915E+00  1.2047E+00
 48  4.9943E+00  7.3448E-01  5.8342E+00  0.0000E+00  2.7022E+00  1.2623E-01  3.8194E-01  0.0000E+00  1.7117E+00
 49  0.0000E+00  2.6322E+00  0.0000E+00  5.2483E-01  0.0000E+00  1.4531E+00  0.0000E+00  6.5580E+00  2.7672E+00
 50  3.6100E+01  3.4211E+00  0.0000E+00  1.2450E-01  1.0960E+01  1.8177E+00  2.9015E-01  2.5361E+01  7.7144E+00
 51  9.5175E-02  2.2208E-03  1.0178E-02  2.4377E-04  2.3111E-03  0.0000E+00  7.5070E-04  5.3922E-03  1.0762E-02
 52  0.0000E+00  1.0627E-03  8.3413E-03  8.7033E-04  0.0000E+00  8.4089E-05  0.0000E+00  0.0000E+00  0.0000E+00
 53  0.0000E+00  1.6425E-03  5.7333E-03  1.8900E-03  1.2167E-03  0.0000E+00  1.0234E-03  5.6598E-03  0.0000E+00
 54  0.0000E+00  1.8875E-03  2.5384E-03  1.3944E-03  1.0283E-03  0.0000E+00  5.6857E-04  8.7991E-04  6.5215E-03
 55  0.0000E+00  5.5840E-03  0.0000E+00  6.7565E-03  3.9953E-03  0.0000E+00  3.2392E-03  4.0701E-03  2.4050E-02
 56  2.4660E-02  1.1113E-02  2.3447E-02  0.0000E+00  4.7078E-02  5.7763E-03  1.4531E-02  0.0000E+00  2.8908E-03
 57  1.3457E-01  1.2167E-02  2.4278E-02  3.9240E-03  6.9486E-02  2.8318E-03  3.2277E-03  1.0673E-02  1.1851E-02
 58  0.0000E+00  1.5360E-02  1.2004E-02  0.0000E+00  2.7912E-02  5.9926E-03  3.6220E-03  6.1973E-02  7.4543E-02
 59  0.0000E+00  3.5552E-02  3.2018E-02  1.0552E-02  8.0815E-02  0.0000E+00  1.4353E-03  1.1736E-02  5.0290E-02
 60  0.0000E+00  3.8196E+00  3.5348E+00  3.3303E+00  3.1875E+00  4.0118E+00  4.7788E+00  1.9430E+00  1.8724E+00
 61  0.0000E+00  1.3504E-01  3.0106E-01  4.8083E-02  8.0842E-01  0.0000E+00  2.2158E-02  4.0482E-01  0.0000E+00
 62  0.0000E+00  3.3138E-01  3.1068E-01  0.0000E+00  0.0000E+00  2.3467E-02  3.0309E-01  1.8693E-03  9.5261E-01
 63  0.0000E+00  5.8500E-01  1.1062E+00  0.0000E+00  0.0000E+00  1.0724E-01  9.4513E-02  9.1783E-01  8.7142E-01
 64  0.0000E+00  1.5137E+00  5.9416E+00  6.9979E-03  0.0000E+00  0.0000E+00  0.0000E+00  0.0000E+00  0.0000E+00
 65  0.0000E+00  2.7379E+00  0.0000E+00  3.1629E-01  0.0000E+00  6.6383E-01  9.5292E-01  2.1836E+00  0.0000E+00
 66  0.0000E+00  4.3690E+00  3.1525E+00  4.0109E+00  9.9705E+00  8.7418E-01  5.2454E-01  5.8404E+00  7.9559E+00

# AV, chi2 & Mass for <> & i_chain = 1 ...  7 solutions
AV      -0.3299     -0.1120      0.0139     -0.1322     -0.0412     -0.1338     -0.1255     -0.1385     -0.0791
chi2 5.3473E-06  5.4917E-06  5.4700E-06  5.4770E-06  5.4665E-06  5.4818E-06  5.4850E-06  5.4791E-06  5.4674E-06
Mass 4.6815E-14  2.7456E-14  3.2881E-14  2.3696E-14  3.2997E-14  2.4126E-14  2.4494E-14  4.1033E-14  3.5052E-14
   3.30                                  [v0_min (km/s) before EX0s...]
  70.99                                  [vd_min (km/s) before EX0s...]


## Synthetic spectrum (Best Model) ##l_obs f_obs f_syn wei
 3478    [Nl_obs]
 3741.00    0.32334   0.85164    0.000
 3742.00    0.12965   0.84189    0.000
 3743.00   -0.04355   0.81784    0.000
 3744.00   -0.03024   0.78933    0.000
 3745.00    0.09173   0.75828   -1.000
 3746.00    0.36913   0.72546   -1.000
 3747.00    0.72545   0.68738   -1.000
 3748.00    0.74781   0.63887   -1.000
 3749.00    0.62331   0.59671   -1.000
 3750.00    0.78273   0.59289   -1.000
 3751.00    1.04933   0.63521   -1.000
 3752.00    1.23853   0.69800   -1.000
 3753.00    1.40291   0.75557   -1.000
 3754.00    1.45027   0.80161   -1.000
 3755.00    1.46627   0.83317   -1.000
 3756.00    1.00201   0.83974   -1.000
 3757.00    0.43235   0.81984   -1.000
 3758.00    0.18504   0.79508   -1.000
 3759.00   -0.00600   0.78923    0.000
 3760.00    0.21096   0.80471   -1.000
 3761.00    0.48212   0.82756   -1.000
 3762.00    0.52493   0.84194   -1.000
 3763.00    0.54628   0.84235   -1.000
 3764.00    0.64841   0.83481   -1.000
 3765.00    0.75519   0.82075   -1.000
 3766.00    0.73316   0.79390   -1.000
 3767.00    0.70907   0.75886   -1.000
 3768.00    0.80659   0.72491   -1.000
 3769.00    0.89720   0.68947   -1.000
 3770.00    0.81988   0.65852   -1.000
 3771.00    0.73506   0.65747   -1.000
 3772.00    0.55197   0.69470   -1.000
 3773.00    0.40685   0.74636   -1.000
 3774.00    0.59515   0.78988   -1.000
 3775.00    0.78017   0.82343   -1.000
 3776.00    0.94398   0.85282   -1.000
 3777.00    1.08134   0.87975   -1.000
 3778.00    1.08486   0.90388   -1.000
 3779.00    1.12258   0.92652   -1.000
 3780.00    1.30033   0.94599   -1.000
 3781.00    1.28526   0.95794   -1.000
 3782.00    0.61621   0.96386   -1.000
 3783.00    0.15899   0.96842   -1.000
 3784.00    0.30761   0.96746   -1.000
 3785.00    0.43508   0.95088   -1.000
 3786.00    0.51089   0.92127   -1.000
 3787.00    0.55130   0.89355   -1.000
 3788.00    0.51711   0.87494   -1.000
 3789.00    0.42640   0.86215   -1.000
 3790.00    0.23216   0.85203   -1.000
 3791.00    0.24139   0.84244   -1.000
 3792.00    0.57632   0.82657   -1.000
 3793.00    0.98817   0.79662   -1.000
 3794.00    1.50806   0.75398   -1.000
 3795.00    1.43862   0.70613   -1.000
 3796.00    0.64076   0.65479   -1.000
 3797.00    0.34285   0.60509   -1.000
 3798.00    0.58961   0.58127   -1.000
 3799.00    0.89551   0.60630   -1.000
 3800.00    1.25826   0.67017   -1.000
 3801.00    1.03511   0.74105   -1.000
 3802.00    0.31549   0.80033   -1.000
 3803.00    0.08631   0.84623   -1.000
 3804.00    0.22310   0.87603   -1.000
 3805.00    0.34060   0.88764   -1.000
 3806.00    0.44545   0.88881   -1.000
 3807.00    0.67960   0.89424   -1.000
 3808.00    0.98794   0.91281   -1.000
 3809.00    0.95600   0.93825   -1.000
 3810.00    0.75397   0.95632   -1.000
 3811.00    0.48468   0.95759   -1.000
 3812.00    0.18629   0.94227   -1.000
 3813.00    0.12428   0.91914   -1.000
 3814.00    0.14993   0.89911   -1.000
 3815.00    0.35856   0.88849   -1.000
 3816.00    0.62472   0.89004   -1.000
 3817.00    0.85924   0.89728   -1.000
 3818.00    1.08546   0.89029   -1.000
 3819.00    1.07496   0.86143   -1.000
 3820.00    1.01374   0.83627   -1.000
 3821.00    0.81893   0.84079   -1.000
 3822.00    0.60146   0.86298   -1.000
 3823.00    0.73437   0.87027   -1.000
 3824.00    0.91225   0.85103   -1.000
 3825.00    1.07991   0.82232   -1.000
 3826.00    1.24666   0.80138   -1.000
 3827.00    0.76182   0.78788   -1.000
 3828.00    0.24196   0.77513   -1.000
 3829.00    0.12720   0.76111   -1.000
 3830.00    0.02220   0.74205   -1.000
 3831.00    0.05584   0.70835   -1.000
 3832.00    0.09144   0.65789   -1.000
 3833.00    0.17078   0.60215   -1.000
 3834.00    0.25512   0.55573   -1.000
 3835.00    0.40163   0.53317   -1.000
 3836.00    0.51833   0.54266   -1.000
 3837.00    0.38303   0.57499   -1.000
 3838.00    0.27804   0.61483   -1.000
 3839.00    0.36368   0.65552   -1.000
 3840.00    0.48379   0.69719   -1.000
 3841.00    0.77400   0.74304   -1.000
 3842.00    1.00358   0.79228   -1.000
 3843.00    0.99049   0.83547   -1.000
 3844.00    0.99764   0.86474   -1.000
 3845.00    1.07203   0.88200   -1.000
 3846.00    1.09226   0.89508   -1.000
 3847.00    0.96039   0.90740    0.000
 3848.00    0.74430   0.91332    0.000
 3849.00    0.32593   0.90998    0.000
 3850.00    0.12130   0.90805    0.000
 3851.00    0.35997   0.91756    0.000
 3852.00    0.63155   0.93164    0.000
 3853.00    0.96252   0.93780    0.000
 3854.00    1.01095   0.93246    0.000
 3855.00    0.61380   0.92002    0.000
 3856.00    0.27911   0.90801    0.000
 3857.00    0.03089   0.90007    0.000
 3858.00   -0.06166   0.89024    0.000
 3859.00    0.03547   0.87757    0.000
 3860.00    0.34831   0.87690    0.000
 3861.00    0.89285   0.89793    0.000
 3862.00    1.11247   0.92769    0.000
 3863.00    1.02421   0.94663    0.000
 3864.00    1.00152   0.94871    0.000
 3865.00    1.03359   0.94156    0.000
 3866.00    1.05338   0.93545    0.000
 3867.00    1.06412   0.93385    0.000
 3868.00    0.95259   0.93367    0.000
 3869.00    0.76209   0.92842    0.000
 3870.00    0.74693   0.91247    0.000
 3871.00    0.83085   0.88916    0.000
 3872.00    0.72121   0.87173    0.000
 3873.00    0.51635   0.87224    0.000
 3874.00    0.29907   0.88742    0.000
 3875.00    0.07649   0.89968    0.000
 3876.00    0.09860   0.89339    0.000
 3877.00    0.20982   0.86858    0.000
 3878.00    0.48865   0.84231    0.000
 3879.00    0.81914   0.83176    0.000
 3880.00    0.77609   0.83128    0.000
 3881.00    0.63714   0.82267   -1.000
 3882.00    1.09145   0.80444   -1.000
 3883.00    1.66980   0.78658   -1.000
 3884.00    1.55921   0.76409   -1.000
 3885.00    1.33500   0.72232   -1.000
 3886.00    1.00105   0.66403   -1.000
 3887.00    0.65351   0.60612   -1.000
 3888.00    0.57153   0.56259   -1.000
 3889.00    0.51228   0.55084   -1.000
 3890.00    0.51053   0.58470   -1.000
 3891.00    0.51164   0.64985   -1.000
 3892.00    0.46315   0.71423   -1.000
 3893.00    0.41254   0.75873   -1.000
 3894.00    0.27780   0.78446   -1.000
 3895.00    0.16093   0.80302   -1.000
 3896.00    0.40959   0.82478   -1.000
 3897.00    0.64770   0.84679   -1.000
 3898.00    0.76102   0.85870   -1.000
 3899.00    0.86997   0.86287   -1.000
 3900.00    0.94326   0.87104   -1.000
 3901.00    1.02927   0.88453   -1.000
 3902.00    1.19299   0.89445   -1.000
 3903.00    1.27737   0.89817   -1.000
 3904.00    0.97993   0.89747   -1.000
 3905.00    0.76535   0.89334   -1.000
 3906.00    0.87532   0.89564   -1.000
 3907.00    0.87210   0.91392   -1.000
 3908.00    0.49995   0.94030   -1.000
 3909.00    0.23350   0.96040   -1.000
 3910.00    0.25852   0.97092   -1.000
 3911.00    0.43447   0.97655   -1.000
 3912.00    0.96683   0.97775   -1.000
 3913.00    1.17104   0.97325   -1.000
 3914.00    0.70550   0.96790   -1.000
 3915.00    0.45166   0.96516   -1.000
 3916.00    0.57385   0.96173   -1.000
 3917.00    0.77689   0.95479   -1.000
 3918.00    1.10554   0.94246   -1.000
 3919.00    1.16781   0.92427   -1.000
 3920.00    0.86661   0.90602   -1.000
 3921.00    0.65998   0.89613   -1.000
 3922.00    0.56695   0.89594   -1.000
 3923.00    0.75240   0.89970   -1.000
 3924.00    1.23276   0.90197   -1.000
 3925.00    1.42547   0.89718   -1.000
 3926.00    1.34945   0.88197   -1.000
 3927.00    1.03035   0.85941   -1.000
 3928.00    0.51106   0.83421   -1.000
 3929.00    0.33404   0.80849   -1.000
 3930.00    0.40517   0.78120   -1.000
 3931.00    0.45847   0.74723   -1.000
 3932.00    0.50045   0.70443   -1.000
 3933.00    0.47768   0.66582   -1.000
 3934.00    0.41887   0.65547   -1.000
 3935.00    0.39514   0.68384   -1.000
 3936.00    0.38839   0.73528   -1.000
 3937.00    0.48520   0.78621   -1.000
 3938.00    0.62531   0.82581   -1.000
 3939.00    0.91598   0.85499   -1.000
 3940.00    1.26052   0.87517   -1.000
 3941.00    1.24801   0.88508   -1.000
 3942.00    1.12759   0.88521   -1.000
 3943.00    0.94387   0.88026   -1.000
 3944.00    0.74424   0.88099   -1.000
 3945.00    1.06436   0.89563   -1.000
 3946.00    1.49047   0.91509   -1.000
 3947.00    1.33627   0.92391   -1.000
 3948.00    1.08915   0.92366   -1.000
 3949.00    0.86186   0.92703   -1.000
 3950.00    0.63693   0.93535   -1.000
 3951.00    0.92204   0.93801   -1.000
 3952.00    1.24868   0.93183   -1.000
 3953.00    1.07580   0.92725   -1.000
 3954.00    0.87995   0.92799   -1.000
 3955.00    1.99082   0.92253   -1.000
 3956.00    3.08211   0.90642   -1.000
 3957.00    2.28134   0.89153   -1.000
 3958.00    1.53486   0.88460   -1.000
 3959.00    1.81684   0.87386   -1.000
 3960.00    2.06781   0.84363    0.000
 3961.00    1.96945   0.79728    0.000
 3962.00    1.90690   0.75519    0.000
 3963.00    2.12577   0.72568    0.000
 3964.00    2.26062   0.69633    0.000
 3965.00    1.89690   0.65441    0.000
 3966.00    1.49344   0.59746    0.000
 3967.00    0.90336   0.53055    0.000
 3968.00    0.52187   0.46628    0.000
 3969.00    0.93975   0.42407    0.000
 3970.00    1.25327   0.42242    0.000
 3971.00    1.23327   0.46442    0.000
 3972.00    1.18170   0.53214    0.000
 3973.00    1.04463   0.60336    0.000
 3974.00    0.91219   0.66768    0.000
 3975.00    0.79049   0.72252    0.000
 3976.00    0.68209   0.76704    0.000
 3977.00    0.60039   0.80433    0.000
 3978.00    0.63605   0.83839    0.000
 3979.00    0.87701   0.86836    0.000
 3980.00    0.92260   0.88960    0.000
 3981.00    0.66907   0.89903   -1.000
 3982.00    0.47883   0.90128   -1.000
 3983.00    0.37372   0.90611   -1.000
 3984.00    0.26941   0.91741   -1.000
 3985.00    0.16607   0.93046   -1.000
 3986.00    0.37736   0.94126   -1.000
 3987.00    0.91721   0.95209   -1.000
 3988.00    1.02434   0.96310   -1.000
 3989.00    0.73293   0.96897   -1.000
 3990.00    0.51783   0.97133   -1.000
 3991.00    0.36470   0.97769   -1.000
 3992.00    0.66582   0.98729   -1.000
 3993.00    1.29150   0.99192   -1.000
 3994.00    1.21489   0.98768   -1.000
 3995.00    0.69796   0.97860   -1.000
 3996.00    0.72015   0.96872   -1.000
 3997.00    1.03779   0.96130   -1.000
 3998.00    0.95129   0.96328   -1.000
 3999.00    0.67229   0.97759   -1.000
 4000.00    0.61554   0.99464   -1.000
 4001.00    0.65014   1.00517   -1.000
 4002.00    0.44146   1.00919   -1.000
 4003.00    0.14735   1.00410   -1.000
 4004.00   -0.08974   0.98439    0.000
 4005.00   -0.30994   0.95973    0.000
 4006.00    0.18456   0.95117   -1.000
 4007.00    0.85462   0.96357   -1.000
 4008.00    0.79726   0.98103    0.041
 4009.00    0.59526   0.99166    0.019
 4010.00    0.71339   0.99815    0.017
 4011.00    0.88126   1.00445    0.017
 4012.00    0.93700   1.00878    0.018
 4013.00    0.97986   1.01090    0.018
 4014.00    0.68849   1.01359    0.018
 4015.00    0.37127   1.01702    0.018
 4016.00    0.50908   1.01701    0.018
 4017.00    0.66604   1.01357    0.018
 4018.00    0.91873   1.01410    0.018
 4019.00    1.16300   1.01979    0.018
 4020.00    1.00000   1.02203    0.018
 4021.00    0.86877   1.01709    0.018
 4022.00    1.29766   1.00840    0.018
 4023.00    1.67546   0.99529    0.018
 4024.00    1.50349   0.97602    0.018
 4025.00    1.35013   0.95997    0.018
 4026.00    1.33815   0.96116    0.018
 4027.00    1.30132   0.98007    0.018
 4028.00    1.12125   0.99944    0.018
 4029.00    0.92921   1.00055    0.018
 4030.00    0.68236   0.98259    0.017
 4031.00    0.44055   0.96203    0.017
 4032.00    0.21767   0.95171    0.017
 4033.00    0.13497   0.95182    0.017
 4034.00    0.49174   0.96056    0.017
 4035.00    0.93728   0.97880    0.017
 4036.00    1.61898   1.00458    0.017
 4037.00    2.08267   1.02916    0.017
 4038.00    2.04854   1.04165    0.017
 4039.00    1.99271   1.03858    0.017
 4040.00    1.89399   1.02744    0.017
 4041.00    1.64509   1.01933    0.017
 4042.00    1.13746   1.01457    0.017
 4043.00    0.78445   0.99894    0.017
 4044.00    0.66469   0.96404    0.017
 4045.00    0.53624   0.92721    0.017
 4046.00    0.39626   0.91819    0.017
 4047.00    0.49068   0.94370    0.017
 4048.00    0.85874   0.98014    0.017
 4049.00    1.24782   1.00570    0.017
 4050.00    1.65856   1.01805    0.017
 4051.00    1.61007   1.02054    0.017
 4052.00    1.14456   1.01461    0.017
 4053.00    1.17251   1.00364    0.017
 4054.00    1.59541   0.99223    0.017
 4055.00    1.86666   0.98378    0.017
 4056.00    2.03113   0.97801    0.017
 4057.00    1.66817   0.97259    0.017
 4058.00    0.97941   0.97110    0.017
 4059.00    0.92326   0.97922    0.017
 4060.00    1.20845   0.99082    0.017
 4061.00    1.34199   0.98913    0.017
 4062.00    1.40444   0.96547    0.017
 4063.00    1.23810   0.93474    0.017
 4064.00    0.97931   0.92323    0.017
 4065.00    0.82456   0.93541    0.017
 4066.00    0.70570   0.95032    0.017
 4067.00    0.85821   0.95650    0.017
 4068.00    1.08952   0.96138    0.017
 4069.00    0.77800   0.96538    0.017
 4070.00    0.33608   0.95718    0.017
 4071.00    0.30247   0.94009    0.017
 4072.00    0.34797   0.93542    0.017
 4073.00    0.35487   0.95002    0.017
 4074.00    0.35594   0.96308    0.017
 4075.00    0.43955   0.95488    0.017
 4076.00    0.53229   0.93002    0.017
 4077.00    0.85336   0.90886    0.017
 4078.00    1.19115   0.90841    0.017
 4079.00    0.99650   0.92938    0.017
 4080.00    0.78146   0.95763    0.017
 4081.00    0.87476   0.97627    0.017
 4082.00    0.96517   0.97671    0.017
 4083.00    0.88215   0.96353    0.017
 4084.00    0.81474   0.94922    0.017
 4085.00    1.00461   0.94417    0.017
 4086.00    1.17142   0.95039    0.017
 4087.00    1.10104   0.96108    0.017
 4088.00    1.01344   0.96622    0.017
 4089.00    0.79955   0.96248    0.017
 4090.00    0.71446   0.95332    0.017
 4091.00    1.35196   0.94097    0.017
 4092.00    1.77022   0.92709    0.000
 4093.00    1.20739   0.91397    0.000
 4094.00    0.82864   0.89643    0.000
 4095.00    1.12597   0.86644    0.000
 4096.00    1.34376   0.82789    0.000
 4097.00    1.31694   0.79117    0.000
 4098.00    1.20812   0.75670    0.000
 4099.00    0.88502   0.71270    0.000
 4100.00    0.80004   0.65305    0.000
 4101.00    1.24984   0.59732    0.000
 4102.00    1.45169   0.58097    0.000
 4103.00    1.17106   0.61641    0.000
 4104.00    1.06781   0.68081    0.000
 4105.00    1.26555   0.74533    0.000
 4106.00    1.38935   0.79536    0.000
 4107.00    1.40324   0.82816    0.000
 4108.00    1.29537   0.84730    0.000
 4109.00    1.02839   0.85835    0.000
 4110.00    0.92245   0.86693    0.000
 4111.00    1.00186   0.87793    0.000
 4112.00    1.10514   0.89328    0.000
 4113.00    1.23264   0.91039    0.016
 4114.00    1.15582   0.92395    0.016
 4115.00    0.89606   0.93158    0.016
 4116.00    0.87055   0.93526    0.016
 4117.00    1.02987   0.93478    0.016
 4118.00    1.16554   0.92866    0.016
 4119.00    1.28481   0.92240    0.016
 4120.00    1.28593   0.92283    0.016
 4121.00    1.21515   0.92857    0.016
 4122.00    1.32480   0.93601    0.016
 4123.00    1.53032   0.94568    0.016
 4124.00    1.24770   0.95777    0.016
 4125.00    0.74001   0.96662    0.016
 4126.00    0.59100   0.96556    0.016
 4127.00    0.58442   0.95594    0.016
 4128.00    0.83584   0.94586    0.016
 4129.00    1.17459   0.93979    0.016
 4130.00    1.13425   0.93336    0.016
 4131.00    0.98606   0.92178    0.016
 4132.00    0.85041   0.90958    0.016
 4133.00    0.71771   0.90689    0.016
 4134.00    0.86285   0.91789    0.016
 4135.00    1.06043   0.93837    0.016
 4136.00    0.84375   0.95857    0.016
 4137.00    0.56658   0.97118    0.016
 4138.00    0.93639   0.97821    0.016
 4139.00    1.37494   0.98199    0.016
 4140.00    1.25907   0.97839    0.016
 4141.00    1.10485   0.95980    0.016
 4142.00    1.15789   0.92483    0.016
 4143.00    1.21807   0.89047    0.016
 4144.00    1.32837   0.88260    0.016
 4145.00    1.42512   0.90529    0.016
 4146.00    1.07102   0.93616    0.016
 4147.00    0.73806   0.95502    0.016
 4148.00    0.73199   0.95871    0.016
 4149.00    0.75799   0.95396    0.016
 4150.00    1.10029   0.94937    0.016
 4151.00    1.36135   0.94836    0.016
 4152.00    1.04560   0.94660    0.016
 4153.00    0.75962   0.94087    0.016
 4154.00    0.63606   0.93454    0.016
 4155.00    0.57320   0.93233    0.016
 4156.00    0.77564   0.93506    0.016
 4157.00    0.94634   0.94232    0.016
 4158.00    1.00291   0.95348    0.016
 4159.00    1.06111   0.96460    0.015
 4160.00    1.12425   0.97133    0.015
 4161.00    1.20570   0.97420    0.015
 4162.00    1.33416   0.97592    0.016
 4163.00    1.35709   0.97556    0.016
 4164.00    1.14694   0.97148    0.016
 4165.00    1.03421   0.96503    0.015
 4166.00    1.10810   0.95723    0.016
 4167.00    1.29941   0.94959    0.016
 4168.00    1.68698   0.94706    0.016
 4169.00    1.64311   0.95013    0.016
 4170.00    0.96727   0.94863    0.016
 4171.00    0.69012   0.93325    0.016
 4172.00    0.92646   0.91019    0.015
 4173.00    1.15002   0.89654    0.015
 4174.00    1.35907   0.90031    0.016
 4175.00    1.30698   0.91314    0.016
 4176.00    0.99352   0.92245    0.016
 4177.00    0.87852   0.92442    0.016
 4178.00    0.93870   0.92590    0.015
 4179.00    1.03267   0.93313    0.015
 4180.00    1.15293   0.94064    0.016
 4181.00    1.19159   0.94029    0.016
 4182.00    1.17446   0.93559    0.015
 4183.00    1.21655   0.93570    0.015
 4184.00    1.29414   0.94109    0.015
 4185.00    1.12721   0.94273    0.015
 4186.00    0.83241   0.93303    0.015
 4187.00    0.92066   0.91874    0.015
 4188.00    1.18266   0.91543    0.015
 4189.00    1.42694   0.92492    0.015
 4190.00    1.66431   0.93493    0.015
 4191.00    1.49556   0.94046    0.015
 4192.00    1.19192   0.94791    0.015
 4193.00    1.09785   0.95697    0.015
 4194.00    1.06217   0.95626    0.015
 4195.00    0.85544   0.94170    0.015
 4196.00    0.60946   0.92158    0.015
 4197.00    0.69887   0.90183    0.015
 4198.00    0.84991   0.88369    0.015
 4199.00    0.70315   0.87263    0.015
 4200.00    0.51429   0.87203    0.015
 4201.00    0.58487   0.87731    0.015
 4202.00    0.68191   0.88610    0.015
 4203.00    0.90014   0.89952    0.015
 4204.00    1.12626   0.91423    0.014
 4205.00    1.05344   0.92680    0.014
 4206.00    0.97121   0.93830    0.014
 4207.00    0.74467   0.94866    0.014
 4208.00    0.52790   0.95444    0.014
 4209.00    0.59819   0.95325    0.015
 4210.00    0.67334   0.94886    0.015
 4211.00    0.81907   0.94776    0.015
 4212.00    0.95377   0.94918    0.015
 4213.00    0.98407   0.94514    0.015
 4214.00    1.00048   0.93066    0.015
 4215.00    0.92138   0.91226    0.015
 4216.00    0.85712   0.90609    0.015
 4217.00    0.87181   0.91913    0.015
 4218.00    0.86617   0.93992    0.014
 4219.00    0.77373   0.95569    0.015
 4220.00    0.72896   0.96298    0.015
 4221.00    0.85215   0.96046    0.014
 4222.00    0.95368   0.94588    0.014
 4223.00    0.99107   0.92008    0.014
 4224.00    0.98412   0.88464    0.014
 4225.00    0.86529   0.84183    0.014
 4226.00    0.78023   0.80519    0.014
 4227.00    0.76857   0.79944    0.014
 4228.00    0.80102   0.83294    0.014
 4229.00    0.91669   0.88212    0.014
 4230.00    1.05074   0.91857    0.014
 4231.00    1.21504   0.93243    0.014
 4232.00    1.28272   0.92734    0.014
 4233.00    1.21091   0.91482    0.014
 4234.00    1.16930   0.90615    0.014
 4235.00    1.16602   0.90074    0.014
 4236.00    1.26727   0.89560    0.014
 4237.00    1.48545   0.89553    0.014
 4238.00    1.45572   0.90180    0.014
 4239.00    1.18136   0.90996    0.014
 4240.00    0.99973   0.91870    0.014
 4241.00    0.89881   0.92716    0.014
 4242.00    0.97418   0.93292    0.014
 4243.00    1.18470   0.93885    0.014
 4244.00    1.13188   0.94727    0.014
 4245.00    0.90159   0.94947    0.014
 4246.00    0.70473   0.93723    0.015
 4247.00    0.52761   0.91656    0.015
 4248.00    0.65316   0.89853    0.015
 4249.00    0.93455   0.88624    0.015
 4250.00    0.90854   0.88054    0.015
 4251.00    0.74538   0.88590    0.015
 4252.00    0.71975   0.89756    0.015
 4253.00    0.74686   0.90055    0.015
 4254.00    0.63987   0.89314    0.015
 4255.00    0.48919   0.89176    0.015
 4256.00    0.63510   0.90503    0.015
 4257.00    0.86196   0.91864    0.015
 4258.00    0.75687   0.91395    0.015
 4259.00    0.57737   0.89243    0.015
 4260.00    0.62286   0.87277    0.015
 4261.00    0.70858   0.87248    0.015
 4262.00    0.89150   0.89344    0.015
 4263.00    1.08771   0.92071    0.015
 4264.00    1.14238   0.93924    0.015
 4265.00    1.18322   0.94537    0.015
 4266.00    0.99753   0.94036    0.015
 4267.00    0.79799   0.92680    0.015
 4268.00    0.35171   0.91075    0.015
 4269.00   -0.09628   0.89294    0.000
 4270.00    0.42458   0.86771    0.014
 4271.00    0.91891   0.83961    0.014
 4272.00    0.71204   0.82484    0.014
 4273.00    0.53550   0.82793    0.014
 4274.00    0.77583   0.83829    0.014
 4275.00    0.95742   0.85308    0.015
 4276.00    0.60533   0.87688    0.015
 4277.00    0.34501   0.90317    0.015
 4278.00    0.69608   0.91735    0.015
 4279.00    0.98135   0.91293    0.015
 4280.00    0.92604   0.89857    0.015
 4281.00    0.93756   0.88876    0.015
 4282.00    1.22802   0.88843   -2.000
 4283.00    1.38338   0.89203   -2.000
 4284.00    1.07235   0.89155   -2.000
 4285.00    0.79229   0.88402   -2.000
 4286.00    0.60228   0.87510   -2.000
 4287.00    0.42438   0.86784   -2.000
 4288.00    0.27652   0.85526   -2.000
 4289.00    0.33782   0.83535   -2.000
 4290.00    0.84628   0.82239   -2.000
 4291.00    1.13237   0.83028   -2.000
 4292.00    1.00558   0.85250   -2.000
 4293.00    0.88099   0.86924   -2.000
 4294.00    0.75996   0.87097   -2.000
 4295.00    0.68674   0.86469   -2.000
 4296.00    0.68153   0.85593   -2.000
 4297.00    0.55412   0.84036   -2.000
 4298.00    0.27377   0.81468    0.014
 4299.00    0.24586   0.78562    0.014
 4300.00    0.49641   0.76721    0.014
 4301.00    0.73235   0.76513    0.014
 4302.00    0.95405   0.77106    0.014
 4303.00    0.99900   0.77817    0.014
 4304.00    0.89231   0.78553    0.014
 4305.00    0.79476   0.78863    0.014
 4306.00    0.70412   0.78135    0.014
 4307.00    0.50177   0.76457    0.014
 4308.00    0.22523   0.74934    0.014
 4309.00    0.40242   0.74831    0.014
 4310.00    0.84346   0.76222    0.014
 4311.00    1.01918   0.78193    0.014
 4312.00    1.06044   0.80048    0.014
 4313.00    1.00463   0.81747    0.014
 4314.00    0.90623   0.83829    0.014
 4315.00    0.73023   0.86956    0.013
 4316.00    0.52500   0.90690    0.013
 4317.00    0.52934   0.93400    0.013
 4318.00    0.60069   0.94127    0.013
 4319.00    0.91933   0.93415    0.013
 4320.00    1.30407   0.92124    0.014
 4321.00    1.19829   0.90515    0.014
 4322.00    0.98518   0.88259    0.014
 4323.00    0.99333   0.84841    0.014
 4324.00    1.03998   0.80721    0.014
 4325.00    1.08156   0.77686    0.014
 4326.00    1.12249   0.77611    0.014
 4327.00    0.87998   0.80612    0.014
 4328.00    0.61098   0.84455    0.014
 4329.00    0.91271   0.86671    0.014
 4330.00    1.24707   0.86823    0.000
 4331.00    1.11735   0.86132    0.000
 4332.00    0.97547   0.85539    0.000
 4333.00    0.67742   0.84998    0.000
 4334.00    0.39153   0.84126    0.000
 4335.00    0.39773   0.82278    0.000
 4336.00    0.42768   0.78453    0.000
 4337.00    0.76670   0.72424    0.000
 4338.00    1.06866   0.65436    0.000
 4339.00    1.04685   0.59208    0.000
 4340.00    1.00933   0.55628    0.000
 4341.00    0.87035   0.56582    0.000
 4342.00    0.72481   0.61641    0.000
 4343.00    0.54619   0.67781    0.000
 4344.00    0.41183   0.72800    0.000
 4345.00    0.45813   0.76575    0.000
 4346.00    0.54362   0.79382    0.000
 4347.00    0.76165   0.81537    0.000
 4348.00    0.86548   0.83494    0.000
 4349.00    0.64343   0.84740    0.000
 4350.00    0.53028   0.83991    0.000
 4351.00    0.68262   0.81533    0.014
 4352.00    0.75146   0.79868    0.014
 4353.00    0.64465   0.80760    0.014
 4354.00    0.63619   0.83222    0.014
 4355.00    0.80752   0.85555    0.014
 4356.00    0.77746   0.87285    0.014
 4357.00    0.42561   0.88285    0.014
 4358.00    0.12069   0.88319    0.015
 4359.00   -0.11844   0.88010    0.000
 4360.00   -0.30310   0.88499    0.000
 4361.00   -0.42057   0.89833    0.000
 4362.00   -0.37149   0.91037    0.000
 4363.00   -0.14127   0.91747    0.000
 4364.00    0.22214   0.92348    0.016
 4365.00    0.71333   0.92642    0.015
 4366.00    0.94515   0.91920    0.014
 4367.00    0.95758   0.90427    0.014
 4368.00    0.71710   0.89330    0.014
 4369.00    0.28825   0.89136    0.014
 4370.00    0.15407   0.89322    0.014
 4371.00    0.21272   0.89376    0.014
 4372.00    0.31325   0.88971    0.014
 4373.00    0.43777   0.87746    0.014
 4374.00    0.66039   0.86043    0.014
 4375.00    0.93196   0.85189    0.014
 4376.00    1.05377   0.86178    0.014
 4377.00    1.11096   0.88357    0.014
 4378.00    1.12082   0.90113    0.014
 4379.00    1.11318   0.90580    0.014
 4380.00    0.93317   0.89879    0.014
 4381.00    0.69913   0.87856    0.014
 4382.00    0.61556   0.84006    0.014
 4383.00    0.57137   0.79401    0.014
 4384.00    0.49723   0.76995    0.014
 4385.00    0.41669   0.78417    0.014
 4386.00    0.48378   0.81914    0.014
 4387.00    0.57582   0.84647    0.014
 4388.00    0.70355   0.85698    0.014
 4389.00    0.83583   0.85919    0.014
 4390.00    0.53853   0.86230    0.014
 4391.00    0.20289   0.87041    0.014
 4392.00    0.64524   0.88070    0.014
 4393.00    1.12903   0.88437    0.014
 4394.00    0.99681   0.87901    0.014
 4395.00    0.85242   0.87620    0.014
 4396.00    0.69890   0.88713    0.014
 4397.00    0.55481   0.90468    0.014
 4398.00    0.61798   0.91112    0.014
 4399.00    0.66721   0.90045    0.014
 4400.00    0.54410   0.88472    0.014
 4401.00    0.43700   0.87911    0.014
 4402.00    0.46471   0.88102    0.014
 4403.00    0.48097   0.87186    0.014
 4404.00    0.42555   0.84827    0.014
 4405.00    0.38736   0.83214    0.014
 4406.00    0.43391   0.83721    0.014
 4407.00    0.50781   0.85118    0.014
 4408.00    0.69090   0.86281    0.014
 4409.00    0.82848   0.87767    0.014
 4410.00    0.81514   0.89930    0.014
 4411.00    0.78645   0.91933    0.014
 4412.00    0.71479   0.92814    0.014
 4413.00    0.70224   0.91956    0.014
 4414.00    0.83140   0.89417    0.014
 4415.00    0.91323   0.86737    0.014
 4416.00    0.89711   0.85861    0.014
 4417.00    0.82774   0.87094    0.014
 4418.00    0.66253   0.89358    0.014
 4419.00    0.70814   0.91453    0.014
 4420.00    1.08559   0.92359    0.014
 4421.00    1.20165   0.91743    0.014
 4422.00    0.95648   0.90458    0.014
 4423.00    0.77774   0.89727    0.014
 4424.00    0.67978   0.89734    0.014
 4425.00    0.67923   0.89741    0.014
 4426.00    0.78314   0.89464    0.014
 4427.00    0.90073   0.89369    0.014
 4428.00    1.03126   0.89672    0.014
 4429.00    1.04889   0.89840    0.014
 4430.00    0.97239   0.89621    0.014
 4431.00    0.88517   0.89570    0.014
 4432.00    0.79008   0.89642    0.014
 4433.00    0.72838   0.88843    0.014
 4434.00    0.68819   0.87039    0.014
 4435.00    0.67290   0.85652    0.014
 4436.00    0.67164   0.86151    0.014
 4437.00    0.76706   0.88455    0.014
 4438.00    0.90994   0.91059    0.014
 4439.00    0.93719   0.92414    0.014
 4440.00    0.91537   0.91854    0.014
 4441.00    1.03196   0.89853    0.014
 4442.00    1.19886   0.87732    0.014
 4443.00    1.13258   0.86868    0.014
 4444.00    0.99458   0.87820    0.014
 4445.00    0.84369   0.89827    0.014
 4446.00    0.68950   0.91392    0.014
 4447.00    0.73114   0.91855    0.014
 4448.00    0.81359   0.91745    0.014
 4449.00    0.72446   0.91486    0.014
 4450.00    0.60715   0.91087    0.013
 4451.00    0.93566   0.90729    0.013
 4452.00    1.31914   0.90257    0.013
 4453.00    0.93350   0.88966    0.013
 4454.00    0.48244   0.86840    0.013
 4455.00    0.59173   0.85087    0.013
 4456.00    0.72868   0.84761    0.013
 4457.00    0.59023   0.85404    0.013
 4458.00    0.45250   0.85877    0.013
 4459.00    0.63456   0.85792    0.013
 4460.00    0.80747   0.85434    0.013
 4461.00    0.79499   0.85195    0.000
 4462.00    0.76712   0.85660    0.000
 4463.00    0.55824   0.87057    0.000
 4464.00    0.40789   0.88526    0.000
 4465.00    0.73217   0.89180    0.000
 4466.00    0.99917   0.89079    0.000
 4467.00    0.91755   0.88559    0.000
 4468.00    0.83694   0.87676    0.000
 4469.00    0.76118   0.86633    0.000
 4470.00    0.72605   0.86005    0.000
 4471.00    0.84956   0.86355    0.000
 4472.00    0.94636   0.87878    0.000
 4473.00    0.95633   0.90035    0.000
 4474.00    0.94859   0.91752    0.000
 4475.00    0.89216   0.92568    0.000
 4476.00    0.85215   0.93022    0.000
 4477.00    0.85088   0.93433    0.000
 4478.00    0.83236   0.93119    0.000
 4479.00    0.77875   0.91341    0.000
 4480.00    0.76375   0.88544    0.000
 4481.00    0.81723   0.86337    0.000
 4482.00    0.84131   0.86194    0.013
 4483.00    0.81982   0.88148    0.013
 4484.00    0.82415   0.90823    0.013
 4485.00    0.86364   0.92800    0.013
 4486.00    0.82954   0.93488    0.013
 4487.00    0.70720   0.92844    0.013
 4488.00    0.76093   0.91208    0.013
 4489.00    1.00081   0.89546    0.013
 4490.00    1.07244   0.88978    0.013
 4491.00    0.98717   0.89710    0.013
 4492.00    0.77697   0.90698    0.013
 4493.00    0.46404   0.90710    0.013
 4494.00    0.48381   0.89650    0.013
 4495.00    0.74433   0.88594    0.013
 4496.00    0.80696   0.88540    0.013
 4497.00    0.74389   0.89565    0.013
 4498.00    0.81775   0.90989    0.013
 4499.00    0.96768   0.91886    0.013
 4500.00    0.98960   0.91801    0.013
 4501.00    0.94967   0.91363    0.013
 4502.00    0.90788   0.91789    0.013
 4503.00    0.86532   0.93314    0.013
 4504.00    1.01862   0.94810    0.013
 4505.00    1.24183   0.95275    0.013
 4506.00    1.20238   0.94770    0.013
 4507.00    1.08374   0.93963    0.012
 4508.00    1.17290   0.93464    0.012
 4509.00    1.31409   0.93453    0.012
 4510.00    1.35190   0.93594    0.012
 4511.00    1.36870   0.93356    0.012
 4512.00    1.01660   0.92559    0.012
 4513.00    0.60565   0.91544    0.012
 4514.00    0.62581   0.90769    0.012
 4515.00    0.69720   0.90479    0.012
 4516.00    0.78070   0.90513    0.012
 4517.00    0.86518   0.90468    0.012
 4518.00    0.98100   0.90415    0.012
 4519.00    1.09824   0.90825    0.013
 4520.00    0.93818   0.91537    0.012
 4521.00    0.78173   0.91713    0.012
 4522.00    0.98280   0.90922    0.012
 4523.00    1.17110   0.89754    0.012
 4524.00    1.11978   0.88889    0.012
 4525.00    1.04063   0.88082    0.012
 4526.00    0.64956   0.86849    0.012
 4527.00    0.32042   0.85340    0.012
 4528.00    0.47598   0.84156    0.012
 4529.00    0.59860   0.83819    0.012
 4530.00    0.52644   0.84394    0.012
 4531.00    0.46390   0.85375    0.012
 4532.00    0.44633   0.85906    0.012
 4533.00    0.46571   0.85314    0.012
 4534.00    0.62630   0.84071    0.012
 4535.00    0.77444   0.83746    0.013
 4536.00    0.88285   0.85397    0.013
 4537.00    0.94515   0.88211    0.012
 4538.00    0.88287   0.90185    0.012
 4539.00    0.83233   0.90235    0.012
 4540.00    0.80900   0.89027    0.012
 4541.00    0.78923   0.88010    0.012
 4542.00    0.77658   0.87995    0.012
 4543.00    0.76052   0.88471    0.012
 4544.00    0.73852   0.88555    0.012
 4545.00    0.68823   0.88318    0.012
 4546.00    0.59472   0.88251    0.012
 4547.00    0.57963   0.88097    0.012
 4548.00    0.66982   0.87328    0.012
 4549.00    0.83220   0.86357    0.012
 4550.00    1.07991   0.86225    0.000
 4551.00    1.08402   0.86943    0.000
 4552.00    0.83422   0.87367    0.000
 4553.00    0.67562   0.86939    0.000
 4554.00    0.60087   0.86254    0.000
 4555.00    0.60253   0.86226    0.000
 4556.00    0.66611   0.87323    0.000
 4557.00    0.65126   0.89132    0.000
 4558.00    0.58046   0.90698    0.000
 4559.00    0.54274   0.91524    0.000
 4560.00    0.52573   0.91800    0.000
 4561.00    0.60571   0.91721    0.000
 4562.00    0.73872   0.91069    0.000
 4563.00    0.80416   0.89734    0.000
 4564.00    0.83748   0.88380    0.000
 4565.00    0.88008   0.87992    0.000
 4566.00    0.92650   0.88868    0.000
 4567.00    0.86041   0.90328    0.000
 4568.00    0.75489   0.91318    0.000
 4569.00    0.77163   0.91214    0.000
 4570.00    0.82451   0.90087    0.000
 4571.00    0.85536   0.88735    0.000
 4572.00    0.88081   0.88396    0.000
 4573.00    0.83197   0.89381    0.000
 4574.00    0.76840   0.90575    0.000
 4575.00    0.78633   0.91068    0.000
 4576.00    0.81688   0.90994    0.000
 4577.00    0.87882   0.90593    0.000
 4578.00    0.94434   0.89724    0.000
 4579.00    1.00106   0.88401    0.000
 4580.00    1.05709   0.87166    0.000
 4581.00    1.07580   0.86663    0.000
 4582.00    1.09295   0.86899    0.000
 4583.00    0.85851   0.87242    0.000
 4584.00    0.62926   0.87268    0.000
 4585.00    0.71639   0.87193    0.000
 4586.00    0.79013   0.87488    0.000
 4587.00    0.62989   0.88375    0.000
 4588.00    0.48546   0.89487    0.000
 4589.00    0.51020   0.90114    0.000
 4590.00    0.55824   0.89852    0.000
 4591.00    0.78242   0.88940    0.000
 4592.00    0.92935   0.88033    0.000
 4593.00    0.63228   0.87596    0.000
 4594.00    0.40831   0.87545    0.000
 4595.00    0.51834   0.87623    0.000
 4596.00    0.60477   0.87807    0.000
 4597.00    0.60289   0.88120    0.000
 4598.00    0.61271   0.88401    0.000
 4599.00    0.65910   0.88378    0.000
 4600.00    0.74197   0.87964    0.000
 4601.00    0.92162   0.87554    0.000
 4602.00    0.98088   0.87557    0.000
 4603.00    0.76582   0.87862    0.000
 4604.00    0.68794   0.88143    0.000
 4605.00    0.88074   0.88321    0.000
 4606.00    1.02468   0.88648    0.000
 4607.00    1.08458   0.89399    0.000
 4608.00    1.07999   0.90461    0.000
 4609.00    0.97832   0.91261    0.000
 4610.00    0.95933   0.91290    0.000
 4611.00    1.04974   0.90690    0.000
 4612.00    1.07927   0.90030    0.000
 4613.00    1.03781   0.89714    0.000
 4614.00    1.10186   0.89809    0.000
 4615.00    1.27434   0.90057    0.000
 4616.00    1.24255   0.90140    0.000
 4617.00    1.02560   0.90023    0.000
 4618.00    0.92941   0.89733    0.000
 4619.00    0.92969   0.89445    0.000
 4620.00    0.79322   0.89576    0.000
 4621.00    0.56063   0.90114    0.000
 4622.00    0.57300   0.90526    0.000
 4623.00    0.73640   0.90574    0.000
 4624.00    0.88952   0.90385    0.000
 4625.00    1.03709   0.90083    0.000
 4626.00    1.04100   0.89836    0.000
 4627.00    0.97771   0.89682    0.000
 4628.00    0.98832   0.89393    0.000
 4629.00    1.02873   0.89001    0.000
 4630.00    1.03076   0.88943    0.000
 4631.00    1.01960   0.89231    0.000
 4632.00    0.83228   0.89257    0.000
 4633.00    0.59395   0.88801    0.000
 4634.00    0.59200   0.88315    0.000
 4635.00    0.64667   0.88071    0.000
 4636.00    0.74430   0.87803    0.000
 4637.00    0.85023   0.87247    0.000
 4638.00    0.86239   0.86574    0.000
 4639.00    0.86048   0.86199    0.000
 4640.00    0.87252   0.86437    0.000
 4641.00    0.88610   0.87232    0.000
 4642.00    0.91439   0.88024    0.000
 4643.00    0.94375   0.88201    0.000
 4644.00    0.84236   0.87574    0.000
 4645.00    0.73603   0.86207    0.000
 4646.00    0.86015   0.84482    0.000
 4647.00    0.97883   0.83305    0.000
 4648.00    0.85226   0.83341    0.000
 4649.00    0.73544   0.84281    0.000
 4650.00    0.77795   0.85368    0.000
 4651.00    0.81488   0.86192    0.000
 4652.00    0.79468   0.86670    0.000
 4653.00    0.77311   0.86623    0.000
 4654.00    0.74151   0.85994    0.000
 4655.00    0.74814   0.85351    0.000
 4656.00    0.96850   0.85474    0.000
 4657.00    1.10178   0.86617    0.000
 4658.00    0.84653   0.88391    0.000
 4659.00    0.64799   0.89970    0.000
 4660.00    0.65714   0.90580    0.000
 4661.00    0.69895   0.90040    0.000
 4662.00    0.84095   0.88840    0.000
 4663.00    0.87577   0.87660    0.000
 4664.00    0.63109   0.86730    0.000
 4665.00    0.50952   0.85613    0.000
 4666.00    0.66385   0.83853    0.000
 4667.00    0.80842   0.82002    0.000
 4668.00    0.93402   0.81357    0.000
 4669.00    0.98207   0.82448    0.000
 4670.00    0.89878   0.84452    0.000
 4671.00    0.83477   0.86120    0.000
 4672.00    0.79939   0.86781    0.000
 4673.00    0.78450   0.86674    0.000
 4674.00    0.79635   0.86565    0.000
 4675.00    0.85676   0.86941    0.000
 4676.00    0.97294   0.87557    0.000
 4677.00    0.92827   0.87718    0.000
 4678.00    0.72061   0.87072    0.000
 4679.00    0.78666   0.85976    0.000
 4680.00    1.09734   0.85009    0.000
 4681.00    1.13480   0.84517    0.000
 4682.00    0.95708   0.84585    0.000
 4683.00    0.84355   0.84948    0.000
 4684.00    0.77447   0.85069    0.000
 4685.00    0.62421   0.84765    0.000
 4686.00    0.42465   0.84492    0.000
 4687.00    0.62340   0.84681    0.000
 4688.00    1.03335   0.85226    0.000
 4689.00    1.10454   0.85703    0.000
 4690.00    1.01984   0.85833    0.000
 4691.00    0.95174   0.85797    0.000
 4692.00    0.89023   0.86013    0.000
 4693.00    1.02761   0.86598    0.000
 4694.00    1.23216   0.87343    0.000
 4695.00    1.12703   0.87965    0.000
 4696.00    0.93401   0.88068    0.000
 4697.00    0.58463   0.87315    0.000
 4698.00    0.19866   0.85977    0.000
 4699.00    0.10236   0.84880    0.000
 4700.00    0.06056   0.84404    0.000
 4701.00    0.37157   0.84071    0.000
 4702.00    0.73388   0.83511    0.000
 4703.00    0.73984   0.83174    0.000
 4704.00    0.70812   0.83573    0.000
 4705.00    0.72163   0.84310    0.000
 4706.00    0.73825   0.84514    0.000
 4707.00    0.77505   0.83990    0.000
 4708.00    0.81253   0.83351    0.000
 4709.00    0.88474   0.83290    0.000
 4710.00    0.95294   0.84025    0.000
 4711.00    0.88885   0.85076    0.000
 4712.00    0.83357   0.85572    0.000
 4713.00    0.91339   0.85200    0.000
 4714.00    0.99031   0.84600    0.000
 4715.00    1.03871   0.84650    0.000
 4716.00    1.05682   0.85536    0.000
 4717.00    0.86073   0.86679    0.000
 4718.00    0.70694   0.87519    0.000
 4719.00    0.78334   0.87995    0.000
 4720.00    0.82676   0.88167    0.000
 4721.00    0.72647   0.87993    0.000
 4722.00    0.68974   0.87664    0.000
 4723.00    0.88097   0.87609    0.000
 4724.00    0.99672   0.87887    0.000
 4725.00    0.88525   0.87901    0.000
 4726.00    0.78369   0.87000    0.000
 4727.00    0.70754   0.85312    0.000
 4728.00    0.68221   0.83758    0.000
 4729.00    0.76890   0.83083    0.000
 4730.00    0.80914   0.83205    0.000
 4731.00    0.76059   0.83703    0.000
 4732.00    0.64977   0.84345    0.000
 4733.00    0.43505   0.84986    0.000
 4734.00    0.36648   0.85425    0.000
 4735.00    0.51158   0.85455    0.000
 4736.00    0.70023   0.85119    0.000
 4737.00    0.94488   0.84943    0.000
 4738.00    1.02550   0.85300    0.000
 4739.00    0.92031   0.85743    0.000
 4740.00    0.86967   0.85753    0.000
 4741.00    0.87353   0.85562    0.000
 4742.00    0.84519   0.85662    0.000
 4743.00    0.78848   0.86035    0.000
 4744.00    0.69000   0.86314    0.000
 4745.00    0.55910   0.86438    0.000
 4746.00    0.60071   0.86651    0.000
 4747.00    0.76009   0.86931    0.000
 4748.00    0.93447   0.87059    0.000
 4749.00    1.11782   0.87045    0.000
 4750.00    1.09342   0.86974    0.000
 4751.00    0.96057   0.86716    0.000
 4752.00    0.93475   0.86153    0.000
 4753.00    0.95738   0.85444    0.000
 4754.00    1.00192   0.84860    0.000
 4755.00    1.05501   0.84514    0.000
 4756.00    1.01428   0.84366    0.000
 4757.00    0.94248   0.84397    0.000
 4758.00    0.85373   0.84621    0.000
 4759.00    0.76026   0.84890    0.000
 4760.00    0.76904   0.84833    0.000
 4761.00    0.80120   0.84128    0.011
 4762.00    0.82882   0.82966    0.011
 4763.00    0.85561   0.81935    0.011
 4764.00    0.97869   0.81331    0.011
 4765.00    1.11534   0.81071    0.011
 4766.00    0.87831   0.81170    0.011
 4767.00    0.60337   0.81759    0.011
 4768.00    0.65703   0.82724    0.011
 4769.00    0.73193   0.83632    0.011
 4770.00    0.65778   0.83985    0.011
 4771.00    0.57944   0.83705    0.011
 4772.00    0.66779   0.83380    0.011
 4773.00    0.75201   0.83646    0.011
 4774.00    0.71639   0.84399    0.011
 4775.00    0.68977   0.85022    0.011
 4776.00    0.79311   0.85221    0.011
 4777.00    0.88388   0.85150    0.011
 4778.00    0.85652   0.84902    0.011
 4779.00    0.83416   0.84488    0.011
 4780.00    0.84611   0.84065    0.011
 4781.00    0.87593   0.83706    0.011
 4782.00    1.00041   0.83288    0.011
 4783.00    1.06042   0.82864    0.011
 4784.00    0.84584   0.82652    0.011
 4785.00    0.70388   0.82537    0.011
 4786.00    0.81716   0.82286    0.011
 4787.00    0.88518   0.82071    0.011
 4788.00    0.81946   0.82085    0.011
 4789.00    0.77501   0.82235    0.011
 4790.00    0.78412   0.82527    0.011
 4791.00    0.79649   0.83061    0.011
 4792.00    0.81592   0.83832    0.011
 4793.00    0.87406   0.84792    0.011
 4794.00    1.00506   0.85727    0.011
 4795.00    1.04067   0.86220    0.011
 4796.00    0.91954   0.85995    0.011
 4797.00    0.80307   0.85158    0.011
 4798.00    0.69332   0.84086    0.011
 4799.00    0.68934   0.83285    0.011
 4800.00    0.81940   0.83194    0.011
 4801.00    0.91720   0.83821    0.011
 4802.00    0.97895   0.84623    0.011
 4803.00    0.99126   0.84915    0.011
 4804.00    0.95487   0.84477    0.011
 4805.00    0.91467   0.83706    0.011
 4806.00    0.87116   0.83108    0.011
 4807.00    0.85296   0.82820    0.011
 4808.00    0.85413   0.82781    0.011
 4809.00    0.79687   0.82978    0.011
 4810.00    0.70032   0.83290    0.011
 4811.00    0.77288   0.83509    0.011
 4812.00    0.94512   0.83591    0.011
 4813.00    0.93756   0.83653    0.011
 4814.00    0.83762   0.83802    0.011
 4815.00    0.81914   0.84072    0.011
 4816.00    0.83693   0.84429    0.011
 4817.00    0.68786   0.84777    0.011
 4818.00    0.47495   0.84998    0.011
 4819.00    0.53188   0.85016    0.011
 4820.00    0.67654   0.84785    0.011
 4821.00    0.78899   0.84205    0.011
 4822.00    0.89268   0.83179    0.011
 4823.00    0.94601   0.81995    0.011
 4824.00    0.98810   0.81419    0.011
 4825.00    0.91326   0.81796    0.011
 4826.00    0.81758   0.82485    0.011
 4827.00    0.82913   0.82708    0.011
 4828.00    0.85530   0.82418    0.011
 4829.00    0.86003   0.82030    0.011
 4830.00    0.86268   0.81727    0.011
 4831.00    0.68568   0.81392    0.011
 4832.00    0.49779   0.81147    0.011
 4833.00    0.63438   0.81324    0.011
 4834.00    0.77959   0.81839    0.011
 4835.00    0.92774   0.82223    0.011
 4836.00    1.06992   0.82241    0.011
 4837.00    1.05627   0.81932    0.011
 4838.00    1.04173   0.81305    0.011
 4839.00    1.01486   0.80478    0.011
 4840.00    0.98132   0.79829    0.011
 4841.00    0.88754   0.79603    0.011
 4842.00    0.79935   0.79601    0.011
 4843.00    0.74817   0.79643    0.011
 4844.00    0.72226   0.79897    0.011
 4845.00    0.82675   0.80355    0.011
 4846.00    0.89909   0.80501    0.011
 4847.00    0.83768   0.79943    0.011
 4848.00    0.80328   0.78990    0.000
 4849.00    0.86185   0.78312    0.000
 4850.00    0.90020   0.78101    0.000
 4851.00    0.87989   0.77917    0.000
 4852.00    0.89110   0.77342    0.000
 4853.00    0.98030   0.76218    0.000
 4854.00    0.95502   0.74485    0.000
 4855.00    0.68547   0.72498    0.000
 4856.00    0.49724   0.70894    0.000
 4857.00    0.45971   0.69469    0.000
 4858.00    0.48037   0.66963    0.000
 4859.00    0.59523   0.62545    0.000
 4860.00    0.72080   0.57220    0.000
 4861.00    0.86158   0.53654    0.000
 4862.00    0.98592   0.54083    0.000
 4863.00    1.08973   0.58044    0.000
 4864.00    1.07204   0.62993    0.000
 4865.00    0.92055   0.67052    0.000
 4866.00    0.81676   0.69906    0.000
 4867.00    0.75928   0.71829    0.000
 4868.00    0.80931   0.73026    0.000
 4869.00    0.95141   0.73448    0.000
 4870.00    0.93690   0.72987    0.000
 4871.00    0.80424   0.72200    0.000
 4872.00    0.65485   0.72239    0.000
 4873.00    0.49435   0.73504    0.000
 4874.00    0.50951   0.75160    0.000
 4875.00    0.62663   0.76375    0.011
 4876.00    0.79342   0.77153    0.011
 4877.00    0.98534   0.77835    0.011
 4878.00    0.97886   0.78600    0.011
 4879.00    0.88550   0.79349    0.011
 4880.00    0.80607   0.79668    0.011
 4881.00    0.73187   0.79387    0.011
 4882.00    0.72275   0.79003    0.011
 4883.00    0.73439   0.78877    0.011
 4884.00    0.92402   0.78681    0.011
 4885.00    1.16109   0.78171    0.011
 4886.00    1.01545   0.77715    0.011
 4887.00    0.78631   0.77643    0.011
 4888.00    0.73779   0.77639    0.011
 4889.00    0.72059   0.77136    0.011
 4890.00    0.69177   0.76185    0.011
 4891.00    0.66141   0.75780    0.011
 4892.00    0.71801   0.76938    0.011
 4893.00    0.78269   0.79405    0.011
 4894.00    0.80265   0.81921    0.011
 4895.00    0.82006   0.83592    0.011
 4896.00    0.89229   0.84306    0.011
 4897.00    0.96515   0.84268    0.011
 4898.00    0.97075   0.83665    0.011
 4899.00    0.98141   0.82734    0.011
 4900.00    1.11190   0.81902    0.011
 4901.00    1.22936   0.81437    0.011
 4902.00    1.17820   0.81136    0.011
 4903.00    1.11714   0.80878    0.011
 4904.00    0.97006   0.81044    0.011
 4905.00    0.85515   0.81818    0.011
 4906.00    0.94724   0.82609    0.011
 4907.00    1.01189   0.82642    0.011
 4908.00    0.93849   0.81754    0.011
 4909.00    0.85310   0.80445    0.011
 4910.00    0.71885   0.79472    0.011
 4911.00    0.62472   0.79372    0.011
 4912.00    0.66599   0.80052    0.011
 4913.00    0.70906   0.80987    0.011
 4914.00    0.75729   0.81819    0.011
 4915.00    0.82221   0.82350    0.011
 4916.00    0.92777   0.82125    0.011
 4917.00    0.97503   0.80645    0.011
 4918.00    0.89991   0.78028    0.011
 4919.00    0.83994   0.75239    0.011
 4920.00    0.80761   0.73551    0.011
 4921.00    0.82661   0.73636    0.011
 4922.00    0.92744   0.75004    0.010
 4923.00    0.95326   0.76486    0.010
 4924.00    0.87410   0.77498    0.010
 4925.00    0.84141   0.78465    0.010
 4926.00    0.86596   0.79809    0.010
 4927.00    0.83394   0.81258    0.010
 4928.00    0.74049   0.82388    0.010
 4929.00    0.80530   0.83087    0.010
 4930.00    1.02165   0.83304    0.010
 4931.00    1.12200   0.82859    0.011
 4932.00    1.12441   0.81658    0.011
 4933.00    1.03521   0.80112    0.011
 4934.00    0.87790   0.79147    0.010
 4935.00    0.81641   0.79149    0.010
 4936.00    0.81750   0.79281    0.010
 4937.00    0.85594   0.78618    0.010
 4938.00    0.91571   0.77501    0.010
 4939.00    0.89041   0.77140    0.010
 4940.00    0.82276   0.78142    0.000
 4941.00    0.79591   0.79870    0.000
 4942.00    0.78661   0.81329    0.000
 4943.00    0.91483   0.82153    0.000
 4944.00    1.09380   0.82412    0.000
 4945.00    1.10645   0.82243    0.000
 4946.00    1.06708   0.82033    0.000
 4947.00    0.91263   0.82200    0.000
 4948.00    0.72816   0.82682    0.000
 4949.00    0.74541   0.83125    0.000
 4950.00    0.80562   0.83357    0.000
 4951.00    0.93601   0.83334    0.000
 4952.00    1.07824   0.82990    0.000
 4953.00    0.96775   0.82365    0.000
 4954.00    0.82511   0.81461    0.000
 4955.00    0.69959   0.79920    0.000
 4956.00    0.57557   0.77505    0.000
 4957.00    0.85387   0.75148    0.000
 4958.00    1.15340   0.74601    0.000
 4959.00    1.03989   0.76342    0.000
 4960.00    0.91977   0.78808    0.000
 4961.00    0.90067   0.80354    0.000
 4962.00    0.88368   0.80775    0.000
 4963.00    0.91234   0.80558    0.000
 4964.00    0.92468   0.79921    0.000
 4965.00    0.73675   0.79007    0.000
 4966.00    0.58434   0.78220    0.000
 4967.00    0.72947   0.77868    0.000
 4968.00    0.84153   0.77903    0.000
 4969.00    0.74713   0.78189    0.000
 4970.00    0.68597   0.78680    0.000
 4971.00    0.78781   0.79324    0.000
 4972.00    0.86527   0.80000    0.000
 4973.00    0.84562   0.80556    0.000
 4974.00    0.84388   0.80876    0.000
 4975.00    0.90137   0.80874    0.000
 4976.00    0.92905   0.80497    0.000
 4977.00    0.87345   0.79788    0.000
 4978.00    0.80969   0.78910    0.000
 4979.00    0.72643   0.78026    0.000
 4980.00    0.66475   0.77022    0.000
 4981.00    0.64762   0.75616    0.000
 4982.00    0.67047   0.74023    0.000
 4983.00    0.76512   0.73071    0.000
 4984.00    0.86506   0.73336    0.000
 4985.00    0.97330   0.74602    0.000
 4986.00    1.00174   0.76260    0.000
 4987.00    0.92008   0.77695    0.000
 4988.00    0.81659   0.78401    0.000
 4989.00    0.68658   0.78274    0.000
 4990.00    0.67464   0.77760    0.000
 4991.00    0.78909   0.77447    0.000
 4992.00    0.82796   0.77534    0.000
 4993.00    0.79546   0.77788    0.000
 4994.00    0.73953   0.78042    0.000
 4995.00    0.66411   0.78370    0.000
 4996.00    0.68752   0.78663    0.000
 4997.00    0.78336   0.78565    0.000
 4998.00    0.83581   0.77863    0.000
 4999.00    0.86035   0.76715    0.000
 5000.00    0.85822   0.75622    0.000
 5001.00    0.84109   0.75075    0.000
 5002.00    0.73133   0.75102    0.000
 5003.00    0.57619   0.75253    0.000
 5004.00    0.50820   0.74973    0.000
 5005.00    0.47711   0.74167    0.000
 5006.00    0.66368   0.73526    0.000
 5007.00    0.92916   0.73874    0.000
 5008.00    0.87718   0.75102    0.000
 5009.00    0.72781   0.76214    0.000
 5010.00    0.77680   0.76388    0.000
 5011.00    0.87643   0.75521    0.000
 5012.00    0.91585   0.74021    0.000
 5013.00    0.94275   0.72540    0.000
 5014.00    0.73359   0.71714    0.000
 5015.00    0.48579   0.71768    0.000
 5016.00    0.41925   0.72326    0.000
 5017.00    0.37494   0.72837    0.000
 5018.00    0.55668   0.73224    0.000
 5019.00    0.75753   0.73769    0.000
 5020.00    0.83796   0.74393    0.000
 5021.00    0.91250   0.74694    0.000
 5022.00    0.95837   0.74701    0.000
 5023.00    1.00183   0.74912    0.000
 5024.00    0.92581   0.75462    0.000
 5025.00    0.85281   0.75884    0.000
 5026.00    0.84033   0.75813    0.000
 5027.00    0.83254   0.75496    0.000
 5028.00    0.87953   0.75524    0.000
 5029.00    0.91515   0.76130    0.010
 5030.00    0.85889   0.76983    0.010
 5031.00    0.82008   0.77756    0.010
 5032.00    0.88711   0.78364    0.010
 5033.00    0.94427   0.78544    0.010
 5034.00    0.95427   0.77878    0.010
 5035.00    0.95392   0.76481    0.010
 5036.00    0.91328   0.75158    0.010
 5037.00    0.88377   0.74413    0.010
 5038.00    0.89039   0.73721    0.010
 5039.00    0.87299   0.72352    0.010
 5040.00    0.78966   0.70604    0.010
 5041.00    0.71147   0.69760    0.010
 5042.00    0.64537   0.70778    0.010
 5043.00    0.62832   0.73214    0.010
 5044.00    0.71098   0.75771    0.010
 5045.00    0.81204   0.77553    0.010
 5046.00    0.94563   0.78254    0.010
 5047.00    0.97672   0.77779    0.010
 5048.00    0.84911   0.76435    0.010
 5049.00    0.75468   0.75004    0.010
 5050.00    0.70535   0.74169    0.010
 5051.00    0.75437   0.74101    0.010
 5052.00    0.92111   0.74666    0.010
 5053.00    0.87350   0.75622    0.010
 5054.00    0.59970   0.76585    0.010
 5055.00    0.58669   0.77222    0.010
 5056.00    0.81646   0.77538    0.010
 5057.00    0.95488   0.77749    0.010
 5058.00    1.01833   0.77956    0.010
 5059.00    0.98190   0.78137    0.010
 5060.00    0.87332   0.78319    0.010
 5061.00    0.91858   0.78443    0.010
 5062.00    1.06137   0.78146    0.010
 5063.00    1.08789   0.77071    0.010
 5064.00    1.04995   0.75490    0.010
 5065.00    0.98048   0.74295    0.010
 5066.00    0.89581   0.74038    0.010
 5067.00    0.84815   0.74351    0.010
 5068.00    0.81591   0.74689    0.011
 5069.00    0.83841   0.74999    0.011
 5070.00    0.88040   0.75262    0.010
 5071.00    0.73903   0.75225    0.010
 5072.00    0.54251   0.74955    0.010
 5073.00    0.52437   0.74874    0.010
 5074.00    0.55078   0.75055    0.010
 5075.00    0.57788   0.75198    0.010
 5076.00    0.60513   0.75148    0.010
 5077.00    0.70410   0.74776    0.010
 5078.00    0.81446   0.73770    0.010
 5079.00    0.89324   0.72271    0.010
 5080.00    0.96828   0.71172    0.010
 5081.00    0.93143   0.71120    0.010
 5082.00    0.88558   0.71782    0.010
 5083.00    0.78162   0.72585    0.010
 5084.00    0.67503   0.73437    0.010
 5085.00    0.72379   0.74354    0.010
 5086.00    0.77161   0.75086    0.010
 5087.00    0.68161   0.75444    0.010
 5088.00    0.59716   0.75562    0.009
 5089.00    0.61599   0.75653    0.009
 5090.00    0.64635   0.75806    0.009
 5091.00    0.80525   0.76094    0.009
 5092.00    0.93399   0.76552    0.009
 5093.00    0.82781   0.76950    0.010
 5094.00    0.73298   0.76880    0.010
 5095.00    0.70500   0.76171    0.010
 5096.00    0.67853   0.75022    0.010
 5097.00    0.65904   0.73734    0.010
 5098.00    0.66378   0.72615    0.010
 5099.00    0.76086   0.72121    0.010
 5100.00    0.82464   0.72566    0.010
 5101.00    0.78250   0.73598    0.009
 5102.00    0.75827   0.74433    0.009
 5103.00    0.78239   0.74636    0.009
 5104.00    0.80562   0.74346    0.010
 5105.00    0.82680   0.73828    0.010
 5106.00    0.79058   0.73189    0.010
 5107.00    0.63956   0.72560    0.009
 5108.00    0.56937   0.72186    0.010
 5109.00    0.64002   0.72172    0.010
 5110.00    0.68242   0.72480    0.010
 5111.00    0.68173   0.73095    0.010
 5112.00    0.69523   0.73879    0.010
 5113.00    0.72775   0.74561    0.010
 5114.00    0.72284   0.75052    0.010
 5115.00    0.67377   0.75468    0.010
 5116.00    0.58597   0.75913    0.010
 5117.00    0.45788   0.76325    0.010
 5118.00    0.45268   0.76471    0.010
 5119.00    0.56028   0.76143    0.010
 5120.00    0.62559   0.75369    0.010
 5121.00    0.65669   0.74321    0.010
 5122.00    0.71775   0.73123    0.010
 5123.00    0.80012   0.71941    0.010
 5124.00    0.73017   0.71124    0.010
 5125.00    0.56507   0.70913    0.010
 5126.00    0.51289   0.71104    0.010
 5127.00    0.52234   0.71296    0.010
 5128.00    0.59275   0.71342    0.010
 5129.00    0.69209   0.71411    0.010
 5130.00    0.77490   0.71734    0.010
 5131.00    0.85094   0.72319    0.010
 5132.00    0.79311   0.72932    0.010
 5133.00    0.68848   0.73417    0.010
 5134.00    0.62911   0.73829    0.010
 5135.00    0.58308   0.74079    0.010
 5136.00    0.66371   0.73831    0.010
 5137.00    0.77528   0.72988    0.010
 5138.00    0.76907   0.71953    0.010
 5139.00    0.73960   0.71311    0.010
 5140.00    0.77161   0.71258    0.010
 5141.00    0.81309   0.71361    0.010
 5142.00    0.56016   0.71223    0.010
 5143.00    0.27369   0.71115    0.010
 5144.00    0.41010   0.71306    0.010
 5145.00    0.57877   0.71479    0.010
 5146.00    0.72912   0.71357    0.010
 5147.00    0.87872   0.71194    0.010
 5148.00    0.76479   0.71300    0.010
 5149.00    0.65142   0.71514    0.010
 5150.00    0.65275   0.71416    0.010
 5151.00    0.65204   0.70927    0.010
 5152.00    0.61608   0.70414    0.010
 5153.00    0.58018   0.70255    0.010
 5154.00    0.54485   0.70609    0.010
 5155.00    0.52307   0.71482    0.010
 5156.00    0.60330   0.72695    0.010
 5157.00    0.67999   0.73870    0.010
 5158.00    0.73642   0.74651    0.010
 5159.00    0.78505   0.74953    0.010
 5160.00    0.79810   0.74892    0.010
 5161.00    0.80419   0.74518    0.010
 5162.00    0.78430   0.73841    0.010
 5163.00    0.75218   0.72848    0.010
 5164.00    0.68191   0.71216    0.010
 5165.00    0.64300   0.68467    0.010
 5166.00    0.68719   0.64843    0.010
 5167.00    0.68794   0.61705    0.010
 5168.00    0.58994   0.60530    0.010
 5169.00    0.48283   0.61296    0.009
 5170.00    0.35777   0.62211    0.010
 5171.00    0.35339   0.61634    0.010
 5172.00    0.55611   0.60196    0.010
 5173.00    0.70932   0.60179    0.010
 5174.00    0.78811   0.62656    0.010
 5175.00    0.75981   0.66296    0.010
 5176.00    0.59008   0.69209    0.010
 5177.00    0.49128   0.70762    0.009
 5178.00    0.47498   0.71263    0.009
 5179.00    0.47567   0.70948    0.009
 5180.00    0.49378   0.69679    0.009
 5181.00    0.49979   0.67170    0.009
 5182.00    0.49486   0.63639    0.009
 5183.00    0.48305   0.60549    0.009
 5184.00    0.46576   0.59990    0.009
 5185.00    0.46862   0.62532    0.009
 5186.00    0.48561   0.66429    0.009
 5187.00    0.49605   0.69498    0.009
 5188.00    0.50247   0.71058    0.009
 5189.00    0.57997   0.71579    0.009
 5190.00    0.69566   0.71323    0.000
 5191.00    0.71737   0.70283    0.000
 5192.00    0.69520   0.69064    0.000
 5193.00    0.78983   0.68596    0.000
 5194.00    0.93145   0.69021    0.000
 5195.00    0.87967   0.69812    0.000
 5196.00    0.76152   0.70663    0.000
 5197.00    0.79637   0.71562    0.000
 5198.00    0.87542   0.72417    0.000
 5199.00    0.88925   0.73061    0.000
 5200.00    0.88749   0.73327    0.000
 5201.00    0.83169   0.73097    0.000
 5202.00    0.76548   0.72350    0.000
 5203.00    0.84397   0.71096    0.000
 5204.00    0.94410   0.69431    0.000
 5205.00    0.76979   0.67770    0.000
 5206.00    0.56543   0.66619    0.000
 5207.00    0.57248   0.66056    0.000
 5208.00    0.59479   0.65929    0.000
 5209.00    0.64851   0.66411    0.000
 5210.00    0.70340   0.67757    0.000
 5211.00    0.65605   0.69767    0.010
 5212.00    0.60928   0.71805    0.010
 5213.00    0.60069   0.73153    0.010
 5214.00    0.59141   0.73393    0.010
 5215.00    0.57076   0.72763    0.010
 5216.00    0.55004   0.72089    0.010
 5217.00    0.52854   0.72111    0.010
 5218.00    0.54013   0.72880    0.010
 5219.00    0.79262   0.73907    0.010
 5220.00    0.97887   0.74717    0.010
 5221.00    0.79605   0.75041    0.010
 5222.00    0.63222   0.74675    0.010
 5223.00    0.55290   0.73477    0.010
 5224.00    0.52426   0.71530    0.010
 5225.00    0.68082   0.69254    0.010
 5226.00    0.80236   0.67467    0.010
 5227.00    0.81670   0.67129    0.010
 5228.00    0.80210   0.68512    0.010
 5229.00    0.71219   0.70728    0.010
 5230.00    0.66130   0.72489    0.010
 5231.00    0.69766   0.73081    0.009
 5232.00    0.66319   0.72585    0.009
 5233.00    0.49141   0.71722    0.009
 5234.00    0.42919   0.71405    0.009
 5235.00    0.55215   0.72027    0.009
 5236.00    0.67511   0.73240    0.009
 5237.00    0.79806   0.74387    0.009
 5238.00    0.83821   0.75034    0.009
 5239.00    0.77055   0.75190    0.009
 5240.00    0.74602   0.75118    0.009
 5241.00    0.77093   0.75013    0.009
 5242.00    0.78473   0.74949    0.009
 5243.00    0.78729   0.74986    0.009
 5244.00    0.75174   0.75024    0.009
 5245.00    0.68221   0.74645    0.009
 5246.00    0.68320   0.73604    0.009
 5247.00    0.73963   0.72364    0.009
 5248.00    0.81527   0.71570    0.009
 5249.00    0.90419   0.71238    0.009
 5250.00    0.84547   0.71076    0.010
 5251.00    0.69726   0.71137    0.009
 5252.00    0.70132   0.71521    0.010
 5253.00    0.78597   0.71939    0.010
 5254.00    0.78011   0.72144    0.010
 5255.00    0.73269   0.72425    0.010
 5256.00    0.63601   0.73225    0.010
 5257.00    0.51986   0.74415    0.010
 5258.00    0.48196   0.75321    0.010
 5259.00    0.47042   0.75357    0.010
 5260.00    0.49704   0.74369    0.010
 5261.00    0.53447   0.72548    0.010
 5262.00    0.63463   0.70309    0.010
 5263.00    0.74943   0.68155    0.010
 5264.00    0.72084   0.66499    0.010
 5265.00    0.66536   0.65633    0.010
 5266.00    0.58077   0.65638    0.010
 5267.00    0.49197   0.65977    0.011
 5268.00    0.57037   0.65650    0.011
 5269.00    0.66636   0.64579    0.011
 5270.00    0.48533   0.64160    0.011
 5271.00    0.28543   0.65467    0.010
 5272.00    0.46641   0.67747    0.010
 5273.00    0.66016   0.69544    0.010
 5274.00    0.61225   0.70368    0.010
 5275.00    0.56911   0.70789    0.010
 5276.00    0.68729   0.71585    0.010
 5277.00    0.80348   0.72928    0.010
 5278.00    0.88952   0.74180    0.010
 5279.00    0.94813   0.74574    0.010
 5280.00    0.73913   0.73958    0.010
 5281.00    0.57077   0.72770    0.010
 5282.00    0.68850   0.71611    0.010
 5283.00    0.78070   0.71042    0.010
 5284.00    0.73446   0.71487    0.010
 5285.00    0.68739   0.72878    0.010
 5286.00    0.63670   0.74475    0.010
 5287.00    0.60859   0.75488    0.010
 5288.00    0.66131   0.75807    0.010
 5289.00    0.71163   0.75854    0.009
 5290.00    0.75481   0.75919    0.009
 5291.00    0.78883   0.75917    0.010
 5292.00    0.79947   0.75718    0.010
 5293.00    0.78195   0.75354    0.010
 5294.00    0.70250   0.74789    0.010
 5295.00    0.64248   0.73760    0.009
 5296.00    0.61954   0.72147    0.009
 5297.00    0.63447   0.70472    0.009
 5298.00    0.71244   0.69635    0.009
 5299.00    0.75833   0.69967    0.009
 5300.00    0.75738   0.70875    0.009
 5301.00    0.73840   0.71694    0.009
 5302.00    0.69627   0.72448    0.009
 5303.00    0.69512   0.73447    0.009
 5304.00    0.74029   0.74545    0.009
 5305.00    0.73554   0.75232    0.009
 5306.00    0.68100   0.75275    0.009
 5307.00    0.66482   0.75005    0.009
 5308.00    0.68237   0.74931    0.009
 5309.00    0.69732   0.75187    0.009
 5310.00    0.71025   0.75484    0.009
 5311.00    0.76698   0.75529    0.009
 5312.00    0.85354   0.75304    0.009
 5313.00    0.87462   0.74951    0.009
 5314.00    0.85661   0.74537    0.009
 5315.00    0.79296   0.74038    0.010
 5316.00    0.70555   0.73559    0.010
 5317.00    0.62640   0.73353    0.010
 5318.00    0.55099   0.73483    0.009
 5319.00    0.52629   0.73682    0.009
 5320.00    0.52129   0.73674    0.009
 5321.00    0.60349   0.73372    0.009
 5322.00    0.71453   0.72768    0.010
 5323.00    0.72763   0.71938    0.010
 5324.00    0.71358   0.71137    0.010
 5325.00    0.67225   0.70416    0.010
 5326.00    0.62470   0.69251    0.010
 5327.00    0.62528   0.67335    0.010
 5328.00    0.63465   0.65660    0.010
 5329.00    0.64613   0.65745    0.010
 5330.00    0.65791   0.67711    0.010
 5331.00    0.58548   0.70107    0.010
 5332.00    0.50456   0.71695    0.009
 5333.00    0.58800   0.72507    0.009
 5334.00    0.68198   0.73080    0.010
 5335.00    0.72447   0.73508    0.010
 5336.00    0.76511   0.73586    0.010
 5337.00    0.67684   0.73265    0.009
 5338.00    0.59627   0.72570    0.009
 5339.00    0.73586   0.71519    0.009
 5340.00    0.86795   0.70489    0.009
 5341.00    0.89246   0.70174    0.009
 5342.00    0.90560   0.70791    0.009
 5343.00    0.81230   0.71745    0.009
 5344.00    0.73510   0.72315    0.009
 5345.00    0.76768   0.72338    0.009
 5346.00    0.78184   0.72100    0.009
 5347.00    0.69879   0.71816    0.009
 5348.00    0.63113   0.71537    0.009
 5349.00    0.62881   0.71475    0.009
 5350.00    0.62039   0.71924    0.009
 5351.00    0.59063   0.72790    0.009
 5352.00    0.57962   0.73645    0.009
 5353.00    0.62394   0.74283    0.009
 5354.00    0.65285   0.74834    0.009
 5355.00    0.64306   0.75363    0.009
 5356.00    0.66773   0.75752    0.009
 5357.00    0.76700   0.75933    0.009
 5358.00    0.80642   0.75939    0.009
 5359.00    0.73342   0.75740    0.009
 5360.00    0.71823   0.75236    0.009
 5361.00    0.79789   0.74455    0.009
 5362.00    0.82740   0.73625    0.009
 5363.00    0.78480   0.72947    0.009
 5364.00    0.73977   0.72437    0.009
 5365.00    0.69168   0.72066    0.009
 5366.00    0.71212   0.71842    0.009
 5367.00    0.80896   0.71629    0.009
 5368.00    0.84628   0.71091   -2.000
 5369.00    0.82506   0.69996   -2.000
 5370.00    0.71490   0.68656   -2.000
 5371.00    0.52760   0.67957   -2.000
 5372.00    0.52586   0.68613   -2.000
 5373.00    0.66588   0.70390   -2.000
 5374.00    0.65731   0.72316   -2.000
 5375.00    0.54898   0.73591   -2.000
 5376.00    0.59497   0.74074   -2.000
 5377.00    0.73173   0.74087   -2.000
 5378.00    0.64992   0.73949   -2.000
 5379.00    0.45603   0.73727   -2.000
 5380.00    0.51390   0.73368   -2.000
 5381.00    0.68362   0.72912   -2.000
 5382.00    0.68728   0.72498   -2.000
 5383.00    0.62755   0.72305    0.009
 5384.00    0.62145   0.72456    0.009
 5385.00    0.63274   0.72853    0.009
 5386.00    0.71041   0.73186    0.009
 5387.00    0.80610   0.73201    0.009
 5388.00    0.78485   0.72846    0.009
 5389.00    0.73756   0.72249    0.009
 5390.00    0.71754   0.71621    0.009
 5391.00    0.70236   0.71120    0.009
 5392.00    0.65368   0.70759    0.009
 5393.00    0.60046   0.70471    0.009
 5394.00    0.66357   0.70128    0.009
 5395.00    0.73792   0.69549    0.009
 5396.00    0.59823   0.68780    0.009
 5397.00    0.44567   0.68347    0.009
 5398.00    0.55442   0.68750    0.009
 5399.00    0.66860   0.69761    0.009
 5400.00    0.55286   0.70702    0.009
 5401.00    0.44279   0.71148    0.009
 5402.00    0.47855   0.70918    0.009
 5403.00    0.51962   0.69882    0.009
 5404.00    0.63256   0.68289    0.009
 5405.00    0.72203   0.66953    0.009
 5406.00    0.60046   0.66621    0.009
 5407.00    0.49636   0.67176    0.009
 5408.00    0.50773   0.67761    0.009
 5409.00    0.53496   0.67819    0.009
 5410.00    0.64378   0.67732    0.009
 5411.00    0.71669   0.68198    0.009
 5412.00    0.64060   0.69264    0.009
 5413.00    0.57130   0.70362    0.009
 5414.00    0.52536   0.71091    0.009
 5415.00    0.53166   0.71589    0.009
 5416.00    0.68907   0.72120    0.009
 5417.00    0.79049   0.72607    0.009
 5418.00    0.75362   0.72777    0.009
 5419.00    0.72091   0.72578    0.009
 5420.00    0.69706   0.72259    0.009
 5421.00    0.67144   0.72040    0.009
 5422.00    0.64256   0.71828    0.009
 5423.00    0.62101   0.71464    0.009
 5424.00    0.61132   0.71165    0.009
 5425.00    0.64157   0.71336    0.009
 5426.00    0.72846   0.71864    0.009
 5427.00    0.75138   0.71991    0.009
 5428.00    0.69452   0.71152    0.009
 5429.00    0.65961   0.69783    0.009
 5430.00    0.64883   0.68901    0.009
 5431.00    0.60460   0.68849    0.009
 5432.00    0.52793   0.68995    0.009
 5433.00    0.52915   0.68766    0.009
 5434.00    0.59694   0.68349    0.009
 5435.00    0.57003   0.68322    0.009
 5436.00    0.47181   0.69012    0.009
 5437.00    0.50703   0.70275    0.009
 5438.00    0.63055   0.71675    0.009
 5439.00    0.65828   0.72804    0.009
 5440.00    0.63052   0.73489    0.009
 5441.00    0.58513   0.73779    0.009
 5442.00    0.53084   0.73732    0.009
 5443.00    0.54369   0.73231    0.009
 5444.00    0.58587   0.72061    0.009
 5445.00    0.62042   0.70294    0.009
 5446.00    0.65211   0.68596    0.009
 5447.00    0.59813   0.67896    0.009
 5448.00    0.51690   0.68506    0.009
 5449.00    0.53787   0.69791    0.009
 5450.00    0.58601   0.70852    0.009
 5451.00    0.53615   0.71250    0.009
 5452.00    0.46497   0.70970    0.008
 5453.00    0.55720   0.70078    0.008
 5454.00    0.67765   0.68791    0.009
 5455.00    0.77929   0.67748    0.009
 5456.00    0.87845   0.67710    0.009
 5457.00    0.81419   0.68751    0.009
 5458.00    0.73483   0.70089    0.009
 5459.00    0.67063   0.70867    0.009
 5460.00    0.60729   0.70820    0.009
 5461.00    0.71467   0.70200    0.009
 5462.00    0.82548   0.69455    0.009
 5463.00    0.89650   0.69040    0.009
 5464.00    0.96267   0.69183    0.009
 5465.00    0.91466   0.69693    0.009
 5466.00    0.85663   0.70211    0.009
 5467.00    0.66987   0.70571    0.009
 5468.00    0.51565   0.70741    0.009
 5469.00    0.64310   0.70669    0.009
 5470.00    0.74866   0.70398    0.009
 5471.00    0.71397   0.70066    0.009
 5472.00    0.68249   0.69711    0.009
 5473.00    0.66713   0.69258    0.009
 5474.00    0.66157   0.68629    0.009
 5475.00    0.69579   0.67789    0.009
 5476.00    0.70226   0.66998    0.009
 5477.00    0.61529   0.66837    0.009
 5478.00    0.55444   0.67509   -2.000
 5479.00    0.56779   0.68386   -2.000
 5480.00    0.57475   0.68729   -2.000
 5481.00    0.56621   0.68576   -2.000
 5482.00    0.55256   0.68556   -2.000
 5483.00    0.52820   0.69064   -2.000
 5484.00    0.48142   0.69877   -2.000
 5485.00    0.39381   0.70448   -2.000
 5486.00    0.11675   0.70432   -2.000
 5487.00   -0.46187   0.70024   -2.000
 5488.00   -0.63712   0.69734   -2.000
 5489.00   -0.24890   0.69817   -2.000
 5490.00    0.15264   0.70113   -2.000
 5491.00    0.57054   0.70369   -2.000
 5492.00    0.92508   0.70462   -2.000
 5493.00    1.21096   0.70415   -2.000
 5494.00    1.24510   0.70323   -2.000
 5495.00    1.03861   0.70184   -2.000
 5496.00    0.82031   0.69913   -2.000
 5497.00    0.59205   0.69645   -2.000
 5498.00    0.54478   0.69647   -2.000
 5499.00    0.63184   0.69829   -2.000
 5500.00    0.65618   0.69781   -2.000
 5501.00    0.63965   0.69409   -2.000
 5502.00    0.65186   0.69071   -1.000
 5503.00    0.68048   0.68997   -1.000
 5504.00    0.70366   0.68969   -1.000
 5505.00    0.72414   0.68702   -1.000
 5506.00    0.76878   0.68350    0.023
 5507.00    0.82380   0.68344    0.009
 5508.00    0.75135   0.68759    0.008
 5509.00    0.63194   0.69158    0.008
 5510.00    0.62992   0.69082    0.008
 5511.00    0.66452   0.68475    0.008
 5512.00    0.73068   0.67687    0.008
 5513.00    0.80506   0.67199    0.008
 5514.00    0.79886   0.67281    0.009
 5515.00    0.77555   0.67862    0.009
 5516.00    0.75247   0.68699    0.009
 5517.00    0.72942   0.69583    0.009
 5518.00    0.65100   0.70353    0.009
 5519.00    0.56557   0.70852    0.009
 5520.00    0.65435   0.71016    0.009
 5521.00    0.75848   0.70955    0.009
 5522.00    0.76840   0.70832    0.009
 5523.00    0.77340   0.70683    0.009
 5524.00    0.71450   0.70387    0.009
 5525.00    0.65562   0.69782    0.009
 5526.00    0.68821   0.68839    0.009
 5527.00    0.71527   0.67825    0.009
 5528.00    0.62314   0.67281    0.009
 5529.00    0.54677   0.67588    0.008
 5530.00    0.66274   0.68492    0.009
 5531.00    0.75936   0.69333    0.009
 5532.00    0.69476   0.69685    0.009
 5533.00    0.63907   0.69587    0.009
 5534.00    0.63873   0.69308    0.008
 5535.00    0.64084   0.69125    0.008
 5536.00    0.65486   0.69180    0.008
 5537.00    0.65104   0.69418    0.009
 5538.00    0.57642   0.69744    0.021
 5539.00    0.55132   0.70129   -1.000
 5540.00    0.68964   0.70491   -1.000
 5541.00    0.80249   0.70629   -1.000
 5542.00    0.84430   0.70430   -1.000
 5543.00    0.82696   0.70046   -1.000
 5544.00    0.66841   0.69747   -1.000
 5545.00    0.56646   0.69667    0.048
 5546.00    0.58116   0.69811    0.012
 5547.00    0.59381   0.70148    0.008
 5548.00    0.60279   0.70584    0.008
 5549.00    0.60403   0.70946    0.008
 5550.00    0.59313   0.71091    0.008
 5551.00    0.58533   0.70964    0.008
 5552.00    0.58178   0.70576    0.008
 5553.00    0.60579   0.70053    0.008
 5554.00    0.66320   0.69632    0.008
 5555.00    0.70875   0.69484    0.008
 5556.00    0.74164   0.69543    0.008
 5557.00    0.77043   0.69641    0.008
 5558.00    0.79536   0.69702    0.008
 5559.00    0.76582   0.69726    0.008
 5560.00    0.69102   0.69661    0.008
 5561.00    0.62284   0.69426    0.008
 5562.00    0.55948   0.69041    0.008
 5563.00    0.60564   0.68653    0.008
 5564.00    0.72214   0.68378    0.008
 5565.00    0.73490   0.68209    0.008
 5566.00    0.68937   0.68103    0.008
 5567.00    0.70913   0.68029    0.008
 5568.00    0.76081   0.67951    0.008
 5569.00    0.87021   0.67897    0.008
 5570.00    1.00400   0.67912    0.008
 5571.00    0.97277   0.67906    0.008
 5572.00    0.88184   0.67817    0.008
 5573.00    0.76261   0.67825    0.008
 5574.00    0.63471   0.68074    0.008
 5575.00    0.60411   0.68433    0.008
 5576.00    0.59829   0.68737    0.008
 5577.00    0.64478   0.68972    0.008
 5578.00    0.70211   0.69160    0.008
 5579.00    0.69557   0.69264    0.008
 5580.00    0.67861   0.69221    0.008
 5581.00    0.66036   0.69029    0.008
 5582.00    0.64197   0.68793    0.008
 5583.00    0.68796   0.68564    0.008
 5584.00    0.73936   0.68178    0.008
 5585.00    0.71239   0.67397    0.008
 5586.00    0.68162   0.66237    0.008
 5587.00    0.60281   0.65074    0.008
 5588.00    0.52459   0.64387    0.008
 5589.00    0.52459   0.64408    0.008
 5590.00    0.52939   0.64972    0.008
 5591.00    0.62958   0.65649    0.008
 5592.00    0.72001   0.66101    0.008
 5593.00    0.69698   0.66341    0.008
 5594.00    0.67098   0.66654    0.008
 5595.00    0.62107   0.67191    0.008
 5596.00    0.57573   0.67648    0.008
 5597.00    0.55804   0.67594    0.008
 5598.00    0.56164   0.67047    0.008
 5599.00    0.66671   0.66405    0.008
 5600.00    0.74503   0.65907    0.009
 5601.00    0.71943   0.65565    0.009
 5602.00    0.67666   0.65503    0.009
 5603.00    0.57832   0.65997    0.008
 5604.00    0.53239   0.67068    0.008
 5605.00    0.62997   0.68333    0.009
 5606.00    0.69448   0.69326    0.009
 5607.00    0.68136   0.69850    0.008
 5608.00    0.66499   0.70002    0.008
 5609.00    0.64202   0.69985    0.008
 5610.00    0.62167   0.69956    0.008
 5611.00    0.60595   0.69915    0.008
 5612.00    0.58216   0.69642    0.008
 5613.00    0.54590   0.68803    0.008
 5614.00    0.55969   0.67377    0.008
 5615.00    0.64139   0.66005    0.008
 5616.00    0.68387   0.65500    0.008
 5617.00    0.67951   0.65956    0.008
 5618.00    0.62447   0.66753    0.008
 5619.00    0.51603   0.67370    0.008
 5620.00    0.50389   0.67768    0.008
 5621.00    0.58124   0.68017    0.008
 5622.00    0.63465   0.67966    0.008
 5623.00    0.66845   0.67473    0.008
 5624.00    0.63908   0.66806    0.008
 5625.00    0.56414   0.66494    0.008
 5626.00    0.50933   0.66761    0.008
 5627.00    0.46727   0.67372    0.008
 5628.00    0.50323   0.68006    0.008
 5629.00    0.58238   0.68514    0.008
 5630.00    0.65369   0.68850    0.008
 5631.00    0.72124   0.68990    0.008
 5632.00    0.71459   0.68940    0.008
 5633.00    0.67710   0.68739    0.008
 5634.00    0.65709   0.68427    0.008
 5635.00    0.64330   0.68033    0.008
 5636.00    0.62113   0.67615    0.008
 5637.00    0.59646   0.67292    0.008
 5638.00    0.56118   0.67155    0.008
 5639.00    0.52326   0.67133    0.008
 5640.00    0.53903   0.67082    0.008
 5641.00    0.56564   0.67009    0.008
 5642.00    0.50590   0.67032    0.008
 5643.00    0.43248   0.67171    0.008
 5644.00    0.48074   0.67353    0.008
 5645.00    0.54333   0.67532    0.008
 5646.00    0.57760   0.67706    0.008
 5647.00    0.60961   0.67853    0.008
 5648.00    0.64387   0.67927    0.008
 5649.00    0.67823   0.67950    0.008
 5650.00    0.69332   0.68036    0.008
 5651.00    0.70808   0.68239    0.008
 5652.00    0.71780   0.68418    0.008
 5653.00    0.72464   0.68362    0.008
 5654.00    0.67867   0.68040    0.008
 5655.00    0.63551   0.67575    0.008
 5656.00    0.62350   0.66945    0.008
 5657.00    0.61145   0.66066    0.008
 5658.00    0.59905   0.65246    0.008
 5659.00    0.58778   0.65013    0.008
 5660.00    0.58317   0.65370    0.008
 5661.00    0.57954   0.65792    0.008
 5662.00    0.58043   0.66013    0.008
 5663.00    0.60139   0.66261    0.007
 5664.00    0.69862   0.66709    0.008
 5665.00    0.77316   0.67150    0.008
 5666.00    0.77568   0.67302    0.008
 5667.00    0.79204   0.67169    0.008
 5668.00    0.84562   0.66988    0.008
 5669.00    0.88351   0.66964    0.008
 5670.00    0.88517   0.67147    0.008
 5671.00    0.85175   0.67508    0.008
 5672.00    0.74826   0.67956    0.008
 5673.00    0.67657   0.68321    0.008
 5674.00    0.66017   0.68476    0.008
 5675.00    0.65792   0.68484    0.008
 5676.00    0.67721   0.68495    0.008
 5677.00    0.67887   0.68508    0.008
 5678.00    0.65695   0.68420    0.008
 5679.00    0.66827   0.68213    0.008
 5680.00    0.71872   0.67911    0.008
 5681.00    0.74356   0.67495    0.008
 5682.00    0.74179   0.67030    0.008
 5683.00    0.71996   0.66727    0.008
 5684.00    0.67977   0.66677    0.008
 5685.00    0.59777   0.66694    0.008
 5686.00    0.48201   0.66554    0.008
 5687.00    0.48870   0.66304    0.008
 5688.00    0.58240   0.66218    0.008
 5689.00    0.64725   0.66485    0.008
 5690.00    0.69412   0.67042    0.008
 5691.00    0.69370   0.67665    0.008
 5692.00    0.66752   0.68139    0.008
 5693.00    0.71780   0.68359    0.008
 5694.00    0.80429   0.68360    0.008
 5695.00    0.77409   0.68243    0.008
 5696.00    0.69623   0.68028    0.008
 5697.00    0.69645   0.67664    0.008
 5698.00    0.72390   0.67188    0.008
 5699.00    0.74099   0.66712    0.008
 5700.00    0.75504   0.66289    0.008
 5701.00    0.74331   0.65982    0.008
 5702.00    0.72531   0.65909    0.008
 5703.00    0.68540   0.66074    0.008
 5704.00    0.64118   0.66249    0.008
 5705.00    0.64674   0.66152    0.008
 5706.00    0.65996   0.65707    0.008
 5707.00    0.61244   0.65040    0.008
 5708.00    0.55804   0.64353    0.007
 5709.00    0.55725   0.63873    0.007
 5710.00    0.56052   0.63763    0.007
 5711.00    0.59391   0.64065    0.007
 5712.00    0.62853   0.64755    0.008
 5713.00    0.67521   0.65682    0.008
 5714.00    0.72076   0.66554    0.008
 5715.00    0.71577   0.67152    0.008
 5716.00    0.71245   0.67460    0.008
 5717.00    0.73768   0.67599    0.008
 5718.00    0.76571   0.67722    0.008
 5719.00    0.82328   0.67915    0.008
 5720.00    0.86078   0.68170    0.008
 5721.00    0.74780   0.68435    0.008
 5722.00    0.65281   0.68640    0.008
 5723.00    0.66053   0.68697    0.008
 5724.00    0.67495   0.68534    0.008
 5725.00    0.71982   0.68137    0.008
 5726.00    0.74713   0.67622    0.008
 5727.00    0.70911   0.67250    0.008
 5728.00    0.68344   0.67199    0.008
 5729.00    0.69620   0.67330    0.008
 5730.00    0.68503   0.67370    0.008
 5731.00    0.61061   0.67299    0.008
 5732.00    0.55231   0.67341    0.008
 5733.00    0.53058   0.67599    0.008
 5734.00    0.50686   0.67921    0.008
 5735.00    0.47922   0.68099    0.008
 5736.00    0.49256   0.68079    0.008
 5737.00    0.57612   0.67956    0.008
 5738.00    0.63475   0.67840    0.007
 5739.00    0.65602   0.67769    0.007
 5740.00    0.64116   0.67724    0.000
 5741.00    0.57867   0.67676    0.000
 5742.00    0.57327   0.67634    0.000
 5743.00    0.63416   0.67667    0.000
 5744.00    0.65709   0.67814    0.000
 5745.00    0.64115   0.67967    0.000
 5746.00    0.62258   0.67928    0.000
 5747.00    0.60164   0.67665    0.000
 5748.00    0.59802   0.67424    0.000
 5749.00    0.60819   0.67435    0.000
 5750.00    0.64184   0.67564    0.000
 5751.00    0.69194   0.67445    0.000
 5752.00    0.74679   0.66929    0.000
 5753.00    0.80455   0.66312    0.000
 5754.00    0.79303   0.66074    0.000
 5755.00    0.74434   0.66417    0.000
 5756.00    0.69045   0.67105    0.000
 5757.00    0.63415   0.67719    0.000
 5758.00    0.66555   0.67962    0.000
 5759.00    0.73216   0.67752    0.000
 5760.00    0.74619   0.67193    0.000
 5761.00    0.74222   0.66514    0.000
 5762.00    0.69420   0.66034    0.000
 5763.00    0.63349   0.66038    0.000
 5764.00    0.62794   0.66526    0.000
 5765.00    0.63552   0.67184    0.000
 5766.00    0.64145   0.67686    0.000
 5767.00    0.64707   0.67923    0.000
 5768.00    0.64939   0.67954    0.000
 5769.00    0.65122   0.67872    0.000
 5770.00    0.59719   0.67727    0.000
 5771.00    0.53707   0.67536    0.000
 5772.00    0.55246   0.67328    0.000
 5773.00    0.57327   0.67144    0.000
 5774.00    0.62516   0.67026    0.000
 5775.00    0.67819   0.67016    0.000
 5776.00    0.66167   0.67090    0.000
 5777.00    0.64463   0.67105    0.000
 5778.00    0.61920   0.66874    0.000
 5779.00    0.59784   0.66282    0.000
 5780.00    0.64198   0.65423    0.000
 5781.00    0.68246   0.64620    0.000
 5782.00    0.68596   0.64173    0.000
 5783.00    0.68764   0.64078    0.000
 5784.00    0.67608   0.64155    0.000
 5785.00    0.65499   0.64373    0.000
 5786.00    0.58100   0.64823    0.000
 5787.00    0.52171   0.65440    0.000
 5788.00    0.52762   0.65978    0.000
 5789.00    0.54164   0.66225    0.000
 5790.00    0.58526   0.66192    0.000
 5791.00    0.62095   0.66132   -2.000
 5792.00    0.63242   0.66284   -2.000
 5793.00    0.64869   0.66653   -2.000
 5794.00    0.67739   0.67046   -2.000
 5795.00    0.67871   0.67235   -2.000
 5796.00    0.61891   0.67115   -2.000
 5797.00    0.58997   0.66832   -2.000
 5798.00    0.62070   0.66711   -2.000
 5799.00    0.64533   0.66922   -2.000
 5800.00    0.65966   0.67327   -2.000
 5801.00    0.66424   0.67676   -2.000
 5802.00    0.65441   0.67804   -2.000
 5803.00    0.63360   0.67659   -2.000
 5804.00    0.59852   0.67333   -2.000
 5805.00    0.57056   0.67037   -2.000
 5806.00    0.55076   0.66930   -2.000
 5807.00    0.54739   0.67006   -2.000
 5808.00    0.56063   0.67150   -2.000
 5809.00    0.57248   0.67272   -2.000
 5810.00    0.58311   0.67330   -2.000
 5811.00    0.59896   0.67315    0.000
 5812.00    0.61892   0.67231    0.000
 5813.00    0.64485   0.67069    0.000
 5814.00    0.67491   0.66805    0.000
 5815.00    0.63050   0.66505    0.000
 5816.00    0.54102   0.66371    0.000
 5817.00    0.51656   0.66563    0.000
 5818.00    0.52644   0.67002    0.000
 5819.00    0.51262   0.67440    0.000
 5820.00    0.48794   0.67698    0.000
 5821.00    0.44794   0.67749    0.000
 5822.00    0.40189   0.67668    0.000
 5823.00    0.45455   0.67570    0.000
 5824.00    0.54037   0.67549    0.000
 5825.00    0.62554   0.67609    0.000
 5826.00    0.71051   0.67680    0.000
 5827.00    0.72918   0.67712    0.000
 5828.00    0.73241   0.67713    0.000
 5829.00    0.73524   0.67707    0.000
 5830.00    0.73800   0.67692    0.000
 5831.00    0.68699   0.67656    0.000
 5832.00    0.62823   0.67588    0.000
 5833.00    0.61397   0.67484    0.000
 5834.00    0.60436   0.67380    0.000
 5835.00    0.59940   0.67326    0.000
 5836.00    0.59475   0.67311    0.000
 5837.00    0.57063   0.67269    0.000
 5838.00    0.54587   0.67214    0.000
 5839.00    0.58586   0.67252    0.000
 5840.00    0.62370   0.67432    0.000
 5841.00    0.59212   0.67660    0.000
 5842.00    0.56729   0.67792    0.000
 5843.00    0.64438   0.67748    0.000
 5844.00    0.71368   0.67537    0.000
 5845.00    0.70740   0.67210    0.000
 5846.00    0.70093   0.66845    0.000
 5847.00    0.69318   0.66549    0.000
 5848.00    0.69234   0.66397    0.000
 5849.00    0.72891   0.66338    0.000
 5850.00    0.75734   0.66218    0.000
 5851.00    0.75053   0.65911    0.000
 5852.00    0.73587   0.65441    0.000
 5853.00    0.69319   0.65000    0.000
 5854.00    0.65644   0.64731    0.000
 5855.00    0.63744   0.64516    0.000
 5856.00    0.62976   0.64144    0.000
 5857.00    0.65094   0.63693    0.000
 5858.00    0.66407   0.63510    0.000
 5859.00    0.65953   0.63780    0.000
 5860.00    0.61552   0.64310    0.000
 5861.00    0.49636   0.64766    0.000
 5862.00    0.44336   0.65004    0.000
 5863.00    0.50030   0.65116    0.000
 5864.00    0.55698   0.65176    0.000
 5865.00    0.61330   0.65133    0.000
 5866.00    0.66549   0.65004    0.000
 5867.00    0.71241   0.64983    0.000
 5868.00    0.74737   0.65214    0.000
 5869.00    0.76884   0.65603    0.000
 5870.00    0.79488   0.65923    0.000
 5871.00    0.82550   0.66015    0.000
 5872.00    0.81003   0.65862    0.000
 5873.00    0.75410   0.65536    0.000
 5874.00    0.72436   0.65127    0.000
 5875.00    0.71486   0.64741    0.000
 5876.00    0.70212   0.64492    0.000
 5877.00    0.68716   0.64410    0.000
 5878.00    0.67187   0.64392    0.000
 5879.00    0.65640   0.64323    0.000
 5880.00    0.69361   0.64224    0.000
 5881.00    0.75820   0.64167    0.000
 5882.00    0.77783   0.64126    0.000
 5883.00    0.77719   0.64019    0.000
 5884.00    0.79872   0.63834    0.000
 5885.00    0.82885   0.63520    0.000
 5886.00    0.78564   0.62775    0.000
 5887.00    0.71826   0.61108    0.000
 5888.00    0.66016   0.58349    0.000
 5889.00    0.60463   0.55289    0.000
 5890.00    0.58132   0.53455    0.000
 5891.00    0.56533   0.53699    0.000
 5892.00    0.57728   0.55251    0.000
 5893.00    0.59431   0.56511    0.000
 5894.00    0.56770   0.56465    0.000
 5895.00    0.53500   0.55461    0.000
 5896.00    0.50066   0.54864    0.000
 5897.00    0.46616   0.55651    0.000
 5898.00    0.44076   0.57503    0.000
 5899.00    0.41594   0.59501    0.000
 5900.00    0.48424   0.61091    0.000
 5901.00    0.55516   0.62192    0.007
 5902.00    0.58664   0.62893    0.007
 5903.00    0.61638   0.63297    0.007
 5904.00    0.59751   0.63495    0.007
 5905.00    0.58189   0.63581    0.007
 5906.00    0.61265   0.63662    0.007
 5907.00    0.63886   0.63797    0.007
 5908.00    0.62277   0.63947    0.007
 5909.00    0.60728   0.64055    0.007
 5910.00    0.59583   0.64122    0.007
 5911.00    0.58879   0.64110    0.007
 5912.00    0.60493   0.63898    0.007
 5913.00    0.62078   0.63450    0.007
 5914.00    0.63547   0.62957    0.007
 5915.00    0.64995   0.62695    0.007
 5916.00    0.66367   0.62782    0.007
 5917.00    0.67175   0.63118    0.007
 5918.00    0.66327   0.63505    0.007
 5919.00    0.65517   0.63789    0.007
 5920.00    0.64800   0.63906    0.007
 5921.00    0.63973   0.63885    0.007
 5922.00    0.62909   0.63844    0.007
 5923.00    0.62721   0.63893    0.007
 5924.00    0.64175   0.64033    0.007
 5925.00    0.65216   0.64177    0.007
 5926.00    0.65580   0.64221    0.007
 5927.00    0.65076   0.64100    0.007
 5928.00    0.63324   0.63835    0.007
 5929.00    0.60498   0.63556    0.007
 5930.00    0.56315   0.63460    0.007
 5931.00    0.53457   0.63615    0.007
 5932.00    0.52074   0.63831    0.007
 5933.00    0.53316   0.63871    0.007
 5934.00    0.57134   0.63748    0.007
 5935.00    0.62268   0.63694    0.007
 5936.00    0.68540   0.63849    0.007
 5937.00    0.70031   0.64110    0.007
 5938.00    0.67877   0.64277    0.007
 5939.00    0.66772   0.64215    0.007
 5940.00    0.66369   0.63938    0.007
 5941.00    0.66020   0.63630    0.007
 5942.00    0.65703   0.63507    0.007
 5943.00    0.65082   0.63625    0.007
 5944.00    0.64304   0.63883    0.007
 5945.00    0.63335   0.64115    0.007
 5946.00    0.62280   0.64148    0.007
 5947.00    0.61259   0.63901    0.007
 5948.00    0.60251   0.63502    0.007
 5949.00    0.57974   0.63223    0.007
 5950.00    0.55288   0.63181    0.007
 5951.00    0.54673   0.63219    0.007
 5952.00    0.54620   0.63187    0.007
 5953.00    0.55028   0.63153    0.007
 5954.00    0.55539   0.63202    0.007
 5955.00    0.58968   0.63230    0.007
 5956.00    0.62914   0.63149    0.007
 5957.00    0.60715   0.63076    0.007
 5958.00    0.57686   0.63188    0.007
 5959.00    0.55312   0.63512    0.007
 5960.00    0.53000   0.63929    0.007
 5961.00    0.55902   0.64277    0.007
 5962.00    0.59116   0.64459    0.007
 5963.00    0.61218   0.64451    0.007
 5964.00    0.63262   0.64292    0.007
 5965.00    0.60643   0.64084    0.007
 5966.00    0.58202   0.63974    0.007
 5967.00    0.60282   0.64034    0.007
 5968.00    0.62887   0.64205    0.007
 5969.00    0.72557   0.64391    0.007
 5970.00    0.81293   0.64532    0.007
 5971.00    0.81663   0.64595    0.007
 5972.00    0.80667   0.64558    0.007
 5973.00    0.70683   0.64388    0.007
 5974.00    0.61923   0.64057    0.007
 5975.00    0.59435   0.63598    0.007
 5976.00    0.58191   0.63144    0.007
 5977.00    0.62091   0.62868    0.007
 5978.00    0.66137   0.62877    0.007
 5979.00    0.70684   0.63133    0.007
 5980.00    0.72552   0.63449    0.007
 5981.00    0.66687   0.63584    0.007
 5982.00    0.61500   0.63394    0.007
 5983.00    0.57988   0.62956    0.007
 5984.00    0.56211   0.62559    0.007
 5985.00    0.58122   0.62466    0.007
 5986.00    0.61194   0.62676    0.007
 5987.00    0.66407   0.63002    0.007
 5988.00    0.69930   0.63297    0.007
 5989.00    0.70728   0.63507    0.007
 5990.00    0.71778   0.63618    0.007
 5991.00    0.73185   0.63688    0.007
 5992.00    0.72046   0.63830    0.007
 5993.00    0.67737   0.64057    0.007
 5994.00    0.65146   0.64224    0.007
 5995.00    0.64438   0.64174    0.007
 5996.00    0.64554   0.63908    0.007
 5997.00    0.65465   0.63581    0.007
 5998.00    0.63883   0.63372    0.007
 5999.00    0.60172   0.63339    0.007
 6000.00    0.59733   0.63374    0.007
 6001.00    0.61753   0.63319    0.007
 6002.00    0.66116   0.63148    0.007
 6003.00    0.72025   0.62998    0.007
 6004.00    0.71636   0.62951    0.007
 6005.00    0.67605   0.62886    0.007
 6006.00    0.61105   0.62651    0.007
 6007.00    0.53363   0.62310    0.007
 6008.00    0.49734   0.62138    0.007
 6009.00    0.47900   0.62329    0.007
 6010.00    0.50625   0.62734    0.007
 6011.00    0.55057   0.63006    0.007
 6012.00    0.60386   0.62990    0.007
 6013.00    0.65999   0.62836    0.007
 6014.00    0.68106   0.62742    0.007
 6015.00    0.69282   0.62715    0.007
 6016.00    0.65406   0.62683    0.007
 6017.00    0.60433   0.62644    0.007
 6018.00    0.60886   0.62580    0.007
 6019.00    0.62273   0.62427    0.007
 6020.00    0.61480   0.62217    0.007
 6021.00    0.60402   0.62086    0.007
 6022.00    0.59303   0.62119    0.007
 6023.00    0.58202   0.62287    0.007
 6024.00    0.60530   0.62540    0.007
 6025.00    0.63050   0.62837    0.007
 6026.00    0.62028   0.63116    0.007
 6027.00    0.60975   0.63360    0.007
 6028.00    0.64626   0.63605    0.007
 6029.00    0.68236   0.63832    0.007
 6030.00    0.70907   0.63996    0.007
 6031.00    0.73312   0.64106    0.007
 6032.00    0.72341   0.64200    0.007
 6033.00    0.71562   0.64283    0.007
 6034.00    0.72444   0.64331    0.007
 6035.00    0.72556   0.64331    0.007
 6036.00    0.67757   0.64285    0.007
 6037.00    0.64280   0.64187    0.007
 6038.00    0.67411   0.64031    0.007
 6039.00    0.70363   0.63848    0.007
 6040.00    0.72593   0.63707    0.007
 6041.00    0.73631   0.63675    0.007
 6042.00    0.70667   0.63768    0.007
 6043.00    0.67488   0.63953    0.007
 6044.00    0.63701   0.64149    0.007
 6045.00    0.61667   0.64295    0.007
 6046.00    0.63878   0.64376    0.007
 6047.00    0.67064   0.64407    0.007
 6048.00    0.72287   0.64405    0.007
 6049.00    0.75877   0.64401    0.007
 6050.00    0.76498   0.64409    0.007
 6051.00    0.74236   0.64380    0.007
 6052.00    0.67393   0.64251    0.007
 6053.00    0.62055   0.64015    0.007
 6054.00    0.58815   0.63717    0.007
 6055.00    0.59021   0.63433    0.007
 6056.00    0.63457   0.63258    0.007
 6057.00    0.66237   0.63265    0.007
 6058.00    0.67225   0.63432    0.007
 6059.00    0.67827   0.63652    0.007
 6060.00    0.68059   0.63785    0.007
 6061.00    0.68733   0.63732    0.007
 6062.00    0.69776   0.63446    0.007
 6063.00    0.68286   0.62955    0.007
 6064.00    0.64919   0.62399    0.007
 6065.00    0.63241   0.62065    0.007
 6066.00    0.62663   0.62213    0.007
 6067.00    0.66093   0.62785    0.007
 6068.00    0.71804   0.63460    0.007
 6069.00    0.75053   0.63973    0.007
 6070.00    0.77080   0.64264    0.007
 6071.00    0.76298   0.64405    0.007
 6072.00    0.74312   0.64461    0.007
 6073.00    0.75648   0.64454    0.007
 6074.00    0.78205   0.64384    0.007
 6075.00    0.75650   0.64228    0.007
 6076.00    0.71504   0.63947    0.007
 6077.00    0.66502   0.63549    0.007
 6078.00    0.61278   0.63134    0.007
 6079.00    0.58424   0.62821    0.007
 6080.00    0.56071   0.62619    0.007
 6081.00    0.56684   0.62464    0.007
 6082.00    0.57794   0.62356    0.007
 6083.00    0.54255   0.62343    0.007
 6084.00    0.50130   0.62406    0.007
 6085.00    0.52170   0.62509    0.007
 6086.00    0.54750   0.62652    0.007
 6087.00    0.58269   0.62790    0.007
 6088.00    0.61836   0.62807    0.007
 6089.00    0.61900   0.62637    0.007
 6090.00    0.61890   0.62391    0.007
 6091.00    0.61189   0.62255    0.007
 6092.00    0.60659   0.62313    0.007
 6093.00    0.63770   0.62544    0.007
 6094.00    0.66392   0.62872    0.007
 6095.00    0.63077   0.63160    0.007
 6096.00    0.60751   0.63295    0.007
 6097.00    0.66625   0.63305    0.007
 6098.00    0.72222   0.63266    0.007
 6099.00    0.76100   0.63129    0.007
 6100.00    0.78659   0.62695    0.007
 6101.00    0.74790   0.61852    0.007
 6102.00    0.71409   0.60899    0.007
 6103.00    0.69965   0.60455    0.006
 6104.00    0.67924   0.60799    0.006
 6105.00    0.63920   0.61565    0.007
 6106.00    0.60281   0.62212    0.007
 6107.00    0.57656   0.62520    0.007
 6108.00    0.55955   0.62634    0.007
 6109.00    0.56458   0.62737    0.007
 6110.00    0.57240   0.62833    0.007
 6111.00    0.58593   0.62889    0.007
 6112.00    0.61080   0.62971    0.007
 6113.00    0.65594   0.63114    0.007
 6114.00    0.68428   0.63228    0.007
 6115.00    0.68633   0.63212    0.007
 6116.00    0.67597   0.63081    0.007
 6117.00    0.64857   0.62905    0.007
 6118.00    0.63418   0.62640    0.007
 6119.00    0.63554   0.62130    0.007
 6120.00    0.63169   0.61345    0.007
 6121.00    0.62230   0.60509    0.007
 6122.00    0.62260   0.60046    0.007
 6123.00    0.63201   0.60236    0.007
 6124.00    0.62214   0.60863    0.007
 6125.00    0.59628   0.61456    0.007
 6126.00    0.57302   0.61773    0.007
 6127.00    0.55166   0.61890    0.007
 6128.00    0.55140   0.62007    0.006
 6129.00    0.56467   0.62249    0.006
 6130.00    0.57608   0.62564    0.006
 6131.00    0.58645   0.62788    0.006
 6132.00    0.60861   0.62781    0.006
 6133.00    0.63652   0.62436    0.007
 6134.00    0.62804   0.61658    0.007
 6135.00    0.60422   0.60477    0.007
 6136.00    0.60743   0.59248    0.007
 6137.00    0.62038   0.58596    0.007
 6138.00    0.61139   0.58902    0.007
 6139.00    0.59569   0.59825    0.007
 6140.00    0.55924   0.60647    0.007
 6141.00    0.51752   0.61041    0.007
 6142.00    0.55746   0.61269    0.007
 6143.00    0.61427   0.61666    0.007
 6144.00    0.67098   0.62205    0.007
 6145.00    0.72768   0.62631    0.007
 6146.00    0.71256   0.62764    0.007
 6147.00    0.68870   0.62589    0.007
 6148.00    0.68574   0.62213    0.007
 6149.00    0.68452   0.61814    0.007
 6150.00    0.67868   0.61565    0.007
 6151.00    0.67262   0.61549    0.006
 6152.00    0.67039   0.61683    0.006
 6153.00    0.66800   0.61767    0.006
 6154.00    0.65351   0.61684    0.006
 6155.00    0.63984   0.61514    0.006
 6156.00    0.64228   0.61363    0.007
 6157.00    0.64153   0.61191    0.007
 6158.00    0.60393   0.60829    0.007
 6159.00    0.57413   0.60050    0.007
 6160.00    0.60682   0.58742    0.007
 6161.00    0.62857   0.57181    0.007
 6162.00    0.58448   0.56015    0.007
 6163.00    0.54819   0.55762    0.007
 6164.00    0.54890   0.56373    0.007
 6165.00    0.55282   0.57331    0.007
 6166.00    0.56914   0.58093    0.007
 6167.00    0.57658   0.58353    0.007
 6168.00    0.55539   0.58092    0.007
 6169.00    0.54369   0.57647    0.007
 6170.00    0.55794   0.57544    0.007
 6171.00    0.56963   0.57979    0.007
 6172.00    0.57536   0.58652    0.007
 6173.00    0.56969   0.59197    0.007
 6174.00    0.54095   0.59507    0.007
 6175.00    0.52386   0.59656    0.007
 6176.00    0.52731   0.59755    0.007
 6177.00    0.54992   0.59894    0.007
 6178.00    0.60208   0.60081    0.007
 6179.00    0.64926   0.60248    0.007
 6180.00    0.68969   0.60383    0.006
 6181.00    0.69141   0.60530    0.006
 6182.00    0.64699   0.60670    0.006
 6183.00    0.61362   0.60732    0.006
 6184.00    0.59189   0.60651    0.006
 6185.00    0.57859   0.60392    0.006
 6186.00    0.57310   0.59991    0.007
 6187.00    0.57894   0.59539    0.007
 6188.00    0.59404   0.59077    0.007
 6189.00    0.59807   0.58559    0.007
 6190.00    0.59414   0.57974    0.007
 6191.00    0.60454   0.57549    0.007
 6192.00    0.62399   0.57636    0.007
 6193.00    0.63397   0.58254    0.007
 6194.00    0.63873   0.59051    0.007
 6195.00    0.60292   0.59685    0.007
 6196.00    0.54762   0.60002   -2.000
 6197.00    0.47093   0.59981   -2.000
 6198.00    0.38538   0.59679   -2.000
 6199.00    0.41619   0.59274   -2.000
 6200.00    0.48825   0.59054   -2.000
 6201.00    0.49806   0.59180   -2.000
 6202.00    0.48925   0.59545   -2.000
 6203.00    0.53036   0.59918   -2.000
 6204.00    0.58387   0.60167   -2.000
 6205.00    0.64348   0.60309   -2.000
 6206.00    0.70432   0.60405   -2.000
 6207.00    0.65298   0.60470   -2.000
 6208.00    0.58394   0.60470    0.007
 6209.00    0.57634   0.60354    0.007
 6210.00    0.57594   0.60077    0.007
 6211.00    0.55353   0.59614    0.007
 6212.00    0.52938   0.58964    0.006
 6213.00    0.51203   0.58213    0.006
 6214.00    0.49499   0.57594    0.006
 6215.00    0.53720   0.57308    0.006
 6216.00    0.57916   0.57382    0.006
 6217.00    0.57829   0.57634    0.006
 6218.00    0.57797   0.57792    0.007
 6219.00    0.58783   0.57769    0.007
 6220.00    0.59834   0.57727    0.007
 6221.00    0.61602   0.57821    0.007
 6222.00    0.63221   0.58027    0.007
 6223.00    0.63690   0.58217    0.007
 6224.00    0.63606   0.58325    0.007
 6225.00    0.60276   0.58389    0.007
 6226.00    0.57164   0.58407    0.007
 6227.00    0.55059   0.58289    0.007
 6228.00    0.54833   0.57916    0.007
 6229.00    0.61726   0.57265    0.007
 6230.00    0.67563   0.56571    0.007
 6231.00    0.70055   0.56231    0.007
 6232.00    0.71218   0.56454    0.007
 6233.00    0.68813   0.57125    0.007
 6234.00    0.66493   0.57940    0.006
 6235.00    0.64369   0.58561    0.006
 6236.00    0.61916   0.58791    0.006
 6237.00    0.58810   0.58653    0.006
 6238.00    0.56683   0.58293    0.006
 6239.00    0.56255   0.57881    0.006
 6240.00    0.57642   0.57538    0.006
 6241.00    0.61787   0.57282    0.006
 6242.00    0.63761   0.57039    0.006
 6243.00    0.62835   0.56818    0.006
 6244.00    0.58865   0.56718    0.006
 6245.00    0.51314   0.56782    0.006
 6246.00    0.50788   0.57033    0.007
 6247.00    0.57544   0.57474    0.007
 6248.00    0.62639   0.57972    0.007
 6249.00    0.66216   0.58284    0.007
 6250.00    0.64808   0.58208    0.007
 6251.00    0.59384   0.57725    0.007
 6252.00    0.57287   0.57053    0.007
 6253.00    0.57550   0.56508    0.007
 6254.00    0.59212   0.56221    0.007
 6255.00    0.61745   0.56068    0.007
 6256.00    0.54212   0.55874    0.007
 6257.00    0.41205   0.55647    0.008
 6258.00    0.23714   0.55577    0.008
 6259.00    0.04104   0.55853    0.008
 6260.00    0.07538   0.56442    0.008
 6261.00    0.20361   0.57145    0.008
 6262.00    0.38394   0.57777    0.008
 6263.00    0.58240   0.58175    0.008
 6264.00    0.68359   0.58268    0.008
 6265.00    0.75625   0.58190    0.008
 6266.00    0.78279   0.58150    0.008
 6267.00    0.79812   0.58196    0.007
 6268.00    0.75220   0.58242    0.007
 6269.00    0.69426   0.58245    0.007
 6270.00    0.64987   0.58265    0.007
 6271.00    0.60756   0.58373    0.006
 6272.00    0.61741   0.58545    0.006
 6273.00    0.63316   0.58686    0.006
 6274.00    0.63551   0.58737    0.006
 6275.00    0.63687   0.58723    0.006
 6276.00    0.62963   0.58674    0.007
 6277.00    0.62205   0.58558    0.007
 6278.00    0.60691   0.58325    0.007
 6279.00    0.59260   0.57988    0.006
 6280.00    0.61407   0.57680    0.000
 6281.00    0.63491   0.57574    0.000
 6282.00    0.64509   0.57722    0.000
 6283.00    0.65221   0.58027    0.000
 6284.00    0.62717   0.58350    0.000
 6285.00    0.60162   0.58641    0.000
 6286.00    0.57232   0.58944    0.000
 6287.00    0.55188   0.59253    0.000
 6288.00    0.58187   0.59472    0.000
 6289.00    0.60686   0.59495    0.000
 6290.00    0.60918   0.59305    0.000
 6291.00    0.61210   0.59023    0.000
 6292.00    0.61727   0.58798    0.000
 6293.00    0.62424   0.58684    0.000
 6294.00    0.63680   0.58595    0.000
 6295.00    0.64560   0.58389    0.000
 6296.00    0.64445   0.58053    0.000
 6297.00    0.64054   0.57752    0.000
 6298.00    0.63040   0.57614    0.000
 6299.00    0.62954   0.57571    0.000
 6300.00    0.64686   0.57467    0.000
 6301.00    0.65778   0.57306    0.000
 6302.00    0.65778   0.57267    0.000
 6303.00    0.65934   0.57477    0.000
 6304.00    0.66326   0.57876    0.000
 6305.00    0.65676   0.58327    0.000
 6306.00    0.63654   0.58756    0.000
 6307.00    0.61923   0.59120    0.000
 6308.00    0.60531   0.59322    0.000
 6309.00    0.58263   0.59295    0.000
 6310.00    0.55097   0.59087    0.000
 6311.00    0.53461   0.58820    0.000
 6312.00    0.53205   0.58593    0.000
 6313.00    0.54945   0.58400    0.000
 6314.00    0.58271   0.58170    0.000
 6315.00    0.61445   0.57917    0.000
 6316.00    0.64512   0.57696    0.000
 6317.00    0.65996   0.57509    0.000
 6318.00    0.66510   0.57417    0.000
 6319.00    0.66993   0.57539    0.000
 6320.00    0.67458   0.57857    0.000
 6321.00    0.67322   0.58216    0.006
 6322.00    0.66906   0.58517    0.006
 6323.00    0.65543   0.58775    0.006
 6324.00    0.63800   0.59009    0.006
 6325.00    0.61769   0.59187    0.006
 6326.00    0.59640   0.59272    0.006
 6327.00    0.62874   0.59280    0.006
 6328.00    0.67650   0.59265    0.006
 6329.00    0.70600   0.59252    0.006
 6330.00    0.73116   0.59264    0.006
 6331.00    0.69235   0.59333    0.006
 6332.00    0.64131   0.59386    0.006
 6333.00    0.59790   0.59244    0.006
 6334.00    0.55563   0.58785    0.006
 6335.00    0.55915   0.58150    0.006
 6336.00    0.56763   0.57690    0.006
 6337.00    0.57168   0.57642    0.006
 6338.00    0.57542   0.57953    0.006
 6339.00    0.55579   0.58416    0.006
 6340.00    0.53530   0.58824    0.006
 6341.00    0.53017   0.59005    0.006
 6342.00    0.52627   0.58890    0.006
 6343.00    0.56309   0.58560    0.006
 6344.00    0.59772   0.58234    0.006
 6345.00    0.59727   0.58114    0.006
 6346.00    0.59459   0.58221    0.006
 6347.00    0.56945   0.58478    0.006
 6348.00    0.55154   0.58802    0.006
 6349.00    0.58580   0.59109    0.006
 6350.00    0.62364   0.59313    0.006
 6351.00    0.68125   0.59353    0.006
 6352.00    0.72878   0.59194    0.006
 6353.00    0.73174   0.58857    0.006
 6354.00    0.71486   0.58442    0.006
 6355.00    0.62585   0.58082    0.006
 6356.00    0.54164   0.57817    0.006
 6357.00    0.47206   0.57550    0.006
 6358.00    0.42200   0.57223    0.006
 6359.00    0.42251   0.56914    0.006
 6360.00    0.44900   0.56698    0.006
 6361.00    0.53333   0.56566    0.006
 6362.00    0.59837   0.56524    0.006
 6363.00    0.62618   0.56631    0.006
 6364.00    0.65566   0.56918    0.006
 6365.00    0.68794   0.57336    0.006
 6366.00    0.69387   0.57795    0.006
 6367.00    0.66090   0.58213    0.006
 6368.00    0.62306   0.58516    0.006
 6369.00    0.57890   0.58667    0.006
 6370.00    0.55929   0.58729    0.006
 6371.00    0.56774   0.58819    0.006
 6372.00    0.61491   0.58988    0.006
 6373.00    0.70111   0.59179    0.006
 6374.00    0.75824   0.59301    0.006
 6375.00    0.78952   0.59312    0.006
 6376.00    0.77486   0.59202    0.006
 6377.00    0.72421   0.58970    0.006
 6378.00    0.69154   0.58649    0.006
 6379.00    0.67125   0.58345    0.007
 6380.00    0.67503   0.58176    0.006
 6381.00    0.69336   0.58178    0.006
 6382.00    0.70755   0.58295    0.006
 6383.00    0.71956   0.58417    0.006
 6384.00    0.68877   0.58489    0.006
 6385.00    0.63840   0.58541    0.006
 6386.00    0.60062   0.58604    0.006
 6387.00    0.56779   0.58659    0.006
 6388.00    0.57634   0.58664    0.006
 6389.00    0.59876   0.58596    0.006
 6390.00    0.60154   0.58416    0.006
 6391.00    0.59878   0.58080    0.006
 6392.00    0.54584   0.57618    0.006
 6393.00    0.48126   0.57249    0.006
 6394.00    0.48702   0.57254    0.006
 6395.00    0.50588   0.57651    0.007
 6396.00    0.54962   0.58140    0.007
 6397.00    0.59694   0.58347    0.007
 6398.00    0.63010   0.58085    0.007
 6399.00    0.66178   0.57529    0.007
 6400.00    0.65386   0.57158    0.007
 6401.00    0.64328   0.57344    0.006
 6402.00    0.62699   0.57974    0.006
 6403.00    0.61051   0.58648    0.007
 6404.00    0.60677   0.59036    0.007
 6405.00    0.60260   0.59043    0.007
 6406.00    0.58509   0.58780    0.006
 6407.00    0.57095   0.58443    0.006
 6408.00    0.60733   0.58215    0.006
 6409.00    0.64205   0.58137    0.006
 6410.00    0.66073   0.58076    0.006
 6411.00    0.67408   0.57963    0.006
 6412.00    0.65023   0.57908    0.006
 6413.00    0.62997   0.58006    0.006
 6414.00    0.62908   0.58225    0.006
 6415.00    0.63017   0.58461    0.006
 6416.00    0.63989   0.58606    0.006
 6417.00    0.64084   0.58575    0.006
 6418.00    0.61061   0.58320    0.006
 6419.00    0.58566   0.57888    0.006
 6420.00    0.57650   0.57477    0.006
 6421.00    0.56999   0.57367    0.006
 6422.00    0.57017   0.57688    0.006
 6423.00    0.57602   0.58258    0.006
 6424.00    0.59428   0.58781    0.006
 6425.00    0.61123   0.59107    0.006
 6426.00    0.62569   0.59251    0.006
 6427.00    0.62998   0.59235    0.006
 6428.00    0.61740   0.59009    0.007
 6429.00    0.60854   0.58550    0.007
 6430.00    0.60511   0.58007    0.007
 6431.00    0.60074   0.57677    0.007
 6432.00    0.59516   0.57744    0.006
 6433.00    0.59137   0.58116    0.006
 6434.00    0.58960   0.58547    0.006
 6435.00    0.58494   0.58795    0.006
 6436.00    0.57739   0.58711    0.006
 6437.00    0.59409   0.58288    0.006
 6438.00    0.63203   0.57730    0.006
 6439.00    0.67184   0.57432    0.006
 6440.00    0.71310   0.57658    0.006
 6441.00    0.72015   0.58281    0.006
 6442.00    0.70397   0.58963    0.006
 6443.00    0.68693   0.59459    0.006
 6444.00    0.66937   0.59708    0.006
 6445.00    0.65517   0.59746    0.006
 6446.00    0.64270   0.59541    0.006
 6447.00    0.64699   0.58995    0.006
 6448.00    0.65881   0.58103    0.007
 6449.00    0.64580   0.57128    0.007
 6450.00    0.62317   0.56558    0.007
 6451.00    0.61034   0.56679    0.007
 6452.00    0.60074   0.57272    0.007
 6453.00    0.61536   0.57870    0.007
 6454.00    0.63667   0.58151    0.006
 6455.00    0.63025   0.58159    0.006
 6456.00    0.61753   0.58184    0.006
 6457.00    0.62724   0.58419    0.006
 6458.00    0.64102   0.58763    0.006
 6459.00    0.63620   0.58925    0.006
 6460.00    0.62879   0.58653    0.006
 6461.00    0.62905   0.57940    0.006
 6462.00    0.63007   0.57132    0.006
 6463.00    0.60854   0.56746    0.006
 6464.00    0.58558   0.56996    0.006
 6465.00    0.61557   0.57659    0.006
 6466.00    0.64729   0.58352    0.006
 6467.00    0.74027   0.58786    0.006
 6468.00    0.83010   0.58874    0.006
 6469.00    0.83234   0.58682    0.006
 6470.00    0.83427   0.58363    0.006
 6471.00    0.83170   0.58073    0.007
 6472.00    0.82512   0.57918    0.007
 6473.00    0.78142   0.57873    0.007
 6474.00    0.73505   0.57835    0.007
 6475.00    0.67065   0.57803    0.007
 6476.00    0.61853   0.57860    0.007
 6477.00    0.63084   0.58015    0.006
 6478.00    0.64265   0.58140    0.006
 6479.00    0.65236   0.58078    0.006
 6480.00    0.66006   0.57748    0.006
 6481.00    0.66075   0.57242    0.006
 6482.00    0.66670   0.56812    0.006
 6483.00    0.68808   0.56688    0.006
 6484.00    0.69727   0.56891    0.006
 6485.00    0.67598   0.57249    0.006
 6486.00    0.63915   0.57572    0.006
 6487.00    0.56879   0.57756    0.006
 6488.00    0.53137   0.57776    0.006
 6489.00    0.55557   0.57624    0.006
 6490.00    0.58759   0.57271    0.006
 6491.00    0.63240   0.56664    0.006
 6492.00    0.66601   0.55748    0.006
 6493.00    0.68357   0.54553    0.006
 6494.00    0.66778   0.53341    0.006
 6495.00    0.60998   0.52510    0.006
 6496.00    0.56177   0.52291    0.006
 6497.00    0.52423   0.52635    0.006
 6498.00    0.51938   0.53313    0.006
 6499.00    0.54656   0.54106    0.006
 6500.00    0.57814   0.54929    0.006
 6501.00    0.61352   0.55707    0.006
 6502.00    0.63216   0.56373    0.006
 6503.00    0.63806   0.56884    0.006
 6504.00    0.62488   0.57236    0.006
 6505.00    0.59893   0.57451    0.006
 6506.00    0.59213   0.57535    0.006
 6507.00    0.59655   0.57501    0.006
 6508.00    0.59926   0.57417    0.006
 6509.00    0.60109   0.57374    0.006
 6510.00    0.60957   0.57409    0.006
 6511.00    0.62098   0.57472    0.006
 6512.00    0.61089   0.57483    0.006
 6513.00    0.59262   0.57378    0.006
 6514.00    0.59345   0.57146    0.006
 6515.00    0.60044   0.56821    0.006
 6516.00    0.60919   0.56487    0.006
 6517.00    0.61843   0.56239    0.006
 6518.00    0.60922   0.56163    0.006
 6519.00    0.59593   0.56307    0.006
 6520.00    0.58695   0.56624    0.006
 6521.00    0.57874   0.56971    0.006
 6522.00    0.59236   0.57222    0.006
 6523.00    0.60892   0.57324    0.006
 6524.00    0.60807   0.57297    0.006
 6525.00    0.60556   0.57176    0.006
 6526.00    0.58556   0.57016    0.006
 6527.00    0.56453   0.56908    0.006
 6528.00    0.59545   0.56919    0.000
 6529.00    0.62761   0.57000    0.000
 6530.00    0.65129   0.57037    0.000
 6531.00    0.67292   0.56963    0.000
 6532.00    0.64315   0.56827    0.000
 6533.00    0.61306   0.56748    0.000
 6534.00    0.57869   0.56797    0.000
 6535.00    0.54893   0.56939    0.000
 6536.00    0.56024   0.57087    0.000
 6537.00    0.56867   0.57192    0.000
 6538.00    0.55817   0.57265    0.000
 6539.00    0.55441   0.57313    0.000
 6540.00    0.58503   0.57294    0.000
 6541.00    0.61392   0.57145    0.000
 6542.00    0.63564   0.56845    0.000
 6543.00    0.65379   0.56417    0.000
 6544.00    0.65968   0.55902    0.000
 6545.00    0.66077   0.55382    0.000
 6546.00    0.64801   0.55005    0.000
 6547.00    0.64677   0.54894    0.000
 6548.00    0.67384   0.54990    0.000
 6549.00    0.70745   0.55102    0.000
 6550.00    0.75489   0.55067    0.000
 6551.00    0.78533   0.54842    0.000
 6552.00    0.78445   0.54460    0.000
 6553.00    0.77606   0.53962    0.000
 6554.00    0.75558   0.53410    0.000
 6555.00    0.71927   0.52897    0.000
 6556.00    0.66060   0.52486    0.000
 6557.00    0.60835   0.52095    0.000
 6558.00    0.56406   0.51446    0.000
 6559.00    0.58465   0.50150    0.000
 6560.00    0.67629   0.47945    0.000
 6561.00    0.84184   0.45043    0.000
 6562.00    1.07878   0.42415    0.000
 6563.00    1.29880   0.41441    0.000
 6564.00    1.50441   0.42729    0.000
 6565.00    1.62095   0.45520    0.000
 6566.00    1.67067   0.48478    0.000
 6567.00    1.57808   0.50676    0.000
 6568.00    1.39169   0.51937    0.000
 6569.00    1.16459   0.52566    0.000
 6570.00    0.91400   0.52882    0.000
 6571.00    0.72930   0.53015    0.000
 6572.00    0.57773   0.53008    0.000
 6573.00    0.49366   0.52963    0.000
 6574.00    0.43895   0.53055    0.000
 6575.00    0.44334   0.53415    0.000
 6576.00    0.46979   0.54009    0.000
 6577.00    0.53919   0.54643    0.000
 6578.00    0.62218   0.55108    0.000
 6579.00    0.66537   0.55312    0.000
 6580.00    0.69804   0.55321    0.000
 6581.00    0.71773   0.55292    0.000
 6582.00    0.73463   0.55349    0.000
 6583.00    0.83623   0.55476    0.000
 6584.00    0.95237   0.55594    0.000
 6585.00    1.05585   0.55667    0.000
 6586.00    1.15767   0.55740    0.000
 6587.00    1.13340   0.55880    0.000
 6588.00    1.09761   0.56055    0.000
 6589.00    0.98327   0.56122    0.000
 6590.00    0.86458   0.55921    0.000
 6591.00    0.74590   0.55393    0.000
 6592.00    0.62853   0.54702    0.000
 6593.00    0.63585   0.54194    0.000
 6594.00    0.64346   0.54152    0.000
 6595.00    0.65797   0.54518    0.000
 6596.00    0.66870   0.54986    0.000
 6597.00    0.63150   0.55315    0.000
 6598.00    0.59917   0.55494    0.000
 6599.00    0.60856   0.55670    0.000
 6600.00    0.62158   0.55916    0.000
 6601.00    0.65771   0.56155    0.000
 6602.00    0.68748   0.56267    0.000
 6603.00    0.68559   0.56201    0.000
 6604.00    0.67659   0.56003    0.000
 6605.00    0.63895   0.55752    0.000
 6606.00    0.61039   0.55490    0.000
 6607.00    0.61227   0.55235    0.000
 6608.00    0.60942   0.55046    0.000
 6609.00    0.59322   0.55029    0.006
 6610.00    0.56791   0.55243    0.006
 6611.00    0.52059   0.55583    0.006
 6612.00    0.49702   0.55867    0.006
 6613.00    0.52300   0.56015    0.006
 6614.00    0.53467   0.56084    0.006
 6615.00    0.52040   0.56157    0.006
 6616.00    0.50805   0.56235    0.006
 6617.00    0.49873   0.56295    0.006
 6618.00    0.51194   0.56332    0.006
 6619.00    0.55651   0.56367    0.006
 6620.00    0.59516   0.56388    0.006
 6621.00    0.62654   0.56339    0.006
 6622.00    0.65598   0.56164    0.006
 6623.00    0.68333   0.55871    0.006
 6624.00    0.70687   0.55560    0.006
 6625.00    0.72677   0.55362    0.006
 6626.00    0.72412   0.55337    0.006
 6627.00    0.70252   0.55421    0.006
 6628.00    0.67812   0.55507    0.006
 6629.00    0.65164   0.55514    0.006
 6630.00    0.63671   0.55406    0.006
 6631.00    0.62928   0.55188    0.006
 6632.00    0.60289   0.54910    0.006
 6633.00    0.56574   0.54674    0.006
 6634.00    0.57995   0.54610    0.006
 6635.00    0.61958   0.54766    0.006
 6636.00    0.67584   0.55051    0.006
 6637.00    0.73922   0.55315    0.006
 6638.00    0.75670   0.55463    0.006
 6639.00    0.75736   0.55496    0.006
 6640.00    0.72460   0.55455    0.006
 6641.00    0.68147   0.55342    0.006
 6642.00    0.66404   0.55131    0.006
 6643.00    0.65327   0.54882    0.006
 6644.00    0.67587   0.54753    0.006
 6645.00    0.70550   0.54816    0.006
 6646.00    0.69290   0.54996    0.006
 6647.00    0.67326   0.55167    0.006
 6648.00    0.67697   0.55267    0.006
 6649.00    0.68361   0.55294    0.006
 6650.00    0.65539   0.55261    0.006
 6651.00    0.62413   0.55177    0.006
 6652.00    0.61115   0.55078    0.006
 6653.00    0.59910   0.55004    0.006
 6654.00    0.61742   0.54974    0.006
 6655.00    0.63629   0.54976    0.006
 6656.00    0.65542   0.54982    0.006
 6657.00    0.67404   0.54981    0.006
 6658.00    0.68152   0.54953    0.006
 6659.00    0.68833   0.54873    0.006
 6660.00    0.68691   0.54707    0.006
 6661.00    0.68336   0.54446    0.006
 6662.00    0.66225   0.54136    0.006
 6663.00    0.63874   0.53890    0.006
 6664.00    0.60040   0.53824    0.006
 6665.00    0.56727   0.53933    0.006
 6666.00    0.55951   0.54127    0.006
 6667.00    0.54773   0.54334    0.006
 6668.00    0.52012   0.54540    0.006
 6669.00    0.50856   0.54760    0.006
 6670.00    0.54975   0.54967    0.006
 6671.00    0.59112   0.55114    0.006
 6672.00    0.63299   0.55172    0.006
 6673.00    0.66094   0.55140    0.006
 6674.00    0.65581   0.54994    0.006
 6675.00    0.64536   0.54681    0.006
 6676.00    0.62401   0.54179    0.006
 6677.00    0.62154   0.53609    0.006
 6678.00    0.65281   0.53227    0.006
 6679.00    0.67977   0.53206    0.007
 6680.00    0.69999   0.53470    0.006
 6681.00    0.71092   0.53809    0.006
 6682.00    0.70910   0.54077    0.006
 6683.00    0.71942   0.54250    0.006
 6684.00    0.74437   0.54358    0.006
 6685.00    0.73235   0.54416    0.006
 6686.00    0.68095   0.54431    0.006
 6687.00    0.64949   0.54427    0.006
 6688.00    0.63674   0.54434    0.006
 6689.00    0.62616   0.54469    0.007
 6690.00    0.61736   0.54510    0.007
 6691.00    0.59291   0.54529    0.007
 6692.00    0.55706   0.54494    0.007
 6693.00    0.55658   0.54387    0.007
 6694.00    0.57873   0.54201    0.006
 6695.00    0.60893   0.53969    0.006
 6696.00    0.64362   0.53776    0.000
 6697.00    0.63003   0.53716    0.000
 6698.00    0.59293   0.53819    0.000
 6699.00    0.57218   0.54028    0.000
 6700.00    0.55831   0.54230    0.000
 6701.00    0.57996   0.54317    0.000
 6702.00    0.61440   0.54259    0.000
 6703.00    0.62145   0.54113    0.000
 6704.00    0.62015   0.53985    0.000
 6705.00    0.63313   0.53959    0.000
 6706.00    0.64971   0.54028    0.000
 6707.00    0.64307   0.54123    0.000
 6708.00    0.63165   0.54173    0.000
 6709.00    0.61973   0.54156    0.000
 6710.00    0.60773   0.54087    0.000
 6711.00    0.61634   0.53995    0.000
 6712.00    0.62745   0.53863    0.000
 6713.00    0.64266   0.53648    0.000
 6714.00    0.65821   0.53323    0.000
 6715.00    0.71691   0.52900    0.000
 6716.00    0.77766   0.52459    0.000
 6717.00    0.83648   0.52144    0.000
 6718.00    0.89425   0.52093    0.000
 6719.00    0.89504   0.52303    0.000
 6720.00    0.89017   0.52625    0.000
 6721.00    0.77491   0.52917    0.000
 6722.00    0.66359   0.53126    0.000
 6723.00    0.59749   0.53263    0.000
 6724.00    0.54070   0.53327    0.000
 6725.00    0.55811   0.53324    0.000
 6726.00    0.57898   0.53302    0.000
 6727.00    0.62065   0.53330    0.000
 6728.00    0.65511   0.53421    0.000
 6729.00    0.65544   0.53531    0.000
 6730.00    0.66477   0.53604    0.000
 6731.00    0.70887   0.53613    0.000
 6732.00    0.75567   0.53578    0.000
 6733.00    0.81122   0.53533    0.000
 6734.00    0.84394   0.53508    0.000
 6735.00    0.81444   0.53492    0.000
 6736.00    0.78342   0.53450    0.000
 6737.00    0.74888   0.53347    0.000
 6738.00    0.71752   0.53200    0.000
 6739.00    0.69263   0.53066    0.000
 6740.00    0.68581   0.52978    0.000
 6741.00    0.71078   0.52920    0.000
 6742.00    0.73850   0.52859    0.000
 6743.00    0.77043   0.52813    0.000
 6744.00    0.75640   0.52821    0.000
 6745.00    0.68021   0.52865    0.000
 6746.00    0.59472   0.52885    0.000
 6747.00    0.49814   0.52825    0.000
 6748.00    0.47251   0.52684    0.000
 6749.00    0.52135   0.52515    0.000
 6750.00    0.55105   0.52389    0.000
 6751.00    0.56302   0.52356    0.000
 6752.00    0.55005   0.52413    0.000
 6753.00    0.51673   0.52546    0.007
 6754.00    0.49691   0.52744    0.007
 6755.00    0.48679   0.52977    0.007
 6756.00    0.46138   0.53215    0.007
 6757.00    0.42633   0.53424    0.007
 6758.00    0.42682   0.53580    0.007
 6759.00    0.44689   0.53675    0.007
 6760.00    0.51430   0.53703    0.007
 6761.00    0.60440   0.53678    0.008
 6762.00    0.65114   0.53623    0.008
 6763.00    0.67993   0.53557    0.008
 6764.00    0.70125   0.53457    0.008
 6765.00    0.71992   0.53293    0.008
 6766.00    0.74331   0.53066    0.008
 6767.00    0.76811   0.52839    0.008
 6768.00    0.76864   0.52692    0.007
 6769.00    0.76314   0.52648    0.007
 6770.00    0.73706   0.52673    0.007
 6771.00    0.70683   0.52750    0.007
 6772.00    0.68482   0.52899    0.007
 6773.00    0.66410   0.53125    0.007
 6774.00    0.64698   0.53387    0.007
 6775.00    0.63027   0.53614    0.007
 6776.00    0.65416   0.53765    0.007
 6777.00    0.68125   0.53839    0.007
 6778.00    0.67772   0.53848    0.007
 6779.00    0.67287   0.53787    0.007
 6780.00    0.60305   0.53623    0.007
 6781.00    0.53357   0.53340    0.007
 6782.00    0.51126   0.52963    0.007
 6783.00    0.49421   0.52583    0.007
 6784.00    0.57249   0.52310    0.007
 6785.00    0.64321   0.52216    0.007
 6786.00    0.63114   0.52289    0.007
 6787.00    0.61494   0.52458    0.007
 6788.00    0.56704   0.52629    0.007
 6789.00    0.52698   0.52741    0.007
 6790.00    0.53257   0.52776    0.007
 6791.00    0.54080   0.52753    0.007
 6792.00    0.56125   0.52694    0.007
 6793.00    0.58499   0.52625    0.007
 6794.00    0.62118   0.52580    0.007
 6795.00    0.64989   0.52575    0.007
 6796.00    0.65501   0.52607    0.007
 6797.00    0.66030   0.52667    0.007
 6798.00    0.66609   0.52743    0.007
 6799.00    0.67886   0.52837    0.007
 6800.00    0.70767   0.52938    0.007
 6801.00    0.71969   0.53020    0.007
 6802.00    0.69830   0.53047    0.007
 6803.00    0.66386   0.53007    0.007
 6804.00    0.60680   0.52918    0.007
 6805.00    0.55308   0.52821    0.007
 6806.00    0.50445   0.52740    0.007
 6807.00    0.52459   0.52690    0.007
 6808.00    0.63639   0.52672    0.007
 6809.00    0.70816   0.52665    0.007
 6810.00    0.73295   0.52668    0.007
 6811.00    0.74465   0.52683    0.007
 6812.00    0.74280   0.52686    0.007
 6813.00    0.77600   0.52659    0.007
 6814.00    0.84122   0.52606    0.007
 6815.00    0.84233   0.52581    0.007
 6816.00    0.79185   0.52618    0.007
 6817.00    0.72890   0.52684    0.007
 6818.00    0.65710   0.52712    0.007
 6819.00    0.66486   0.52689    0.007
 6820.00    0.72203   0.52673    0.007
 6821.00    0.71073   0.52728    0.007
 6822.00    0.66228   0.52851    0.007
 6823.00    0.63056   0.52975    0.007
 6824.00    0.60674   0.53039    0.007
 6825.00    0.58167   0.53006    0.007
 6826.00    0.55610   0.52877    0.007
 6827.00    0.57577   0.52692    0.007
 6828.00    0.61115   0.52541    0.007
 6829.00    0.57963   0.52506    0.007
 6830.00    0.52853   0.52588    0.007
 6831.00    0.50613   0.52719    0.007
 6832.00    0.49067   0.52823    0.007
 6833.00    0.52489   0.52889    0.007
 6834.00    0.56883   0.52933    0.007
 6835.00    0.55470   0.52947    0.007
 6836.00    0.53172   0.52889    0.007
 6837.00    0.60530   0.52720    0.007
 6838.00    0.68972   0.52443    0.007
 6839.00    0.64586   0.52100    0.007
 6840.00    0.59241   0.51767    0.007
 6841.00    0.54270   0.51533    0.007
 6842.00    0.49315   0.51486    0.007
 6843.00    0.56203   0.51644    0.007
 6844.00    0.63228   0.51935    0.007
 6845.00    0.72456   0.52230    0.007
 6846.00    0.80466   0.52431    0.007
 6847.00    0.67885   0.52524    0.007
 6848.00    0.56421   0.52546    0.007
 6849.00    0.56650   0.52532    0.007
 6850.00    0.56153   0.52500    0.007
 6851.00    0.50255   0.52441    0.007
 6852.00    0.46356   0.52329    0.007
 6853.00    0.53785   0.52143    0.007
 6854.00    0.60280   0.51899    0.007
 6855.00    0.62561   0.51678    0.007
 6856.00    0.62550   0.51567    0.007
 6857.00    0.54052   0.51574    0.007
 6858.00    0.48650   0.51629    0.007
 6859.00    0.52834   0.51652    0.007
 6860.00    0.57186   0.51622    0.007
 6861.00    0.61977   0.51607    0.007
 6862.00    0.63738   0.51702    0.007
 6863.00    0.58651   0.51913    0.007
 6864.00    0.57156   0.52133    0.007
 6865.00    0.62692   0.52225    0.007
 6866.00    0.68056   0.52142    0.007
 6867.00    0.73128   0.51963    0.007
 6868.00    0.72977   0.51804    0.007
 6869.00    0.65018   0.51734    0.007
 6870.00    0.59764   0.51727    0.007
 6871.00    0.58061   0.51728    0.007
 6872.00    0.61050   0.51724    0.007
 6873.00    0.69468   0.51753    0.007
 6874.00    0.71215   0.51843    0.007
 6875.00    0.66155   0.51989    0.007
 6876.00    0.61818   0.52173    0.007
 6877.00    0.58131   0.52355    0.007
 6878.00    0.56944   0.52483    0.007
 6879.00    0.57740   0.52495    0.007
 6880.00    0.59372   0.52367    0.007
 6881.00    0.61589   0.52141    0.007
 6882.00    0.64620   0.51918    0.007
 6883.00    0.68149   0.51800    0.007
 6884.00    0.67650   0.51809    0.007
 6885.00    0.64999   0.51900    0.007
 6886.00    0.59744   0.52024    0.007
 6887.00    0.53282   0.52167    0.007
 6888.00    0.54086   0.52330    0.007
 6889.00    0.57794   0.52490    0.007
 6890.00    0.66014   0.52614    0.007
 6891.00    0.75771   0.52682    0.007
 6892.00    0.73048   0.52686    0.007
 6893.00    0.66746   0.52635    0.007
 6894.00    0.63046   0.52561    0.007
 6895.00    0.59963   0.52490    0.007
 6896.00    0.63434   0.52447    0.007
 6897.00    0.68153   0.52430    0.007
 6898.00    0.70306   0.52419    0.007
 6899.00    0.72079   0.52400    0.007
 6900.00    0.72043   0.52378    0.007
 6901.00    0.71813   0.52394    0.007
 6902.00    0.70225   0.52464    0.007
 6903.00    0.68541   0.52555    0.007
 6904.00    0.65997   0.52630    0.007
 6905.00    0.63422   0.52694    0.007
 6906.00    0.60878   0.52777    0.007
 6907.00    0.58405   0.52881    0.007
 6908.00    0.58383   0.52952    0.007
 6909.00    0.58348   0.52947    0.007
 6910.00    0.58101   0.52855    0.007
 6911.00    0.57732   0.52690    0.007
 6912.00    0.56137   0.52467    0.007
 6913.00    0.54663   0.52219    0.007
 6914.00    0.54056   0.52008    0.007
 6915.00    0.54307   0.51907    0.007
 6916.00    0.59291   0.51922    0.007
 6917.00    0.63875   0.52017    0.007
 6918.00    0.66697   0.52151    0.007
 6919.00    0.69061   0.52295    0.007
 6920.00    0.69759   0.52428    0.007
 6921.00    0.71206   0.52501    0.007
 6922.00    0.74933   0.52458    0.007
 6923.00    0.75375   0.52293    0.007
 6924.00    0.67326   0.52080    0.007
 6925.00    0.60289   0.51952    0.007
 6926.00    0.55502   0.51989    0.007
 6927.00    0.52976   0.52174    0.007
 6928.00    0.54807   0.52399    0.007
 6929.00    0.58241   0.52551    0.007
 6930.00    0.64370   0.52579    0.007
 6931.00    0.66438   0.52501    0.007
 6932.00    0.62525   0.52383    0.007
 6933.00    0.61363   0.52303    0.007
 6934.00    0.63763   0.52309    0.007
 6935.00    0.64059   0.52378    0.007
 6936.00    0.61955   0.52454    0.007
 6937.00    0.58856   0.52510    0.007
 6938.00    0.54756   0.52553    0.007
 6939.00    0.55911   0.52601    0.007
 6940.00    0.61730   0.52638    0.007
 6941.00    0.68840   0.52617    0.007
 6942.00    0.76960   0.52495    0.007
 6943.00    0.76644   0.52282    0.007
 6944.00    0.70527   0.52065    0.007
 6945.00    0.64331   0.51968    0.007
 6946.00    0.58089   0.52066    0.007
 6947.00    0.55677   0.52300    0.007
 6948.00    0.55281   0.52529    0.007
 6949.00    0.59217   0.52634    0.007
 6950.00    0.65129   0.52591    0.007
 6951.00    0.64959   0.52458    0.007
 6952.00    0.62399   0.52322    0.007
 6953.00    0.62248   0.52238    0.007
 6954.00    0.62905   0.52226    0.007
 6955.00    0.63054   0.52289    0.007
 6956.00    0.63062   0.52402    0.007
 6957.00    0.58639   0.52519    0.007
 6958.00    0.53191   0.52607    0.007
 6959.00    0.50351   0.52662    0.007
 6960.00    0.47993   0.52703    0.007
 6961.00    0.49392   0.52749    0.007
 6962.00    0.51329   0.52793    0.007
 6963.00    0.50490   0.52818    0.007
 6964.00    0.49363   0.52814    0.007
 6965.00    0.56244   0.52796    0.007
 6966.00    0.63659   0.52804    0.007
 6967.00    0.58011   0.52852    0.007
 6968.00    0.51945   0.52916    0.007
 6969.00    0.52550   0.52945    0.007
 6970.00    0.53297   0.52923    0.007
 6971.00    0.58419   0.52873    0.007
 6972.00    0.63176   0.52824    0.007
 6973.00    0.62516   0.52752    0.007
 6974.00    0.61232   0.52584    0.007
 6975.00    0.53949   0.52262    0.007
 6976.00    0.47941   0.51794    0.007
 6977.00    0.50797   0.51284    0.007
 6978.00    0.53334   0.50912    0.007
 6979.00    0.54154   0.50862    0.007
 6980.00    0.53890   0.51180    0.007
 6981.00    0.48949   0.51727    0.007
 6982.00    0.45728   0.52286    0.007
 6983.00    0.48610   0.52705    0.007
 6984.00    0.53052   0.52941    0.007
 6985.00    0.62146   0.53020    0.007
 6986.00    0.67145   0.52978    0.007
 6987.00    0.61746   0.52842    0.007
 6988.00    0.59530   0.52658    0.007
 6989.00    0.64274   0.52507    0.007
 6990.00    0.64907   0.52465    0.007
 6991.00    0.57740   0.52534    0.007
 6992.00    0.53665   0.52643    0.007
 6993.00    0.54709   0.52713    0.007
 6994.00    0.58702   0.52721    0.007
 6995.00    0.66977   0.52706    0.007
 6996.00    0.69598   0.52681    0.007
 6997.00    0.65003   0.52614    0.007
 6998.00    0.64270   0.52469    0.007
 6999.00    0.67882   0.52280    0.007
 7000.00    0.68717   0.52137    0.007
 7001.00    0.66797   0.52102    0.007
 7002.00    0.63980   0.52132    0.007
 7003.00    0.60379   0.52133    0.007
 7004.00    0.60026   0.52062    0.007
 7005.00    0.62178   0.51978    0.007
 7006.00    0.64424   0.51957    0.007
 7007.00    0.66733   0.52035    0.007
 7008.00    0.64050   0.52173    0.008
 7009.00    0.58403   0.52302    0.008
 7010.00    0.62330   0.52372    0.008
 7011.00    0.71215   0.52372    0.008
 7012.00    0.70782   0.52309    0.008
 7013.00    0.66166   0.52160    0.007
 7014.00    0.65690   0.51887    0.007
 7015.00    0.66813   0.51537    0.007
 7016.00    0.65554   0.51281    0.007
 7017.00    0.63513   0.51307    0.007
 7018.00    0.64609   0.51640    0.007
 7019.00    0.66568   0.52093    0.007
 7020.00    0.62336   0.52437    0.007
 7021.00    0.56704   0.52530    0.007
 7022.00    0.61547   0.52390    0.007
 7023.00    0.68281   0.52146    0.007
 7024.00    0.69455   0.51963    0.007
 7025.00    0.69858   0.51937    0.007
 7026.00    0.59770   0.52057    0.007
 7027.00    0.48640   0.52233    0.007
 7028.00    0.55700   0.52402    0.008
 7029.00    0.63899   0.52543    0.008
 7030.00    0.63780   0.52651    0.008
 7031.00    0.63432   0.52712    0.008
 7032.00    0.65014   0.52718    0.008
 7033.00    0.66584   0.52687    0.008
 7034.00    0.67823   0.52642    0.008
 7035.00    0.68555   0.52575    0.007
 7036.00    0.62160   0.52453    0.008
 7037.00    0.55717   0.52292    0.008
 7038.00    0.48832   0.52209    0.007
 7039.00    0.43418   0.52359    0.007
 7040.00    0.47917   0.52771    0.007
 7041.00    0.52194   0.53287    0.007
 7042.00    0.55312   0.53700    0.007
 7043.00    0.59665   0.53896    0.007
 7044.00    0.69215   0.53912    0.007
 7045.00    0.73795   0.53877    0.008
 7046.00    0.61090   0.53898    0.008
 7047.00    0.53344   0.53978    0.008
 7048.00    0.60114   0.54038    0.008
 7049.00    0.64316   0.53977    0.008
 7050.00    0.62110   0.53738   -2.000
 7051.00    0.58495   0.53318   -2.000
 7052.00    0.51848   0.52766   -2.000
 7053.00    0.49304   0.52193   -2.000
 7054.00    0.54420   0.51733   -2.000
 7055.00    0.58863   0.51463   -2.000
 7056.00    0.62207   0.51369   -2.000
 7057.00    0.64949   0.51341   -2.000
 7058.00    0.66832   0.51258   -2.000
 7059.00    0.67010   0.51082   -2.000
 7060.00    0.65042   0.50882   -2.000
 7061.00    0.58666   0.50762   -2.000
 7062.00    0.47402   0.50771   -2.000
 7063.00    0.46136   0.50860   -2.000
 7064.00    0.54651   0.50941   -2.000
 7065.00    0.56376   0.50932   -2.000
 7066.00    0.52245   0.50812   -2.000
 7067.00    0.53922   0.50650   -2.000
 7068.00    0.60014   0.50553   -2.000
 7069.00    0.63839   0.50617   -2.000
 7070.00    0.66152   0.50849   -2.000
 7071.00    0.64753   0.51160   -2.000
 7072.00    0.61183   0.51443   -2.000
 7073.00    0.62836   0.51631   -2.000
 7074.00    0.67152   0.51717   -2.000
 7075.00    0.58585   0.51726   -2.000
 7076.00    0.44330   0.51700   -2.000
 7077.00    0.55926   0.51676   -2.000
 7078.00    0.77324   0.51669   -2.000
 7079.00    0.77553   0.51660   -2.000
 7080.00    0.70967   0.51598   -2.000
 7081.00    0.66664   0.51420   -2.000
 7082.00    0.62975   0.51075   -2.000
 7083.00    0.49426   0.50584   -2.000
 7084.00    0.33700   0.50052   -2.000
 7085.00    0.41593   0.49601   -2.000
 7086.00    0.53638   0.49283   -2.000
 7087.00    0.59430   0.49036   -2.000
 7088.00    0.64385   0.48798   -2.000
 7089.00    0.60176   0.48561   -2.000
 7090.00    0.55097   0.48379   -2.000
 7091.00    0.59443   0.48284   -2.000
 7092.00    0.64341   0.48277   -2.000
 7093.00    0.59170   0.48300   -2.000
 7094.00    0.53816   0.48329   -2.000
 7095.00    0.57518   0.48363   -2.000
 7096.00    0.61036   0.48440   -2.000
 7097.00    0.59988   0.48616   -2.000
 7098.00    0.58843   0.48885   -2.000
 7099.00    0.56401   0.49209   -2.000
 7100.00    0.54625   0.49457   -2.000
 7101.00    0.58749   0.49580   -2.000
 7102.00    0.62731   0.49603   -2.000
 7103.00    0.65781   0.49620   -2.000
 7104.00    0.68162   0.49682   -2.000
 7105.00    0.67138   0.49770   -2.000
 7106.00    0.64395   0.49829   -2.000
 7107.00    0.54583   0.49827   -2.000
 7108.00    0.47193   0.49767   -2.000
 7109.00    0.48056   0.49658   -2.000
 7110.00    0.49793   0.49528   -2.000
 7111.00    0.54039   0.49432   -2.000
 7112.00    0.56248   0.49436   -2.000
 7113.00    0.53457   0.49553   -2.000
 7114.00    0.53350   0.49740   -2.000
 7115.00    0.58921   0.49931   -2.000
 7116.00    0.62789   0.50087   -2.000
 7117.00    0.63525   0.50183   -2.000
 7118.00    0.61622   0.50206   -2.000
 7119.00    0.55479   0.50155   -2.000
 7120.00    0.55543   0.50048   -2.000
 7121.00    0.64360   0.49926   -2.000
 7122.00    0.67552   0.49819   -2.000
 7123.00    0.63766   0.49727   -2.000
 7124.00    0.65323   0.49600   -2.000
 7125.00    0.72722   0.49384   -2.000
 7126.00    0.81253   0.49100   -2.000
 7127.00    0.90877   0.48805   -2.000
 7128.00    0.89016   0.48539   -2.000
 7129.00    0.77388   0.48302   -2.000
 7130.00    0.61468   0.48120   -2.000
 7131.00    0.42334   0.48059   -2.000
 7132.00    0.39696   0.48175   -2.000
 7133.00    0.47911   0.48430   -2.000
 7134.00    0.52383   0.48727   -2.000
 7135.00    0.54699   0.48974   -2.000
 7136.00    0.61144   0.49116   -2.000
 7137.00    0.69660   0.49162   -2.000
 7138.00    0.70353   0.49139   -2.000
 7139.00    0.67649   0.49110   -2.000
 7140.00    0.65108   0.49127   -2.000
 7141.00    0.62627   0.49200   -2.000
 7142.00    0.64692   0.49287   -2.000
 7143.00    0.68194   0.49340   -2.000
 7144.00    0.68148   0.49320   -2.000
 7145.00    0.67166   0.49193   -2.000
 7146.00    0.60305   0.48952   -2.000
 7147.00    0.52177   0.48664   -2.000
 7148.00    0.43456   0.48457   -2.000
 7149.00    0.34634   0.48470   -2.000
 7150.00    0.43520   0.48720   -2.000
 7151.00    0.54699   0.49103   -2.000
 7152.00    0.53823   0.49486   -2.000
 7153.00    0.51853   0.49785   -2.000
 7154.00    0.50077   0.49981   -2.000
 7155.00    0.48313   0.50114   -2.000
 7156.00    0.59947   0.50214   -2.000
 7157.00    0.71683   0.50270   -2.000
 7158.00    0.67146   0.50240   -2.000
 7159.00    0.62880   0.50125   -2.000
 7160.00    0.64756   0.49963   -2.000
 7161.00    0.66498   0.49761   -2.000
 7162.00    0.66564   0.49485   -2.000
 7163.00    0.67166   0.49107   -2.000
 7164.00    0.72345   0.48731   -2.000
 7165.00    0.76406   0.48525   -2.000
 7166.00    0.73379   0.48592   -2.000
 7167.00    0.70584   0.48857   -2.000
 7168.00    0.68939   0.49158   -2.000
 7169.00    0.67120   0.49389   -2.000
 7170.00    0.64604   0.49553   -2.000
 7171.00    0.65198   0.49689   -2.000
 7172.00    0.76189   0.49798   -2.000
 7173.00    0.77792   0.49840   -2.000
 7174.00    0.52916   0.49785   -2.000
 7175.00    0.39431   0.49665   -2.000
 7176.00    0.53424   0.49542   -2.000
 7177.00    0.63527   0.49447   -2.000
 7178.00    0.65534   0.49341   -2.000
 7179.00    0.65476   0.49171   -2.000
 7180.00    0.61676   0.48970   -2.000
 7181.00    0.58559   0.48861   -2.000
 7182.00    0.56519   0.48930   -2.000
 7183.00    0.56365   0.49136   -2.000
 7184.00    0.58829   0.49307   -2.000
 7185.00    0.58372   0.49278   -2.000
 7186.00    0.54344   0.49027   -2.000
 7187.00    0.56304   0.48670   -2.000
 7188.00    0.64720   0.48402   -2.000
 7189.00    0.63883   0.48358   -2.000
 7190.00    0.54248   0.48522   -2.000
 7191.00    0.51315   0.48781   -2.000
 7192.00    0.54001   0.49007   -2.000
 7193.00    0.56468   0.49155   -2.000
 7194.00    0.58773   0.49234   -2.000
 7195.00    0.49127   0.49254   -2.000
 7196.00    0.31733   0.49224   -2.000
 7197.00    0.42143   0.49165   -2.000
 7198.00    0.68324   0.49128   -2.000
 7199.00    0.61479   0.49107   -2.000
 7200.00    0.38323   0.49065   -2.000
 7201.00    0.43083   0.49004   -2.000
 7202.00    0.59764   0.48974   -2.000
 7203.00    0.51749   0.49014   -2.000
 7204.00    0.34699   0.49049   -2.000
 7205.00    0.35044   0.48941   -2.000
 7206.00    0.40777   0.48653   -2.000
 7207.00    0.53031   0.48311   -2.000
 7208.00    0.66967   0.48141   -2.000
 7209.00    0.62541   0.48262   -2.000
 7210.00    0.54253   0.48596   -2.000
 7211.00    0.55554   0.48973   -2.000
 7212.00    0.58447   0.49229   -2.000
 7213.00    0.50593   0.49325   -2.000
 7214.00    0.41397   0.49326   -2.000
 7215.00    0.38044   0.49334   -2.000
 7216.00    0.35197   0.49413   -2.000
 7217.00    0.44908   0.49555   -2.000
 7218.00    0.55257   0.49705   -2.000
