###################################################################
## OUTPUT of StarlightChains_v04.for    [Cid@UFSC - 01/Apr/2007] ##
###################################################################

## Some input info
KUG0210-078._50_46.txt                   [arq_obs]
Base.CB07.vall.4m                        [arq_base]
Masks.EmLines.NEW.gm                     [arq_masks]
StCv04.C11.config                        [arq_config]
   66                                    [N_base]
    0                                    [N_YAV_components = # of components with extra extinction!]
    0                                    [i_FitPowerLaw (1/0 = Yes/No)]
-9.99                                    [alpha_PowerLaw]
CCM                                      [red_law_option]
 1.458241                                [q_norm = A(l_norm)/A(V)]

## (Re)Sampling Parameters
 3741.00                                 [l_ini (A)]
 7218.00                                 [l_fin (A)]
    1.00                                 [dl    (A)]     (OBS: dl_cushion =    50.00 A)

## Normalization info
 4020.00                                 [l_norm (A) - for base]
 4010.00                                 [llow_norm (A) - window for f_obs]
 4060.00                                 [lupp_norm (A) - window for f_obs]
6.836293E-18                             [fobs_norm (in input units)]

## S/N
 3691.00                                 [llow_SN (A) - window for S/N]
 7268.00                                 [lupp_SN (A) - window for S/N]
   2.914                                 [S/N in S/N window]
   4.091                                 [S/N in norm. window]
   0.005                                 [S/N_err in S/N window]
   0.008                                 [S/N_err in norm. window]
  1.0000                                 [fscale_chi2]

## etc...
    -2007964                             [idum_orig]
  2383                                   [NOl_eff]
  2350                                   [Nl_eff]
    33    NSIGMA                         [Ntot_cliped & clip_method]
   957180                                [Nglobal_steps]
   7                                     [N_chains]
  35                                     [NEX0s_base = N_base in EX0s-fits]
 0   0   1       33   2.0   1.666E+03    [Clip-Bug, RC-Crash & Burn-In warning-flags, n_censored_weights, wei_nsig_threshold & wei_limit]
    21     21.255     20.743      0.512  [idt_all, wdt_TotTime, wdt_UsrTime & wdt_SysTime (sec)]

## Synthesis Results - Best model ##

 7.40562E-06                             [chi2/Nl_eff]
    33.94319                             [adev (%)]

    95.93228                             [sum-of-x (%)]
 3.06642E-18                             [Flux_tot (units of input spectrum!)]
 7.86733E-14                             [Mini_tot (???)]
 3.98906E-14                             [Mcor_tot (???)]

-475.08                                  [v0_min  (km/s)]
  75.84                                  [vd_min  (km/s)]
-0.5660                                  [AV_min  (mag)]
 0.0000                                  [YAV_min (mag)]

# j     x_j(%)      Mini_j(%)     Mcor_j(%)     age_j(yr)     Z_j      (L/M)_j    YAV?  Mstars   component_j        a/Fe...       SSP_chi2r SSP_adev(%)   SSP_AV   SSP_x(%)
  1      0.0000     0.0000E+00    0.0000E+00    1.000000E+06  0.00400  1.094E-02    0   1.0000   age020_m42            0.0000     7.8335E-06    36.0681   2.5086    83.0194
  2      0.0000     0.0000E+00    0.0000E+00    3.160000E+06  0.00400  4.007E-02    0   0.9999   age045_m42            0.0000     7.5763E-06    34.8604   1.7525    89.2504
  3      0.0000     0.0000E+00    0.0000E+00    5.010000E+06  0.00400  2.539E-02    0   0.9488   age055_m42            0.0000     7.6896E-06    35.4888   2.0879    86.7641
  4      0.4972     7.7098E-04    1.4019E-03    6.610000E+06  0.00400  2.620E-02    0   0.9220   age061_m42            0.0000     7.5969E-06    34.8861   1.6836    89.2955
  5      0.0753     2.3149E-04    4.0459E-04    1.000000E+07  0.00400  1.322E-02    0   0.8862   age070_m42            0.0000     7.6842E-06    36.2858   1.4648    89.6183
  6      0.0000     0.0000E+00    0.0000E+00    1.445000E+07  0.00400  7.883E-03    0   0.8571   age078_m42            0.0000     7.7105E-06    36.4496   1.7909    87.4756
  7      0.0000     0.0000E+00    0.0000E+00    2.512000E+07  0.00400  5.251E-03    0   0.8174   age090_m42            0.0000     7.6848E-06    36.4952   1.3452    89.8780
  8      0.0000     0.0000E+00    0.0000E+00    4.000000E+07  0.00400  3.649E-03    0   0.7851   age104_m42            0.0000     7.6152E-06    36.0744   1.1058    90.9039
  9      0.0000     0.0000E+00    0.0000E+00    5.500000E+07  0.00400  3.098E-03    0   0.7629   age110_m42            0.0000     7.5825E-06    35.1397   1.2246    91.7504
 10      0.0000     0.0000E+00    0.0000E+00    1.015200E+08  0.00400  2.228E-03    0   0.7207   age116_m42            0.0000     7.6121E-06    34.5642   1.2269    92.3419
 11      0.0000     0.0000E+00    0.0000E+00    2.861200E+08  0.00400  1.093E-03    0   0.6648   age125_m42            0.0000     7.6682E-06    34.7724   0.6746    94.4150
 12      0.0000     0.0000E+00    0.0000E+00    5.088000E+08  0.00400  6.597E-04    0   0.6365   age130_m42            0.0000     7.6940E-06    33.8602   0.6275    96.0995
 13     37.0998     7.0701E+00    8.0846E+00    1.434000E+09  0.00400  2.132E-04    0   0.5798   age139_m42            0.0000     7.4754E-06    33.1834  -0.3707    98.5781
 14      0.0000     0.0000E+00    0.0000E+00    4.250000E+09  0.00400  5.895E-05    0   0.5377   age158_m42            0.0000     7.4306E-06    33.0733  -0.8433    95.4857
 15      8.6843     1.0052E+01    1.0333E+01    7.500000E+09  0.00400  3.510E-05    0   0.5212   age171_m42            0.0000     7.5076E-06    33.1776  -1.0000    94.3588
 16      3.3650     6.8189E+00    6.7699E+00    1.300000E+10  0.00400  2.005E-05    0   0.5034   age193_m42            0.0000     7.6962E-06    34.6010  -1.0000    90.9137
 17     27.0334     7.2023E+01    7.0554E+01    1.800000E+10  0.00400  1.525E-05    0   0.4967   age213_m42            0.0000     7.7022E-06    34.9757  -1.0000    90.0820
 18      0.0000     0.0000E+00    0.0000E+00    1.000000E+06  0.00800  1.238E-02    0   1.0000   age020_m52            0.0000     7.8454E-06    36.0588   2.5040    83.1785
 19      2.4124     3.1884E-03    6.2670E-03    3.160000E+06  0.00800  3.074E-02    0   0.9966   age045_m52            0.0000     7.8083E-06    35.9382   2.4250    83.9836
 20      0.0000     0.0000E+00    0.0000E+00    5.010000E+06  0.00800  2.668E-02    0   0.9443   age055_m52            0.0000     7.6986E-06    35.6573   2.1774    85.8808
 21      0.0000     0.0000E+00    0.0000E+00    6.610000E+06  0.00800  2.136E-02    0   0.9177   age061_m52            0.0000     7.6118E-06    36.2706   0.9615    90.6778
 22      0.0000     0.0000E+00    0.0000E+00    1.000000E+07  0.00800  1.215E-02    0   0.8827   age070_m52            0.0000     7.7431E-06    36.9224   1.6644    88.9654
 23      7.3389     3.4206E-02    5.7694E-02    1.445000E+07  0.00800  8.717E-03    0   0.8552   age078_m52            0.0000     7.6954E-06    36.3811   1.7553    88.6858
 24      0.0000     0.0000E+00    0.0000E+00    2.512000E+07  0.00800  5.592E-03    0   0.8162   age090_m52            0.0000     7.6784E-06    36.4590   1.4059    90.9783
 25      0.0000     0.0000E+00    0.0000E+00    4.000000E+07  0.00800  3.896E-03    0   0.7841   age104_m52            0.0000     7.6185E-06    35.9223   1.3022    92.0769
 26      0.8893     1.6822E-02    2.3974E-02    1.015200E+08  0.00800  2.148E-03    0   0.7226   age116_m52            0.0000     7.5984E-06    35.0057   1.2099    92.6642
 27      0.0000     0.0000E+00    0.0000E+00    2.861200E+08  0.00800  9.925E-04    0   0.6683   age125_m52            0.0000     7.6647E-06    33.7771   0.6947    97.0128
 28      0.0000     0.0000E+00    0.0000E+00    9.047900E+08  0.00800  3.141E-04    0   0.6138   age135_m52            0.0000     7.6144E-06    32.5822  -0.1641   102.4205
 29      0.0084     1.9786E-03    2.2840E-03    1.434000E+09  0.00800  1.719E-04    0   0.5853   age139_m52            0.0000     7.4493E-06    32.9391  -0.7484   100.2635
 30      1.8420     9.5072E-01    1.0500E+00    2.500000E+09  0.00800  7.872E-05    0   0.5600   age150_m52            0.0000     7.5162E-06    32.8313  -1.0000    97.5999
 31      0.0000     0.0000E+00    0.0000E+00    4.250000E+09  0.00800  4.336E-05    0   0.5426   age158_m52            0.0000     7.5593E-06    33.0142  -1.0000    96.3930
 32      0.0000     0.0000E+00    0.0000E+00    6.250000E+09  0.00800  3.159E-05    0   0.5319   age166_m52            0.0000     7.8754E-06    34.7237  -1.0000    92.7101
 33      0.0000     0.0000E+00    0.0000E+00    1.300000E+10  0.00800  1.361E-05    0   0.5073   age193_m52            0.0000     9.2597E-06    41.3724  -1.0000    82.2255
 34      0.0000     0.0000E+00    0.0000E+00    1.800000E+10  0.00800  9.886E-06    0   0.4990   age213_m52            0.0000     9.9056E-06    42.6294  -1.0000    79.3248
 35      0.0000     0.0000E+00    0.0000E+00    1.000000E+06  0.02000  1.544E-02    0   1.0000   age020_m62            0.0000     7.8643E-06    36.0897   2.5026    83.3140
 36      0.0000     0.0000E+00    0.0000E+00    3.160000E+06  0.02000  3.762E-02    0   0.9858   age045_m62            0.0000     7.8299E-06    35.9790   2.4383    84.1291
 37      0.0000     0.0000E+00    0.0000E+00    5.010000E+06  0.02000  3.296E-02    0   0.9342   age055_m62            0.0000     7.6273E-06    35.0493   2.0377    88.0996
 38      0.0287     1.0099E-04    1.7650E-04    8.710000E+06  0.02000  1.154E-02    0   0.8861   age067_m62            0.0000     8.1821E-06    40.5471   1.2277    88.5381
 39      1.8028     9.5587E-03    1.5971E-02    1.445000E+07  0.02000  7.663E-03    0   0.8472   age078_m62            0.0000     7.7895E-06    37.8536   1.3384    90.1904
 40      0.0000     0.0000E+00    0.0000E+00    2.512000E+07  0.02000  4.532E-03    0   0.8099   age090_m62            0.0000     7.8134E-06    38.0059   1.3370    89.7758
 41      0.0000     0.0000E+00    0.0000E+00    5.500000E+07  0.02000  2.733E-03    0   0.7595   age110_m62            0.0000     7.6563E-06    36.0332   1.2881    91.3061
 42      0.0000     0.0000E+00    0.0000E+00    1.609000E+08  0.02000  1.369E-03    0   0.6985   age120_m62            0.0000     7.6901E-06    34.4204   1.0838    94.8404
 43      0.0000     0.0000E+00    0.0000E+00    2.861200E+08  0.02000  9.013E-04    0   0.6714   age125_m62            0.0000     7.7437E-06    33.4045   0.8037    98.2666
 44      0.0000     0.0000E+00    0.0000E+00    5.088000E+08  0.02000  5.028E-04    0   0.6449   age130_m62            0.0000     7.6840E-06    32.1578   0.3625   102.4898
 45      0.0000     0.0000E+00    0.0000E+00    9.047900E+08  0.02000  2.428E-04    0   0.6179   age135_m62            0.0000     7.5486E-06    32.2480  -0.2523   102.4884
 46      0.0000     0.0000E+00    0.0000E+00    1.434000E+09  0.02000  1.263E-04    0   0.5908   age139_m62            0.0000     7.5426E-06    32.4677  -0.7051   101.0961
 47      0.0000     0.0000E+00    0.0000E+00    2.500000E+09  0.02000  5.985E-05    0   0.5673   age150_m62            0.0000     7.6925E-06    32.7913  -1.0000    98.6097
 48      0.0000     0.0000E+00    0.0000E+00    4.250000E+09  0.02000  3.271E-05    0   0.5468   age158_m62            0.0000     8.3011E-06    35.6133  -1.0000    91.8580
 49      0.9483     2.8329E+00    2.8868E+00    1.000000E+10  0.02000  1.360E-05    0   0.5167   age181_m62            0.0000     9.6857E-06    40.2481  -1.0000    83.7244
 50      0.0094     5.3645E-02    5.3037E-02    1.800000E+10  0.02000  7.124E-06    0   0.5013   age213_m62            0.0000     1.0883E-05    42.8726  -1.0000    78.0501
 51      0.0000     0.0000E+00    0.0000E+00    1.000000E+06  0.05000  2.592E-02    0   0.9998   age020_m72            0.0000     7.9281E-06    36.2380   2.4990    83.1983
 52      0.0856     7.1744E-05    1.3551E-04    3.160000E+06  0.05000  4.845E-02    0   0.9577   age045_m72            0.0000     7.7297E-06    35.5271   2.3044    85.5921
 53      1.8538     2.4518E-03    4.4230E-03    5.010000E+06  0.05000  3.072E-02    0   0.9147   age055_m72            0.0000     7.8031E-06    37.1377   1.8928    87.5548
 54      0.0000     0.0000E+00    0.0000E+00    6.610000E+06  0.05000  1.455E-02    0   0.8877   age061_m72            0.0000     8.4806E-06    42.0787   1.3000    88.2896
 55      0.0000     0.0000E+00    0.0000E+00    1.000000E+07  0.05000  9.074E-03    0   0.8524   age070_m72            0.0000     7.8208E-06    37.3687   2.0664    87.3738
 56      0.0000     0.0000E+00    0.0000E+00    2.512000E+07  0.05000  4.250E-03    0   0.7902   age090_m72            0.0000     7.7387E-06    36.8052   1.7635    89.1477
 57      0.0000     0.0000E+00    0.0000E+00    4.000000E+07  0.05000  3.087E-03    0   0.7618   age104_m72            0.0000     7.7568E-06    36.8013   1.5420    90.4326
 58      1.8695     4.4680E-02    6.2530E-02    1.015200E+08  0.05000  1.700E-03    0   0.7096   age116_m72            0.0000     7.7201E-06    35.0173   1.2447    93.9615
 59      0.0000     0.0000E+00    0.0000E+00    2.861200E+08  0.05000  7.384E-04    0   0.6633   age125_m72            0.0000     7.7233E-06    32.5925   0.6371   100.4739
 60      0.0000     0.0000E+00    0.0000E+00    5.088000E+08  0.05000  3.819E-04    0   0.6372   age130_m72            0.0000     7.5974E-06    32.0141   0.0932   103.4776
 61      0.0000     0.0000E+00    0.0000E+00    9.047900E+08  0.05000  1.676E-04    0   0.6110   age135_m72            0.0000     7.6443E-06    32.0209  -0.6621   103.0064
 62      0.0000     0.0000E+00    0.0000E+00    1.434000E+09  0.05000  8.837E-05    0   0.5874   age139_m72            0.0000     7.8157E-06    32.7178  -1.0000   100.0870
 63      0.0882     8.4626E-02    9.3431E-02    2.500000E+09  0.05000  4.233E-05    0   0.5598   age150_m72            0.0000     8.4467E-06    35.5140  -1.0000    92.7026
 64      0.0000     0.0000E+00    0.0000E+00    6.250000E+09  0.05000  1.435E-05    0   0.5249   age166_m72            0.0000     1.0157E-05    41.6342  -1.0000    81.1342
 65      0.0000     0.0000E+00    0.0000E+00    1.300000E+10  0.05000  6.513E-06    0   0.5036   age193_m72            0.0000     1.1877E-05    45.0292  -1.0000    74.9255
 66      0.0000     0.0000E+00    0.0000E+00    1.800000E+10  0.05000  4.527E-06    0   0.4945   age213_m72            0.0000     1.3010E-05    46.7453  -1.0000    70.6868


## Synthesis Results - Average & Chains ##

# j      x_j: min, <> & last-chain-values for 1 ...  7 chains
  1      0.0000      0.8573      0.0000      0.0000      0.0000      1.1703      0.7488      0.6244      0.8365
  2      0.0000      0.9763      0.0000      0.2323      1.3609      0.4007      0.4071      0.3928      0.8646
  3      0.0000      1.3164      0.0896      0.0000      0.5124      0.1186      0.1406      0.0019      0.6285
  4      0.4972      1.2665      1.2240      0.0000      0.1221      0.7833      0.0000      1.1547      0.0000
  5      0.0753      1.1619      0.6964      0.0000      0.2676      0.0000      0.1996      0.8227      0.0000
  6      0.0000      1.3416      0.3401      1.4017      1.9974      0.6982      0.0259      2.5381      0.5445
  7      0.0000      1.0368      0.4540      0.9979      0.7273      0.0000      1.3281      0.0000      0.0000
  8      0.0000      1.4935      0.0000      0.0000      1.2788      0.3423      0.0000      1.4688      0.2520
  9      0.0000      1.1360      0.8367      0.4939      0.6166      1.9128      0.2298      0.0000      0.1519
 10      0.0000      1.4497      0.0000      0.0000      0.1519      1.3400      2.6950      0.0000      0.0000
 11      0.0000      0.8581      0.0000      0.0000      0.0000      1.8645      0.6506      0.3408      0.5559
 12      0.0000      0.9905      0.0000      0.0000      1.6838      0.2622      0.2052      0.0000      0.1456
 13     37.0998      0.8083      2.2661      0.6221      0.4566      0.0481      0.1262      0.4080      0.0424
 14      0.0000      0.8984      0.0000      0.0000      0.0983      0.4402      1.1459      1.0930      0.0000
 15      8.6843      1.2764      2.0305      0.6064      0.4216      0.5101      0.0313      0.0389      0.0000
 16      3.3650      0.9547      0.5638      0.2886      0.7468      1.2577      0.7041      0.0000      1.1004
 17     27.0334      1.8046      0.4409      0.0000      1.3274      0.0000      0.0000      0.4117      1.9150
 18      0.0000      1.2106      0.2791      0.0000      0.3774      1.1482      0.0000      0.0477      1.2603
 19      2.4124      1.0411      1.3750      0.4677      1.7576      0.0000      1.5850      0.8606      0.1153
 20      0.0000      1.1595      0.0000      1.9278      0.1226      1.9718      0.0000      0.0000      1.6807
 21      0.0000      1.1886      1.3537      0.6568      1.9850      0.0882      0.0000      0.0599      2.5103
 22      0.0000      0.8751      0.0000      0.1430      0.0000      0.0000      0.7945      0.2752      0.0000
 23      7.3389      1.2433      2.2166      1.1555      0.0000      0.3939      1.4532      0.0509      0.0000
 24      0.0000      0.7971      0.1250      0.5965      0.4350      0.0000      0.0000      0.5656      0.4869
 25      0.0000      1.3050      0.5388      1.4674      0.0000      0.0000      1.2115      0.6262      0.0000
 26      0.8893      1.2210      1.7361      0.0000      0.4914      0.9110      1.6225      0.0000      0.4724
 27      0.0000      1.2286      0.3414      0.0000      2.1433      1.3591      1.0711      1.5239      0.8460
 28      0.0000      0.7260      0.0000      0.6013      0.1159      0.2203      0.1031      1.8960      0.8873
 29      0.0084      1.1537      0.4185      1.2217      1.3708      1.3472      0.3738      0.0000      0.0632
 30      1.8420      0.7759      0.7177      0.0000      2.1558      0.2522      1.4684      1.0193      0.0000
 31      0.0000      0.9938      0.0475      0.8356      0.4432      0.0000      0.3226      1.0463      1.8162
 32      0.0000      1.3871      0.3935      0.0828      0.0000      1.4347      0.3575      1.9597      0.0233
 33      0.0000      1.1458      2.1072      0.9690      0.0000      0.4507      0.0000      1.2633      0.2881
 34      0.0000      1.2529      0.0000      1.2009      2.5591      0.3133      0.1458      1.1586      0.0000
 35      0.0000      1.0721      0.1781      1.9881      0.0000      0.0000      0.0581      0.1136      0.1230
 36      0.0000      0.8042      0.0066      0.4092      0.0000      0.0000      0.0000      0.7102      0.4547
 37      0.0000      0.9992      0.0109      0.3294      0.0000      0.0000      0.0000      0.0726      0.0000
 38      0.0287      1.1499      2.1488      1.2380      0.8592      0.4495      2.6201      0.0000      1.0933
 39      1.8028      1.0743      0.7386      0.0000      0.0000      0.5887      2.9323      0.0000      0.8862
 40      0.0000      1.0418      0.1363      0.5217      2.0500      1.3283      0.8694      0.5799      0.5121
 41      0.0000      1.7424      0.0000      0.6547      0.0527      0.0000      0.8720      0.2823      0.9787
 42      0.0000      1.6290      1.2969      3.0827      0.0000      0.0000      0.0000      0.4984      2.2718
 43      0.0000      0.9572      0.1407      0.0000      1.1839      0.0000      0.0000      1.2016      0.0000
 44      0.0000      1.4287      0.2065      0.8221      0.4719      0.0000      0.5986      2.9434      0.8791
 45      0.0000      0.9097      0.8234      0.0000      0.3137      0.0000      0.0000      0.7445      0.1573
 46      0.0000      1.0878      1.1131      1.2157      0.0000      0.9691      0.2791      1.9346      0.2813
 47      0.0000      0.8738      0.0000      0.0000      0.0000      1.5424      1.1986      0.0000      0.3770
 48      0.0000      1.0805      1.0101      0.0000      0.0078      1.1743      0.0000      0.0000      0.8473
 49      0.9483      1.3519      1.1198      1.9196      1.4756      1.9385      2.0805      2.1649      0.8783
 50      0.0094      8.3985     18.2572     20.2120     16.5026     15.3387     16.8084     17.1172     17.1876
 51      0.0000      0.9116      0.0000      0.0000      0.0000      0.2524      0.4870      0.8379      0.0000
 52      0.0856      1.2857      2.5022      0.0000      0.0000      1.3533      0.1310      2.1689      1.4261
 53      1.8538      1.1753      0.7101      0.3774      2.4534      1.0112      0.0000      0.0000      0.2914
 54      0.0000      1.2130      0.0000      0.0000      0.0000      0.0000      0.0000      0.0000      1.3045
 55      0.0000      1.1209      1.3279      1.6713      0.0000      0.2585      0.6265      1.3886      0.6218
 56      0.0000      1.0491      0.0000      0.4441      0.0000      0.4410      0.0000      0.0553      0.0000
 57      0.0000      1.2230      0.0000      0.9912      0.0000      0.1325      0.0000      1.1407      0.9493
 58      1.8695      1.3192      2.5092      0.1921      0.9969      1.0467      1.0942      0.0000      0.1885
 59      0.0000      1.3683      0.8284      0.0000      0.0000      0.0000      0.4546      0.0000      0.5850
 60      0.0000      0.9545      0.2790      0.3651      0.4671      1.3745      0.0000      0.0211      0.5642
 61      0.0000     19.2031     38.0012     44.8433     41.9908     42.0564     43.1626     40.2323     42.1026
 62      0.0000      1.3577      0.1658      0.1550      0.1698      1.4572      0.0000      0.3028      0.0000
 63      0.0882      1.0532      0.5111      0.0000      0.5097      0.0000      1.4863      1.0519      0.0000
 64      0.0000      0.8139      0.0000      0.0000      1.6757      0.0000      0.6486      0.0791      2.2868
 65      0.0000      1.8191      2.6082      1.5708      2.4421      4.2751      2.5347      2.3560      3.6994
 66      0.0000      2.4763      4.2017      3.8710      3.4442      4.0104      5.0342      3.6648      3.8446

# j      m_j: min, <> & last-chain-values for 1 ...  7 chains
  1  0.0000E+00  5.2653E-03  0.0000E+00  0.0000E+00  0.0000E+00  4.7806E-03  2.9945E-03  2.5465E-03  3.2704E-03
  2  0.0000E+00  1.6369E-03  0.0000E+00  2.4699E-04  1.5171E-03  4.4682E-04  4.4446E-04  4.3731E-04  9.2283E-04
  3  0.0000E+00  3.3052E-03  1.4418E-04  0.0000E+00  8.5537E-04  1.9802E-04  2.2993E-04  3.0867E-06  1.0045E-03
  4  1.4019E-03  2.9946E-03  1.8558E-03  0.0000E+00  1.9201E-04  1.2319E-03  0.0000E+00  1.8130E-03  0.0000E+00
  5  4.0459E-04  5.2333E-03  2.0113E-03  0.0000E+00  8.0142E-04  0.0000E+00  5.8553E-04  2.4605E-03  0.0000E+00
  6  0.0000E+00  9.8007E-03  1.5930E-03  6.4935E-03  9.7021E-03  3.3926E-03  1.2312E-04  1.2313E-02  2.5321E-03
  7  0.0000E+00  1.0844E-02  3.0446E-03  6.6184E-03  5.0581E-03  0.0000E+00  9.0451E-03  0.0000E+00  0.0000E+00
  8  0.0000E+00  2.1589E-02  0.0000E+00  0.0000E+00  1.2292E-02  3.2912E-03  0.0000E+00  1.4100E-02  2.3192E-03
  9  0.0000E+00  1.8795E-02  8.8775E-03  5.1828E-03  6.7831E-03  2.1051E-02  2.4757E-03  0.0000E+00  1.5997E-03
 10  0.0000E+00  3.1508E-02  0.0000E+00  0.0000E+00  2.1957E-03  1.9371E-02  3.8142E-02  0.0000E+00  0.0000E+00
 11  0.0000E+00  3.5069E-02  0.0000E+00  0.0000E+00  0.0000E+00  5.0682E-02  1.7312E-02  9.2480E-03  1.4461E-02
 12  0.0000E+00  6.4211E-02  0.0000E+00  0.0000E+00  7.2577E-02  1.1308E-02  8.6612E-03  0.0000E+00  6.0076E-03
 13  8.0846E+00  1.4769E-01  2.6551E-01  7.2086E-02  5.5469E-02  5.8414E-03  1.5019E-02  4.9502E-02  4.9329E-03
 14  0.0000E+00  5.5056E-01  0.0000E+00  0.0000E+00  4.0057E-02  1.7946E-01  4.5728E-01  4.4481E-01  0.0000E+00
 15  1.0333E+01  1.2734E+00  1.2990E+00  3.8367E-01  2.7968E-01  3.3851E-01  2.0346E-02  2.5752E-02  0.0000E+00
 16  6.7699E+00  1.6105E+00  6.0986E-01  3.0872E-01  8.3765E-01  1.4112E+00  7.7348E-01  0.0000E+00  1.1817E+00
 17  7.0554E+01  3.9492E+00  6.1868E-01  0.0000E+00  1.9315E+00  0.0000E+00  0.0000E+00  5.9824E-01  2.6678E+00
 18  0.0000E+00  6.5702E-03  9.7129E-04  0.0000E+00  1.3619E-03  4.1450E-03  0.0000E+00  1.7206E-04  4.3541E-03
 19  6.2670E-03  2.2677E-03  1.9205E-03  6.4606E-04  2.5456E-03  0.0000E+00  2.2482E-03  1.2449E-03  1.5995E-04
 20  0.0000E+00  2.7574E-03  0.0000E+00  2.9073E-03  1.9392E-04  3.1189E-03  0.0000E+00  0.0000E+00  2.5444E-03
 21  0.0000E+00  3.4311E-03  2.5057E-03  1.2024E-03  3.8100E-03  1.6928E-04  0.0000E+00  1.1484E-04  4.6131E-03
 22  0.0000E+00  4.2717E-03  0.0000E+00  4.4263E-04  0.0000E+00  0.0000E+00  2.5255E-03  8.9218E-04  0.0000E+00
 23  5.7694E-02  8.1951E-03  9.3691E-03  4.8302E-03  0.0000E+00  1.7272E-03  6.2376E-03  2.2262E-04  0.0000E+00
 24  0.0000E+00  7.8166E-03  7.8590E-04  3.7097E-03  2.8364E-03  0.0000E+00  0.0000E+00  3.6834E-03  3.0399E-03
 25  0.0000E+00  1.7646E-02  4.6722E-03  1.2584E-02  0.0000E+00  0.0000E+00  1.0668E-02  5.6233E-03  0.0000E+00
 26  2.3974E-02  2.7597E-02  2.5162E-02  0.0000E+00  7.3858E-03  1.3696E-02  2.3881E-02  0.0000E+00  6.7975E-03
 27  0.0000E+00  5.5583E-02  9.9032E-03  0.0000E+00  6.4475E-02  4.0898E-02  3.1556E-02  4.5784E-02  2.4366E-02
 28  0.0000E+00  9.5318E-02  0.0000E+00  5.0067E-02  1.0118E-02  1.9240E-02  8.8187E-03  1.6531E-01  7.4164E-02
 29  2.2840E-03  2.6392E-01  6.1398E-02  1.7725E-01  2.0851E-01  2.0501E-01  5.5683E-02  0.0000E+00  9.2062E-03
 30  1.0500E+00  3.7087E-01  2.1998E-01  0.0000E+00  6.8514E-01  8.0190E-02  4.5704E-01  3.2354E-01  0.0000E+00
 31  0.0000E+00  8.3561E-01  2.5631E-02  4.4556E-01  2.4778E-01  0.0000E+00  1.7662E-01  5.8418E-01  9.7212E-01
 32  0.0000E+00  1.5692E+00  2.8547E-01  5.9412E-02  0.0000E+00  1.0796E+00  2.6337E-01  1.4722E+00  1.6752E-02
 33  0.0000E+00  2.8695E+00  3.3840E+00  1.5389E+00  0.0000E+00  7.5072E-01  0.0000E+00  2.1009E+00  4.5938E-01
 34  0.0000E+00  4.2492E+00  0.0000E+00  2.5829E+00  5.7707E+00  7.0668E-01  3.2194E-01  2.6093E+00  0.0000E+00
 35  0.0000E+00  4.6655E-03  4.9687E-04  5.4865E-03  0.0000E+00  0.0000E+00  1.6472E-04  3.2824E-04  3.4070E-04
 36  0.0000E+00  1.4160E-03  7.4796E-06  4.5686E-04  0.0000E+00  0.0000E+00  0.0000E+00  8.3030E-04  5.0961E-04
 37  0.0000E+00  1.9029E-03  1.3266E-05  3.9777E-04  0.0000E+00  0.0000E+00  0.0000E+00  9.1791E-05  0.0000E+00
 38  1.7650E-04  5.9324E-03  7.1084E-03  4.0503E-03  2.9472E-03  1.5426E-03  8.8022E-03  0.0000E+00  3.5907E-03
 39  1.5971E-02  7.9803E-03  3.5180E-03  0.0000E+00  0.0000E+00  2.9090E-03  1.4184E-02  0.0000E+00  4.1907E-03
 40  0.0000E+00  1.2509E-02  1.0497E-03  3.9724E-03  1.6366E-02  1.0608E-02  6.7980E-03  4.6242E-03  3.9140E-03
 41  0.0000E+00  3.2533E-02  0.0000E+00  7.7519E-03  6.5375E-04  0.0000E+00  1.0602E-02  3.5007E-03  1.1633E-02
 42  0.0000E+00  5.5846E-02  2.8509E-02  6.7018E-02  0.0000E+00  0.0000E+00  0.0000E+00  1.1347E-02  4.9578E-02
 43  0.0000E+00  4.7907E-02  4.5162E-03  0.0000E+00  3.9400E-02  0.0000E+00  0.0000E+00  3.9936E-02  0.0000E+00
 44  0.0000E+00  1.2312E-01  1.1408E-02  4.4928E-02  2.7040E-02  0.0000E+00  3.3591E-02  1.6844E-01  4.8226E-02
 45  0.0000E+00  1.5555E-01  9.0280E-02  0.0000E+00  3.5662E-02  0.0000E+00  0.0000E+00  8.4530E-02  1.7127E-02
 46  0.0000E+00  3.4189E-01  2.2432E-01  2.4231E-01  0.0000E+00  2.0259E-01  5.7113E-02  4.0376E-01  5.6284E-02
 47  0.0000E+00  5.5649E-01  0.0000E+00  0.0000E+00  0.0000E+00  6.5336E-01  4.9709E-01  0.0000E+00  1.5285E-01
 48  0.0000E+00  1.2136E+00  7.2748E-01  0.0000E+00  5.8094E-03  8.7730E-01  0.0000E+00  0.0000E+00  6.0579E-01
 49  2.8868E+00  3.4509E+00  1.8329E+00  3.1074E+00  2.5045E+00  3.2915E+00  3.4584E+00  3.6698E+00  1.4273E+00
 50  5.3037E-02  3.9708E+01  5.5350E+01  6.0601E+01  5.1878E+01  4.8237E+01  5.1749E+01  5.3742E+01  5.1731E+01
 51  0.0000E+00  2.3624E-03  0.0000E+00  0.0000E+00  0.0000E+00  4.3518E-04  8.2190E-04  1.4421E-03  0.0000E+00
 52  1.3551E-04  1.7075E-03  2.1309E-03  0.0000E+00  0.0000E+00  1.1955E-03  1.1331E-04  1.9128E-03  1.2057E-03
 53  4.4230E-03  2.3513E-03  9.1091E-04  4.7881E-04  3.2635E-03  1.3457E-03  0.0000E+00  0.0000E+00  3.7108E-04
 54  0.0000E+00  4.9723E-03  0.0000E+00  0.0000E+00  0.0000E+00  0.0000E+00  0.0000E+00  0.0000E+00  3.4041E-03
 55  0.0000E+00  7.0748E-03  5.3741E-03  6.6893E-03  0.0000E+00  1.0851E-03  2.5748E-03  5.8201E-03  2.4984E-03
 56  0.0000E+00  1.3106E-02  0.0000E+00  3.5184E-03  0.0000E+00  3.6643E-03  0.0000E+00  4.5896E-04  0.0000E+00
 57  0.0000E+00  2.0277E-02  0.0000E+00  1.0422E-02  0.0000E+00  1.4608E-03  0.0000E+00  1.2560E-02  1.0020E-02
 58  6.2530E-02  3.6997E-02  4.5125E-02  3.4173E-03  1.8589E-02  1.9525E-02  1.9983E-02  0.0000E+00  3.3652E-03
 59  0.0000E+00  8.2582E-02  3.2059E-02  0.0000E+00  0.0000E+00  0.0000E+00  1.7868E-02  0.0000E+00  2.2477E-02
 60  0.0000E+00  1.0700E-01  2.0059E-02  2.5956E-02  3.4819E-02  1.0249E-01  0.0000E+00  1.5710E-03  4.0268E-02
 61  0.0000E+00  4.7036E+00  5.9686E+00  6.9656E+00  6.8388E+00  6.8520E+00  6.8845E+00  6.5441E+00  6.5650E+00
 62  0.0000E+00  6.0637E-01  4.7480E-02  4.3891E-02  5.0421E-02  4.3289E-01  0.0000E+00  8.9791E-02  0.0000E+00
 63  9.3431E-02  9.3580E-01  2.9120E-01  0.0000E+00  3.0113E-01  0.0000E+00  8.5998E-01  6.2069E-01  0.0000E+00
 64  0.0000E+00  2.0004E+00  0.0000E+00  0.0000E+00  2.7383E+00  0.0000E+00  1.0380E+00  1.2911E-01  3.5778E+00
 65  0.0000E+00  9.4503E+00  8.6888E+00  5.1750E+00  8.4357E+00  1.4773E+01  8.5748E+00  8.1279E+00  1.2235E+01
 66  0.0000E+00  1.8174E+01  1.9774E+01  1.8017E+01  1.6807E+01  1.9578E+01  2.4060E+01  1.7861E+01  1.7963E+01

# AV, chi2 & Mass for <> & i_chain = 1 ...  7 solutions
AV      -0.5660     -0.9709     -0.9182     -0.9626     -0.9598     -0.9437     -0.9527     -0.9626     -0.9513
chi2 7.4056E-06  8.2722E-06  7.4885E-06  7.5128E-06  7.5084E-06  7.5091E-06  7.5058E-06  7.5151E-06  7.5052E-06
Mass 3.9891E-14  2.7619E-14  4.6231E-14  4.4038E-14  4.2163E-14  4.3070E-14  4.3462E-14  4.2055E-14  4.4545E-14
-475.08                                  [v0_min (km/s) before EX0s...]
  75.84                                  [vd_min (km/s) before EX0s...]


## Synthetic spectrum (Best Model) ##l_obs f_obs f_syn wei
 3478    [Nl_obs]
 3741.00    0.56472   0.50947    0.000
 3742.00    0.71244   0.46277    0.000
 3743.00    0.62082   0.42546    0.000
 3744.00    0.46811   0.43007    0.000
 3745.00    0.27982   0.48217    0.022
 3746.00    0.71617   0.55411    0.022
 3747.00    1.46972   0.62089    0.023
 3748.00    1.86648   0.67560    0.023
 3749.00    2.10633   0.70956    0.023
 3750.00    0.92530   0.70821    0.023
 3751.00   -0.79215   0.67341    0.000
 3752.00   -0.99566   0.63576    0.000
 3753.00   -0.71397   0.62696    0.000
 3754.00   -0.44912   0.64582    0.000
 3755.00   -0.18880   0.66952    0.000
 3756.00    0.07184   0.68156    0.021
 3757.00    0.33254   0.68030    0.021
 3758.00   -0.12847   0.67396    0.000
 3759.00   -0.71547   0.66351    0.000
 3760.00   -0.15528   0.64058    0.000
 3761.00    0.55730   0.61021    0.021
 3762.00    0.15494   0.58457    0.020
 3763.00   -0.35219   0.56087    0.000
 3764.00    0.02849   0.54075    0.020
 3765.00    0.46038   0.54595    0.020
 3766.00    0.27720   0.58431    0.019
 3767.00    0.07974   0.63259    0.019
 3768.00   -0.07844   0.66857    0.000
 3769.00   -0.23447   0.69257    0.000
 3770.00   -0.33805   0.71490    0.000
 3771.00   -0.43562   0.73885    0.000
 3772.00   -0.45434   0.76277    0.000
 3773.00   -0.43054   0.78706    0.000
 3774.00   -0.03354   0.80892    0.000
 3775.00    0.28498   0.82209    0.018
 3776.00    0.09460   0.82742    0.018
 3777.00   -0.11086   0.83017    0.000
 3778.00   -0.39266   0.82583    0.000
 3779.00   -0.54111   0.80303    0.000
 3780.00   -0.14376   0.76535    0.000
 3781.00    0.17494   0.73175    0.019
 3782.00    0.22689   0.71156    0.019
 3783.00    0.25275   0.70170    0.019
 3784.00    0.20400   0.69876    0.019
 3785.00    0.34354   0.69672    0.019
 3786.00    0.94314   0.68315    0.019
 3787.00    1.17784   0.65158    0.019
 3788.00    0.64343   0.60964    0.019
 3789.00    0.26056   0.56695    0.019
 3790.00    0.15530   0.52297    0.019
 3791.00    0.21956   0.47983    0.019
 3792.00    0.55521   0.45978    0.019
 3793.00    0.65178   0.48550    0.018
 3794.00    0.41255   0.54848    0.018
 3795.00    0.32903   0.61867    0.018
 3796.00    0.43797   0.67798    0.018
 3797.00    0.52461   0.72357    0.018
 3798.00    0.58695   0.75049    0.018
 3799.00    0.37814   0.75593    0.018
 3800.00   -0.09125   0.75014    0.000
 3801.00   -0.25345   0.75207    0.000
 3802.00   -0.15536   0.77288    0.000
 3803.00   -0.32075   0.80308    0.000
 3804.00   -0.68275   0.82300    0.000
 3805.00   -0.49292   0.82107    0.000
 3806.00    0.05867   0.79837    0.018
 3807.00    0.45718   0.76565    0.017
 3808.00    0.76785   0.73669    0.018
 3809.00    0.73419   0.72153    0.018
 3810.00    0.52843   0.72587    0.017
 3811.00    0.49465   0.74085    0.017
 3812.00    0.53525   0.73977    0.017
 3813.00    0.46495   0.71038    0.017
 3814.00    0.35351   0.67970    0.017
 3815.00   -0.09174   0.67950    0.000
 3816.00   -0.64193   0.69988    0.000
 3817.00   -0.38607   0.70333    0.000
 3818.00    0.08125   0.67628    0.017
 3819.00    0.56191   0.64092    0.017
 3820.00    1.04543   0.61837    0.017
 3821.00    0.72710   0.60742    0.017
 3822.00    0.27268   0.59922    0.017
 3823.00    0.41976   0.59034    0.017
 3824.00    0.64401   0.57496    0.017
 3825.00    0.51649   0.54248    0.017
 3826.00    0.35738   0.49439    0.017
 3827.00   -0.21407   0.44810    0.000
 3828.00   -0.80768   0.41941    0.000
 3829.00   -0.87582   0.41397    0.000
 3830.00   -0.92966   0.42721    0.000
 3831.00   -0.66448   0.44738    0.000
 3832.00   -0.37626   0.46932    0.000
 3833.00    0.42390   0.49808    0.018
 3834.00    1.13939   0.53826    0.018
 3835.00    0.80210   0.59016    0.017
 3836.00    0.56733   0.64728    0.017
 3837.00    1.19912   0.69585    0.018
 3838.00    1.67974   0.72719    0.018
 3839.00    1.20930   0.74524    0.018
 3840.00    0.85441   0.75960    0.017
 3841.00    1.06967   0.77250    0.017
 3842.00    1.22452   0.77566    0.017
 3843.00    1.13760   0.76784    0.017
 3844.00    1.07273   0.76456    0.017
 3845.00    1.08113   0.77698    0.017
 3846.00    1.26144   0.79453    0.017
 3847.00    1.92450   0.80084    0.000
 3848.00    2.17222   0.79194    0.000
 3849.00    1.42235   0.77469    0.000
 3850.00    0.85736   0.75926    0.000
 3851.00    0.67579   0.74750    0.000
 3852.00    0.56885   0.73111    0.000
 3853.00    0.59650   0.71391    0.000
 3854.00    0.49736   0.71745    0.000
 3855.00    0.19826   0.74988    0.000
 3856.00    0.19672   0.79040    0.000
 3857.00    0.60710   0.81362    0.000
 3858.00    0.86897   0.81438    0.000
 3859.00    0.94989   0.80568    0.000
 3860.00    0.65426   0.80066    0.000
 3861.00   -0.04586   0.80141    0.000
 3862.00   -0.26131   0.80151    0.000
 3863.00   -0.01754   0.79204    0.000
 3864.00    0.16163   0.76821    0.000
 3865.00    0.28684   0.73696    0.000
 3866.00    0.47357   0.71673    0.000
 3867.00    0.70556   0.72214    0.000
 3868.00    0.37497   0.74591    0.000
 3869.00   -0.31900   0.76222    0.000
 3870.00   -0.29454   0.75124    0.000
 3871.00    0.13595   0.71849    0.000
 3872.00    0.26165   0.69093    0.000
 3873.00    0.23744   0.68671    0.000
 3874.00    0.38303   0.69219    0.000
 3875.00    0.60083   0.68635    0.000
 3876.00    0.72244   0.67212    0.000
 3877.00    0.80902   0.65933    0.000
 3878.00    0.77438   0.63753    0.000
 3879.00    0.70238   0.59358    0.000
 3880.00    0.89177   0.53802    0.000
 3881.00    1.14827   0.49127    0.015
 3882.00    1.14460   0.46473    0.015
 3883.00    1.08654   0.46866    0.015
 3884.00    0.56771   0.50859    0.015
 3885.00   -0.02710   0.56876    0.000
 3886.00    0.03226   0.62159    0.015
 3887.00    0.17264   0.65248    0.015
 3888.00    0.52963   0.66689    0.015
 3889.00    0.90517   0.68047    0.016
 3890.00    0.59087   0.70138    0.016
 3891.00    0.24219   0.72057    0.016
 3892.00    0.11971   0.72784    0.015
 3893.00    0.00852   0.72991    0.015
 3894.00    0.38686   0.73925    0.015
 3895.00    0.74834   0.75339    0.015
 3896.00    0.76488   0.76196    0.015
 3897.00    0.77665   0.76258    0.015
 3898.00    0.73195   0.75682    0.015
 3899.00    0.71030   0.75001    0.015
 3900.00    0.87645   0.75657    0.014
 3901.00    0.99956   0.78360    0.014
 3902.00    0.85979   0.81729    0.014
 3903.00    0.70963   0.84092    0.013
 3904.00    0.50939   0.85361    0.013
 3905.00    0.26526   0.86100    0.013
 3906.00   -0.15071   0.86168    0.000
 3907.00   -0.30541   0.85468    0.000
 3908.00    0.39154   0.84652    0.014
 3909.00    0.85459   0.84106    0.014
 3910.00    0.67268   0.83561    0.014
 3911.00    0.63098   0.82644    0.014
 3912.00    0.92041   0.81103    0.015
 3913.00    1.00482   0.79015    0.015
 3914.00    0.67084   0.77143    0.015
 3915.00    0.47896   0.76376    0.015
 3916.00    0.53948   0.76743    0.015
 3917.00    0.67007   0.77451    0.015
 3918.00    0.90951   0.77473    0.015
 3919.00    1.04179   0.76071    0.015
 3920.00    1.02787   0.73176    0.015
 3921.00    1.15949   0.69323    0.015
 3922.00    1.46595   0.65176    0.016
 3923.00    1.56163   0.61031    0.016
 3924.00    1.43409   0.56638    0.015
 3925.00    0.96899   0.51530    0.015
 3926.00    0.18855   0.46055    0.015
 3927.00   -0.07361   0.42218    0.000
 3928.00    0.09105   0.42434    0.015
 3929.00    0.29572   0.46940    0.015
 3930.00    0.52939   0.53543    0.015
 3931.00    0.35916   0.59972    0.015
 3932.00   -0.06812   0.65364    0.000
 3933.00    0.37772   0.69589    0.015
 3934.00    1.30947   0.72379    0.015
 3935.00    1.50620   0.73606    0.015
 3936.00    1.34711   0.73608    0.015
 3937.00    1.17664   0.73309    0.015
 3938.00    1.00141   0.74186    0.015
 3939.00    1.09532   0.76740    0.015
 3940.00    1.28550   0.79304    0.015
 3941.00    1.05981   0.80247    0.015
 3942.00    0.70841   0.80308    0.015
 3943.00    0.87555   0.81010    0.015
 3944.00    1.17293   0.82089    0.015
 3945.00    1.09762   0.82228    0.015
 3946.00    0.94632   0.81618    0.015
 3947.00    0.93214   0.81573    0.015
 3948.00    0.93992   0.81812    0.015
 3949.00    0.40915   0.80861    0.015
 3950.00   -0.18592   0.78939    0.000
 3951.00    0.77697   0.77676    0.015
 3952.00    1.86673   0.77206    0.015
 3953.00    0.96262   0.75624    0.015
 3954.00   -0.03312   0.71567    0.000
 3955.00   -0.06354   0.66174    0.000
 3956.00   -0.07542   0.61580    0.000
 3957.00    0.23862   0.58103    0.015
 3958.00    0.53727   0.54251    0.015
 3959.00    0.54446   0.48836    0.015
 3960.00    0.56006   0.42010    0.000
 3961.00    0.67051   0.35080    0.000
 3962.00    0.79420   0.30009    0.000
 3963.00    1.02193   0.28560    0.000
 3964.00    1.13213   0.31252    0.000
 3965.00    0.54493   0.36982    0.000
 3966.00    0.06551   0.43905    0.000
 3967.00    0.09212   0.50770    0.000
 3968.00    0.12642   0.57127    0.000
 3969.00    0.19018   0.62662    0.000
 3970.00    0.32608   0.67246    0.000
 3971.00    0.69253   0.71267    0.000
 3972.00    1.14800   0.75037    0.000
 3973.00    1.84454   0.78190    0.000
 3974.00    2.14670   0.80036    0.000
 3975.00    1.53311   0.80474    0.000
 3976.00    0.97439   0.80484    0.000
 3977.00    0.52589   0.81221    0.000
 3978.00    0.21092   0.82709    0.000
 3979.00    0.12954   0.84158    0.000
 3980.00    0.09550   0.85333    0.000
 3981.00    0.13393   0.86582    0.015
 3982.00    0.19934   0.87694    0.015
 3983.00    0.30100   0.88222    0.015
 3984.00    0.49126   0.88697    0.015
 3985.00    0.78643   0.89758    0.015
 3986.00    0.94828   0.90833    0.015
 3987.00    0.97091   0.90940    0.015
 3988.00    0.91072   0.89988    0.015
 3989.00    0.77423   0.88622    0.015
 3990.00    0.82905   0.87357    0.014
 3991.00    1.03920   0.86817    0.014
 3992.00    1.13308   0.87738    0.015
 3993.00    1.14387   0.89819    0.015
 3994.00    1.34412   0.91748    0.015
 3995.00    1.66316   0.92917    0.015
 3996.00    1.60233   0.93290    0.014
 3997.00    1.33332   0.92084    0.014
 3998.00    0.84037   0.89059    0.014
 3999.00    0.24075   0.86313    0.015
 4000.00    0.08858   0.86232    0.014
 4001.00    0.12032   0.88413    0.014
 4002.00    0.19813   0.90649    0.014
 4003.00    0.29213   0.91937    0.014
 4004.00    0.40011   0.92681    0.014
 4005.00    0.51223   0.93168    0.014
 4006.00    0.62328   0.93353    0.014
 4007.00    0.73407   0.93512    0.014
 4008.00    0.88575   0.93912    0.014
 4009.00    1.04555   0.94258    0.014
 4010.00    1.05340   0.94116    0.014
 4011.00    1.03764   0.93858    0.014
 4012.00    0.69003   0.94255    0.014
 4013.00    0.30427   0.94981    0.014
 4014.00    0.56758   0.95121    0.014
 4015.00    0.88107   0.94624    0.014
 4016.00    0.96165   0.93809    0.014
 4017.00    1.03243   0.92688    0.014
 4018.00    0.88251   0.91696    0.014
 4019.00    0.73874   0.91868    0.014
 4020.00    0.95246   0.93414    0.014
 4021.00    1.15751   0.95099    0.014
 4022.00    1.20949   0.95239    0.014
 4023.00    1.24669   0.93130    0.014
 4024.00    1.12490   0.89876    0.014
 4025.00    1.00000   0.87422    0.014
 4026.00    0.85157   0.86602    0.014
 4027.00    0.72593   0.87123    0.014
 4028.00    0.73174   0.88834    0.014
 4029.00    0.75076   0.91685    0.014
 4030.00    0.83036   0.95063    0.014
 4031.00    0.93339   0.97703    0.014
 4032.00    1.12431   0.98517    0.014
 4033.00    1.28814   0.97581    0.014
 4034.00    1.36705   0.96151    0.014
 4035.00    1.33976   0.95312    0.014
 4036.00    1.02997   0.94298    0.013
 4037.00    0.72212   0.91256    0.013
 4038.00    0.41870   0.86392    0.013
 4039.00    0.43611   0.82969    0.013
 4040.00    1.08781   0.83945    0.014
 4041.00    1.39753   0.88288    0.014
 4042.00    1.11812   0.92528    0.014
 4043.00    0.97007   0.95008    0.014
 4044.00    1.02015   0.96034    0.014
 4045.00    1.15270   0.95878    0.014
 4046.00    1.39456   0.94780    0.014
 4047.00    1.51619   0.93368    0.014
 4048.00    1.49747   0.92202    0.014
 4049.00    1.26172   0.91434    0.014
 4050.00    0.80255   0.90779    0.014
 4051.00    0.75196   0.90231    0.014
 4052.00    1.07240   0.90616    0.014
 4053.00    1.05901   0.92121    0.014
 4054.00    0.77844   0.93101    0.014
 4055.00    0.79589   0.91564    0.014
 4056.00    1.02321   0.87762    0.014
 4057.00    1.06635   0.84688    0.014
 4058.00    0.99573   0.84817    0.014
 4059.00    0.67047   0.87070    0.014
 4060.00    0.20781   0.89103    0.014
 4061.00    0.36597   0.90739    0.014
 4062.00    0.81510   0.92348    0.014
 4063.00    0.99936   0.92600    0.014
 4064.00    1.07660   0.90523    0.014
 4065.00    1.23972   0.88112    0.014
 4066.00    1.43244   0.88066    0.014
 4067.00    1.16088   0.89766    0.014
 4068.00    0.75449   0.90146    0.013
 4069.00    0.47275   0.87829    0.014
 4070.00    0.22095   0.84386    0.014
 4071.00    0.05156   0.82540    0.014
 4072.00   -0.10185   0.83831    0.000
 4073.00    0.24941   0.87370    0.014
 4074.00    0.67671   0.90825    0.013
 4075.00    0.81119   0.92296    0.013
 4076.00    0.91328   0.91486    0.013
 4077.00    0.90185   0.89673    0.013
 4078.00    0.88210   0.88527    0.013
 4079.00    0.98429   0.88956    0.013
 4080.00    1.09115   0.90757    0.013
 4081.00    1.04035   0.92809    0.013
 4082.00    0.99794   0.93807    0.013
 4083.00    1.30492   0.93248    0.013
 4084.00    1.56916   0.91591    0.013
 4085.00    1.12907   0.89658    0.013
 4086.00    0.72104   0.88107    0.013
 4087.00    0.64295   0.86727    0.013
 4088.00    0.57424   0.84440    0.013
 4089.00    0.57429   0.81037    0.013
 4090.00    0.52718   0.77610    0.013
 4091.00    0.21552   0.74619    0.013
 4092.00    0.05891   0.71043    0.000
 4093.00    0.59616   0.65793    0.000
 4094.00    0.99217   0.59722    0.000
 4095.00    0.86952   0.55987    0.000
 4096.00    0.77338   0.57155    0.000
 4097.00    0.75878   0.62345    0.000
 4098.00    0.75403   0.68689    0.000
 4099.00    0.77506   0.74125    0.000
 4100.00    0.82557   0.77899    0.000
 4101.00    0.94227   0.80051    0.000
 4102.00    1.14536   0.81056    0.000
 4103.00    1.51657   0.81590    0.000
 4104.00    1.41897   0.82347    0.000
 4105.00    0.52592   0.83719    0.000
 4106.00    0.08120   0.85622    0.000
 4107.00    0.30289   0.87584    0.000
 4108.00    0.68385   0.89123    0.000
 4109.00    1.27291   0.90048    0.000
 4110.00    1.59034   0.90116    0.000
 4111.00    1.59511   0.89116    0.000
 4112.00    1.33988   0.87816    0.000
 4113.00    0.82072   0.87437    0.013
 4114.00    0.44905   0.88000    0.013
 4115.00    0.20942   0.88726    0.013
 4116.00    0.33603   0.89504    0.013
 4117.00    0.75160   0.90666    0.013
 4118.00    1.00186   0.91878    0.019
 4119.00    1.13741   0.92238    0.068
 4120.00    1.03894   0.91441   -1.000
 4121.00    0.79808   0.90179   -1.000
 4122.00    0.91749   0.89253   -1.000
 4123.00    1.22829   0.88588   -1.000
 4124.00    1.21592   0.87450   -1.000
 4125.00    1.05454   0.85739   -1.000
 4126.00    0.58643   0.84585   -1.000
 4127.00   -0.00347   0.85064    0.000
 4128.00    0.16047   0.87163   -1.000
 4129.00    0.57954   0.89877   -1.000
 4130.00    0.64765   0.92033    0.033
 4131.00    0.61592   0.93409    0.014
 4132.00    0.79086   0.94258    0.013
 4133.00    1.01432   0.94306    0.013
 4134.00    0.70647   0.92767    0.013
 4135.00    0.29833   0.89132    0.013
 4136.00    0.43875   0.84637    0.013
 4137.00    0.65927   0.82273    0.013
 4138.00    0.87313   0.83746    0.013
 4139.00    1.08629   0.87380    0.013
 4140.00    0.59751   0.90362    0.013
 4141.00    0.06018   0.91468    0.013
 4142.00    0.24783   0.91150    0.013
 4143.00    0.46047   0.90519    0.013
 4144.00    0.75976   0.90339    0.013
 4145.00    1.05030   0.90330    0.013
 4146.00    1.04644   0.89850    0.013
 4147.00    1.04207   0.88960    0.013
 4148.00    1.02994   0.88393    0.013
 4149.00    1.02374   0.88568    0.013
 4150.00    1.07612   0.89377    0.013
 4151.00    1.07898   0.90630    0.013
 4152.00    0.73036   0.91997    0.013
 4153.00    0.46530   0.93015    0.013
 4154.00    0.65642   0.93582    0.013
 4155.00    0.85801   0.93997    0.013
 4156.00    1.10536   0.94211    0.013
 4157.00    1.24748   0.93897    0.013
 4158.00    1.01107   0.93158    0.013
 4159.00    0.83175   0.92221    0.013
 4160.00    0.82475   0.91196    0.012
 4161.00    0.84977   0.90587    0.012
 4162.00    0.95702   0.90741    0.012
 4163.00    1.07479   0.90756    0.013
 4164.00    1.21578   0.89265    0.013
 4165.00    1.13764   0.86384    0.013
 4166.00    0.63973   0.84013    0.013
 4167.00    0.42894   0.83753    0.013
 4168.00    0.69802   0.85210    0.013
 4169.00    0.93915   0.86764    0.013
 4170.00    1.13938   0.87436    0.013
 4171.00    1.14574   0.87712    0.013
 4172.00    0.90242   0.88547    0.013
 4173.00    0.68731   0.89692    0.013
 4174.00    0.50421   0.90031    0.013
 4175.00    0.38373   0.89481    0.013
 4176.00    0.32594   0.89147    0.013
 4177.00    0.61325   0.89599    0.013
 4178.00    1.20520   0.90114    0.012
 4179.00    1.29666   0.89540    0.012
 4180.00    0.99887   0.87963    0.012
 4181.00    0.78803   0.87035    0.012
 4182.00    0.63665   0.87713    0.012
 4183.00    0.72284   0.88978    0.012
 4184.00    0.95143   0.89795    0.012
 4185.00    1.01477   0.90659    0.012
 4186.00    0.99169   0.91941    0.012
 4187.00    1.09223   0.92484    0.012
 4188.00    1.24884   0.91324    0.012
 4189.00    0.94339   0.89135    0.012
 4190.00    0.45763   0.86920    0.012
 4191.00    0.51670   0.85041    0.012
 4192.00    0.75672   0.83937    0.012
 4193.00    0.79877   0.83843    0.012
 4194.00    0.78564   0.84163    0.012
 4195.00    0.74826   0.84557    0.012
 4196.00    0.70531   0.85402    0.012
 4197.00    0.94114   0.86702    0.012
 4198.00    1.22821   0.88045    0.012
 4199.00    0.98423   0.89372    0.012
 4200.00    0.66515   0.90735    0.012
 4201.00    0.77579   0.91765    0.012
 4202.00    0.93025   0.91990    0.012
 4203.00    0.41145   0.91630    0.012
 4204.00   -0.15121   0.91497    0.000
 4205.00   -0.28592   0.91792    0.000
 4206.00   -0.40656   0.91645    0.000
 4207.00    0.06514   0.90158    0.012
 4208.00    0.52638   0.87740    0.012
 4209.00    0.68019   0.86219    0.012
 4210.00    0.83483   0.86941    0.013
 4211.00    1.00134   0.89176    0.014
 4212.00    1.11405   0.91321    0.016
 4213.00    0.71807   0.92594    0.016
 4214.00    0.34725   0.92718    0.016
 4215.00    0.14938   0.91346    0.016
 4216.00    0.08944   0.88446    0.016
 4217.00    0.76251   0.84240    0.016
 4218.00    1.26535   0.78947    0.015
 4219.00    1.04110   0.73885    0.013
 4220.00    0.93028   0.72017    0.012
 4221.00    1.21909   0.75133    0.012
 4222.00    1.28841   0.81214    0.012
 4223.00    0.70774   0.86540    0.012
 4224.00    0.38808   0.89109    0.012
 4225.00    0.72709   0.89088    0.012
 4226.00    0.99043   0.87837    0.012
 4227.00    1.08932   0.86687    0.012
 4228.00    1.07840   0.85847    0.012
 4229.00    0.86039   0.85081    0.012
 4230.00    0.79089   0.84806    0.012
 4231.00    0.96587   0.85349    0.011
 4232.00    1.02505   0.86347    0.011
 4233.00    0.91705   0.87488    0.011
 4234.00    0.84140   0.88617    0.011
 4235.00    0.80683   0.89448    0.011
 4236.00    0.75595   0.90130    0.011
 4237.00    0.68682   0.91002    0.011
 4238.00    0.58934   0.91422    0.011
 4239.00    0.46388   0.90348    0.011
 4240.00    0.61901   0.88040    0.011
 4241.00    1.01833   0.85768    0.012
 4242.00    1.19795   0.84214    0.012
 4243.00    1.20913   0.83524    0.012
 4244.00    1.00073   0.84049    0.012
 4245.00    0.64435   0.85413    0.012
 4246.00    0.54272   0.86060    0.012
 4247.00    0.59150   0.85383    0.012
 4248.00    0.77063   0.84963    0.012
 4249.00    1.01688   0.86203    0.012
 4250.00    0.73285   0.87956    0.012
 4251.00    0.21223   0.87926    0.012
 4252.00    0.12695   0.85641    0.012
 4253.00    0.20859   0.83017    0.012
 4254.00    0.25912   0.82412    0.012
 4255.00    0.29951   0.84482    0.012
 4256.00    0.40092   0.87765    0.012
 4257.00    0.51898   0.90381    0.012
 4258.00    0.62627   0.91607    0.012
 4259.00    0.73115   0.91480    0.012
 4260.00    0.91934   0.90212    0.012
 4261.00    1.12242   0.88332    0.012
 4262.00    1.01913   0.86080    0.012
 4263.00    0.87392   0.83009    0.012
 4264.00    0.91309   0.79454    0.012
 4265.00    0.97026   0.77137    0.012
 4266.00    0.66382   0.76983    0.012
 4267.00    0.33514   0.78131    0.012
 4268.00    0.52545   0.79966    0.012
 4269.00    0.72874   0.82812    0.011
 4270.00    0.73074   0.86150    0.011
 4271.00    0.73224   0.88273    0.011
 4272.00    0.72032   0.88104    0.011
 4273.00    0.70000   0.86419    0.011
 4274.00    0.56425   0.85005    0.011
 4275.00    0.42393   0.84812    0.012
 4276.00    0.24205   0.85305    0.012
 4277.00    0.11956   0.85384    0.012
 4278.00    0.39265   0.84554    0.012
 4279.00    0.64771   0.83338    0.012
 4280.00    0.80942   0.82254    0.012
 4281.00    0.93094   0.80763    0.012
 4282.00    0.88466   0.78488   -2.000
 4283.00    0.79786   0.76777   -2.000
 4284.00    0.57119   0.77385   -2.000
 4285.00    0.47801   0.79990   -2.000
 4286.00    0.77289   0.82391   -2.000
 4287.00    1.05956   0.83072   -2.000
 4288.00    1.32590   0.82408   -2.000
 4289.00    1.39546   0.81157   -2.000
 4290.00    1.04434   0.79103   -2.000
 4291.00    0.71189   0.75877   -2.000
 4292.00    0.41409   0.72182   -2.000
 4293.00    0.38665   0.69580   -2.000
 4294.00    0.79769   0.68931   -2.000
 4295.00    0.99404   0.69562   -2.000
 4296.00    0.88497   0.70535   -2.000
 4297.00    0.85265   0.71554   -2.000
 4298.00    0.91640   0.72160    0.012
 4299.00    1.00119   0.71555    0.012
 4300.00    1.10922   0.69648    0.012
 4301.00    1.14654   0.67643    0.012
 4302.00    1.11507   0.67175    0.012
 4303.00    0.85891   0.68693    0.012
 4304.00    0.40997   0.71223    0.011
 4305.00    0.40766   0.73764    0.012
 4306.00    0.74287   0.76153    0.012
 4307.00    1.03088   0.78968    0.012
 4308.00    1.28756   0.82935    0.012
 4309.00    1.27438   0.87709    0.012
 4310.00    1.10427   0.91540    0.012
 4311.00    1.07175   0.93048    0.012
 4312.00    1.10897   0.92572    0.011
 4313.00    0.94691   0.91123    0.011
 4314.00    0.69742   0.89107    0.011
 4315.00    0.65670   0.86235    0.011
 4316.00    0.69461   0.82094    0.011
 4317.00    0.70766   0.77199    0.011
 4318.00    0.71275   0.73560    0.011
 4319.00    0.78256   0.73396    0.011
 4320.00    0.86965   0.76977    0.011
 4321.00    0.75641   0.81882    0.011
 4322.00    0.59933   0.85110    0.012
 4323.00    0.34036   0.85852    0.012
 4324.00    0.06366   0.85428    0.011
 4325.00    0.42687   0.85080    0.012
 4326.00    0.87472   0.84863    0.012
 4327.00    1.13007   0.84293    0.012
 4328.00    1.36742   0.82685    0.012
 4329.00    1.35436   0.79054    0.012
 4330.00    1.32696   0.73102    0.000
 4331.00    1.26216   0.66021    0.000
 4332.00    1.19250   0.59669    0.000
 4333.00    0.66533   0.55931    0.000
 4334.00    0.18357   0.56509    0.000
 4335.00    0.79235   0.61186    0.000
 4336.00    1.32108   0.67211    0.000
 4337.00    0.80766   0.72224    0.000
 4338.00    0.36046   0.75968    0.000
 4339.00    0.49183   0.78782    0.000
 4340.00    0.68245   0.80934    0.000
 4341.00    1.25569   0.82822    0.000
 4342.00    1.67769   0.83944    0.000
 4343.00    1.33664   0.82895    0.000
 4344.00    1.05236   0.79811    0.000
 4345.00    0.99986   0.77405    0.000
 4346.00    0.95338   0.77941    0.000
 4347.00    0.92728   0.80623    0.000
 4348.00    0.91941   0.83407    0.000
 4349.00    0.96361   0.85492    0.000
 4350.00    0.99259   0.86726    0.000
 4351.00    0.98443   0.86850    0.012
 4352.00    0.95559   0.86469    0.014
 4353.00    0.88320   0.86901    0.036
 4354.00    0.92125   0.88381   -1.000
 4355.00    1.16119   0.89857   -1.000
 4356.00    1.23734   0.90747   -1.000
 4357.00    1.05177   0.91380   -1.000
 4358.00    1.02842   0.91641   -1.000
 4359.00    1.23249   0.90830   -1.000
 4360.00    1.23793   0.89146   -1.000
 4361.00    0.99830   0.87823   -1.000
 4362.00    0.93353   0.87478   -1.000
 4363.00    1.05892   0.87594   -1.000
 4364.00    1.05865   0.87595   -1.000
 4365.00    0.93784   0.87097   -1.000
 4366.00    0.93986   0.85665    0.044
 4367.00    1.04578   0.83662    0.016
 4368.00    0.90119   0.82650    0.012
 4369.00    0.57000   0.83821    0.012
 4370.00    0.40426   0.86467    0.012
 4371.00    0.34678   0.88742    0.012
 4372.00    0.50129   0.89540    0.012
 4373.00    0.77722   0.88842    0.012
 4374.00    0.83282   0.86412    0.012
 4375.00    0.77852   0.81725    0.012
 4376.00    0.67221   0.76112    0.012
 4377.00    0.54346   0.73085    0.012
 4378.00    0.50423   0.74704    0.012
 4379.00    0.49812   0.79064    0.012
 4380.00    0.65090   0.82750    0.012
 4381.00    0.85352   0.84348    0.012
 4382.00    0.71403   0.84608    0.012
 4383.00    0.48504   0.84733    0.012
 4384.00    0.71184   0.85465    0.012
 4385.00    1.03599   0.86580    0.012
 4386.00    0.99986   0.86998    0.012
 4387.00    0.90280   0.86353    0.012
 4388.00    0.96196   0.85986    0.011
 4389.00    1.04107   0.87218    0.011
 4390.00    1.05089   0.89213    0.011
 4391.00    1.05452   0.89914    0.012
 4392.00    0.82086   0.88654    0.011
 4393.00    0.57456   0.86874    0.011
 4394.00    0.86919   0.86321    0.012
 4395.00    1.17122   0.86647    0.012
 4396.00    1.21436   0.85715    0.012
 4397.00    1.26439   0.83136    0.012
 4398.00    1.46557   0.81346    0.012
 4399.00    1.62010   0.81869    0.012
 4400.00    1.19823   0.83366    0.012
 4401.00    0.82917   0.84655    0.011
 4402.00    0.90436   0.86413    0.012
 4403.00    0.97999   0.89034    0.012
 4404.00    1.05830   0.91493    0.012
 4405.00    1.09409   0.92579    0.012
 4406.00    0.92070   0.91577    0.012
 4407.00    0.83104   0.88641    0.012
 4408.00    1.07566   0.85563    0.012
 4409.00    1.21748   0.84536    0.011
 4410.00    1.01844   0.85938    0.011
 4411.00    0.85279   0.88608    0.011
 4412.00    0.78072   0.91111    0.011
 4413.00    0.79179   0.92181    0.011
 4414.00    1.00215   0.91493    0.011
 4415.00    1.11433   0.90104    0.011
 4416.00    1.02331   0.89319    0.011
 4417.00    0.92872   0.89235    0.012
 4418.00    0.82768   0.89086    0.011
 4419.00    0.79800   0.88678    0.011
 4420.00    0.88064   0.88553    0.011
 4421.00    0.93547   0.88894    0.011
 4422.00    0.95189   0.89126    0.011
 4423.00    0.97848   0.89032    0.011
 4424.00    1.01745   0.89126    0.011
 4425.00    1.09424   0.89159    0.011
 4426.00    1.21158   0.88066    0.011
 4427.00    1.18827   0.85913    0.011
 4428.00    1.03193   0.84454    0.011
 4429.00    0.80088   0.85339    0.011
 4430.00    0.50751   0.88288    0.011
 4431.00    0.66289   0.91406    0.011
 4432.00    1.14773   0.92916    0.011
 4433.00    1.18100   0.92169    0.011
 4434.00    0.92313   0.89759    0.011
 4435.00    0.86024   0.87169    0.011
 4436.00    0.90733   0.86045    0.011
 4437.00    0.91840   0.87126    0.011
 4438.00    0.91179   0.89495    0.011
 4439.00    0.77030   0.91390    0.011
 4440.00    0.57158   0.92050    0.011
 4441.00    0.46221   0.91965    0.011
 4442.00    0.38531   0.91569    0.011
 4443.00    0.40870   0.91035    0.011
 4444.00    0.46293   0.90618    0.012
 4445.00    0.58851   0.89985    0.011
 4446.00    0.73237   0.88304    0.011
 4447.00    0.96621   0.85718    0.011
 4448.00    1.21880   0.83747    0.011
 4449.00    1.05133   0.83500    0.011
 4450.00    0.81484   0.84328    0.011
 4451.00    0.82376   0.84951    0.011
 4452.00    0.86295   0.84950    0.011
 4453.00    0.97511   0.84617    0.011
 4454.00    1.09348   0.84483    0.011
 4455.00    1.02633   0.85258    0.011
 4456.00    0.95004   0.86969    0.011
 4457.00    1.07762   0.88583    0.011
 4458.00    1.20653   0.89279    0.011
 4459.00    1.21509   0.89149    0.011
 4460.00    1.20624   0.88496    0.011
 4461.00    0.84472   0.87530    0.000
 4462.00    0.51925   0.86792    0.000
 4463.00    0.61744   0.86968    0.000
 4464.00    0.72621   0.88253    0.000
 4465.00    0.92079   0.90263    0.000
 4466.00    1.10518   0.92253    0.000
 4467.00    1.22749   0.93484    0.000
 4468.00    1.27562   0.93942    0.000
 4469.00    0.96791   0.94275    0.000
 4470.00    0.76937   0.94602    0.000
 4471.00    0.99719   0.94067    0.000
 4472.00    1.17206   0.91980    0.000
 4473.00    1.17478   0.88981    0.000
 4474.00    1.16342   0.86793    0.000
 4475.00    1.11329   0.86846    0.000
 4476.00    1.05070   0.89029    0.000
 4477.00    0.95872   0.91879    0.000
 4478.00    1.01124   0.93941    0.000
 4479.00    1.35805   0.94546    0.000
 4480.00    1.50457   0.93608    0.000
 4481.00    1.29606   0.91636    0.000
 4482.00    1.12995   0.89878    0.011
 4483.00    1.02961   0.89550    0.011
 4484.00    1.07982   0.90601    0.011
 4485.00    1.33510   0.91662    0.011
 4486.00    1.40128   0.91471    0.011
 4487.00    1.24073   0.90207    0.011
 4488.00    0.98827   0.89135    0.011
 4489.00    0.63863   0.89262    0.011
 4490.00    0.56019   0.90566    0.011
 4491.00    0.73463   0.92159    0.011
 4492.00    0.92984   0.92986    0.011
 4493.00    1.14212   0.92778    0.011
 4494.00    1.28732   0.92514    0.011
 4495.00    1.38400   0.93382    0.011
 4496.00    1.46083   0.95231    0.011
 4497.00    1.52507   0.96776    0.011
 4498.00    1.40559   0.97142    0.011
 4499.00    1.18407   0.96527    0.011
 4500.00    1.01246   0.95694    0.011
 4501.00    0.86496   0.95289    0.011
 4502.00    0.83030   0.95419    0.011
 4503.00    0.84271   0.95594    0.011
 4504.00    0.81386   0.95223    0.011
 4505.00    0.77027   0.94249    0.011
 4506.00    0.95397   0.93167    0.011
 4507.00    1.20620   0.92471    0.011
 4508.00    1.23854   0.92241    0.011
 4509.00    1.21581   0.92129    0.011
 4510.00    1.23255   0.91862    0.011
 4511.00    1.25733   0.91763    0.011
 4512.00    0.97606   0.92240    0.011
 4513.00    0.64596   0.92887    0.011
 4514.00    0.87509   0.92794    0.011
 4515.00    1.17069   0.91771    0.011
 4516.00    1.15029   0.90561    0.011
 4517.00    1.10433   0.89630    0.011
 4518.00    1.08252   0.88569    0.011
 4519.00    1.06181   0.86994    0.011
 4520.00    1.11079   0.85248    0.011
 4521.00    1.16091   0.84060    0.011
 4522.00    1.22552   0.83926    0.011
 4523.00    1.27672   0.84743    0.011
 4524.00    1.07636   0.85774    0.011
 4525.00    0.89058   0.85991    0.011
 4526.00    0.86816   0.84954    0.011
 4527.00    0.84842   0.83648    0.011
 4528.00    0.84972   0.83878    0.011
 4529.00    0.82334   0.86392    0.011
 4530.00    0.63326   0.89873    0.011
 4531.00    0.54663   0.92205    0.011
 4532.00    0.94429   0.92568    0.011
 4533.00    1.19586   0.91863    0.011
 4534.00    0.88913   0.91364    0.011
 4535.00    0.62113   0.91375    0.011
 4536.00    0.47659   0.91244    0.011
 4537.00    0.48748   0.90611    0.011
 4538.00    0.91836   0.89969    0.011
 4539.00    1.20412   0.89635    0.011
 4540.00    1.15361   0.89075    0.011
 4541.00    0.98725   0.87915    0.011
 4542.00    0.58865   0.86929    0.011
 4543.00    0.33994   0.87073    0.011
 4544.00    0.35292   0.87913    0.011
 4545.00    0.57945   0.88176    0.011
 4546.00    1.13232   0.87514    0.011
 4547.00    1.34722   0.86813    0.011
 4548.00    1.10843   0.87155    0.011
 4549.00    0.86712   0.88816    0.011
 4550.00    0.62282   0.91026    0.000
 4551.00    0.55088   0.92736    0.000
 4552.00    0.65859   0.93577    0.000
 4553.00    0.75595   0.93802    0.000
 4554.00    0.84378   0.93517    0.000
 4555.00    0.78197   0.92509    0.000
 4556.00    0.59888   0.90958    0.000
 4557.00    0.58007   0.89781    0.000
 4558.00    0.67842   0.89869    0.000
 4559.00    0.76360   0.91209    0.000
 4560.00    0.84053   0.92870    0.000
 4561.00    0.72213   0.93737    0.000
 4562.00    0.49689   0.93218    0.000
 4563.00    0.71588   0.91599    0.000
 4564.00    1.14604   0.90143    0.000
 4565.00    1.18986   0.90168    0.000
 4566.00    1.07524   0.91500    0.000
 4567.00    1.02091   0.92775    0.000
 4568.00    0.98772   0.93221    0.000
 4569.00    0.92717   0.93029    0.000
 4570.00    0.85854   0.92381    0.000
 4571.00    0.77636   0.91184    0.000
 4572.00    0.69086   0.89623    0.000
 4573.00    0.73883   0.88369    0.000
 4574.00    0.81326   0.87982    0.000
 4575.00    0.80942   0.88275    0.000
 4576.00    0.79345   0.88615    0.000
 4577.00    0.83911   0.88709    0.000
 4578.00    0.89181   0.88849    0.000
 4579.00    1.09100   0.89490    0.000
 4580.00    1.30145   0.90680    0.000
 4581.00    1.25956   0.91828    0.000
 4582.00    1.20718   0.92203    0.000
 4583.00    1.21903   0.91615    0.000
 4584.00    1.23070   0.90539    0.000
 4585.00    1.21084   0.89673    0.000
 4586.00    1.17810   0.89365    0.000
 4587.00    0.92014   0.89483    0.000
 4588.00    0.70624   0.89798    0.000
 4589.00    0.96370   0.90205    0.000
 4590.00    1.17657   0.90583    0.000
 4591.00    1.05244   0.90708    0.000
 4592.00    0.92273   0.90379    0.000
 4593.00    0.76094   0.89768    0.000
 4594.00    0.66892   0.89406    0.000
 4595.00    0.89565   0.89570    0.000
 4596.00    1.07190   0.90009    0.000
 4597.00    1.05928   0.90375    0.000
 4598.00    1.07218   0.90645    0.000
 4599.00    1.16489   0.91113    0.000
 4600.00    1.20369   0.92042    0.000
 4601.00    1.09937   0.93218    0.000
 4602.00    0.95267   0.93975    0.000
 4603.00    0.70942   0.93875    0.000
 4604.00    0.59497   0.93177    0.000
 4605.00    0.73463   0.92490    0.000
 4606.00    0.85081   0.92217    0.000
 4607.00    0.92663   0.92313    0.000
 4608.00    0.92127   0.92429    0.000
 4609.00    0.79367   0.92364    0.000
 4610.00    0.73641   0.92158    0.000
 4611.00    0.77221   0.91892    0.000
 4612.00    0.82881   0.91845    0.000
 4613.00    0.90965   0.92291    0.000
 4614.00    0.90279   0.92961    0.000
 4615.00    0.80579   0.93327    0.000
 4616.00    0.80333   0.93238    0.000
 4617.00    0.88659   0.92877    0.000
 4618.00    0.86677   0.92496    0.000
 4619.00    0.76462   0.92255    0.000
 4620.00    0.84755   0.92024    0.000
 4621.00    1.06058   0.91646    0.000
 4622.00    1.13883   0.91431    0.000
 4623.00    1.13399   0.91712    0.000
 4624.00    0.93713   0.92074    0.000
 4625.00    0.63686   0.91878    0.000
 4626.00    0.57400   0.91246    0.000
 4627.00    0.62218   0.90721    0.000
 4628.00    0.68029   0.90378    0.000
 4629.00    0.74241   0.89898    0.000
 4630.00    0.85057   0.89200    0.000
 4631.00    0.97457   0.88625    0.000
 4632.00    0.99144   0.88621    0.000
 4633.00    0.97729   0.89347    0.000
 4634.00    0.97246   0.90422    0.000
 4635.00    0.96985   0.91124    0.000
 4636.00    0.91594   0.90985    0.000
 4637.00    0.85212   0.89971    0.000
 4638.00    0.71439   0.88356    0.000
 4639.00    0.56556   0.86825    0.000
 4640.00    0.53061   0.86216    0.000
 4641.00    0.50818   0.86781    0.000
 4642.00    0.70747   0.87969    0.000
 4643.00    0.92288   0.89037    0.000
 4644.00    0.99375   0.89622    0.000
 4645.00    1.05914   0.89659    0.000
 4646.00    1.09248   0.89105    0.000
 4647.00    1.12173   0.88194    0.000
 4648.00    1.00579   0.87661    0.000
 4649.00    0.90639   0.88216    0.000
 4650.00    1.07743   0.89905    0.000
 4651.00    1.22987   0.92007    0.000
 4652.00    1.19193   0.93480    0.000
 4653.00    1.12757   0.93679    0.000
 4654.00    0.87014   0.92775    0.000
 4655.00    0.66205   0.91495    0.000
 4656.00    0.72983   0.90422    0.000
 4657.00    0.77864   0.89409    0.000
 4658.00    0.74279   0.87780    0.000
 4659.00    0.68948   0.85437    0.000
 4660.00    0.57225   0.83523    0.000
 4661.00    0.54495   0.83365    0.000
 4662.00    0.79356   0.84994    0.000
 4663.00    0.99895   0.87210    0.000
 4664.00    1.09168   0.88798    0.000
 4665.00    1.07158   0.89381    0.000
 4666.00    0.79861   0.89409    0.000
 4667.00    0.72036   0.89576    0.000
 4668.00    1.02024   0.90120    0.000
 4669.00    1.16953   0.90582    0.000
 4670.00    1.06376   0.90326    0.000
 4671.00    0.97169   0.89293    0.000
 4672.00    0.89995   0.88048    0.000
 4673.00    0.90234   0.87185    0.000
 4674.00    1.00142   0.87026    0.000
 4675.00    1.01429   0.87591    0.000
 4676.00    0.92810   0.88511    0.000
 4677.00    0.79371   0.89204    0.000
 4678.00    0.61048   0.89386    0.000
 4679.00    0.54476   0.89244    0.000
 4680.00    0.58406   0.89112    0.000
 4681.00    0.72320   0.89091    0.000
 4682.00    0.94096   0.89013    0.000
 4683.00    0.97976   0.88828    0.000
 4684.00    0.89458   0.88865    0.000
 4685.00    0.79622   0.89404    0.000
 4686.00    0.68986   0.90283    0.000
 4687.00    0.53146   0.91119    0.000
 4688.00    0.34546   0.91526    0.000
 4689.00    0.49431   0.91121    0.000
 4690.00    0.79725   0.89875    0.000
 4691.00    0.87029   0.88441    0.000
 4692.00    0.85224   0.87545    0.000
 4693.00    0.81294   0.87076    0.000
 4694.00    0.76646   0.86448    0.000
 4695.00    0.83771   0.85740    0.000
 4696.00    0.94237   0.85687    0.000
 4697.00    0.97364   0.86431    0.000
 4698.00    0.98774   0.87086    0.000
 4699.00    0.88686   0.86863    0.000
 4700.00    0.76436   0.86039    0.000
 4701.00    0.71142   0.85529    0.000
 4702.00    0.66861   0.85979    0.000
 4703.00    0.70900   0.87272    0.000
 4704.00    0.75819   0.88552    0.000
 4705.00    0.89562   0.88926    0.000
 4706.00    1.03911   0.88391    0.000
 4707.00    1.13791   0.87852    0.000
 4708.00    1.23519   0.88146    0.000
 4709.00    0.88369   0.89196    0.000
 4710.00    0.54559   0.90293    0.000
 4711.00    0.66577   0.91004    0.000
 4712.00    0.78561   0.91327    0.000
 4713.00    0.90016   0.91286    0.000
 4714.00    0.98157   0.90967    0.000
 4715.00    0.73790   0.90751    0.000
 4716.00    0.54668   0.90946    0.000
 4717.00    0.72635   0.91203    0.000
 4718.00    0.86466   0.90730    0.000
 4719.00    0.77793   0.89222    0.000
 4720.00    0.72628   0.87373    0.000
 4721.00    0.82750   0.86199    0.000
 4722.00    0.89881   0.85988    0.000
 4723.00    0.86283   0.86337    0.000
 4724.00    0.82913   0.86897    0.000
 4725.00    0.80231   0.87547    0.000
 4726.00    0.80137   0.88126    0.000
 4727.00    0.86676   0.88378    0.000
 4728.00    0.91335   0.88170    0.000
 4729.00    0.91850   0.87854    0.000
 4730.00    0.90337   0.87992    0.000
 4731.00    0.84945   0.88487    0.000
 4732.00    0.83675   0.88722    0.000
 4733.00    0.89281   0.88581    0.000
 4734.00    0.91472   0.88549    0.000
 4735.00    0.88669   0.88885    0.000
 4736.00    0.92825   0.89307    0.000
 4737.00    1.05929   0.89547    0.000
 4738.00    1.10346   0.89743    0.000
 4739.00    1.04923   0.90024    0.000
 4740.00    0.98302   0.90236    0.000
 4741.00    0.90485   0.90293    0.000
 4742.00    0.86830   0.90280    0.000
 4743.00    0.86841   0.90143    0.000
 4744.00    0.94374   0.89685    0.000
 4745.00    1.07744   0.88931    0.000
 4746.00    1.02453   0.88169    0.000
 4747.00    0.84423   0.87638    0.000
 4748.00    0.91962   0.87364    0.000
 4749.00    1.14798   0.87287    0.000
 4750.00    1.14114   0.87406    0.000
 4751.00    1.01153   0.87670    0.000
 4752.00    0.89837   0.87774    0.000
 4753.00    0.79265   0.87259    0.000
 4754.00    0.80318   0.86056    0.000
 4755.00    0.85897   0.84729    0.000
 4756.00    0.83976   0.83855    0.000
 4757.00    0.79571   0.83510    0.000
 4758.00    0.85322   0.83579    0.000
 4759.00    0.93897   0.84101    0.000
 4760.00    0.95487   0.85053    0.000
 4761.00    0.95480   0.86102    0.011
 4762.00    0.89670   0.86715    0.011
 4763.00    0.82798   0.86621    0.011
 4764.00    0.83412   0.86228    0.010
 4765.00    0.85081   0.86288    0.010
 4766.00    1.06891   0.87006    0.010
 4767.00    1.30744   0.87839    0.010
 4768.00    0.92089   0.88262    0.010
 4769.00    0.49394   0.88261    0.010
 4770.00    0.60289   0.87987    0.010
 4771.00    0.72843   0.87505    0.010
 4772.00    1.03804   0.86975    0.010
 4773.00    1.33706   0.86549    0.010
 4774.00    1.32941   0.86159    0.011
 4775.00    1.30542   0.85764    0.011
 4776.00    1.04539   0.85526    0.010
 4777.00    0.80155   0.85419    0.010
 4778.00    0.71009   0.85176    0.010
 4779.00    0.63699   0.84829    0.010
 4780.00    0.68967   0.84660    0.010
 4781.00    0.75684   0.84753    0.010
 4782.00    0.90080   0.85096    0.010
 4783.00    1.02650   0.85712    0.010
 4784.00    1.07444   0.86565    0.010
 4785.00    1.09797   0.87598    0.010
 4786.00    1.03571   0.88669    0.010
 4787.00    0.94046   0.89412    0.010
 4788.00    0.74772   0.89454    0.010
 4789.00    0.71122   0.88753    0.010
 4790.00    1.06814   0.87638    0.010
 4791.00    1.26534   0.86648    0.010
 4792.00    1.11619   0.86306    0.010
 4793.00    1.07614   0.86763    0.010
 4794.00    1.24142   0.87603    0.010
 4795.00    1.28515   0.88110    0.010
 4796.00    1.12913   0.87858    0.010
 4797.00    1.05322   0.87074    0.010
 4798.00    1.09273   0.86328    0.010
 4799.00    1.04655   0.85949    0.010
 4800.00    0.89176   0.85923    0.010
 4801.00    0.89624   0.86152    0.010
 4802.00    1.07860   0.86486    0.010
 4803.00    1.07758   0.86745    0.010
 4804.00    0.89593   0.86892    0.010
 4805.00    0.87667   0.87024    0.010
 4806.00    0.99848   0.87221    0.010
 4807.00    1.00537   0.87501    0.010
 4808.00    0.92432   0.87846    0.010
 4809.00    0.83870   0.88198    0.010
 4810.00    0.75002   0.88463    0.010
 4811.00    0.69277   0.88548    0.010
 4812.00    0.65405   0.88380    0.010
 4813.00    0.86516   0.87848    0.010
 4814.00    1.20464   0.86824    0.010
 4815.00    1.26125   0.85503    0.010
 4816.00    1.19192   0.84611    0.010
 4817.00    1.26074   0.84721    0.010
 4818.00    1.38241   0.85446    0.010
 4819.00    1.23927   0.85898    0.010
 4820.00    1.01003   0.85739    0.010
 4821.00    0.96376   0.85300    0.010
 4822.00    0.96731   0.84901    0.010
 4823.00    1.03907   0.84536    0.010
 4824.00    1.12606   0.84270    0.010
 4825.00    1.09726   0.84400    0.010
 4826.00    1.04782   0.84946    0.010
 4827.00    0.90212   0.85484    0.010
 4828.00    0.74332   0.85664    0.010
 4829.00    0.63015   0.85452    0.010
 4830.00    0.52141   0.84878    0.010
 4831.00    0.67817   0.84040    0.010
 4832.00    0.85102   0.83290    0.010
 4833.00    0.96495   0.82956    0.010
 4834.00    1.07555   0.82940    0.010
 4835.00    0.86747   0.83013    0.010
 4836.00    0.67003   0.83264    0.010
 4837.00    0.75027   0.83768    0.010
 4838.00    0.82510   0.84119    0.009
 4839.00    0.82609   0.83807    0.009
 4840.00    0.83485   0.82943    0.010
 4841.00    0.91369   0.82180    0.010
 4842.00    0.98127   0.81893    0.010
 4843.00    0.97412   0.81797    0.009
 4844.00    0.94624   0.81427    0.009
 4845.00    0.81143   0.80514    0.009
 4846.00    0.72808   0.78948    0.009
 4847.00    0.85887   0.77029    0.009
 4848.00    0.94134   0.75442    0.000
 4849.00    0.85740   0.74243    0.000
 4850.00    0.82740   0.72284    0.000
 4851.00    0.95380   0.68344    0.000
 4852.00    1.00247   0.62873    0.000
 4853.00    0.85877   0.58373    0.000
 4854.00    0.72034   0.57568    0.000
 4855.00    0.59314   0.60763    0.000
 4856.00    0.62799   0.65718    0.000
 4857.00    0.96312   0.70173    0.000
 4858.00    1.17437   0.73399    0.000
 4859.00    1.18510   0.75571    0.000
 4860.00    1.19888   0.76891    0.000
 4861.00    1.21700   0.77323    0.000
 4862.00    1.23966   0.76788    0.000
 4863.00    1.26797   0.75782    0.000
 4864.00    1.12991   0.75456    0.000
 4865.00    0.80866   0.76453    0.000
 4866.00    0.77555   0.78150    0.000
 4867.00    1.02231   0.79563    0.000
 4868.00    1.19793   0.80434    0.000
 4869.00    1.31264   0.81073    0.000
 4870.00    1.28323   0.81790    0.000
 4871.00    1.14510   0.82589    0.000
 4872.00    1.04659   0.83075    0.000
 4873.00    0.97433   0.82941    0.000
 4874.00    1.03889   0.82532    0.000
 4875.00    1.18285   0.82304    0.010
 4876.00    1.06235   0.82110    0.010
 4877.00    0.80807   0.81655    0.010
 4878.00    0.74895   0.81156    0.010
 4879.00    0.77528   0.80949    0.010
 4880.00    0.80169   0.80835    0.010
 4881.00    0.82813   0.80280    0.010
 4882.00    1.01956   0.79264    0.010
 4883.00    1.26361   0.78711    0.010
 4884.00    1.21755   0.79727    0.010
 4885.00    1.09417   0.82283    0.010
 4886.00    1.11284   0.85188    0.010
 4887.00    1.16252   0.87339    0.010
 4888.00    0.97819   0.88424    0.010
 4889.00    0.75331   0.88590    0.010
 4890.00    0.77872   0.88018    0.010
 4891.00    0.83709   0.86961    0.010
 4892.00    0.73994   0.85893    0.010
 4893.00    0.62834   0.85196    0.010
 4894.00    0.97329   0.84772    0.010
 4895.00    1.34412   0.84478    0.010
 4896.00    1.12362   0.84614    0.010
 4897.00    0.89477   0.85407    0.010
 4898.00    1.22775   0.86354    0.010
 4899.00    1.53825   0.86611    0.010
 4900.00    1.31496   0.85847    0.010
 4901.00    1.08818   0.84466    0.010
 4902.00    0.81639   0.83278    0.010
 4903.00    0.58720   0.82965    0.010
 4904.00    0.72837   0.83562    0.010
 4905.00    0.84592   0.84571    0.010
 4906.00    0.81151   0.85557    0.010
 4907.00    0.80453   0.86250    0.010
 4908.00    0.93542   0.86169    0.010
 4909.00    1.02845   0.84741    0.010
 4910.00    0.96734   0.81980    0.010
 4911.00    0.97487   0.78829    0.010
 4912.00    1.21399   0.76693    0.010
 4913.00    1.35282   0.76475    0.010
 4914.00    1.20615   0.77851    0.010
 4915.00    1.01117   0.79593    0.010
 4916.00    0.69870   0.80895    0.010
 4917.00    0.65909   0.82013    0.010
 4918.00    1.19229   0.83424    0.010
 4919.00    1.44148   0.84991    0.010
 4920.00    1.17249   0.86291    0.010
 4921.00    1.01743   0.87131    0.010
 4922.00    1.04407   0.87422    0.010
 4923.00    1.05941   0.86974    0.010
 4924.00    1.05893   0.85656    0.010
 4925.00    0.99556   0.83871    0.010
 4926.00    0.85473   0.82612    0.010
 4927.00    0.80423   0.82433    0.010
 4928.00    0.85180   0.82627    0.010
 4929.00    0.97205   0.82146    0.010
 4930.00    1.16189   0.81085    0.010
 4931.00    1.14056   0.80612    0.010
 4932.00    0.94091   0.81515    0.010
 4933.00    0.87361   0.83325    0.010
 4934.00    0.90472   0.85018    0.010
 4935.00    1.01558   0.86068    0.010
 4936.00    1.17853   0.86458    0.010
 4937.00    1.08022   0.86346    0.010
 4938.00    0.83258   0.86135    0.009
 4939.00    0.67923   0.86283    0.009
 4940.00    0.57282   0.86807    0.000
 4941.00    0.64520   0.87360    0.000
 4942.00    0.79457   0.87686    0.000
 4943.00    0.82813   0.87697    0.000
 4944.00    0.81894   0.87354    0.000
 4945.00    0.89819   0.86685    0.000
 4946.00    1.00511   0.85623    0.000
 4947.00    1.08420   0.83789    0.000
 4948.00    1.15603   0.81010    0.000
 4949.00    1.00664   0.78296    0.000
 4950.00    0.81015   0.77471    0.000
 4951.00    0.90865   0.79130    0.000
 4952.00    1.05686   0.81805    0.000
 4953.00    1.00255   0.83725    0.000
 4954.00    0.92248   0.84410    0.000
 4955.00    0.86921   0.84260    0.000
 4956.00    0.81831   0.83601    0.000
 4957.00    0.88079   0.82657    0.000
 4958.00    0.94926   0.81811    0.000
 4959.00    0.87038   0.81369    0.000
 4960.00    0.78983   0.81340    0.000
 4961.00    0.80023   0.81608    0.000
 4962.00    0.81838   0.82115    0.000
 4963.00    1.00500   0.82814    0.000
 4964.00    1.17754   0.83583    0.000
 4965.00    1.17722   0.84255    0.000
 4966.00    1.17005   0.84691    0.000
 4967.00    1.10560   0.84769    0.000
 4968.00    1.04903   0.84419    0.000
 4969.00    1.04168   0.83682    0.000
 4970.00    1.01216   0.82723    0.000
 4971.00    0.87389   0.81677    0.000
 4972.00    0.79327   0.80418    0.000
 4973.00    0.94214   0.78731    0.000
 4974.00    1.03511   0.76931    0.000
 4975.00    0.94319   0.75884    0.000
 4976.00    0.86616   0.76179    0.000
 4977.00    0.83078   0.77613    0.000
 4978.00    0.79926   0.79509    0.000
 4979.00    0.77698   0.81125    0.000
 4980.00    0.78093   0.81892    0.000
 4981.00    0.83910   0.81744    0.000
 4982.00    0.87553   0.81199    0.000
 4983.00    0.87293   0.80903    0.000
 4984.00    0.87606   0.81051    0.000
 4985.00    0.88820   0.81373    0.000
 4986.00    0.85954   0.81689    0.000
 4987.00    0.77461   0.82063    0.000
 4988.00    0.76824   0.82369    0.000
 4989.00    0.85727   0.82236    0.000
 4990.00    0.83397   0.81434    0.000
 4991.00    0.69044   0.80146    0.000
 4992.00    0.67820   0.78944    0.000
 4993.00    0.78990   0.78364    0.000
 4994.00    0.86926   0.78427    0.000
 4995.00    0.92169   0.78628    0.000
 4996.00    0.85507   0.78348    0.000
 4997.00    0.70122   0.77489    0.000
 4998.00    0.67597   0.76790    0.000
 4999.00    0.73348   0.77124    0.000
 5000.00    0.64860   0.78403    0.000
 5001.00    0.48355   0.79604    0.000
 5002.00    0.52653   0.79805    0.000
 5003.00    0.67142   0.78827    0.000
 5004.00    0.81526   0.77130    0.000
 5005.00    0.95864   0.75500    0.000
 5006.00    0.85311   0.74675    0.000
 5007.00    0.65734   0.74864    0.000
 5008.00    0.61727   0.75574    0.000
 5009.00    0.62498   0.76186    0.000
 5010.00    0.68150   0.76656    0.000
 5011.00    0.75048   0.77278    0.000
 5012.00    0.66528   0.77937    0.000
 5013.00    0.54804   0.78233    0.000
 5014.00    0.51516   0.78238    0.000
 5015.00    0.49609   0.78460    0.000
 5016.00    0.50003   0.79018    0.000
 5017.00    0.50681   0.79447    0.000
 5018.00    0.60117   0.79397    0.000
 5019.00    0.70295   0.79139    0.000
 5020.00    0.83009   0.79257    0.000
 5021.00    0.95847   0.79940    0.000
 5022.00    0.92775   0.80866    0.000
 5023.00    0.89582   0.81730    0.000
 5024.00    0.93996   0.82379    0.000
 5025.00    0.98061   0.82463    0.000
 5026.00    0.95100   0.81581    0.000
 5027.00    0.91597   0.79965    0.000
 5028.00    0.81745   0.78496    0.000
 5029.00    0.74405   0.77613    0.009
 5030.00    0.87344   0.76716    0.009
 5031.00    1.00156   0.75112    0.009
 5032.00    1.12192   0.73207    0.009
 5033.00    1.19747   0.72386    0.009
 5034.00    1.05875   0.73607    0.009
 5035.00    0.95082   0.76338    0.009
 5036.00    0.96277   0.79215    0.009
 5037.00    0.99137   0.81288    0.009
 5038.00    1.07397   0.82166    0.009
 5039.00    1.09003   0.81716    0.009
 5040.00    0.92341   0.80265    0.009
 5041.00    0.78598   0.78648    0.009
 5042.00    0.71719   0.77645    0.009
 5043.00    0.71500   0.77535    0.009
 5044.00    0.84819   0.78219    0.009
 5045.00    1.01461   0.79388    0.009
 5046.00    1.23984   0.80573    0.009
 5047.00    1.30839   0.81399    0.009
 5048.00    1.13441   0.81827    0.009
 5049.00    0.98781   0.82048    0.009
 5050.00    0.87845   0.82191    0.009
 5051.00    0.85182   0.82299    0.009
 5052.00    0.92423   0.82421    0.009
 5053.00    1.03624   0.82454    0.009
 5054.00    1.19007   0.81985    0.009
 5055.00    1.19282   0.80679    0.009
 5056.00    1.05494   0.78913    0.009
 5057.00    1.00998   0.77658    0.009
 5058.00    1.04128   0.77446    0.009
 5059.00    1.08114   0.77850    0.009
 5060.00    1.12718   0.78291    0.009
 5061.00    1.11446   0.78667    0.009
 5062.00    1.06448   0.78916    0.009
 5063.00    1.00409   0.78828    0.009
 5064.00    0.93793   0.78547    0.009
 5065.00    0.75617   0.78491    0.009
 5066.00    0.51867   0.78696    0.009
 5067.00    0.59906   0.78849    0.009
 5068.00    0.81179   0.78751    0.009
 5069.00    0.90035   0.78198    0.009
 5070.00    0.94471   0.76923    0.009
 5071.00    0.93530   0.75240    0.009
 5072.00    0.90973   0.74134    0.009
 5073.00    0.64537   0.74167    0.009
 5074.00    0.32138   0.74930    0.009
 5075.00    0.56292   0.75868    0.009
 5076.00    0.91906   0.76904    0.009
 5077.00    0.92065   0.78007    0.009
 5078.00    0.86589   0.78869    0.009
 5079.00    0.85833   0.79293    0.009
 5080.00    0.85636   0.79431    0.009
 5081.00    0.79561   0.79522    0.009
 5082.00    0.73014   0.79701    0.009
 5083.00    0.76195   0.80065    0.009
 5084.00    0.79814   0.80599    0.009
 5085.00    0.95197   0.80994    0.009
 5086.00    1.10356   0.80823    0.009
 5087.00    1.07380   0.79954    0.009
 5088.00    1.03817   0.78635    0.009
 5089.00    0.89337   0.77218    0.009
 5090.00    0.76925   0.76077    0.009
 5091.00    0.87538   0.75685    0.009
 5092.00    0.94827   0.76272    0.009
 5093.00    0.76220   0.77386    0.009
 5094.00    0.62353   0.78234    0.009
 5095.00    0.76411   0.78414    0.009
 5096.00    0.90727   0.78039    0.009
 5097.00    1.06243   0.77352    0.009
 5098.00    1.18075   0.76529    0.009
 5099.00    1.15867   0.75813    0.009
 5100.00    1.03677   0.75473    0.009
 5101.00    0.59732   0.75567    0.009
 5102.00    0.34144   0.76020    0.009
 5103.00    0.58051   0.76777    0.009
 5104.00    0.77288   0.77671    0.009
 5105.00    0.85726   0.78451    0.009
 5106.00    0.85787   0.79036    0.009
 5107.00    0.69091   0.79533    0.009
 5108.00    0.63066   0.80026    0.009
 5109.00    0.75637   0.80429    0.009
 5110.00    0.85133   0.80491    0.009
 5111.00    0.89936   0.80028    0.009
 5112.00    0.91707   0.79095    0.009
 5113.00    0.89415   0.77863    0.009
 5114.00    0.80654   0.76469    0.009
 5115.00    0.64258   0.75152    0.009
 5116.00    0.66551   0.74315    0.009
 5117.00    0.88290   0.74152    0.009
 5118.00    0.93624   0.74382    0.009
 5119.00    0.83901   0.74587    0.009
 5120.00    0.81130   0.74649    0.009
 5121.00    0.83982   0.74776    0.009
 5122.00    0.84982   0.75203    0.009
 5123.00    0.84664   0.75904    0.009
 5124.00    0.77568   0.76633    0.009
 5125.00    0.66238   0.77234    0.009
 5126.00    0.66471   0.77702    0.009
 5127.00    0.73015   0.77867    0.009
 5128.00    0.71482   0.77419    0.009
 5129.00    0.66116   0.76379    0.009
 5130.00    0.70682   0.75255    0.009
 5131.00    0.79313   0.74621    0.009
 5132.00    0.81406   0.74554    0.009
 5133.00    0.81213   0.74591    0.009
 5134.00    0.85929   0.74472    0.009
 5135.00    0.92094   0.74487    0.009
 5136.00    0.92896   0.74759    0.009
 5137.00    0.92389   0.74925    0.009
 5138.00    0.97599   0.74814    0.009
 5139.00    1.03938   0.74736    0.009
 5140.00    1.02611   0.74901    0.009
 5141.00    1.00103   0.75028    0.009
 5142.00    0.82539   0.74730    0.009
 5143.00    0.63262   0.74082    0.009
 5144.00    0.59570   0.73547    0.009
 5145.00    0.57067   0.73514    0.009
 5146.00    0.51937   0.74114    0.009
 5147.00    0.46698   0.75281    0.009
 5148.00    0.57483   0.76737    0.009
 5149.00    0.68060   0.78048    0.009
 5150.00    0.64343   0.78883    0.009
 5151.00    0.61633   0.79200    0.009
 5152.00    0.76381   0.79103    0.009
 5153.00    0.90398   0.78638    0.009
 5154.00    0.96647   0.77813    0.009
 5155.00    1.01198   0.76504    0.009
 5156.00    0.92970   0.74253    0.009
 5157.00    0.83414   0.70681    0.009
 5158.00    0.66258   0.66423    0.009
 5159.00    0.53246   0.63178    0.009
 5160.00    0.59113   0.62285    0.009
 5161.00    0.62358   0.63178    0.009
 5162.00    0.55820   0.63752    0.009
 5163.00    0.50993   0.62761    0.009
 5164.00    0.51504   0.61482    0.009
 5165.00    0.50829   0.62247    0.009
 5166.00    0.47015   0.65577    0.009
 5167.00    0.50132   0.69736    0.009
 5168.00    0.69012   0.72871    0.009
 5169.00    0.82352   0.74477    0.009
 5170.00    0.84784   0.74867    0.009
 5171.00    0.80315   0.74216    0.009
 5172.00    0.64000   0.72304    0.009
 5173.00    0.59257   0.68931    0.009
 5174.00    0.71905   0.64788    0.009
 5175.00    0.74056   0.61891    0.009
 5176.00    0.62343   0.62247    0.009
 5177.00    0.59897   0.65741    0.009
 5178.00    0.68231   0.70118    0.009
 5179.00    0.70158   0.73281    0.009
 5180.00    0.65512   0.74798    0.009
 5181.00    0.68938   0.75158    0.009
 5182.00    0.79669   0.74607    0.009
 5183.00    0.77394   0.73371    0.009
 5184.00    0.64747   0.72252    0.009
 5185.00    0.62233   0.72031    0.009
 5186.00    0.66828   0.72665    0.009
 5187.00    0.71990   0.73653    0.009
 5188.00    0.77501   0.74730    0.008
 5189.00    0.75795   0.75809    0.008
 5190.00    0.70208   0.76753    0.000
 5191.00    0.70049   0.77376    0.000
 5192.00    0.72422   0.77502    0.000
 5193.00    0.73202   0.77027    0.000
 5194.00    0.73341   0.75952    0.000
 5195.00    0.81055   0.74335    0.000
 5196.00    0.91370   0.72411    0.000
 5197.00    0.88366   0.70682    0.000
 5198.00    0.81513   0.69552    0.000
 5199.00    0.71865   0.69014    0.000
 5200.00    0.61550   0.69031    0.000
 5201.00    0.65620   0.69861    0.000
 5202.00    0.72460   0.71677    0.000
 5203.00    0.81756   0.74113    0.000
 5204.00    0.91418   0.76370    0.000
 5205.00    0.86434   0.77648    0.000
 5206.00    0.79846   0.77662    0.000
 5207.00    0.71768   0.76915    0.000
 5208.00    0.63582   0.76358    0.000
 5209.00    0.59402   0.76613    0.000
 5210.00    0.55372   0.77564    0.000
 5211.00    0.62548   0.78671    0.009
 5212.00    0.69904   0.79461    0.009
 5213.00    0.81896   0.79622    0.009
 5214.00    0.92325   0.78917    0.009
 5215.00    0.77430   0.77246    0.009
 5216.00    0.63715   0.74830    0.009
 5217.00    0.62019   0.72326    0.009
 5218.00    0.64731   0.70784    0.009
 5219.00    0.99525   0.71071    0.009
 5220.00    1.24281   0.73027    0.009
 5221.00    0.93120   0.75447    0.009
 5222.00    0.68672   0.77062    0.009
 5223.00    0.74086   0.77348    0.009
 5224.00    0.78999   0.76648    0.009
 5225.00    0.82078   0.75878    0.009
 5226.00    0.86061   0.75886    0.009
 5227.00    0.92812   0.76825    0.009
 5228.00    0.92605   0.78177    0.009
 5229.00    0.74292   0.79284    0.009
 5230.00    0.65037   0.79835    0.009
 5231.00    0.76037   0.79938    0.009
 5232.00    0.88757   0.79853    0.009
 5233.00    1.04814   0.79747    0.009
 5234.00    1.08344   0.79718    0.009
 5235.00    0.90700   0.79774    0.009
 5236.00    0.82538   0.79634    0.009
 5237.00    0.88420   0.78884    0.009
 5238.00    0.89559   0.77581    0.009
 5239.00    0.84523   0.76352    0.009
 5240.00    0.84383   0.75638    0.009
 5241.00    0.89861   0.75307    0.009
 5242.00    0.85125   0.75206    0.009
 5243.00    0.70058   0.75432    0.008
 5244.00    0.52982   0.75923    0.008
 5245.00    0.34114   0.76357    0.008
 5246.00    0.44691   0.76678    0.009
 5247.00    0.78415   0.77269    0.009
 5248.00    0.96272   0.78371    0.009
 5249.00    1.03159   0.79597    0.009
 5250.00    1.01666   0.80230    0.009
 5251.00    0.95094   0.79793    0.009
 5252.00    0.81866   0.78251    0.009
 5253.00    0.65116   0.75927    0.009
 5254.00    0.63896   0.73371    0.009
 5255.00    0.69808   0.71136    0.009
 5256.00    0.77962   0.69636    0.009
 5257.00    0.87002   0.69106    0.009
 5258.00    0.81898   0.69327    0.009
 5259.00    0.72028   0.69404    0.009
 5260.00    0.71984   0.68617    0.009
 5261.00    0.74721   0.67659    0.009
 5262.00    0.67045   0.68021    0.009
 5263.00    0.56938   0.70018    0.009
 5264.00    0.57108   0.72416    0.009
 5265.00    0.59206   0.74021    0.009
 5266.00    0.50635   0.74793    0.009
 5267.00    0.40518   0.75490    0.009
 5268.00    0.45402   0.76711    0.009
 5269.00    0.51865   0.78250    0.009
 5270.00    0.68931   0.79301    0.009
 5271.00    0.86719   0.79278    0.009
 5272.00    0.81336   0.78279    0.009
 5273.00    0.75176   0.76882    0.009
 5274.00    0.78341   0.75786    0.009
 5275.00    0.81483   0.75621    0.009
 5276.00    0.83534   0.76628    0.009
 5277.00    0.85599   0.78337    0.009
 5278.00    0.87894   0.79851    0.009
 5279.00    0.89433   0.80636    0.009
 5280.00    0.83607   0.80854    0.009
 5281.00    0.78101   0.80911    0.009
 5282.00    0.74852   0.80938    0.009
 5283.00    0.72301   0.80832    0.009
 5284.00    0.73533   0.80547    0.009
 5285.00    0.76140   0.80073    0.009
 5286.00    0.84715   0.79210    0.009
 5287.00    0.89972   0.77701    0.009
 5288.00    0.83351   0.75764    0.009
 5289.00    0.78139   0.74249    0.009
 5290.00    0.77159   0.73913    0.009
 5291.00    0.77694   0.74606    0.009
 5292.00    0.82103   0.75582    0.009
 5293.00    0.85796   0.76464    0.009
 5294.00    0.87917   0.77455    0.009
 5295.00    0.88417   0.78663    0.009
 5296.00    0.85827   0.79698    0.009
 5297.00    0.82972   0.80117    0.009
 5298.00    0.79679   0.79982    0.009
 5299.00    0.76495   0.79793    0.009
 5300.00    0.73470   0.79911    0.009
 5301.00    0.67240   0.80236    0.009
 5302.00    0.56894   0.80442    0.009
 5303.00    0.52283   0.80372    0.008
 5304.00    0.54155   0.80098    0.008
 5305.00    0.60408   0.79719    0.008
 5306.00    0.71029   0.79237    0.008
 5307.00    0.73333   0.78682    0.008
 5308.00    0.68322   0.78281    0.008
 5309.00    0.65501   0.78244    0.008
 5310.00    0.64379   0.78449    0.008
 5311.00    0.70272   0.78571    0.008
 5312.00    0.80945   0.78401    0.008
 5313.00    0.77918   0.77883    0.008
 5314.00    0.66709   0.77049    0.008
 5315.00    0.79855   0.76106    0.008
 5316.00    1.05689   0.75275    0.008
 5317.00    0.94936   0.74258    0.008
 5318.00    0.67656   0.72459    0.008
 5319.00    0.54269   0.70260    0.008
 5320.00    0.46281   0.69280    0.008
 5321.00    0.57052   0.70531    0.008
 5322.00    0.74025   0.73135    0.008
 5323.00    0.78877   0.75446    0.008
 5324.00    0.80367   0.76791    0.008
 5325.00    0.77019   0.77553    0.008
 5326.00    0.72569   0.78075    0.008
 5327.00    0.56031   0.78278    0.008
 5328.00    0.37287   0.78077    0.008
 5329.00    0.44396   0.77521    0.008
 5330.00    0.55131   0.76590    0.008
 5331.00    0.53110   0.75429    0.008
 5332.00    0.49802   0.74673    0.008
 5333.00    0.47928   0.74885    0.008
 5334.00    0.46146   0.75826    0.008
 5335.00    0.57485   0.76734    0.008
 5336.00    0.69210   0.77104    0.008
 5337.00    0.79206   0.76999    0.008
 5338.00    0.88192   0.76708    0.008
 5339.00    0.68344   0.76357    0.008
 5340.00    0.51369   0.76101    0.008
 5341.00    0.75606   0.76293    0.008
 5342.00    0.97797   0.77060    0.008
 5343.00    1.00831   0.78052    0.008
 5344.00    1.03227   0.78885    0.008
 5345.00    1.01264   0.79553    0.008
 5346.00    0.93562   0.80186    0.008
 5347.00    0.55562   0.80729    0.008
 5348.00    0.29193   0.81070    0.008
 5349.00    0.52216   0.81203    0.008
 5350.00    0.69862   0.81119    0.008
 5351.00    0.68664   0.80725    0.008
 5352.00    0.66944   0.79969    0.008
 5353.00    0.63687   0.79010    0.008
 5354.00    0.62889   0.78114    0.008
 5355.00    0.68272   0.77415    0.008
 5356.00    0.74262   0.76915    0.008
 5357.00    0.81568   0.76620    0.008
 5358.00    0.88838   0.76438    0.008
 5359.00    0.96039   0.76051    0.008
 5360.00    0.97841   0.75118    0.008
 5361.00    0.90788   0.73708    0.008
 5362.00    0.80111   0.72547    0.008
 5363.00    0.64221   0.72586    0.008
 5364.00    0.65103   0.74068    0.008
 5365.00    0.87203   0.76223    0.008
 5366.00    0.96153   0.78019    0.008
 5367.00    0.90441   0.78991    0.008
 5368.00    0.83999   0.79270   -2.000
 5369.00    0.76840   0.79195   -2.000
 5370.00    0.72938   0.78961   -2.000
 5371.00    0.71859   0.78570   -2.000
 5372.00    0.80142   0.78057   -2.000
 5373.00    0.95578   0.77555   -2.000
 5374.00    0.98438   0.77232   -2.000
 5375.00    0.92855   0.77238   -2.000
 5376.00    0.77716   0.77597   -2.000
 5377.00    0.56956   0.78068   -2.000
 5378.00    0.40046   0.78302   -2.000
 5379.00    0.25110   0.78122   -2.000
 5380.00    0.31898   0.77583   -2.000
 5381.00    0.48337   0.76894   -2.000
 5382.00    0.56434   0.76271   -2.000
 5383.00    0.61345   0.75791    0.008
 5384.00    0.65859   0.75391    0.008
 5385.00    0.70243   0.74977    0.008
 5386.00    0.69885   0.74410    0.008
 5387.00    0.68239   0.73632    0.008
 5388.00    0.56554   0.72967    0.008
 5389.00    0.42633   0.73025    0.008
 5390.00    0.55679   0.73958    0.008
 5391.00    0.73515   0.75140    0.008
 5392.00    0.74607   0.75889    0.008
 5393.00    0.73428   0.75924    0.008
 5394.00    0.75400   0.75120    0.008
 5395.00    0.77677   0.73573    0.008
 5396.00    0.79059   0.71953    0.008
 5397.00    0.80386   0.71161    0.008
 5398.00    0.80684   0.71471    0.008
 5399.00    0.80920   0.72260    0.008
 5400.00    0.75287   0.72745    0.008
 5401.00    0.70215   0.72922    0.008
 5402.00    0.79627   0.73412    0.008
 5403.00    0.88421   0.74474    0.008
 5404.00    0.88832   0.75638    0.008
 5405.00    0.87299   0.76390    0.008
 5406.00    0.68275   0.76761    0.008
 5407.00    0.51444   0.77107    0.008
 5408.00    0.49103   0.77545    0.008
 5409.00    0.45477   0.77834    0.008
 5410.00    0.35238   0.77782    0.008
 5411.00    0.31514   0.77512    0.008
 5412.00    0.54833   0.77255    0.008
 5413.00    0.73233   0.77033    0.008
 5414.00    0.74742   0.76698    0.008
 5415.00    0.75249   0.76310    0.008
 5416.00    0.72860   0.76241    0.008
 5417.00    0.71350   0.76628    0.008
 5418.00    0.72009   0.76922    0.008
 5419.00    0.69060   0.76405    0.008
 5420.00    0.58428   0.75091    0.007
 5421.00    0.57152   0.73841    0.007
 5422.00    0.73179   0.73395    0.008
 5423.00    0.83771   0.73514    0.008
 5424.00    0.85583   0.73470    0.008
 5425.00    0.83207   0.73111    0.008
 5426.00    0.74896   0.72946    0.008
 5427.00    0.73053   0.73465    0.008
 5428.00    0.79277   0.74688    0.008
 5429.00    0.82331   0.76213    0.008
 5430.00    0.81902   0.77564    0.008
 5431.00    0.81027   0.78477    0.008
 5432.00    0.79720   0.78936    0.008
 5433.00    0.74339   0.78999    0.008
 5434.00    0.65476   0.78592    0.008
 5435.00    0.65121   0.77509    0.008
 5436.00    0.71174   0.75728    0.008
 5437.00    0.70694   0.73770    0.008
 5438.00    0.65892   0.72572    0.008
 5439.00    0.67740   0.72742    0.008
 5440.00    0.73440   0.73957    0.008
 5441.00    0.74117   0.75280    0.008
 5442.00    0.72258   0.75999    0.008
 5443.00    0.74228   0.75936    0.008
 5444.00    0.77872   0.75148    0.008
 5445.00    0.67049   0.73837    0.008
 5446.00    0.50800   0.72562    0.008
 5447.00    0.56188   0.72124    0.008
 5448.00    0.68460   0.72881    0.008
 5449.00    0.73272   0.74298    0.008
 5450.00    0.76100   0.75408    0.008
 5451.00    0.88220   0.75666    0.008
 5452.00    1.02362   0.75188    0.008
 5453.00    0.89428   0.74431    0.008
 5454.00    0.71818   0.73881    0.008
 5455.00    0.69265   0.73851    0.008
 5456.00    0.68687   0.74303    0.008
 5457.00    0.70795   0.74923    0.008
 5458.00    0.73152   0.75421    0.007
 5459.00    0.77054   0.75690    0.007
 5460.00    0.81044   0.75703    0.007
 5461.00    0.82191   0.75471    0.007
 5462.00    0.83116   0.75099    0.008
 5463.00    0.67488   0.74685    0.008
 5464.00    0.53179   0.74200    0.007
 5465.00    0.69824   0.73526    0.007
 5466.00    0.84832   0.72626    0.007
 5467.00    0.78797   0.71737    0.007
 5468.00    0.72167   0.71369    0.007
 5469.00    0.60394   0.71840    0.007
 5470.00    0.52743   0.72775    0.007
 5471.00    0.71507   0.73405    0.007
 5472.00    0.85620   0.73462    0.007
 5473.00    0.76412   0.73413    0.007
 5474.00    0.69475   0.73782    0.007
 5475.00    0.71754   0.74548    0.007
 5476.00    0.76874   0.75233    0.008
 5477.00    0.91559   0.75424    0.008
 5478.00    0.97524   0.75162   -2.000
 5479.00    0.78721   0.74858   -2.000
 5480.00    0.67463   0.74850   -2.000
 5481.00    0.74518   0.75112   -2.000
 5482.00    0.77618   0.75402   -2.000
 5483.00    0.72434   0.75558   -2.000
 5484.00    0.64957   0.75579   -2.000
 5485.00    0.53305   0.75509   -2.000
 5486.00    0.69074   0.75334   -2.000
 5487.00    1.28495   0.75021   -2.000
 5488.00    1.70538   0.74680   -2.000
 5489.00    1.88303   0.74539   -2.000
 5490.00    1.75337   0.74614   -2.000
 5491.00    1.24590   0.74612   -2.000
 5492.00    0.74839   0.74343   -2.000
 5493.00    0.26169   0.74018   -2.000
 5494.00    0.26015   0.73903   -2.000
 5495.00    0.72238   0.73879   -2.000
 5496.00    0.92481   0.73665   -2.000
 5497.00    0.90826   0.73316   -2.000
 5498.00    0.86876   0.73220   -2.000
 5499.00    0.81221   0.73564   -2.000
 5500.00    0.79877   0.74023   -2.000
 5501.00    0.81342   0.74072   -2.000
 5502.00    0.81689   0.73518    0.007
 5503.00    0.81397   0.72662    0.007
 5504.00    0.82554   0.72025    0.007
 5505.00    0.84433   0.71976    0.007
 5506.00    0.83219   0.72543    0.007
 5507.00    0.80676   0.73483    0.007
 5508.00    0.74404   0.74510    0.007
 5509.00    0.66758   0.75403    0.007
 5510.00    0.61732   0.76011    0.007
 5511.00    0.57524   0.76273    0.007
 5512.00    0.63449   0.76264    0.007
 5513.00    0.72011   0.76134    0.007
 5514.00    0.76763   0.75953    0.007
 5515.00    0.80705   0.75626    0.007
 5516.00    0.70103   0.74975    0.007
 5517.00    0.57060   0.73946    0.007
 5518.00    0.55653   0.72811    0.007
 5519.00    0.55719   0.72130    0.007
 5520.00    0.63716   0.72316    0.007
 5521.00    0.72412   0.73216    0.007
 5522.00    0.79524   0.74207    0.007
 5523.00    0.86553   0.74745    0.007
 5524.00    0.76747   0.74739    0.007
 5525.00    0.66785   0.74465    0.007
 5526.00    0.68802   0.74259    0.007
 5527.00    0.70771   0.74298    0.007
 5528.00    0.71708   0.74558    0.007
 5529.00    0.72791   0.74934    0.007
 5530.00    0.75664   0.75350    0.007
 5531.00    0.78539   0.75718    0.007
 5532.00    0.81435   0.75874    0.007
 5533.00    0.83706   0.75705    0.007
 5534.00    0.82081   0.75316    0.007
 5535.00    0.82531   0.74963    0.007
 5536.00    0.93126   0.74835    0.007
 5537.00    0.98951   0.74978    0.007
 5538.00    0.85841   0.75338    0.008
 5539.00    0.77327   0.75796    0.008
 5540.00    0.83976   0.76184    0.007
 5541.00    0.89623   0.76355    0.007
 5542.00    0.92472   0.76234    0.007
 5543.00    0.94565   0.75835    0.007
 5544.00    0.94853   0.75286    0.007
 5545.00    0.94880   0.74815    0.007
 5546.00    0.94370   0.74602    0.007
 5547.00    0.93290   0.74632    0.007
 5548.00    0.91189   0.74756    0.007
 5549.00    0.89807   0.74861    0.007
 5550.00    0.89553   0.74907    0.007
 5551.00    0.86818   0.74855    0.007
 5552.00    0.80667   0.74634    0.007
 5553.00    0.77123   0.74240    0.007
 5554.00    0.76739   0.73800    0.007
 5555.00    0.74221   0.73452    0.007
 5556.00    0.69421   0.73246    0.007
 5557.00    0.69136   0.73147    0.007
 5558.00    0.73105   0.73073    0.007
 5559.00    0.81011   0.72964    0.007
 5560.00    0.92186   0.72862    0.007
 5561.00    0.86764   0.72824    0.007
 5562.00    0.69200   0.72785    0.007
 5563.00    0.57065   0.72723    0.007
 5564.00    0.48415   0.72779    0.007
 5565.00    0.54375   0.73038    0.007
 5566.00    0.68543   0.73400    0.007
 5567.00    0.76200   0.73748    0.007
 5568.00    0.80672   0.74037    0.007
 5569.00    0.74213   0.74264    0.007
 5570.00    0.63135   0.74395    0.007
 5571.00    0.54062   0.74344    0.007
 5572.00    0.45715   0.74116    0.007
 5573.00    0.49740   0.73845    0.007
 5574.00    0.57551   0.73592    0.007
 5575.00    0.64843   0.73199    0.007
 5576.00    0.72004   0.72418    0.007
 5577.00    0.67441   0.71219    0.007
 5578.00    0.60450   0.69950    0.007
 5579.00    0.61288   0.69119    0.007
 5580.00    0.63403   0.69061    0.007
 5581.00    0.68118   0.69694    0.007
 5582.00    0.73152   0.70570    0.008
 5583.00    0.75982   0.71224    0.007
 5584.00    0.78628   0.71527    0.007
 5585.00    0.73778   0.71752    0.007
 5586.00    0.68566   0.72140    0.007
 5587.00    0.60358   0.72473    0.007
 5588.00    0.52407   0.72367    0.007
 5589.00    0.62382   0.71819    0.007
 5590.00    0.71897   0.71158    0.007
 5591.00    0.72274   0.70614    0.007
 5592.00    0.72438   0.70239    0.007
 5593.00    0.70128   0.70174    0.007
 5594.00    0.68738   0.70691    0.007
 5595.00    0.74738   0.71831    0.007
 5596.00    0.80862   0.73233    0.007
 5597.00    0.87735   0.74406    0.007
 5598.00    0.90649   0.75088    0.007
 5599.00    0.74683   0.75332    0.007
 5600.00    0.62549   0.75344    0.007
 5601.00    0.65298   0.75299    0.007
 5602.00    0.66494   0.75204    0.007
 5603.00    0.62669   0.74847    0.007
 5604.00    0.59515   0.73923    0.007
 5605.00    0.58196   0.72437    0.007
 5606.00    0.60789   0.71027    0.007
 5607.00    0.72557   0.70483    0.007
 5608.00    0.79116   0.70915    0.007
 5609.00    0.75108   0.71759    0.007
 5610.00    0.68188   0.72488    0.007
 5611.00    0.56126   0.72971    0.007
 5612.00    0.47650   0.73226    0.007
 5613.00    0.44714   0.73145    0.007
 5614.00    0.42705   0.72648    0.007
 5615.00    0.41955   0.72008    0.007
 5616.00    0.45863   0.71721    0.007
 5617.00    0.55338   0.71996    0.007
 5618.00    0.67179   0.72610    0.007
 5619.00    0.81513   0.73258    0.007
 5620.00    0.80496   0.73774    0.007
 5621.00    0.65215   0.74101    0.007
 5622.00    0.55582   0.74235    0.007
 5623.00    0.50575   0.74192    0.007
 5624.00    0.50842   0.74002    0.007
 5625.00    0.54910   0.73694    0.007
 5626.00    0.54420   0.73296    0.007
 5627.00    0.51045   0.72867    0.007
 5628.00    0.50371   0.72518    0.007
 5629.00    0.51190   0.72340    0.007
 5630.00    0.57057   0.72289    0.007
 5631.00    0.65352   0.72246    0.007
 5632.00    0.67577   0.72209    0.007
 5633.00    0.67280   0.72269    0.007
 5634.00    0.64467   0.72426    0.007
 5635.00    0.60760   0.72609    0.007
 5636.00    0.65652   0.72791    0.007
 5637.00    0.73124   0.72972    0.007
 5638.00    0.71935   0.73139    0.007
 5639.00    0.68589   0.73254    0.007
 5640.00    0.67892   0.73323    0.007
 5641.00    0.67731   0.73438    0.007
 5642.00    0.66722   0.73637    0.007
 5643.00    0.65580   0.73795    0.007
 5644.00    0.65530   0.73727    0.007
 5645.00    0.65608   0.73380    0.007
 5646.00    0.67930   0.72821    0.007
 5647.00    0.70432   0.72046    0.007
 5648.00    0.70254   0.71040    0.007
 5649.00    0.69956   0.70156    0.007
 5650.00    0.69690   0.69933    0.007
 5651.00    0.69430   0.70343    0.007
 5652.00    0.69479   0.70818    0.007
 5653.00    0.69141   0.71089    0.007
 5654.00    0.61652   0.71385    0.007
 5655.00    0.54793   0.71861    0.007
 5656.00    0.54911   0.72311    0.007
 5657.00    0.54278   0.72470    0.007
 5658.00    0.47826   0.72336    0.007
 5659.00    0.41865   0.72149    0.007
 5660.00    0.38788   0.72121    0.007
 5661.00    0.38169   0.72323    0.007
 5662.00    0.48986   0.72707    0.007
 5663.00    0.58521   0.73170    0.007
 5664.00    0.63185   0.73546    0.007
 5665.00    0.66498   0.73718    0.007
 5666.00    0.65521   0.73743    0.007
 5667.00    0.65374   0.73768    0.007
 5668.00    0.67459   0.73804    0.007
 5669.00    0.67653   0.73730    0.007
 5670.00    0.63483   0.73523    0.007
 5671.00    0.60949   0.73205    0.007
 5672.00    0.61679   0.72760    0.007
 5673.00    0.63446   0.72252    0.007
 5674.00    0.67016   0.71899    0.007
 5675.00    0.68980   0.71802    0.007
 5676.00    0.68499   0.71790    0.007
 5677.00    0.65505   0.71652    0.007
 5678.00    0.59150   0.71421    0.007
 5679.00    0.55391   0.71358    0.007
 5680.00    0.54691   0.71659    0.007
 5681.00    0.55342   0.72269    0.007
 5682.00    0.57397   0.72949    0.007
 5683.00    0.67769   0.73473    0.007
 5684.00    0.85762   0.73727    0.007
 5685.00    0.89579   0.73728    0.007
 5686.00    0.81949   0.73578    0.006
 5687.00    0.75043   0.73315    0.007
 5688.00    0.68652   0.72912    0.007
 5689.00    0.67838   0.72400    0.007
 5690.00    0.70501   0.71901    0.007
 5691.00    0.70806   0.71473    0.007
 5692.00    0.69825   0.71169    0.007
 5693.00    0.65524   0.71107    0.007
 5694.00    0.59650   0.71274    0.007
 5695.00    0.55667   0.71433    0.007
 5696.00    0.52457   0.71301    0.007
 5697.00    0.58039   0.70796    0.007
 5698.00    0.66687   0.70066    0.007
 5699.00    0.68408   0.69317    0.007
 5700.00    0.68091   0.68787    0.007
 5701.00    0.66831   0.68698    0.007
 5702.00    0.65341   0.69098    0.007
 5703.00    0.62343   0.69912    0.007
 5704.00    0.59048   0.70956    0.007
 5705.00    0.55892   0.71900    0.007
 5706.00    0.52758   0.72520    0.007
 5707.00    0.56427   0.72837    0.007
 5708.00    0.60867   0.72988    0.007
 5709.00    0.66208   0.73119    0.007
 5710.00    0.71618   0.73333    0.007
 5711.00    0.73734   0.73619    0.007
 5712.00    0.75716   0.73902    0.007
 5713.00    0.74759   0.74098    0.007
 5714.00    0.73824   0.74102    0.007
 5715.00    0.74714   0.73846    0.007
 5716.00    0.75671   0.73363    0.006
 5717.00    0.77765   0.72818    0.006
 5718.00    0.79354   0.72455    0.006
 5719.00    0.75596   0.72414    0.006
 5720.00    0.71800   0.72555    0.006
 5721.00    0.67719   0.72634    0.006
 5722.00    0.63471   0.72635    0.006
 5723.00    0.58276   0.72742    0.006
 5724.00    0.52558   0.73022    0.006
 5725.00    0.44462   0.73320    0.006
 5726.00    0.39239   0.73469    0.006
 5727.00    0.44712   0.73445    0.006
 5728.00    0.50783   0.73342    0.007
 5729.00    0.58718   0.73255    0.007
 5730.00    0.64926   0.73203    0.007
 5731.00    0.66570   0.73158    0.007
 5732.00    0.67331   0.73113    0.007
 5733.00    0.66089   0.73093    0.007
 5734.00    0.66322   0.73149    0.007
 5735.00    0.69453   0.73286    0.007
 5736.00    0.76866   0.73394    0.007
 5737.00    0.91612   0.73330    0.007
 5738.00    0.95980   0.73105    0.007
 5739.00    0.84778   0.72921    0.007
 5740.00    0.72666   0.72933    0.000
 5741.00    0.59357   0.72986    0.000
 5742.00    0.50718   0.72763    0.000
 5743.00    0.47504   0.72206    0.000
 5744.00    0.49336   0.71648    0.000
 5745.00    0.56333   0.71516    0.000
 5746.00    0.67322   0.71936    0.000
 5747.00    0.81916   0.72646    0.000
 5748.00    0.90868   0.73231    0.000
 5749.00    0.95328   0.73427    0.000
 5750.00    0.90148   0.73181    0.000
 5751.00    0.78218   0.72598    0.000
 5752.00    0.72135   0.71931    0.000
 5753.00    0.69643   0.71500    0.000
 5754.00    0.62330   0.71529    0.000
 5755.00    0.52432   0.71995    0.000
 5756.00    0.47783   0.72615    0.000
 5757.00    0.45581   0.73080    0.000
 5758.00    0.46905   0.73294    0.000
 5759.00    0.49644   0.73325    0.000
 5760.00    0.54241   0.73246    0.000
 5761.00    0.59473   0.73098    0.000
 5762.00    0.70092   0.72909    0.000
 5763.00    0.82264   0.72702    0.000
 5764.00    0.82813   0.72524    0.000
 5765.00    0.80595   0.72427    0.000
 5766.00    0.75827   0.72421    0.000
 5767.00    0.70571   0.72454    0.000
 5768.00    0.69068   0.72384    0.000
 5769.00    0.68124   0.72029    0.000
 5770.00    0.60676   0.71341    0.000
 5771.00    0.52519   0.70490    0.000
 5772.00    0.54020   0.69772    0.000
 5773.00    0.56214   0.69405    0.000
 5774.00    0.56886   0.69385    0.000
 5775.00    0.57502   0.69570    0.000
 5776.00    0.61128   0.69910    0.000
 5777.00    0.64836   0.70426    0.000
 5778.00    0.71028   0.71034    0.000
 5779.00    0.76403   0.71486    0.000
 5780.00    0.68649   0.71635    0.000
 5781.00    0.61215   0.71590    0.000
 5782.00    0.57022   0.71579    0.000
 5783.00    0.54188   0.71786    0.000
 5784.00    0.61205   0.72183    0.000
 5785.00    0.66984   0.72538    0.000
 5786.00    0.65886   0.72645    0.000
 5787.00    0.65486   0.72498    0.000
 5788.00    0.68179   0.72307    0.000
 5789.00    0.70257   0.72341    0.000
 5790.00    0.70092   0.72711    0.000
 5791.00    0.69580   0.73243   -2.000
 5792.00    0.68006   0.73627   -2.000
 5793.00    0.68242   0.73677   -2.000
 5794.00    0.73176   0.73423   -2.000
 5795.00    0.76679   0.73030   -2.000
 5796.00    0.76988   0.72725   -2.000
 5797.00    0.75484   0.72633   -2.000
 5798.00    0.70476   0.72717   -2.000
 5799.00    0.70716   0.72872   -2.000
 5800.00    0.79809   0.73011   -2.000
 5801.00    0.86066   0.73103   -2.000
 5802.00    0.88128   0.73120   -2.000
 5803.00    0.83646   0.73015   -2.000
 5804.00    0.70659   0.72760   -2.000
 5805.00    0.64096   0.72395   -2.000
 5806.00    0.64889   0.72074   -2.000
 5807.00    0.64688   0.71991   -2.000
 5808.00    0.63483   0.72225   -2.000
 5809.00    0.62183   0.72651   -2.000
 5810.00    0.60800   0.73044   -2.000
 5811.00    0.61313   0.73248    0.000
 5812.00    0.63314   0.73266    0.000
 5813.00    0.61631   0.73190    0.000
 5814.00    0.57406   0.73123    0.000
 5815.00    0.49963   0.73117    0.000
 5816.00    0.40572   0.73164    0.000
 5817.00    0.39518   0.73226    0.000
 5818.00    0.42867   0.73265    0.000
 5819.00    0.50709   0.73286    0.000
 5820.00    0.60610   0.73295    0.000
 5821.00    0.62699   0.73289    0.000
 5822.00    0.61707   0.73264    0.000
 5823.00    0.59631   0.73212    0.000
 5824.00    0.57190   0.73146    0.000
 5825.00    0.63109   0.73095    0.000
 5826.00    0.71388   0.73065    0.000
 5827.00    0.70309   0.73028    0.000
 5828.00    0.67051   0.72967    0.000
 5829.00    0.63197   0.72930    0.000
 5830.00    0.59231   0.72995    0.000
 5831.00    0.62239   0.73171    0.000
 5832.00    0.66253   0.73352    0.000
 5833.00    0.75087   0.73414    0.000
 5834.00    0.84426   0.73305    0.000
 5835.00    0.86521   0.73048    0.000
 5836.00    0.88127   0.72700    0.000
 5837.00    0.78749   0.72352    0.000
 5838.00    0.69009   0.72096    0.000
 5839.00    0.63822   0.71954    0.000
 5840.00    0.58983   0.71841    0.000
 5841.00    0.65051   0.71607    0.000
 5842.00    0.71195   0.71170    0.000
 5843.00    0.78487   0.70638    0.000
 5844.00    0.84230   0.70200    0.000
 5845.00    0.74939   0.69899    0.000
 5846.00    0.66336   0.69583    0.000
 5847.00    0.62562   0.69158    0.000
 5848.00    0.59444   0.68797    0.000
 5849.00    0.59872   0.68783    0.000
 5850.00    0.60875   0.69173    0.000
 5851.00    0.64366   0.69717    0.000
 5852.00    0.68048   0.70129    0.000
 5853.00    0.72412   0.70352    0.000
 5854.00    0.74158   0.70465    0.000
 5855.00    0.68059   0.70487    0.000
 5856.00    0.63625   0.70399    0.000
 5857.00    0.63438   0.70304    0.000
 5858.00    0.66100   0.70380    0.000
 5859.00    0.75013   0.70689    0.000
 5860.00    0.80645   0.71097    0.000
 5861.00    0.80026   0.71382    0.000
 5862.00    0.77531   0.71441    0.000
 5863.00    0.71919   0.71327    0.000
 5864.00    0.70845   0.71140    0.000
 5865.00    0.76383   0.70934    0.000
 5866.00    0.78854   0.70715    0.000
 5867.00    0.77398   0.70471    0.000
 5868.00    0.74881   0.70201    0.000
 5869.00    0.71166   0.69919    0.000
 5870.00    0.70931   0.69669    0.000
 5871.00    0.74161   0.69505    0.000
 5872.00    0.78725   0.69410    0.000
 5873.00    0.84460   0.69305    0.000
 5874.00    0.78303   0.69133    0.000
 5875.00    0.62948   0.68852    0.000
 5876.00    0.49712   0.68284    0.000
 5877.00    0.37917   0.67014    0.000
 5878.00    0.37587   0.64630    0.000
 5879.00    0.44089   0.61367    0.000
 5880.00    0.50190   0.58474    0.000
 5881.00    0.56081   0.57375    0.000
 5882.00    0.57818   0.58229    0.000
 5883.00    0.57682   0.59816    0.000
 5884.00    0.67905   0.60615    0.000
 5885.00    0.82143   0.60048    0.000
 5886.00    0.83053   0.59044    0.000
 5887.00    0.79568   0.59016    0.000
 5888.00    0.74753   0.60391    0.000
 5889.00    0.69571   0.62550    0.000
 5890.00    0.69312   0.64658    0.000
 5891.00    0.70172   0.66257    0.000
 5892.00    0.68790   0.67334    0.000
 5893.00    0.67000   0.68020    0.000
 5894.00    0.66825   0.68412    0.000
 5895.00    0.66876   0.68603    0.000
 5896.00    0.64738   0.68712    0.000
 5897.00    0.62379   0.68836    0.000
 5898.00    0.68234   0.68985    0.000
 5899.00    0.74613   0.69109    0.000
 5900.00    0.70294   0.69196    0.000
 5901.00    0.65679   0.69230    0.006
 5902.00    0.66683   0.69115    0.006
 5903.00    0.67733   0.68762    0.006
 5904.00    0.70042   0.68245    0.006
 5905.00    0.72259   0.67828    0.006
 5906.00    0.73175   0.67724    0.006
 5907.00    0.73583   0.67959    0.006
 5908.00    0.69253   0.68362    0.006
 5909.00    0.65791   0.68727    0.006
 5910.00    0.68218   0.68940    0.006
 5911.00    0.69911   0.68975    0.006
 5912.00    0.67740   0.68926    0.006
 5913.00    0.65906   0.68934    0.006
 5914.00    0.65502   0.69047    0.006
 5915.00    0.65424   0.69218    0.006
 5916.00    0.66488   0.69343    0.006
 5917.00    0.68423   0.69319    0.006
 5918.00    0.72915   0.69131    0.006
 5919.00    0.75066   0.68855    0.006
 5920.00    0.71347   0.68650    0.006
 5921.00    0.68518   0.68684    0.006
 5922.00    0.67611   0.68894    0.006
 5923.00    0.66145   0.69042    0.006
 5924.00    0.63629   0.69012    0.006
 5925.00    0.61916   0.68929    0.006
 5926.00    0.61516   0.68988    0.006
 5927.00    0.61560   0.69203    0.006
 5928.00    0.62239   0.69426    0.006
 5929.00    0.62967   0.69476    0.006
 5930.00    0.63756   0.69280    0.006
 5931.00    0.64933   0.68954    0.006
 5932.00    0.66541   0.68736    0.006
 5933.00    0.66735   0.68758    0.006
 5934.00    0.65540   0.68973    0.006
 5935.00    0.66457   0.69242    0.006
 5936.00    0.69201   0.69382    0.006
 5937.00    0.69878   0.69251    0.006
 5938.00    0.68978   0.68884    0.006
 5939.00    0.68588   0.68503    0.006
 5940.00    0.68541   0.68329    0.006
 5941.00    0.67912   0.68333    0.006
 5942.00    0.66942   0.68340    0.006
 5943.00    0.66115   0.68314    0.006
 5944.00    0.65359   0.68336    0.006
 5945.00    0.65114   0.68377    0.006
 5946.00    0.65094   0.68346    0.006
 5947.00    0.64688   0.68282    0.006
 5948.00    0.64134   0.68338    0.006
 5949.00    0.61759   0.68596    0.006
 5950.00    0.58796   0.69006    0.006
 5951.00    0.61385   0.69418    0.006
 5952.00    0.65479   0.69697    0.006
 5953.00    0.64229   0.69785    0.006
 5954.00    0.61793   0.69688    0.006
 5955.00    0.62957   0.69480    0.006
 5956.00    0.64759   0.69293    0.006
 5957.00    0.67405   0.69258    0.006
 5958.00    0.70164   0.69378    0.006
 5959.00    0.69726   0.69566    0.006
 5960.00    0.68980   0.69737    0.006
 5961.00    0.65174   0.69834    0.006
 5962.00    0.61187   0.69833    0.006
 5963.00    0.57649   0.69720    0.006
 5964.00    0.54144   0.69463    0.006
 5965.00    0.53854   0.69055    0.006
 5966.00    0.53804   0.68580    0.006
 5967.00    0.59857   0.68204    0.006
 5968.00    0.65510   0.68078    0.006
 5969.00    0.65769   0.68235    0.006
 5970.00    0.65552   0.68546    0.006
 5971.00    0.61079   0.68777    0.006
 5972.00    0.56912   0.68735    0.006
 5973.00    0.54762   0.68399    0.006
 5974.00    0.53108   0.67963    0.006
 5975.00    0.54002   0.67718    0.006
 5976.00    0.55605   0.67795    0.006
 5977.00    0.60142   0.68084    0.006
 5978.00    0.62854   0.68407    0.006
 5979.00    0.59314   0.68663    0.006
 5980.00    0.57243   0.68833    0.006
 5981.00    0.59412   0.68946    0.006
 5982.00    0.61668   0.69090    0.006
 5983.00    0.64139   0.69314    0.006
 5984.00    0.65226   0.69533    0.006
 5985.00    0.63372   0.69591    0.006
 5986.00    0.61896   0.69431    0.006
 5987.00    0.61117   0.69147    0.006
 5988.00    0.61639   0.68899    0.006
 5989.00    0.64260   0.68784    0.006
 5990.00    0.67948   0.68758    0.006
 5991.00    0.73145   0.68696    0.006
 5992.00    0.74236   0.68533    0.006
 5993.00    0.70216   0.68339    0.006
 5994.00    0.65997   0.68228    0.006
 5995.00    0.61562   0.68168    0.006
 5996.00    0.60687   0.68000    0.006
 5997.00    0.63257   0.67695    0.006
 5998.00    0.66217   0.67439    0.006
 5999.00    0.69509   0.67463    0.006
 6000.00    0.70003   0.67783    0.006
 6001.00    0.68395   0.68141    0.006
 6002.00    0.64942   0.68293    0.006
 6003.00    0.60272   0.68244    0.006
 6004.00    0.56461   0.68153    0.006
 6005.00    0.53145   0.68113    0.006
 6006.00    0.53257   0.68085    0.006
 6007.00    0.55095   0.68029    0.006
 6008.00    0.60099   0.67954    0.006
 6009.00    0.66483   0.67824    0.006
 6010.00    0.60731   0.67613    0.006
 6011.00    0.50439   0.67413    0.006
 6012.00    0.46213   0.67353    0.006
 6013.00    0.43914   0.67471    0.006
 6014.00    0.48441   0.67708    0.006
 6015.00    0.54778   0.68006    0.006
 6016.00    0.54795   0.68335    0.006
 6017.00    0.53441   0.68639    0.006
 6018.00    0.56403   0.68913    0.006
 6019.00    0.60106   0.69179    0.006
 6020.00    0.64082   0.69395    0.006
 6021.00    0.68094   0.69540    0.006
 6022.00    0.68626   0.69642    0.006
 6023.00    0.68839   0.69730    0.006
 6024.00    0.68430   0.69795    0.006
 6025.00    0.67986   0.69811    0.006
 6026.00    0.70963   0.69773    0.006
 6027.00    0.74005   0.69670    0.006
 6028.00    0.76061   0.69506    0.006
 6029.00    0.77783   0.69314    0.006
 6030.00    0.71740   0.69152    0.006
 6031.00    0.65626   0.69097    0.006
 6032.00    0.58598   0.69171    0.006
 6033.00    0.52452   0.69337    0.006
 6034.00    0.53903   0.69539    0.006
 6035.00    0.55945   0.69709    0.006
 6036.00    0.61758   0.69818    0.006
 6037.00    0.66853   0.69869    0.006
 6038.00    0.68364   0.69881    0.006
 6039.00    0.69634   0.69877    0.006
 6040.00    0.69933   0.69874    0.006
 6041.00    0.70512   0.69867    0.006
 6042.00    0.72032   0.69794    0.006
 6043.00    0.74005   0.69611    0.006
 6044.00    0.77258   0.69331    0.006
 6045.00    0.78106   0.69027    0.006
 6046.00    0.73130   0.68791    0.006
 6047.00    0.68217   0.68721    0.006
 6048.00    0.63436   0.68839    0.006
 6049.00    0.59742   0.69053    0.006
 6050.00    0.58024   0.69226    0.006
 6051.00    0.59167   0.69233    0.006
 6052.00    0.64853   0.69006    0.006
 6053.00    0.68658   0.68531    0.006
 6054.00    0.69837   0.67935    0.006
 6055.00    0.66961   0.67478    0.006
 6056.00    0.59110   0.67428    0.006
 6057.00    0.55829   0.67882    0.006
 6058.00    0.57491   0.68600    0.006
 6059.00    0.61724   0.69230    0.006
 6060.00    0.68408   0.69637    0.006
 6061.00    0.68501   0.69851    0.006
 6062.00    0.63047   0.69950    0.006
 6063.00    0.58131   0.69974    0.006
 6064.00    0.53616   0.69926    0.006
 6065.00    0.51893   0.69789    0.006
 6066.00    0.51988   0.69538    0.006
 6067.00    0.52602   0.69161    0.006
 6068.00    0.53510   0.68732    0.006
 6069.00    0.57387   0.68355    0.006
 6070.00    0.62736   0.68090    0.006
 6071.00    0.64898   0.67920    0.006
 6072.00    0.65693   0.67807    0.006
 6073.00    0.63906   0.67764    0.006
 6074.00    0.61170   0.67805    0.006
 6075.00    0.60923   0.67906    0.006
 6076.00    0.61450   0.68041    0.006
 6077.00    0.64957   0.68193    0.006
 6078.00    0.69238   0.68256    0.006
 6079.00    0.70571   0.68147    0.006
 6080.00    0.71280   0.67918    0.006
 6081.00    0.76619   0.67745    0.006
 6082.00    0.82733   0.67768    0.006
 6083.00    0.81827   0.67996    0.006
 6084.00    0.80036   0.68330    0.006
 6085.00    0.73258   0.68653    0.006
 6086.00    0.66042   0.68860    0.006
 6087.00    0.61908   0.68910    0.006
 6088.00    0.57933   0.68857    0.005
 6089.00    0.52634   0.68690    0.006
 6090.00    0.47428   0.68246    0.006
 6091.00    0.50785   0.67413    0.006
 6092.00    0.54247   0.66429    0.006
 6093.00    0.59961   0.65802    0.006
 6094.00    0.65181   0.65921    0.006
 6095.00    0.64410   0.66638    0.006
 6096.00    0.64452   0.67394    0.006
 6097.00    0.71235   0.67838    0.006
 6098.00    0.78014   0.68023    0.006
 6099.00    0.84770   0.68131    0.006
 6100.00    0.89486   0.68248    0.006
 6101.00    0.84271   0.68357    0.006
 6102.00    0.79317   0.68458    0.006
 6103.00    0.75400   0.68589    0.006
 6104.00    0.72348   0.68716    0.006
 6105.00    0.72142   0.68748    0.006
 6106.00    0.71077   0.68673    0.006
 6107.00    0.67620   0.68518    0.006
 6108.00    0.65287   0.68241    0.006
 6109.00    0.65634   0.67732    0.006
 6110.00    0.65772   0.66915    0.006
 6111.00    0.65485   0.65981    0.006
 6112.00    0.67166   0.65363    0.006
 6113.00    0.72368   0.65353    0.006
 6114.00    0.77605   0.65879    0.006
 6115.00    0.82899   0.66549    0.006
 6116.00    0.83681   0.67012    0.006
 6117.00    0.78263   0.67251    0.006
 6118.00    0.72389   0.67450    0.006
 6119.00    0.65963   0.67731    0.006
 6120.00    0.63648   0.68052    0.006
 6121.00    0.65717   0.68280    0.006
 6122.00    0.68887   0.68274    0.006
 6123.00    0.73093   0.67917    0.006
 6124.00    0.78225   0.67138    0.006
 6125.00    0.84126   0.65954    0.006
 6126.00    0.86456   0.64671    0.006
 6127.00    0.86177   0.63881    0.006
 6128.00    0.78472   0.63969    0.006
 6129.00    0.66007   0.64747    0.006
 6130.00    0.60478   0.65594    0.006
 6131.00    0.58841   0.66103    0.006
 6132.00    0.59263   0.66404    0.006
 6133.00    0.60689   0.66813    0.006
 6134.00    0.62231   0.67401    0.006
 6135.00    0.63822   0.67940    0.006
 6136.00    0.67845   0.68196    0.006
 6137.00    0.72746   0.68099    0.006
 6138.00    0.73216   0.67752    0.006
 6139.00    0.72333   0.67322    0.006
 6140.00    0.71660   0.67009    0.006
 6141.00    0.71039   0.66930    0.006
 6142.00    0.71374   0.67036    0.006
 6143.00    0.71906   0.67141    0.005
 6144.00    0.72420   0.67119    0.006
 6145.00    0.72931   0.66988    0.006
 6146.00    0.68255   0.66808    0.006
 6147.00    0.62948   0.66587    0.006
 6148.00    0.61547   0.66172    0.006
 6149.00    0.60471   0.65326    0.006
 6150.00    0.65607   0.63935    0.006
 6151.00    0.71040   0.62264    0.006
 6152.00    0.70035   0.60911    0.006
 6153.00    0.68990   0.60423    0.006
 6154.00    0.71055   0.60867    0.006
 6155.00    0.73216   0.61801    0.006
 6156.00    0.77255   0.62649    0.006
 6157.00    0.80081   0.63010    0.006
 6158.00    0.68896   0.62827    0.006
 6159.00    0.58923   0.62443    0.006
 6160.00    0.58648   0.62333    0.006
 6161.00    0.58508   0.62704    0.006
 6162.00    0.59178   0.63371    0.006
 6163.00    0.59328   0.63993    0.006
 6164.00    0.57002   0.64381    0.006
 6165.00    0.56081   0.64583    0.006
 6166.00    0.60608   0.64727    0.006
 6167.00    0.63449   0.64902    0.006
 6168.00    0.60850   0.65103    0.006
 6169.00    0.57412   0.65291    0.006
 6170.00    0.51680   0.65463    0.006
 6171.00    0.49331   0.65624    0.005
 6172.00    0.54901   0.65775    0.005
 6173.00    0.59925   0.65862    0.005
 6174.00    0.63843   0.65801    0.005
 6175.00    0.65058   0.65551    0.005
 6176.00    0.61510   0.65149    0.006
 6177.00    0.56825   0.64662    0.006
 6178.00    0.50387   0.64123    0.006
 6179.00    0.46498   0.63512    0.006
 6180.00    0.46060   0.62847    0.006
 6181.00    0.49576   0.62376    0.006
 6182.00    0.57807   0.62410    0.006
 6183.00    0.61470   0.62982    0.006
 6184.00    0.60327   0.63815    0.006
 6185.00    0.56777   0.64529    0.006
 6186.00    0.50993   0.64901    0.006
 6187.00    0.53335   0.64914    0.006
 6188.00    0.62323   0.64643    0.006
 6189.00    0.66037   0.64268    0.006
 6190.00    0.65957   0.64045    0.006
 6191.00    0.59201   0.64126    0.006
 6192.00    0.48229   0.64457    0.006
 6193.00    0.43491   0.64844    0.005
 6194.00    0.42197   0.65142    0.005
 6195.00    0.57602   0.65337    0.006
 6196.00    0.81026   0.65474   -2.000
 6197.00    1.19337   0.65566   -2.000
 6198.00    1.63819   0.65582   -2.000
 6199.00    1.80659   0.65468   -2.000
 6200.00    1.87700   0.65174   -2.000
 6201.00    1.50235   0.64677   -2.000
 6202.00    0.99450   0.63981   -2.000
 6203.00    0.61478   0.63197   -2.000
 6204.00    0.26689   0.62548   -2.000
 6205.00    0.19298   0.62219   -2.000
 6206.00    0.17424   0.62252   -2.000
 6207.00    0.34813   0.62473   -2.000
 6208.00    0.55240   0.62627    0.006
 6209.00    0.64771   0.62638    0.006
 6210.00    0.73025   0.62624    0.006
 6211.00    0.71872   0.62712    0.006
 6212.00    0.69972   0.62909    0.006
 6213.00    0.65680   0.63102    0.006
 6214.00    0.61282   0.63227    0.006
 6215.00    0.61498   0.63299    0.006
 6216.00    0.61775   0.63303    0.006
 6217.00    0.62549   0.63158    0.006
 6218.00    0.63211   0.62748    0.006
 6219.00    0.61831   0.62076    0.005
 6220.00    0.60849   0.61381    0.005
 6221.00    0.64256   0.61033    0.005
 6222.00    0.67402   0.61236    0.005
 6223.00    0.68538   0.61913    0.005
 6224.00    0.68971   0.62756    0.005
 6225.00    0.65289   0.63409    0.005
 6226.00    0.61652   0.63681    0.005
 6227.00    0.58222   0.63576    0.005
 6228.00    0.56823   0.63232    0.005
 6229.00    0.63120   0.62823    0.006
 6230.00    0.68387   0.62461    0.006
 6231.00    0.70390   0.62165    0.006
 6232.00    0.70734   0.61887    0.006
 6233.00    0.66624   0.61653    0.006
 6234.00    0.64175   0.61537    0.006
 6235.00    0.65550   0.61586    0.006
 6236.00    0.65813   0.61843    0.006
 6237.00    0.63863   0.62289    0.006
 6238.00    0.62423   0.62789    0.006
 6239.00    0.61871   0.63117    0.006
 6240.00    0.63383   0.63058    0.006
 6241.00    0.68031   0.62579    0.006
 6242.00    0.69907   0.61892    0.006
 6243.00    0.68079   0.61305    0.006
 6244.00    0.64728   0.60949    0.005
 6245.00    0.59585   0.60741    0.005
 6246.00    0.56246   0.60528    0.005
 6247.00    0.54775   0.60317    0.005
 6248.00    0.54941   0.60276    0.005
 6249.00    0.56604   0.60577    0.005
 6250.00    0.57815   0.61191    0.005
 6251.00    0.58662   0.61933    0.005
 6252.00    0.58012   0.62603    0.005
 6253.00    0.56302   0.63030    0.005
 6254.00    0.58359   0.63166    0.005
 6255.00    0.62762   0.63139    0.005
 6256.00    0.66271   0.63123    0.006
 6257.00    0.69293   0.63168    0.006
 6258.00    0.76147   0.63220    0.006
 6259.00    0.84811   0.63240    0.006
 6260.00    0.95959   0.63279    0.006
 6261.00    1.08119   0.63401    0.007
 6262.00    1.03530   0.63582    0.007
 6263.00    0.93112   0.63732    0.007
 6264.00    0.76511   0.63791    0.007
 6265.00    0.58096   0.63777    0.007
 6266.00    0.41419   0.63711    0.007
 6267.00    0.25164   0.63562    0.006
 6268.00    0.27568   0.63285    0.006
 6269.00    0.33634   0.62907    0.006
 6270.00    0.45692   0.62570    0.006
 6271.00    0.58667   0.62448    0.005
 6272.00    0.65195   0.62585    0.005
 6273.00    0.70995   0.62886    0.005
 6274.00    0.67797   0.63232    0.005
 6275.00    0.63922   0.63575    0.005
 6276.00    0.63729   0.63947    0.005
 6277.00    0.63685   0.64313    0.005
 6278.00    0.62920   0.64566    0.005
 6279.00    0.62161   0.64609    0.005
 6280.00    0.61823   0.64436    0.000
 6281.00    0.61477   0.64171    0.000
 6282.00    0.60983   0.63954    0.000
 6283.00    0.60472   0.63822    0.000
 6284.00    0.59778   0.63685    0.000
 6285.00    0.59318   0.63431    0.000
 6286.00    0.60613   0.63071    0.000
 6287.00    0.60794   0.62761    0.000
 6288.00    0.54638   0.62607    0.000
 6289.00    0.49413   0.62531    0.000
 6290.00    0.48404   0.62410    0.000
 6291.00    0.49517   0.62260    0.000
 6292.00    0.58503   0.62262    0.000
 6293.00    0.65312   0.62521    0.000
 6294.00    0.65363   0.62981    0.000
 6295.00    0.63966   0.63496    0.000
 6296.00    0.58753   0.63975    0.000
 6297.00    0.55362   0.64361    0.000
 6298.00    0.56101   0.64564    0.000
 6299.00    0.56430   0.64533    0.000
 6300.00    0.55956   0.64335    0.000
 6301.00    0.56080   0.64083    0.000
 6302.00    0.57224   0.63849    0.000
 6303.00    0.58903   0.63638    0.000
 6304.00    0.61382   0.63397    0.000
 6305.00    0.64147   0.63137    0.000
 6306.00    0.67287   0.62912    0.000
 6307.00    0.68788   0.62733    0.000
 6308.00    0.68390   0.62656    0.000
 6309.00    0.65637   0.62796    0.000
 6310.00    0.60479   0.63121    0.000
 6311.00    0.56938   0.63484    0.000
 6312.00    0.54858   0.63796    0.000
 6313.00    0.54279   0.64059    0.000
 6314.00    0.54893   0.64293    0.000
 6315.00    0.54464   0.64462    0.000
 6316.00    0.53306   0.64553    0.000
 6317.00    0.52366   0.64570    0.000
 6318.00    0.51559   0.64558    0.000
 6319.00    0.53700   0.64561    0.000
 6320.00    0.57421   0.64595    0.000
 6321.00    0.58386   0.64678    0.005
 6322.00    0.58070   0.64697    0.005
 6323.00    0.54939   0.64478    0.005
 6324.00    0.50681   0.63961    0.005
 6325.00    0.45778   0.63324    0.005
 6326.00    0.40655   0.62909    0.005
 6327.00    0.41499   0.62919    0.005
 6328.00    0.44057   0.63286    0.005
 6329.00    0.47790   0.63782    0.005
 6330.00    0.51802   0.64197    0.005
 6331.00    0.52797   0.64362    0.005
 6332.00    0.53216   0.64227    0.005
 6333.00    0.54263   0.63904    0.005
 6334.00    0.55403   0.63585    0.005
 6335.00    0.55783   0.63465    0.005
 6336.00    0.56081   0.63575    0.005
 6337.00    0.58525   0.63845    0.005
 6338.00    0.61122   0.64183    0.005
 6339.00    0.61102   0.64494    0.005
 6340.00    0.60986   0.64684    0.005
 6341.00    0.63386   0.64678    0.005
 6342.00    0.65689   0.64453    0.005
 6343.00    0.64196   0.64057    0.005
 6344.00    0.62503   0.63616    0.005
 6345.00    0.57626   0.63238    0.005
 6346.00    0.53275   0.62939    0.005
 6347.00    0.54220   0.62651    0.005
 6348.00    0.55033   0.62346    0.005
 6349.00    0.54888   0.62082    0.005
 6350.00    0.54985   0.61918    0.005
 6351.00    0.56423   0.61840    0.005
 6352.00    0.57939   0.61848    0.005
 6353.00    0.59800   0.61988    0.005
 6354.00    0.61671   0.62284    0.005
 6355.00    0.63575   0.62695    0.005
 6356.00    0.65274   0.63137    0.005
 6357.00    0.66347   0.63526    0.005
 6358.00    0.66627   0.63803    0.005
 6359.00    0.64852   0.63957    0.005
 6360.00    0.61740   0.64055    0.005
 6361.00    0.55653   0.64184    0.005
 6362.00    0.51381   0.64364    0.005
 6363.00    0.50615   0.64538    0.006
 6364.00    0.53196   0.64629    0.006
 6365.00    0.61413   0.64597    0.006
 6366.00    0.65521   0.64430    0.006
 6367.00    0.63566   0.64139    0.006
 6368.00    0.60523   0.63781    0.006
 6369.00    0.56071   0.63469    0.006
 6370.00    0.53722   0.63315    0.005
 6371.00    0.53777   0.63339    0.005
 6372.00    0.53497   0.63469    0.005
 6373.00    0.52881   0.63601    0.005
 6374.00    0.53701   0.63686    0.005
 6375.00    0.55797   0.63739    0.005
 6376.00    0.56575   0.63780    0.005
 6377.00    0.56321   0.63798    0.005
 6378.00    0.54858   0.63762    0.005
 6379.00    0.52562   0.63649    0.005
 6380.00    0.50807   0.63419    0.005
 6381.00    0.49379   0.63047    0.005
 6382.00    0.48848   0.62624    0.005
 6383.00    0.48790   0.62374    0.005
 6384.00    0.50600   0.62495    0.005
 6385.00    0.53265   0.62939    0.005
 6386.00    0.54465   0.63384    0.005
 6387.00    0.55088   0.63479    0.005
 6388.00    0.53573   0.63133    0.005
 6389.00    0.51341   0.62623    0.005
 6390.00    0.55142   0.62398    0.005
 6391.00    0.60641   0.62713    0.005
 6392.00    0.64578   0.63403    0.005
 6393.00    0.68152   0.64066    0.005
 6394.00    0.64436   0.64413    0.005
 6395.00    0.59363   0.64391    0.005
 6396.00    0.56662   0.64130    0.006
 6397.00    0.54303   0.63827    0.006
 6398.00    0.56860   0.63618    0.006
 6399.00    0.59929   0.63499    0.005
 6400.00    0.62034   0.63386    0.005
 6401.00    0.64075   0.63267    0.005
 6402.00    0.61098   0.63240    0.005
 6403.00    0.57957   0.63379    0.005
 6404.00    0.56791   0.63624    0.005
 6405.00    0.55649   0.63853    0.005
 6406.00    0.55272   0.63958    0.005
 6407.00    0.55019   0.63862    0.005
 6408.00    0.56621   0.63537    0.005
 6409.00    0.58290   0.63076    0.005
 6410.00    0.60604   0.62714    0.005
 6411.00    0.62341   0.62703    0.005
 6412.00    0.60036   0.63096    0.005
 6413.00    0.57791   0.63686    0.005
 6414.00    0.55864   0.64199    0.005
 6415.00    0.54966   0.64501    0.005
 6416.00    0.58512   0.64604    0.005
 6417.00    0.61212   0.64514    0.005
 6418.00    0.60896   0.64201    0.005
 6419.00    0.60168   0.63704    0.005
 6420.00    0.58208   0.63224    0.005
 6421.00    0.57313   0.63016    0.005
 6422.00    0.59129   0.63179    0.005
 6423.00    0.61517   0.63586    0.005
 6424.00    0.65162   0.63981    0.005
 6425.00    0.65646   0.64135    0.005
 6426.00    0.60124   0.63925    0.005
 6427.00    0.55550   0.63411    0.005
 6428.00    0.52551   0.62887    0.005
 6429.00    0.51424   0.62725    0.005
 6430.00    0.53020   0.63083    0.005
 6431.00    0.53857   0.63784    0.005
 6432.00    0.53724   0.64493    0.005
 6433.00    0.53268   0.64983    0.005
 6434.00    0.52447   0.65211    0.005
 6435.00    0.54025   0.65173    0.005
 6436.00    0.57984   0.64821    0.005
 6437.00    0.61698   0.64101    0.005
 6438.00    0.65197   0.63115    0.005
 6439.00    0.66581   0.62229    0.005
 6440.00    0.66332   0.61865    0.005
 6441.00    0.66190   0.62139    0.005
 6442.00    0.66120   0.62764    0.005
 6443.00    0.65330   0.63284    0.005
 6444.00    0.64111   0.63491    0.005
 6445.00    0.63472   0.63518    0.005
 6446.00    0.63135   0.63626    0.005
 6447.00    0.65119   0.63909    0.005
 6448.00    0.68148   0.64198    0.005
 6449.00    0.71546   0.64187    0.009
 6450.00    0.75085   0.63694    0.043
 6451.00    0.76318   0.62858   -1.000
 6452.00    0.76792   0.62131   -1.000
 6453.00    0.82325   0.61939   -1.000
 6454.00    0.89253   0.62371   -1.000
 6455.00    0.89478   0.63140   -1.000
 6456.00    0.88183   0.63840   -1.000
 6457.00    0.78644   0.64225   -1.000
 6458.00    0.67609   0.64243   -1.000
 6459.00    0.59889   0.63992   -1.000
 6460.00    0.52630   0.63632   -1.000
 6461.00    0.52565   0.63329   -1.000
 6462.00    0.53218   0.63151   -1.000
 6463.00    0.54568   0.63051    0.011
 6464.00    0.55961   0.62986    0.005
 6465.00    0.56302   0.62979    0.005
 6466.00    0.56612   0.63084    0.005
 6467.00    0.57081   0.63254    0.005
 6468.00    0.57476   0.63335    0.005
 6469.00    0.55831   0.63165    0.005
 6470.00    0.54186   0.62733    0.005
 6471.00    0.52526   0.62213    0.005
 6472.00    0.50984   0.61870    0.005
 6473.00    0.50533   0.61862    0.006
 6474.00    0.49841   0.62138    0.006
 6475.00    0.47523   0.62505    0.007
 6476.00    0.44551   0.62792    0.007
 6477.00    0.38153   0.62922    0.007
 6478.00    0.32746   0.62880    0.007
 6479.00    0.31528   0.62643    0.007
 6480.00    0.31813   0.62160    0.007
 6481.00    0.37338   0.61362    0.006
 6482.00    0.43508   0.60226    0.005
 6483.00    0.51570   0.58900    0.005
 6484.00    0.58845   0.57732    0.005
 6485.00    0.64152   0.57055    0.005
 6486.00    0.67362   0.57016    0.005
 6487.00    0.66053   0.57506    0.005
 6488.00    0.63959   0.58285    0.005
 6489.00    0.60397   0.59199    0.005
 6490.00    0.58377   0.60119    0.005
 6491.00    0.58876   0.60969    0.005
 6492.00    0.60492   0.61671    0.005
 6493.00    0.63709   0.62186    0.005
 6494.00    0.64941   0.62526    0.005
 6495.00    0.63671   0.62703    0.005
 6496.00    0.62348   0.62738    0.005
 6497.00    0.60967   0.62679    0.005
 6498.00    0.61291   0.62610    0.005
 6499.00    0.63286   0.62598    0.005
 6500.00    0.62372   0.62635    0.005
 6501.00    0.58944   0.62660    0.005
 6502.00    0.54652   0.62592    0.005
 6503.00    0.49701   0.62398    0.005
 6504.00    0.49696   0.62089    0.005
 6505.00    0.53001   0.61733    0.005
 6506.00    0.55865   0.61426    0.005
 6507.00    0.58469   0.61260    0.005
 6508.00    0.61208   0.61304    0.005
 6509.00    0.64016   0.61553    0.005
 6510.00    0.65901   0.61907    0.005
 6511.00    0.67377   0.62239    0.005
 6512.00    0.64732   0.62446    0.005
 6513.00    0.60522   0.62512    0.005
 6514.00    0.59892   0.62465    0.005
 6515.00    0.60418   0.62352    0.005
 6516.00    0.61204   0.62243    0.005
 6517.00    0.62059   0.62209    0.005
 6518.00    0.59618   0.62258    0.005
 6519.00    0.56446   0.62317    0.005
 6520.00    0.50498   0.62301    0.005
 6521.00    0.44060   0.62200    0.005
 6522.00    0.44522   0.62090    0.005
 6523.00    0.45913   0.62065    0.005
 6524.00    0.51857   0.62146    0.005
 6525.00    0.58237   0.62288    0.005
 6526.00    0.58420   0.62426    0.005
 6527.00    0.58237   0.62537    0.005
 6528.00    0.57925   0.62609    0.000
 6529.00    0.57613   0.62623    0.000
 6530.00    0.57904   0.62527    0.000
 6531.00    0.58244   0.62283    0.000
 6532.00    0.59835   0.61893    0.000
 6533.00    0.61173   0.61385    0.000
 6534.00    0.59127   0.60827    0.000
 6535.00    0.57450   0.60340    0.000
 6536.00    0.59055   0.60080    0.000
 6537.00    0.61004   0.60071    0.000
 6538.00    0.65213   0.60195    0.000
 6539.00    0.68626   0.60258    0.000
 6540.00    0.67975   0.60151    0.000
 6541.00    0.67155   0.59864    0.000
 6542.00    0.65640   0.59439    0.000
 6543.00    0.64496   0.58928    0.000
 6544.00    0.64626   0.58423    0.000
 6545.00    0.64185   0.58002    0.000
 6546.00    0.62098   0.57653    0.000
 6547.00    0.61167   0.57174    0.000
 6548.00    0.63075   0.56190    0.000
 6549.00    0.63675   0.54320    0.000
 6550.00    0.61504   0.51517    0.000
 6551.00    0.61381   0.48434    0.000
 6552.00    0.65030   0.46400    0.000
 6553.00    0.69319   0.46501    0.000
 6554.00    0.74640   0.48659    0.000
 6555.00    0.79565   0.51757    0.000
 6556.00    0.83931   0.54533    0.000
 6557.00    0.90025   0.56379    0.000
 6558.00    0.98268   0.57388    0.000
 6559.00    1.05717   0.57885    0.000
 6560.00    1.12297   0.58098    0.000
 6561.00    1.12661   0.58131    0.000
 6562.00    1.07019   0.58074    0.000
 6563.00    0.96929   0.58082    0.000
 6564.00    0.83050   0.58324    0.000
 6565.00    0.71845   0.58840    0.000
 6566.00    0.62646   0.59495    0.000
 6567.00    0.58784   0.60078    0.000
 6568.00    0.58441   0.60432    0.000
 6569.00    0.59159   0.60554    0.000
 6570.00    0.60488   0.60557    0.000
 6571.00    0.63115   0.60586    0.000
 6572.00    0.66396   0.60675    0.000
 6573.00    0.69259   0.60782    0.000
 6574.00    0.71941   0.60849    0.000
 6575.00    0.73025   0.60897    0.000
 6576.00    0.73513   0.60996    0.000
 6577.00    0.73304   0.61154    0.000
 6578.00    0.72874   0.61271    0.000
 6579.00    0.72723   0.61181    0.000
 6580.00    0.72647   0.60768    0.000
 6581.00    0.75430   0.60107    0.000
 6582.00    0.78831   0.59478    0.000
 6583.00    0.77407   0.59212    0.000
 6584.00    0.75154   0.59403    0.000
 6585.00    0.70734   0.59860    0.000
 6586.00    0.66032   0.60295    0.000
 6587.00    0.62925   0.60577    0.000
 6588.00    0.59964   0.60781    0.000
 6589.00    0.59152   0.61009    0.000
 6590.00    0.58459   0.61255    0.000
 6591.00    0.53824   0.61421    0.000
 6592.00    0.49172   0.61425    0.000
 6593.00    0.51067   0.61275    0.000
 6594.00    0.52976   0.61041    0.000
 6595.00    0.55201   0.60781    0.000
 6596.00    0.57589   0.60525    0.000
 6597.00    0.62040   0.60313    0.000
 6598.00    0.65851   0.60231    0.000
 6599.00    0.64175   0.60354    0.000
 6600.00    0.61831   0.60642    0.000
 6601.00    0.55242   0.60947    0.000
 6602.00    0.49560   0.61147    0.000
 6603.00    0.48400   0.61240    0.000
 6604.00    0.47835   0.61300    0.000
 6605.00    0.49672   0.61370    0.000
 6606.00    0.51924   0.61442    0.000
 6607.00    0.55569   0.61495    0.000
 6608.00    0.59603   0.61537    0.000
 6609.00    0.64737   0.61563    0.005
 6610.00    0.68050   0.61537    0.005
 6611.00    0.66960   0.61407    0.005
 6612.00    0.64691   0.61157    0.005
 6613.00    0.59963   0.60851    0.005
 6614.00    0.56703   0.60602    0.005
 6615.00    0.56106   0.60497    0.005
 6616.00    0.57284   0.60529    0.005
 6617.00    0.61279   0.60614    0.005
 6618.00    0.64798   0.60657    0.005
 6619.00    0.67656   0.60602    0.005
 6620.00    0.68708   0.60438    0.005
 6621.00    0.67547   0.60197    0.005
 6622.00    0.68335   0.59964    0.005
 6623.00    0.71227   0.59850    0.005
 6624.00    0.73067   0.59921    0.005
 6625.00    0.73905   0.60144    0.005
 6626.00    0.71541   0.60402    0.005
 6627.00    0.66488   0.60588    0.005
 6628.00    0.59071   0.60669    0.005
 6629.00    0.49907   0.60660    0.005
 6630.00    0.42718   0.60563    0.005
 6631.00    0.36812   0.60354    0.005
 6632.00    0.32519   0.60080    0.005
 6633.00    0.29143   0.59869    0.005
 6634.00    0.31102   0.59839    0.005
 6635.00    0.35701   0.59984    0.005
 6636.00    0.42238   0.60188    0.005
 6637.00    0.49603   0.60338    0.005
 6638.00    0.51506   0.60400    0.005
 6639.00    0.51405   0.60377    0.005
 6640.00    0.49837   0.60288    0.005
 6641.00    0.47814   0.60172    0.005
 6642.00    0.48027   0.60075    0.005
 6643.00    0.48818   0.60024    0.005
 6644.00    0.50429   0.60011    0.005
 6645.00    0.52213   0.60014    0.005
 6646.00    0.53419   0.60013    0.005
 6647.00    0.54528   0.59991    0.005
 6648.00    0.51594   0.59927    0.005
 6649.00    0.48153   0.59789    0.005
 6650.00    0.51663   0.59561    0.005
 6651.00    0.55779   0.59263    0.005
 6652.00    0.57738   0.58996    0.005
 6653.00    0.59586   0.58868    0.005
 6654.00    0.61055   0.58927    0.005
 6655.00    0.62418   0.59124    0.005
 6656.00    0.56808   0.59362    0.005
 6657.00    0.51358   0.59597    0.005
 6658.00    0.49284   0.59819    0.005
 6659.00    0.47607   0.60018    0.005
 6660.00    0.50723   0.60165    0.005
 6661.00    0.53302   0.60235    0.005
 6662.00    0.51453   0.60218    0.005
 6663.00    0.49713   0.60096    0.005
 6664.00    0.48654   0.59821    0.005
 6665.00    0.47629   0.59355    0.005
 6666.00    0.46774   0.58789    0.005
 6667.00    0.46485   0.58334    0.005
 6668.00    0.48433   0.58183    0.005
 6669.00    0.50303   0.58351    0.005
 6670.00    0.51915   0.58679    0.005
 6671.00    0.53493   0.58983    0.005
 6672.00    0.54977   0.59200    0.005
 6673.00    0.57179   0.59332    0.005
 6674.00    0.61089   0.59398    0.005
 6675.00    0.62162   0.59413    0.005
 6676.00    0.57410   0.59399    0.005
 6677.00    0.52482   0.59396    0.005
 6678.00    0.47239   0.59416    0.005
 6679.00    0.44664   0.59454    0.005
 6680.00    0.46257   0.59481    0.005
 6681.00    0.49190   0.59466    0.005
 6682.00    0.53958   0.59381    0.005
 6683.00    0.58488   0.59217    0.005
 6684.00    0.62729   0.59001    0.005
 6685.00    0.63801   0.58810    0.005
 6686.00    0.61500   0.58730    0.005
 6687.00    0.59039   0.58803    0.005
 6688.00    0.56427   0.58990    0.005
 6689.00    0.54230   0.59189    0.005
 6690.00    0.52376   0.59299    0.005
 6691.00    0.52876   0.59273    0.005
 6692.00    0.55090   0.59149    0.005
 6693.00    0.56128   0.59022    0.005
 6694.00    0.56413   0.58970    0.005
 6695.00    0.54616   0.59008    0.005
 6696.00    0.51653   0.59083    0.000
 6697.00    0.50319   0.59142    0.000
 6698.00    0.49777   0.59146    0.000
 6699.00    0.49405   0.59113    0.000
 6700.00    0.49104   0.59047    0.000
 6701.00    0.54042   0.58933    0.000
 6702.00    0.60866   0.58736    0.000
 6703.00    0.64665   0.58413    0.000
 6704.00    0.67542   0.57969    0.000
 6705.00    0.63327   0.57468    0.000
 6706.00    0.57315   0.57053    0.000
 6707.00    0.55183   0.56870    0.000
 6708.00    0.53850   0.56966    0.000
 6709.00    0.54676   0.57249    0.000
 6710.00    0.55851   0.57563    0.000
 6711.00    0.59870   0.57815    0.000
 6712.00    0.64232   0.57992    0.000
 6713.00    0.70301   0.58095    0.000
 6714.00    0.76512   0.58131    0.000
 6715.00    0.75510   0.58138    0.000
 6716.00    0.74166   0.58171    0.000
 6717.00    0.71842   0.58257    0.000
 6718.00    0.69439   0.58365    0.000
 6719.00    0.63335   0.58439    0.000
 6720.00    0.57396   0.58460    0.000
 6721.00    0.54660   0.58433    0.000
 6722.00    0.52513   0.58395    0.000
 6723.00    0.57117   0.58365    0.000
 6724.00    0.61393   0.58347    0.000
 6725.00    0.63053   0.58307    0.000
 6726.00    0.64110   0.58222    0.000
 6727.00    0.61549   0.58092    0.000
 6728.00    0.58882   0.57954    0.000
 6729.00    0.55705   0.57845    0.000
 6730.00    0.53257   0.57763    0.000
 6731.00    0.53619   0.57691    0.000
 6732.00    0.54962   0.57640    0.000
 6733.00    0.59464   0.57634    0.000
 6734.00    0.61767   0.57680    0.000
 6735.00    0.58077   0.57712    0.000
 6736.00    0.55046   0.57660    0.000
 6737.00    0.53557   0.57506    0.000
 6738.00    0.52942   0.57303    0.000
 6739.00    0.54096   0.57133    0.000
 6740.00    0.56218   0.57060    0.000
 6741.00    0.60043   0.57115    0.000
 6742.00    0.62310   0.57271    0.000
 6743.00    0.62178   0.57487    0.000
 6744.00    0.58977   0.57745    0.000
 6745.00    0.51627   0.57999    0.000
 6746.00    0.48085   0.58217    0.000
 6747.00    0.49077   0.58382    0.000
 6748.00    0.50399   0.58484    0.000
 6749.00    0.52068   0.58526    0.000
 6750.00    0.54317   0.58514    0.000
 6751.00    0.57103   0.58472    0.000
 6752.00    0.59867   0.58403    0.000
 6753.00    0.62614   0.58306    0.006
 6754.00    0.62132   0.58147    0.006
 6755.00    0.59330   0.57925    0.006
 6756.00    0.55047   0.57688    0.006
 6757.00    0.49829   0.57511    0.006
 6758.00    0.45484   0.57436    0.006
 6759.00    0.41620   0.57455    0.006
 6760.00    0.43199   0.57542    0.006
 6761.00    0.47386   0.57696    0.006
 6762.00    0.52228   0.57924    0.006
 6763.00    0.57340   0.58185    0.006
 6764.00    0.63089   0.58428    0.006
 6765.00    0.69062   0.58606    0.006
 6766.00    0.65515   0.58704    0.006
 6767.00    0.59126   0.58725    0.006
 6768.00    0.57195   0.58660    0.006
 6769.00    0.56369   0.58493    0.006
 6770.00    0.54604   0.58213    0.006
 6771.00    0.52650   0.57851    0.006
 6772.00    0.49336   0.57481    0.006
 6773.00    0.45809   0.57202    0.006
 6774.00    0.48951   0.57076    0.005
 6775.00    0.52872   0.57104    0.005
 6776.00    0.50731   0.57222    0.005
 6777.00    0.48111   0.57354    0.005
 6778.00    0.51287   0.57442    0.005
 6779.00    0.54716   0.57472    0.006
 6780.00    0.56679   0.57451    0.006
 6781.00    0.58529   0.57407    0.006
 6782.00    0.55846   0.57363    0.006
 6783.00    0.53218   0.57333    0.005
 6784.00    0.51605   0.57337    0.005
 6785.00    0.49932   0.57372    0.005
 6786.00    0.47605   0.57429    0.005
 6787.00    0.45329   0.57507    0.005
 6788.00    0.43437   0.57599    0.006
 6789.00    0.42493   0.57701    0.006
 6790.00    0.47078   0.57787    0.006
 6791.00    0.50363   0.57822    0.006
 6792.00    0.47634   0.57790    0.006
 6793.00    0.45075   0.57701    0.006
 6794.00    0.43161   0.57588    0.006
 6795.00    0.42745   0.57492    0.006
 6796.00    0.47062   0.57428    0.005
 6797.00    0.51950   0.57395    0.005
 6798.00    0.58364   0.57390    0.005
 6799.00    0.62961   0.57398    0.005
 6800.00    0.63383   0.57416    0.006
 6801.00    0.64210   0.57433    0.006
 6802.00    0.65846   0.57419    0.005
 6803.00    0.65786   0.57380    0.005
 6804.00    0.62787   0.57348    0.005
 6805.00    0.60252   0.57357    0.005
 6806.00    0.58420   0.57392    0.005
 6807.00    0.58731   0.57414    0.005
 6808.00    0.61898   0.57408    0.005
 6809.00    0.64562   0.57415    0.005
 6810.00    0.66637   0.57477    0.005
 6811.00    0.66405   0.57591    0.006
 6812.00    0.63787   0.57706    0.006
 6813.00    0.62288   0.57764    0.006
 6814.00    0.61812   0.57734    0.006
 6815.00    0.58537   0.57613    0.006
 6816.00    0.53011   0.57441    0.006
 6817.00    0.49541   0.57292    0.006
 6818.00    0.47529   0.57249    0.005
 6819.00    0.47563   0.57321    0.005
 6820.00    0.48867   0.57451    0.005
 6821.00    0.50137   0.57570    0.005
 6822.00    0.51387   0.57650    0.005
 6823.00    0.52627   0.57701    0.005
 6824.00    0.53864   0.57715    0.005
 6825.00    0.53663   0.57656    0.005
 6826.00    0.52878   0.57493    0.005
 6827.00    0.52836   0.57228    0.005
 6828.00    0.53053   0.56898    0.005
 6829.00    0.55449   0.56581    0.005
 6830.00    0.58482   0.56360    0.006
 6831.00    0.58462   0.56306    0.006
 6832.00    0.57703   0.56435    0.006
 6833.00    0.59578   0.56681    0.006
 6834.00    0.61969   0.56936    0.005
 6835.00    0.59744   0.57118    0.006
 6836.00    0.56816   0.57207    0.006
 6837.00    0.56699   0.57235    0.006
 6838.00    0.56898   0.57232    0.006
 6839.00    0.59111   0.57203    0.006
 6840.00    0.61475   0.57138    0.006
 6841.00    0.55765   0.57016    0.006
 6842.00    0.49734   0.56827    0.006
 6843.00    0.43697   0.56598    0.005
 6844.00    0.38201   0.56395    0.005
 6845.00    0.54253   0.56286    0.005
 6846.00    0.68915   0.56285    0.005
 6847.00    0.60090   0.56326    0.005
 6848.00    0.52059   0.56344    0.005
 6849.00    0.52347   0.56332    0.005
 6850.00    0.52720   0.56339    0.005
 6851.00    0.53731   0.56439    0.005
 6852.00    0.54917   0.56634    0.005
 6853.00    0.57088   0.56833    0.005
 6854.00    0.58418   0.56923    0.005
 6855.00    0.55945   0.56863    0.005
 6856.00    0.52985   0.56718    0.005
 6857.00    0.48223   0.56582    0.005
 6858.00    0.44528   0.56505    0.005
 6859.00    0.44133   0.56476    0.005
 6860.00    0.46383   0.56461    0.005
 6861.00    0.55595   0.56455    0.005
 6862.00    0.62501   0.56495    0.005
 6863.00    0.64198   0.56607    0.005
 6864.00    0.63992   0.56775    0.005
 6865.00    0.60058   0.56977    0.005
 6866.00    0.58804   0.57168    0.005
 6867.00    0.62123   0.57294    0.005
 6868.00    0.61590   0.57304    0.005
 6869.00    0.55301   0.57182    0.005
 6870.00    0.50300   0.56972    0.005
 6871.00    0.46992   0.56760    0.005
 6872.00    0.46938   0.56631    0.005
 6873.00    0.50652   0.56609    0.005
 6874.00    0.52415   0.56670    0.005
 6875.00    0.52188   0.56784    0.005
 6876.00    0.52298   0.56932    0.005
 6877.00    0.52712   0.57109    0.005
 6878.00    0.50248   0.57289    0.005
 6879.00    0.45500   0.57427    0.005
 6880.00    0.45533   0.57504    0.005
 6881.00    0.48901   0.57513    0.005
 6882.00    0.51989   0.57462    0.005
 6883.00    0.54907   0.57382    0.005
 6884.00    0.54867   0.57299    0.005
 6885.00    0.53248   0.57232    0.005
 6886.00    0.52528   0.57182    0.005
 6887.00    0.52226   0.57136    0.005
 6888.00    0.53989   0.57091    0.005
 6889.00    0.56578   0.57056    0.005
 6890.00    0.54960   0.57066    0.005
 6891.00    0.51908   0.57142    0.005
 6892.00    0.53935   0.57254    0.005
 6893.00    0.57417   0.57363    0.005
 6894.00    0.56887   0.57463    0.005
 6895.00    0.55407   0.57568    0.005
 6896.00    0.53197   0.57676    0.005
 6897.00    0.50848   0.57736    0.005
 6898.00    0.52491   0.57715    0.005
 6899.00    0.54723   0.57611    0.005
 6900.00    0.57403   0.57431    0.005
 6901.00    0.60132   0.57199    0.005
 6902.00    0.61957   0.56949    0.005
 6903.00    0.63717   0.56735    0.005
 6904.00    0.60365   0.56637    0.005
 6905.00    0.56829   0.56656    0.005
 6906.00    0.51317   0.56748    0.005
 6907.00    0.45934   0.56879    0.005
 6908.00    0.45278   0.57012    0.005
 6909.00    0.44626   0.57123    0.005
 6910.00    0.44058   0.57181    0.005
 6911.00    0.43589   0.57136    0.005
 6912.00    0.44115   0.56996    0.005
 6913.00    0.44625   0.56828    0.005
 6914.00    0.45022   0.56752    0.005
 6915.00    0.44904   0.56824    0.005
 6916.00    0.41945   0.57021    0.005
 6917.00    0.39373   0.57239    0.005
 6918.00    0.38513   0.57377    0.005
 6919.00    0.39107   0.57394    0.005
 6920.00    0.44968   0.57313    0.005
 6921.00    0.48754   0.57202    0.005
 6922.00    0.46236   0.57125    0.005
 6923.00    0.44085   0.57127    0.005
 6924.00    0.42882   0.57180    0.005
 6925.00    0.41430   0.57236    0.005
 6926.00    0.39426   0.57281    0.005
 6927.00    0.40804   0.57317    0.005
 6928.00    0.48701   0.57355    0.005
 6929.00    0.52284   0.57379    0.005
 6930.00    0.48618   0.57346    0.005
 6931.00    0.48278   0.57223    0.005
 6932.00    0.52835   0.57030    0.005
 6933.00    0.54769   0.56843    0.005
 6934.00    0.53307   0.56776    0.005
 6935.00    0.51964   0.56899    0.005
 6936.00    0.50760   0.57136    0.005
 6937.00    0.47967   0.57351    0.005
 6938.00    0.43577   0.57452    0.005
 6939.00    0.45316   0.57421    0.005
 6940.00    0.52495   0.57308    0.005
 6941.00    0.56020   0.57191    0.005
 6942.00    0.56689   0.57110    0.005
 6943.00    0.57495   0.57085    0.005
 6944.00    0.58397   0.57128    0.005
 6945.00    0.56282   0.57224    0.005
 6946.00    0.52350   0.57328    0.005
 6947.00    0.50323   0.57415    0.005
 6948.00    0.49298   0.57478    0.005
 6949.00    0.48094   0.57527    0.005
 6950.00    0.46809   0.57577    0.005
 6951.00    0.52730   0.57616    0.005
 6952.00    0.61481   0.57635    0.005
 6953.00    0.63628   0.57630    0.005
 6954.00    0.63566   0.57614    0.005
 6955.00    0.57779   0.57624    0.005
 6956.00    0.50385   0.57661    0.005
 6957.00    0.42650   0.57707    0.005
 6958.00    0.34838   0.57723    0.005
 6959.00    0.39667   0.57702    0.005
 6960.00    0.46844   0.57660    0.005
 6961.00    0.48155   0.57608    0.005
 6962.00    0.48627   0.57514    0.005
 6963.00    0.49317   0.57317    0.005
 6964.00    0.50029   0.56970    0.005
 6965.00    0.45821   0.56504    0.005
 6966.00    0.41285   0.56034    0.005
 6967.00    0.43505   0.55724    0.005
 6968.00    0.45941   0.55742    0.005
 6969.00    0.48558   0.56095    0.005
 6970.00    0.50914   0.56630    0.005
 6971.00    0.45282   0.57156    0.005
 6972.00    0.39925   0.57543    0.005
 6973.00    0.38669   0.57754    0.005
 6974.00    0.37698   0.57814    0.005
 6975.00    0.39476   0.57756    0.005
 6976.00    0.41855   0.57612    0.005
 6977.00    0.48419   0.57429    0.005
 6978.00    0.53471   0.57290    0.005
 6979.00    0.50404   0.57255    0.006
 6980.00    0.49963   0.57314    0.006
 6981.00    0.60834   0.57404    0.006
 6982.00    0.68491   0.57460    0.006
 6983.00    0.64734   0.57467    0.005
 6984.00    0.60702   0.57457    0.005
 6985.00    0.55847   0.57430    0.005
 6986.00    0.51338   0.57358    0.005
 6987.00    0.47704   0.57222    0.005
 6988.00    0.46066   0.57060    0.005
 6989.00    0.48793   0.56949    0.005
 6990.00    0.48669   0.56922    0.005
 6991.00    0.43137   0.56938    0.005
 6992.00    0.40082   0.56919    0.005
 6993.00    0.41129   0.56848    0.005
 6994.00    0.42486   0.56785    0.005
 6995.00    0.44292   0.56788    0.005
 6996.00    0.49093   0.56880    0.005
 6997.00    0.57717   0.57016    0.005
 6998.00    0.57368   0.57133    0.005
 6999.00    0.46926   0.57188    0.005
 7000.00    0.42016   0.57167    0.005
 7001.00    0.42592   0.57069    0.005
 7002.00    0.47254   0.56871    0.005
 7003.00    0.55489   0.56576    0.005
 7004.00    0.56666   0.56261    0.005
 7005.00    0.52402   0.56086    0.005
 7006.00    0.49159   0.56190    0.005
 7007.00    0.46608   0.56533    0.005
 7008.00    0.45439   0.56942    0.005
 7009.00    0.45091   0.57229    0.005
 7010.00    0.40944   0.57287    0.005
 7011.00    0.34828   0.57162    0.005
 7012.00    0.35232   0.56976    0.005
 7013.00    0.38562   0.56860    0.005
 7014.00    0.45258   0.56879    0.005
 7015.00    0.53253   0.57005    0.005
 7016.00    0.49000   0.57174    0.006
 7017.00    0.40728   0.57338    0.006
 7018.00    0.34558   0.57475    0.006
 7019.00    0.28967   0.57577    0.005
 7020.00    0.33044   0.57629    0.006
 7021.00    0.39306   0.57626    0.006
 7022.00    0.44825   0.57584    0.006
 7023.00    0.50210   0.57512    0.006
 7024.00    0.50567   0.57405    0.006
 7025.00    0.50228   0.57260    0.006
 7026.00    0.52531   0.57124    0.005
 7027.00    0.55097   0.57123    0.005
 7028.00    0.56510   0.57368    0.006
 7029.00    0.57851   0.57816    0.006
 7030.00    0.48690   0.58312    0.006
 7031.00    0.39283   0.58693    0.006
 7032.00    0.43746   0.58879    0.006
 7033.00    0.47915   0.58922    0.006
 7034.00    0.44010   0.58932    0.006
 7035.00    0.40694   0.58970    0.006
 7036.00    0.45637   0.59018    0.006
 7037.00    0.50039   0.59003    0.006
 7038.00    0.49439   0.58850    0.006
 7039.00    0.49175   0.58535    0.006
 7040.00    0.51178   0.58065    0.006
 7041.00    0.52305   0.57509    0.006
 7042.00    0.48847   0.56974    0.006
 7043.00    0.47075   0.56553    0.006
 7044.00    0.52399   0.56299    0.006
 7045.00    0.56358   0.56185    0.006
 7046.00    0.55568   0.56110    0.006
 7047.00    0.54412   0.55985    0.006
 7048.00    0.52183   0.55804    0.006
 7049.00    0.50499   0.55634    0.006
 7050.00    0.50173   0.55554   -2.000
 7051.00    0.50573   0.55580   -2.000
 7052.00    0.52535   0.55668   -2.000
 7053.00    0.56446   0.55736   -2.000
 7054.00    0.64000   0.55716   -2.000
 7055.00    0.69427   0.55631   -2.000
 7056.00    0.71386   0.55530   -2.000
 7057.00    0.68799   0.55503   -2.000
 7058.00    0.59708   0.55620   -2.000
 7059.00    0.58385   0.55854   -2.000
 7060.00    0.66835   0.56134   -2.000
 7061.00    0.65304   0.56381   -2.000
 7062.00    0.52705   0.56540   -2.000
 7063.00    0.47735   0.56599   -2.000
 7064.00    0.50227   0.56586   -2.000
 7065.00    0.55617   0.56543   -2.000
 7066.00    0.63507   0.56502   -2.000
 7067.00    0.63657   0.56468   -2.000
 7068.00    0.57927   0.56415   -2.000
 7069.00    0.50413   0.56290   -2.000
 7070.00    0.41709   0.56036   -2.000
 7071.00    0.43116   0.55629   -2.000
 7072.00    0.50436   0.55108   -2.000
 7073.00    0.60189   0.54579   -2.000
 7074.00    0.71183   0.54137   -2.000
 7075.00    0.63056   0.53778   -2.000
 7076.00    0.46486   0.53466   -2.000
 7077.00    0.49419   0.53173   -2.000
 7078.00    0.59747   0.52918   -2.000
 7079.00    0.64102   0.52743   -2.000
 7080.00    0.66533   0.52679   -2.000
 7081.00    0.56708   0.52680   -2.000
 7082.00    0.43582   0.52709   -2.000
 7083.00    0.44152   0.52740   -2.000
 7084.00    0.47746   0.52788   -2.000
 7085.00    0.57163   0.52905   -2.000
 7086.00    0.67603   0.53123   -2.000
 7087.00    0.64814   0.53455   -2.000
 7088.00    0.60252   0.53784   -2.000
 7089.00    0.59596   0.54023   -2.000
 7090.00    0.59310   0.54141   -2.000
 7091.00    0.61068   0.54179   -2.000
 7092.00    0.62945   0.54224   -2.000
 7093.00    0.64985   0.54309   -2.000
 7094.00    0.66922   0.54405   -2.000
 7095.00    0.54390   0.54467   -2.000
 7096.00    0.42580   0.54474   -2.000
 7097.00    0.48698   0.54416   -2.000
 7098.00    0.54129   0.54302   -2.000
 7099.00    0.50441   0.54181   -2.000
 7100.00    0.46985   0.54126   -2.000
 7101.00    0.45592   0.54180   -2.000
 7102.00    0.43741   0.54327   -2.000
 7103.00    0.38901   0.54520   -2.000
 7104.00    0.35889   0.54718   -2.000
 7105.00    0.42186   0.54875   -2.000
 7106.00    0.47781   0.54961   -2.000
 7107.00    0.50487   0.54966   -2.000
 7108.00    0.53755   0.54894   -2.000
 7109.00    0.58940   0.54766   -2.000
 7110.00    0.61797   0.54621   -2.000
 7111.00    0.57968   0.54501   -2.000
 7112.00    0.53126   0.54373   -2.000
 7113.00    0.45800   0.54169   -2.000
 7114.00    0.41450   0.53885   -2.000
 7115.00    0.43402   0.53556   -2.000
 7116.00    0.45967   0.53235   -2.000
 7117.00    0.49659   0.52943   -2.000
 7118.00    0.50891   0.52701   -2.000
 7119.00    0.48171   0.52556   -2.000
 7120.00    0.50757   0.52570   -2.000
 7121.00    0.60823   0.52742   -2.000
 7122.00    0.69531   0.53016   -2.000
 7123.00    0.76557   0.53295   -2.000
 7124.00    0.83085   0.53501   -2.000
 7125.00    0.89071   0.53614   -2.000
 7126.00    0.79777   0.53633   -2.000
 7127.00    0.55748   0.53617   -2.000
 7128.00    0.48839   0.53628   -2.000
 7129.00    0.56489   0.53692   -2.000
 7130.00    0.61943   0.53791   -2.000
 7131.00    0.65754   0.53888   -2.000
 7132.00    0.71023   0.53929   -2.000
 7133.00    0.77252   0.53869   -2.000
 7134.00    0.69048   0.53695   -2.000
 7135.00    0.52530   0.53417   -2.000
 7136.00    0.53000   0.53147   -2.000
 7137.00    0.61995   0.53052   -2.000
 7138.00    0.74224   0.53195   -2.000
 7139.00    0.87858   0.53537   -2.000
 7140.00    0.77829   0.53971   -2.000
 7141.00    0.58984   0.54371   -2.000
 7142.00    0.53617   0.54677   -2.000
 7143.00    0.52508   0.54901   -2.000
 7144.00    0.54598   0.55070   -2.000
 7145.00    0.57530   0.55185   -2.000
 7146.00    0.58561   0.55214   -2.000
 7147.00    0.59183   0.55145   -2.000
 7148.00    0.52598   0.54986   -2.000
 7149.00    0.44780   0.54761   -2.000
 7150.00    0.45436   0.54445   -2.000
 7151.00    0.47188   0.53994   -2.000
 7152.00    0.52963   0.53493   -2.000
 7153.00    0.59104   0.53084   -2.000
 7154.00    0.58034   0.52928   -2.000
 7155.00    0.56570   0.53039   -2.000
 7156.00    0.51493   0.53293   -2.000
 7157.00    0.46396   0.53557   -2.000
 7158.00    0.46326   0.53767   -2.000
 7159.00    0.46781   0.53930   -2.000
 7160.00    0.59161   0.54062   -2.000
 7161.00    0.70790   0.54145   -2.000
 7162.00    0.72975   0.54147   -2.000
 7163.00    0.74206   0.54070   -2.000
 7164.00    0.67302   0.53957   -2.000
 7165.00    0.59034   0.53852   -2.000
 7166.00    0.42129   0.53744   -2.000
 7167.00    0.32798   0.53598   -2.000
 7168.00    0.61072   0.53414   -2.000
 7169.00    0.82447   0.53263   -2.000
 7170.00    0.76046   0.53241   -2.000
 7171.00    0.67856   0.53373   -2.000
 7172.00    0.53692   0.53551   -2.000
 7173.00    0.43980   0.53625   -2.000
 7174.00    0.46829   0.53491   -2.000
 7175.00    0.50480   0.53183   -2.000
 7176.00    0.56060   0.52870   -2.000
 7177.00    0.58984   0.52709   -2.000
 7178.00    0.56376   0.52777   -2.000
 7179.00    0.54954   0.53018   -2.000
 7180.00    0.55680   0.53296   -2.000
 7181.00    0.52112   0.53524   -2.000
 7182.00    0.41746   0.53660   -2.000
 7183.00    0.35973   0.53708   -2.000
 7184.00    0.36581   0.53676   -2.000
 7185.00    0.44168   0.53598   -2.000
 7186.00    0.60290   0.53513   -2.000
 7187.00    0.66145   0.53436   -2.000
 7188.00    0.60935   0.53362   -2.000
 7189.00    0.55853   0.53267   -2.000
 7190.00    0.50891   0.53184   -2.000
 7191.00    0.49814   0.53167   -2.000
 7192.00    0.51996   0.53194   -2.000
 7193.00    0.51711   0.53171   -2.000
 7194.00    0.49608   0.52999   -2.000
 7195.00    0.47127   0.52710   -2.000
 7196.00    0.44402   0.52472   -2.000
 7197.00    0.47659   0.52441   -2.000
 7198.00    0.54309   0.52671   -2.000
 7199.00    0.56152   0.53041   -2.000
 7200.00    0.55621   0.53375   -2.000
 7201.00    0.71688   0.53587   -2.000
 7202.00    0.94843   0.53667   -2.000
 7203.00    0.76707   0.53693   -2.000
 7204.00    0.43462   0.53749   -2.000
 7205.00    0.33525   0.53867   -2.000
 7206.00    0.30809   0.54014   -2.000
 7207.00    0.36066   0.54141   -2.000
 7208.00    0.43380   0.54215   -2.000
 7209.00    0.42286   0.54227   -2.000
 7210.00    0.39424   0.54211   -2.000
 7211.00    0.54160   0.54222   -2.000
 7212.00    0.71819   0.54293   -2.000
 7213.00    0.60319   0.54419   -2.000
 7214.00    0.45175   0.54565   -2.000
 7215.00    0.50158   0.54672   -2.000
 7216.00    0.56884   0.54705   -2.000
 7217.00    0.53555   0.54708   -2.000
 7218.00    0.49714   0.54737   -2.000
