###################################################################
## OUTPUT of StarlightChains_v04.for    [Cid@UFSC - 01/Apr/2007] ##
###################################################################

## Some input info
KUG0210-078._28_40.txt                   [arq_obs]
Base.CB07.vall.4m                        [arq_base]
Masks.EmLines.NEW.gm                     [arq_masks]
StCv04.C11.config                        [arq_config]
   66                                    [N_base]
    0                                    [N_YAV_components = # of components with extra extinction!]
    0                                    [i_FitPowerLaw (1/0 = Yes/No)]
-9.99                                    [alpha_PowerLaw]
CCM                                      [red_law_option]
 1.458241                                [q_norm = A(l_norm)/A(V)]

## (Re)Sampling Parameters
 3741.00                                 [l_ini (A)]
 7218.00                                 [l_fin (A)]
    1.00                                 [dl    (A)]     (OBS: dl_cushion =    50.00 A)

## Normalization info
 4020.00                                 [l_norm (A) - for base]
 4010.00                                 [llow_norm (A) - window for f_obs]
 4060.00                                 [lupp_norm (A) - window for f_obs]
1.283085E-17                             [fobs_norm (in input units)]

## S/N
 3691.00                                 [llow_SN (A) - window for S/N]
 7268.00                                 [lupp_SN (A) - window for S/N]
   4.452                                 [S/N in S/N window]
   4.195                                 [S/N in norm. window]
   0.017                                 [S/N_err in S/N window]
   0.016                                 [S/N_err in norm. window]
  1.0000                                 [fscale_chi2]

## etc...
    -2007388                             [idum_orig]
  2430                                   [NOl_eff]
  2414                                   [Nl_eff]
    16    NSIGMA                         [Ntot_cliped & clip_method]
   649530                                [Nglobal_steps]
   7                                     [N_chains]
  12                                     [NEX0s_base = N_base in EX0s-fits]
 0   0   1       16   2.0   2.126E+03    [Clip-Bug, RC-Crash & Burn-In warning-flags, n_censored_weights, wei_nsig_threshold & wei_limit]
    15     14.969     14.557      0.412  [idt_all, wdt_TotTime, wdt_UsrTime & wdt_SysTime (sec)]

## Synthesis Results - Best model ##

 1.04570E-05                             [chi2/Nl_eff]
    12.15419                             [adev (%)]

   130.00000                             [sum-of-x (%)]
 4.35414E-18                             [Flux_tot (units of input spectrum!)]
 2.62895E-13                             [Mini_tot (???)]
 1.34142E-13                             [Mcor_tot (???)]

 -73.92                                  [v0_min  (km/s)]
 232.98                                  [vd_min  (km/s)]
-1.0000                                  [AV_min  (mag)]
 0.0000                                  [YAV_min (mag)]

# j     x_j(%)      Mini_j(%)     Mcor_j(%)     age_j(yr)     Z_j      (L/M)_j    YAV?  Mstars   component_j        a/Fe...       SSP_chi2r SSP_adev(%)   SSP_AV   SSP_x(%)
  1      0.0000     0.0000E+00    0.0000E+00    1.000000E+06  0.00400  1.094E-02    0   1.0000   age020_m42            0.0000     2.1614E-05    17.8523   2.8662   108.4418
  2      0.0000     0.0000E+00    0.0000E+00    3.160000E+06  0.00400  4.007E-02    0   0.9999   age045_m42            0.0000     1.8328E-05    16.6095   2.1153   116.9102
  3      0.0000     0.0000E+00    0.0000E+00    5.010000E+06  0.00400  2.539E-02    0   0.9488   age055_m42            0.0000     1.9872E-05    17.2664   2.4493   113.4852
  4      0.0000     0.0000E+00    0.0000E+00    6.610000E+06  0.00400  2.620E-02    0   0.9220   age061_m42            0.0000     1.8462E-05    16.7139   2.0459   116.9816
  5      0.0000     0.0000E+00    0.0000E+00    1.000000E+07  0.00400  1.322E-02    0   0.8862   age070_m42            0.0000     2.0224E-05    18.2765   1.8110   117.6910
  6      0.0000     0.0000E+00    0.0000E+00    1.445000E+07  0.00400  7.883E-03    0   0.8571   age078_m42            0.0000     2.0876E-05    18.4168   2.1368   114.7290
  7      0.0000     0.0000E+00    0.0000E+00    2.512000E+07  0.00400  5.251E-03    0   0.8174   age090_m42            0.0000     2.0343E-05    18.4823   1.6859   118.1718
  8      0.0000     0.0000E+00    0.0000E+00    4.000000E+07  0.00400  3.649E-03    0   0.7851   age104_m42            0.0000     1.9532E-05    18.0983   1.4510   119.4992
  9      0.0000     0.0000E+00    0.0000E+00    5.500000E+07  0.00400  3.098E-03    0   0.7629   age110_m42            0.0000     1.8436E-05    17.1405   1.5772   120.5536
 10      0.0000     0.0000E+00    0.0000E+00    1.015200E+08  0.00400  2.228E-03    0   0.7207   age116_m42            0.0000     1.7757E-05    16.5486   1.5817   121.3868
 11      0.0000     0.0000E+00    0.0000E+00    2.861200E+08  0.00400  1.093E-03    0   0.6648   age125_m42            0.0000     1.7424E-05    16.7472   1.0213   124.5652
 12      0.0000     0.0000E+00    0.0000E+00    5.088000E+08  0.00400  6.597E-04    0   0.6365   age130_m42            0.0000     1.6186E-05    15.7700   0.9838   126.7731
 13      0.0000     0.0000E+00    0.0000E+00    1.434000E+09  0.00400  2.132E-04    0   0.5798   age139_m42            0.0000     1.3786E-05    14.7981  -0.0046   130.0469
 14      0.0000     0.0000E+00    0.0000E+00    4.250000E+09  0.00400  5.895E-05    0   0.5377   age158_m42            0.0000     1.2528E-05    13.8485  -0.4690   125.8858
 15     12.8235     4.6545E+00    4.7544E+00    7.500000E+09  0.00400  3.510E-05    0   0.5212   age171_m42            0.0000     1.2029E-05    13.3896  -0.6726   125.6151
 16      0.0000     0.0000E+00    0.0000E+00    1.300000E+10  0.00400  2.005E-05    0   0.5034   age193_m42            0.0000     1.1766E-05    13.0841  -0.8498   125.3708
 17      0.0000     0.0000E+00    0.0000E+00    1.800000E+10  0.00400  1.525E-05    0   0.4967   age213_m42            0.0000     1.1908E-05    13.2337  -0.8689   124.6619
 18      0.0000     0.0000E+00    0.0000E+00    1.000000E+06  0.00800  1.238E-02    0   1.0000   age020_m52            0.0000     2.1649E-05    17.8566   2.8626   108.6567
 19      0.0000     0.0000E+00    0.0000E+00    3.160000E+06  0.00800  3.074E-02    0   0.9966   age045_m52            0.0000     2.1387E-05    17.7583   2.7835   109.7303
 20      0.0000     0.0000E+00    0.0000E+00    5.010000E+06  0.00800  2.668E-02    0   0.9443   age055_m52            0.0000     2.0388E-05    17.5094   2.5374   112.2746
 21      0.0000     0.0000E+00    0.0000E+00    6.610000E+06  0.00800  2.136E-02    0   0.9177   age061_m52            0.0000     1.9426E-05    18.0573   1.3090   119.1549
 22      0.0000     0.0000E+00    0.0000E+00    1.000000E+07  0.00800  1.215E-02    0   0.8827   age070_m52            0.0000     2.1213E-05    18.9280   2.0043   116.8703
 23      0.0000     0.0000E+00    0.0000E+00    1.445000E+07  0.00800  8.717E-03    0   0.8552   age078_m52            0.0000     2.0614E-05    18.3716   2.1020   116.3532
 24      0.0000     0.0000E+00    0.0000E+00    2.512000E+07  0.00800  5.592E-03    0   0.8162   age090_m52            0.0000     2.0249E-05    18.5332   1.7503   119.5649
 25      0.0000     0.0000E+00    0.0000E+00    4.000000E+07  0.00800  3.896E-03    0   0.7841   age104_m52            0.0000     1.9186E-05    17.9144   1.6484   121.0579
 26      0.0000     0.0000E+00    0.0000E+00    1.015200E+08  0.00800  2.148E-03    0   0.7226   age116_m52            0.0000     1.7832E-05    16.9022   1.5617   121.8447
 27      0.0000     0.0000E+00    0.0000E+00    2.861200E+08  0.00800  9.925E-04    0   0.6683   age125_m52            0.0000     1.6199E-05    15.7916   1.0490   127.9425
 28      0.0000     0.0000E+00    0.0000E+00    9.047900E+08  0.00800  3.141E-04    0   0.6138   age135_m52            0.0000     1.2864E-05    13.9018   0.1995   135.4919
 29     16.9877     1.2590E+00    1.4442E+00    1.434000E+09  0.00800  1.719E-04    0   0.5853   age139_m52            0.0000     1.2330E-05    13.8788  -0.3743   132.3171
 30      0.0000     0.0000E+00    0.0000E+00    2.500000E+09  0.00800  7.872E-05    0   0.5600   age150_m52            0.0000     1.1411E-05    12.9032  -0.6730   130.0104
 31      0.0000     0.0000E+00    0.0000E+00    4.250000E+09  0.00800  4.336E-05    0   0.5426   age158_m52            0.0000     1.1415E-05    12.9020  -0.6888   128.8030
 32     12.3560     4.9831E+00    5.1946E+00    6.250000E+09  0.00800  3.159E-05    0   0.5319   age166_m52            0.0000     1.0841E-05    12.3432  -0.9165   129.7878
 33      0.0000     0.0000E+00    0.0000E+00    1.300000E+10  0.00800  1.361E-05    0   0.5073   age193_m52            0.0000     1.3576E-05    17.0488  -1.0000   117.2229
 34      0.0000     0.0000E+00    0.0000E+00    1.800000E+10  0.00800  9.886E-06    0   0.4990   age213_m52            0.0000     1.5621E-05    18.5184  -1.0000   113.2178
 35      0.0000     0.0000E+00    0.0000E+00    1.000000E+06  0.02000  1.544E-02    0   1.0000   age020_m62            0.0000     2.1793E-05    17.8968   2.8589   108.8953
 36      0.0000     0.0000E+00    0.0000E+00    3.160000E+06  0.02000  3.762E-02    0   0.9858   age045_m62            0.0000     2.1811E-05    17.8765   2.7959   109.9386
 37      0.0000     0.0000E+00    0.0000E+00    5.010000E+06  0.02000  3.296E-02    0   0.9342   age055_m62            0.0000     1.9254E-05    16.9035   2.3999   115.2728
 38      0.0000     0.0000E+00    0.0000E+00    8.710000E+06  0.02000  1.154E-02    0   0.8861   age067_m62            0.0000     2.7023E-05    22.7544   1.5360   116.8973
 39      0.0000     0.0000E+00    0.0000E+00    1.445000E+07  0.02000  7.663E-03    0   0.8472   age078_m62            0.0000     2.2249E-05    19.8951   1.6726   118.6448
 40      0.0000     0.0000E+00    0.0000E+00    2.512000E+07  0.02000  4.532E-03    0   0.8099   age090_m62            0.0000     2.2407E-05    20.0127   1.6667   118.1932
 41      0.0000     0.0000E+00    0.0000E+00    5.500000E+07  0.02000  2.733E-03    0   0.7595   age110_m62            0.0000     1.9452E-05    18.0280   1.6348   120.0102
 42      0.0000     0.0000E+00    0.0000E+00    1.609000E+08  0.02000  1.369E-03    0   0.6985   age120_m62            0.0000     1.7560E-05    16.5538   1.4347   124.9251
 43      0.0000     0.0000E+00    0.0000E+00    2.861200E+08  0.02000  9.013E-04    0   0.6714   age125_m62            0.0000     1.6486E-05    15.7099   1.1588   129.6567
 44      0.0000     0.0000E+00    0.0000E+00    5.088000E+08  0.02000  5.028E-04    0   0.6449   age130_m62            0.0000     1.4141E-05    14.0521   0.7300   135.3482
 45      0.0000     0.0000E+00    0.0000E+00    9.047900E+08  0.02000  2.428E-04    0   0.6179   age135_m62            0.0000     1.1962E-05    13.1443   0.1245   135.2804
 46      0.0000     0.0000E+00    0.0000E+00    1.434000E+09  0.02000  1.263E-04    0   0.5908   age139_m62            0.0000     1.1501E-05    12.9508  -0.3233   133.3432
 47      0.0000     0.0000E+00    0.0000E+00    2.500000E+09  0.02000  5.985E-05    0   0.5673   age150_m62            0.0000     1.0929E-05    12.3644  -0.7183   132.6398
 48      0.0000     0.0000E+00    0.0000E+00    4.250000E+09  0.02000  3.271E-05    0   0.5468   age158_m62            0.0000     1.0468E-05    12.2231  -1.0000   131.1471
 49      0.0000     0.0000E+00    0.0000E+00    1.000000E+10  0.02000  1.360E-05    0   0.5167   age181_m62            0.0000     1.3772E-05    16.2865  -1.0000   119.7160
 50     45.4973     8.1365E+01    7.9938E+01    1.800000E+10  0.02000  7.124E-06    0   0.5013   age213_m62            0.0000     1.8709E-05    19.5772  -1.0000   111.7358
 51      0.0000     0.0000E+00    0.0000E+00    1.000000E+06  0.05000  2.592E-02    0   0.9998   age020_m72            0.0000     2.2204E-05    18.0673   2.8544   108.7859
 52      0.0000     0.0000E+00    0.0000E+00    3.160000E+06  0.05000  4.845E-02    0   0.9577   age045_m72            0.0000     2.0694E-05    17.4313   2.6689   111.7795
 53      0.0000     0.0000E+00    0.0000E+00    5.010000E+06  0.05000  3.072E-02    0   0.9147   age055_m72            0.0000     2.1966E-05    19.0585   2.2336   114.9332
 54      0.0000     0.0000E+00    0.0000E+00    6.610000E+06  0.05000  1.455E-02    0   0.8877   age061_m72            0.0000     3.0439E-05    24.2783   1.5973   116.7905
 55      0.0000     0.0000E+00    0.0000E+00    1.000000E+07  0.05000  9.074E-03    0   0.8524   age070_m72            0.0000     2.2296E-05    19.0464   2.4058   114.7008
 56      0.0000     0.0000E+00    0.0000E+00    2.512000E+07  0.05000  4.250E-03    0   0.7902   age090_m72            0.0000     2.0914E-05    18.6731   2.1057   117.1140
 57      0.0000     0.0000E+00    0.0000E+00    4.000000E+07  0.05000  3.087E-03    0   0.7618   age104_m72            0.0000     2.0760E-05    18.7395   1.8796   119.0155
 58      0.0000     0.0000E+00    0.0000E+00    1.015200E+08  0.05000  1.700E-03    0   0.7096   age116_m72            0.0000     1.8400E-05    17.1833   1.5919   123.7609
 59      0.0000     0.0000E+00    0.0000E+00    2.861200E+08  0.05000  7.384E-04    0   0.6633   age125_m72            0.0000     1.5212E-05    14.8211   0.9993   132.6284
 60      0.0000     0.0000E+00    0.0000E+00    5.088000E+08  0.05000  3.819E-04    0   0.6372   age130_m72            0.0000     1.2772E-05    13.4439   0.4668   136.5663
 61     19.6338     1.4925E+00    1.7872E+00    9.047900E+08  0.05000  1.676E-04    0   0.6110   age135_m72            0.0000     1.0989E-05    12.3823  -0.2681   135.6734
 62      3.7421     5.3950E-01    6.2107E-01    1.434000E+09  0.05000  8.837E-05    0   0.5874   age139_m72            0.0000     1.0784E-05    12.2487  -0.7302   135.0893
 63     18.9596     5.7063E+00    6.2605E+00    2.500000E+09  0.05000  4.233E-05    0   0.5598   age150_m72            0.0000     1.0396E-05    12.1476  -1.0000   132.4723
 64      0.0000     0.0000E+00    0.0000E+00    6.250000E+09  0.05000  1.435E-05    0   0.5249   age166_m72            0.0000     1.5701E-05    17.7938  -1.0000   116.0212
 65      0.0000     0.0000E+00    0.0000E+00    1.300000E+10  0.05000  6.513E-06    0   0.5036   age193_m72            0.0000     2.3886E-05    22.4203  -1.0000   107.3402
 66      0.0000     0.0000E+00    0.0000E+00    1.800000E+10  0.05000  4.527E-06    0   0.4945   age213_m72            0.0000     3.0028E-05    25.1718  -1.0000   101.3624


## Synthesis Results - Average & Chains ##

# j      x_j: min, <> & last-chain-values for 1 ...  7 chains
  1      0.0000      1.5412      4.9541      5.9297      5.3642      4.7604      5.3019      5.1414      3.2142
  2      0.0000      1.8075      0.0000      0.0000      0.0000      0.0000      0.0000      0.0000      0.0000
  3      0.0000      1.7233      0.0000      0.0000      0.0000      0.0000      0.0000      0.0000      0.0000
  4      0.0000      1.5203      0.0000      0.0000      0.0000      0.0000      0.0000      0.0000      0.0000
  5      0.0000      1.6638      0.0000      0.0000      0.0000      0.0348      0.0000      0.0000      0.0437
  6      0.0000      1.9903      0.0000      0.0167      0.0758      0.0000      0.0000      0.0000      0.0000
  7      0.0000      1.8825      0.0000      0.0000      0.0000      0.0000      0.0000      0.0000      0.0000
  8      0.0000      1.6269      0.0000      0.0000      0.0397      0.0000      0.0000      0.0000      0.0000
  9      0.0000      2.0967      0.0000      0.0000      0.0000      0.0000      0.0000      0.0000      0.0000
 10      0.0000      1.5320      0.0000      0.0000      0.0021      0.0000      0.0000      0.0000      0.0000
 11      0.0000      1.5490      0.0000      0.0000      0.0000      0.0000      0.0000      0.0000      0.0000
 12      0.0000      1.6926      0.0000      0.0000      0.0000      0.0000      0.0000      0.0000      0.0000
 13      0.0000      1.5611      0.0000      0.0000      0.0000      0.0000      0.0000      0.0000      0.0760
 14      0.0000      4.2773     21.5369     22.3532     20.9207     21.8343     20.5677     19.6622     22.0551
 15     12.8235      4.2791     18.8085     20.4515     19.8688     20.0117     21.9620     21.3512     21.3078
 16      0.0000      1.6073      0.0000      0.0843      0.1133      0.1437      1.1717      0.1551      0.0000
 17      0.0000      1.6895      3.6198      4.5116      3.9824      3.7878      2.9892      3.9125      4.2499
 18      0.0000      1.8050      0.0000      0.0000      0.0188      0.0000      0.0014      0.0000      0.0264
 19      0.0000      1.8468      0.0000      0.0000      0.0000      0.0000      0.0000      0.0000      0.0172
 20      0.0000      2.1455      0.0000      0.0000      0.0000      0.0000      0.0000      0.0000      0.0000
 21      0.0000      1.2873      0.0000      0.0058      0.0000      0.0000      0.0000      0.0000      0.0000
 22      0.0000      1.4383      0.0000      0.0000      0.0000      0.0000      0.0000      0.0000      0.0000
 23      0.0000      1.7564      0.0000      0.0000      0.0000      0.0000      0.0000      0.0000      0.0000
 24      0.0000      1.5858      0.0045      0.0000      0.0000      0.0000      0.0000      0.0000      0.0000
 25      0.0000      1.4224      0.0000      0.0000      0.0000      0.0000      0.0000      0.0000      0.0000
 26      0.0000      1.6833      0.0000      0.0000      0.0000      0.0000      0.0000      0.0441      0.0000
 27      0.0000      2.0307      0.1728      0.0000      0.0000      0.0000      0.0000      0.0000      0.0000
 28      0.0000      1.8851      0.0000      0.0000      0.1030      0.0000      0.0000      0.0000      0.0000
 29     16.9877      2.2221      0.0000      0.0000      0.0000      0.0000      0.0000      1.8957      0.0000
 30      0.0000      2.3219      0.0424      0.0000      0.0000      0.0000      0.0000      0.0000      0.0000
 31      0.0000      1.8356      0.0000      0.0998      0.1218      1.0047      0.2776      0.1498      0.5419
 32     12.3560      1.8818     10.5616      4.7413      5.0619     10.0207      9.0356      4.2084      7.9027
 33      0.0000      1.7599      0.0000      0.0000      0.0000      0.0000      0.2038      0.0000      0.0000
 34      0.0000      1.7272      0.0000      0.0000      2.3124      0.0000      0.0000      0.0000      0.0000
 35      0.0000      2.3764      0.0000      0.0000      0.0000      0.0000      0.0000      0.0000      0.0000
 36      0.0000      1.5840      0.0000      0.0019      0.1753      0.0000      0.0000      0.0000      0.0000
 37      0.0000      1.7956      0.0000      0.0000      0.0876      0.0000      0.0000      0.0000      0.0000
 38      0.0000      1.5415      0.0000      0.0000      0.0000      0.0000      0.0000      0.0000      0.0000
 39      0.0000      2.0710      0.0000      0.0000      0.0000      0.0000      0.0000      0.0000      0.0000
 40      0.0000      1.7645      0.0189      0.0000      0.0999      0.0000      0.0000      0.0000      0.0000
 41      0.0000      1.5791      0.0000      0.0000      0.0000      0.0000      0.0000      0.0000      0.0000
 42      0.0000      2.3695      0.0000      0.0000      0.0574      0.0000      0.0000      0.0211      0.0597
 43      0.0000      1.2454      0.0139      0.0097      0.0000      0.0000      0.0000      0.0000      0.0727
 44      0.0000      1.8497      0.0000      0.0000      0.0000      0.0000      2.0009      0.0000      0.0000
 45      0.0000      1.6961      0.0000      0.0000      0.0000      0.0000      0.0000      0.0000      0.0000
 46      0.0000      1.5854      0.0000      0.0000      0.0000      0.0000      0.0000      0.0587      0.0173
 47      0.0000      2.0597      2.3883      8.1160      4.9198      5.4747      3.5715      7.5591      6.6053
 48      0.0000      3.2504     12.0455      6.7587     11.1941      6.7453      8.0654      5.9678      7.7301
 49      0.0000      3.3448      0.8376      0.5232      1.2213      0.7480      0.4234      0.9116      0.7180
 50     45.4973      1.2559      0.0000      0.0000      0.0000      0.0000      0.0000      4.9375      0.0000
 51      0.0000      1.9028      0.0000      0.0000      0.0000      0.0000      0.0000      0.0000      0.0000
 52      0.0000      1.2215      0.0000      0.0000      0.0000      0.0000      0.0000      0.0000      0.0000
 53      0.0000      1.6245      0.0000      0.0000      0.0000      0.0000      0.0000      0.0000      0.0000
 54      0.0000      1.8364      0.0000      0.0000      0.1881      0.0000      0.0000      0.0000      0.0000
 55      0.0000      1.2377      0.0000      0.0000      0.0000      0.0000      0.0000      0.0000      0.0000
 56      0.0000      1.5812      0.0000      0.0000      0.0000      0.0000      0.0000      0.0000      0.0000
 57      0.0000      2.5830      0.0000      0.0107      0.0000      0.0000      0.0000      0.0000      0.1329
 58      0.0000      1.7727      0.3606      0.0000      0.1607      0.0000      0.0440      0.0000      0.0791
 59      0.0000      1.9637      0.0000      0.0000      0.0000      0.0000      0.0000      0.0000      0.0000
 60      0.0000      1.5578      0.0000      0.0000      0.0000      0.0000      0.0000      0.0000      0.0000
 61     19.6338      1.9752      0.0000      0.0000      0.5190      2.2568      2.9124      2.6787      2.3312
 62      3.7421      5.0107     36.0860     37.4946     34.5912     34.1778     33.5261     32.8632     34.2403
 63     18.9596      3.0646     18.1312     18.5929     18.3555     18.7953     17.5997     18.1590     18.2231
 64      0.0000      1.2062      0.4174      0.2984      0.2300      0.2040      0.3458      0.3231      0.3556
 65      0.0000      2.1344      0.0000      0.0000      0.0000      0.0000      0.0000      0.0000      0.0000
 66      0.0000      1.4168      0.0000      0.0000      0.2155      0.0000      0.0000      0.0000      0.0000

# j      m_j: min, <> & last-chain-values for 1 ...  7 chains
  1  0.0000E+00  1.1705E-02  2.9729E-02  3.7276E-02  3.0467E-02  2.9213E-02  3.2959E-02  2.6989E-02  1.9511E-02
  2  0.0000E+00  3.7476E-03  0.0000E+00  0.0000E+00  0.0000E+00  0.0000E+00  0.0000E+00  0.0000E+00  0.0000E+00
  3  0.0000E+00  5.3506E-03  0.0000E+00  0.0000E+00  0.0000E+00  0.0000E+00  0.0000E+00  0.0000E+00  0.0000E+00
  4  0.0000E+00  4.4451E-03  0.0000E+00  0.0000E+00  0.0000E+00  0.0000E+00  0.0000E+00  0.0000E+00  0.0000E+00
  5  0.0000E+00  9.2669E-03  0.0000E+00  0.0000E+00  0.0000E+00  1.5684E-04  0.0000E+00  0.0000E+00  1.9474E-04
  6  0.0000E+00  1.7980E-02  0.0000E+00  1.2508E-04  5.1180E-04  0.0000E+00  0.0000E+00  0.0000E+00  0.0000E+00
  7  0.0000E+00  2.4347E-02  0.0000E+00  0.0000E+00  0.0000E+00  0.0000E+00  0.0000E+00  0.0000E+00  0.0000E+00
  8  0.0000E+00  2.9082E-02  0.0000E+00  0.0000E+00  5.3034E-04  0.0000E+00  0.0000E+00  0.0000E+00  0.0000E+00
  9  0.0000E+00  4.2900E-02  0.0000E+00  0.0000E+00  0.0000E+00  0.0000E+00  0.0000E+00  0.0000E+00  0.0000E+00
 10  0.0000E+00  4.1173E-02  0.0000E+00  0.0000E+00  4.1947E-05  0.0000E+00  0.0000E+00  0.0000E+00  0.0000E+00
 11  0.0000E+00  7.8281E-02  0.0000E+00  0.0000E+00  0.0000E+00  0.0000E+00  0.0000E+00  0.0000E+00  0.0000E+00
 12  0.0000E+00  1.3568E-01  0.0000E+00  0.0000E+00  0.0000E+00  0.0000E+00  0.0000E+00  0.0000E+00  0.0000E+00
 13  0.0000E+00  3.5274E-01  0.0000E+00  0.0000E+00  0.0000E+00  0.0000E+00  0.0000E+00  0.0000E+00  1.3729E-02
 14  0.0000E+00  3.2416E+00  1.2897E+01  1.4022E+01  1.1857E+01  1.3370E+01  1.2759E+01  1.0299E+01  1.3360E+01
 15  4.7544E+00  5.2793E+00  1.8335E+01  2.0885E+01  1.8332E+01  1.9950E+01  2.2179E+01  1.8207E+01  2.1012E+01
 16  0.0000E+00  3.3530E+00  0.0000E+00  1.4557E-01  1.7671E-01  2.4220E-01  2.0006E+00  2.2362E-01  0.0000E+00
 17  0.0000E+00  4.5720E+00  7.7401E+00  1.0106E+01  8.0595E+00  8.2826E+00  6.6213E+00  7.3181E+00  9.1927E+00
 18  0.0000E+00  1.2114E-02  0.0000E+00  0.0000E+00  9.4244E-05  0.0000E+00  7.9034E-06  0.0000E+00  1.4143E-04
 19  0.0000E+00  4.9746E-03  0.0000E+00  0.0000E+00  0.0000E+00  0.0000E+00  0.0000E+00  0.0000E+00  3.6945E-05
 20  0.0000E+00  6.3093E-03  0.0000E+00  0.0000E+00  0.0000E+00  0.0000E+00  0.0000E+00  0.0000E+00  0.0000E+00
 21  0.0000E+00  4.5951E-03  0.0000E+00  1.7062E-05  0.0000E+00  0.0000E+00  0.0000E+00  0.0000E+00  0.0000E+00
 22  0.0000E+00  8.6818E-03  0.0000E+00  0.0000E+00  0.0000E+00  0.0000E+00  0.0000E+00  0.0000E+00  0.0000E+00
 23  0.0000E+00  1.4317E-02  0.0000E+00  0.0000E+00  0.0000E+00  0.0000E+00  0.0000E+00  0.0000E+00  0.0000E+00
 24  0.0000E+00  1.9232E-02  4.3528E-05  0.0000E+00  0.0000E+00  0.0000E+00  0.0000E+00  0.0000E+00  0.0000E+00
 25  0.0000E+00  2.3785E-02  0.0000E+00  0.0000E+00  0.0000E+00  0.0000E+00  0.0000E+00  0.0000E+00  0.0000E+00
 26  0.0000E+00  4.7050E-02  0.0000E+00  0.0000E+00  0.0000E+00  0.0000E+00  0.0000E+00  8.5250E-04  0.0000E+00
 27  0.0000E+00  1.1361E-01  7.6382E-03  0.0000E+00  0.0000E+00  0.0000E+00  0.0000E+00  0.0000E+00  0.0000E+00
 28  0.0000E+00  3.0608E-01  0.0000E+00  0.0000E+00  1.2512E-02  0.0000E+00  0.0000E+00  0.0000E+00  0.0000E+00
 29  1.4442E+00  6.2863E-01  0.0000E+00  0.0000E+00  0.0000E+00  0.0000E+00  0.0000E+00  3.7067E-01  0.0000E+00
 30  0.0000E+00  1.3724E+00  1.9807E-02  0.0000E+00  0.0000E+00  0.0000E+00  0.0000E+00  0.0000E+00  0.0000E+00
 31  0.0000E+00  1.9085E+00  0.0000E+00  8.5925E-02  9.4715E-02  8.4409E-01  2.3626E-01  1.0762E-01  4.5032E-01
 32  5.1946E+00  2.6326E+00  1.1675E+01  5.4902E+00  5.2958E+00  1.1327E+01  1.0347E+01  4.0693E+00  8.8368E+00
 33  0.0000E+00  5.4503E+00  0.0000E+00  0.0000E+00  0.0000E+00  0.0000E+00  5.1653E-01  0.0000E+00  0.0000E+00
 34  0.0000E+00  7.2434E+00  0.0000E+00  0.0000E+00  7.2524E+00  0.0000E+00  0.0000E+00  0.0000E+00  0.0000E+00
 35  0.0000E+00  1.2788E-02  0.0000E+00  0.0000E+00  0.0000E+00  0.0000E+00  0.0000E+00  0.0000E+00  0.0000E+00
 36  0.0000E+00  3.4487E-03  0.0000E+00  3.3475E-06  2.8542E-04  0.0000E+00  0.0000E+00  0.0000E+00  0.0000E+00
 37  0.0000E+00  4.2285E-03  0.0000E+00  0.0000E+00  1.5420E-04  0.0000E+00  0.0000E+00  0.0000E+00  0.0000E+00
 38  0.0000E+00  9.8344E-03  0.0000E+00  0.0000E+00  0.0000E+00  0.0000E+00  0.0000E+00  0.0000E+00  0.0000E+00
 39  0.0000E+00  1.9024E-02  0.0000E+00  0.0000E+00  0.0000E+00  0.0000E+00  0.0000E+00  0.0000E+00  0.0000E+00
 40  0.0000E+00  2.6199E-02  2.2153E-04  0.0000E+00  1.1087E-03  0.0000E+00  0.0000E+00  0.0000E+00  0.0000E+00
 41  0.0000E+00  3.6462E-02  0.0000E+00  0.0000E+00  0.0000E+00  0.0000E+00  0.0000E+00  0.0000E+00  0.0000E+00
 42  0.0000E+00  1.0045E-01  0.0000E+00  0.0000E+00  1.8192E-03  0.0000E+00  0.0000E+00  6.1712E-04  2.0230E-03
 43  0.0000E+00  7.7083E-02  6.8051E-04  4.9675E-04  0.0000E+00  0.0000E+00  0.0000E+00  0.0000E+00  3.5955E-03
 44  0.0000E+00  1.9712E-01  0.0000E+00  0.0000E+00  0.0000E+00  0.0000E+00  1.7453E-01  0.0000E+00  0.0000E+00
 45  0.0000E+00  3.5863E-01  0.0000E+00  0.0000E+00  0.0000E+00  0.0000E+00  0.0000E+00  0.0000E+00  0.0000E+00
 46  0.0000E+00  6.1618E-01  0.0000E+00  0.0000E+00  0.0000E+00  0.0000E+00  0.0000E+00  1.5766E-02  5.3682E-03
 47  0.0000E+00  1.6221E+00  1.4862E+00  5.2905E+00  2.8975E+00  3.4839E+00  2.3023E+00  4.1147E+00  4.1580E+00
 48  0.0000E+00  4.5145E+00  1.3219E+01  7.7700E+00  1.1627E+01  7.5700E+00  9.1694E+00  5.7291E+00  8.5817E+00
 49  0.0000E+00  1.0559E+01  2.0891E+00  1.3669E+00  2.8831E+00  1.9079E+00  1.0939E+00  1.9889E+00  1.8115E+00
 50  7.9938E+01  7.3427E+00  0.0000E+00  0.0000E+00  0.0000E+00  0.0000E+00  0.0000E+00  1.9953E+01  0.0000E+00
 51  0.0000E+00  6.0982E-03  0.0000E+00  0.0000E+00  0.0000E+00  0.0000E+00  0.0000E+00  0.0000E+00  0.0000E+00
 52  0.0000E+00  2.0061E-03  0.0000E+00  0.0000E+00  0.0000E+00  0.0000E+00  0.0000E+00  0.0000E+00  0.0000E+00
 53  0.0000E+00  4.0189E-03  0.0000E+00  0.0000E+00  0.0000E+00  0.0000E+00  0.0000E+00  0.0000E+00  0.0000E+00
 54  0.0000E+00  9.3089E-03  0.0000E+00  0.0000E+00  7.1294E-04  0.0000E+00  0.0000E+00  0.0000E+00  0.0000E+00
 55  0.0000E+00  9.6600E-03  0.0000E+00  0.0000E+00  0.0000E+00  0.0000E+00  0.0000E+00  0.0000E+00  0.0000E+00
 56  0.0000E+00  2.4426E-02  0.0000E+00  0.0000E+00  0.0000E+00  0.0000E+00  0.0000E+00  0.0000E+00  0.0000E+00
 57  0.0000E+00  5.2961E-02  0.0000E+00  1.8170E-04  0.0000E+00  0.0000E+00  0.0000E+00  0.0000E+00  2.1788E-03
 58  0.0000E+00  6.1478E-02  9.8817E-03  0.0000E+00  4.1685E-03  0.0000E+00  1.2495E-03  0.0000E+00  2.1928E-03
 59  0.0000E+00  1.4656E-01  0.0000E+00  0.0000E+00  0.0000E+00  0.0000E+00  0.0000E+00  0.0000E+00  0.0000E+00
 60  0.0000E+00  2.1595E-01  0.0000E+00  0.0000E+00  0.0000E+00  0.0000E+00  0.0000E+00  0.0000E+00  0.0000E+00
 61  1.7872E+00  5.9829E-01  0.0000E+00  0.0000E+00  1.1756E-01  5.5235E-01  7.2207E-01  5.6080E-01  5.6440E-01
 62  6.2107E-01  2.7673E+00  1.5747E+01  1.7140E+01  1.4287E+01  1.5252E+01  1.5156E+01  1.2545E+01  1.5115E+01
 63  6.2605E+00  3.3674E+00  1.5741E+01  1.6910E+01  1.5083E+01  1.6687E+01  1.5829E+01  1.3791E+01  1.6005E+01
 64  0.0000E+00  3.6659E+00  1.0023E+00  7.5066E-01  5.2265E-01  5.0107E-01  8.6016E-01  6.7860E-01  8.6381E-01
 65  0.0000E+00  1.3712E+01  0.0000E+00  0.0000E+00  0.0000E+00  0.0000E+00  0.0000E+00  0.0000E+00  0.0000E+00
 66  0.0000E+00  1.2858E+01  0.0000E+00  0.0000E+00  1.4628E+00  0.0000E+00  0.0000E+00  0.0000E+00  0.0000E+00

# AV, chi2 & Mass for <> & i_chain = 1 ...  7 solutions
AV      -1.0000     -0.8539     -0.8000     -0.7675     -0.7790     -0.7860     -0.7423     -0.7588     -0.8000
chi2 1.0457E-05  4.7990E-05  1.1752E-05  1.1889E-05  1.1671E-05  1.1772E-05  1.1716E-05  1.1442E-05  1.1673E-05
Mass 1.3414E-13  4.9050E-14  6.6740E-14  6.6556E-14  7.2535E-14  6.6501E-14  6.9614E-14  8.0639E-14  6.5975E-14
 -73.92                                  [v0_min (km/s) before EX0s...]
 232.98                                  [vd_min (km/s) before EX0s...]


## Synthetic spectrum (Best Model) ##l_obs f_obs f_syn wei
 3478    [Nl_obs]
 3741.00    0.07131   0.65112    0.000
 3742.00    0.02711   0.63376    0.000
 3743.00   -0.05314   0.60796    0.000
 3744.00   -0.20255   0.57883    0.000
 3745.00   -0.39226   0.55225    0.000
 3746.00   -0.13982   0.53295    0.000
 3747.00    0.33714   0.52497    0.030
 3748.00    0.53913   0.53362    0.030
 3749.00    0.62022   0.56065    0.030
 3750.00    0.55434   0.60048    0.030
 3751.00    0.43298   0.64446    0.029
 3752.00    0.55836   0.68550    0.029
 3753.00    0.76282   0.71749    0.030
 3754.00    0.82855   0.73433    0.030
 3755.00    0.85710   0.73329    0.029
 3756.00    0.87279   0.71916    0.029
 3757.00    0.88565   0.70235    0.029
 3758.00    0.85883   0.69055    0.029
 3759.00    0.82507   0.68466    0.029
 3760.00    0.74528   0.68283    0.029
 3761.00    0.65937   0.68340    0.029
 3762.00    0.77880   0.68543    0.029
 3763.00    0.91753   0.68883    0.028
 3764.00    0.76372   0.69173    0.028
 3765.00    0.59304   0.69282    0.028
 3766.00    0.48080   0.69574    0.028
 3767.00    0.37306   0.70355    0.027
 3768.00    0.64191   0.71479    0.028
 3769.00    0.90634   0.72917    0.028
 3770.00    1.06308   0.74841    0.028
 3771.00    1.19880   0.77074    0.028
 3772.00    1.05916   0.79225    0.027
 3773.00    0.92780   0.81162    0.027
 3774.00    0.86901   0.83007    0.026
 3775.00    0.79743   0.84882    0.026
 3776.00    0.64280   0.86775    0.026
 3777.00    0.53539   0.88643    0.026
 3778.00    0.66692   0.90412    0.027
 3779.00    0.79085   0.91803    0.027
 3780.00    0.88373   0.92489    0.028
 3781.00    0.91411   0.92371    0.028
 3782.00    0.73254   0.91424    0.027
 3783.00    0.52486   0.89492    0.027
 3784.00    0.24245   0.86517    0.027
 3785.00    0.05006   0.82997    0.027
 3786.00    0.07759   0.79650    0.027
 3787.00    0.13981   0.76774    0.027
 3788.00    0.27512   0.74458    0.027
 3789.00    0.39360   0.72733    0.027
 3790.00    0.48122   0.71317    0.028
 3791.00    0.51673   0.69757    0.028
 3792.00    0.46882   0.67927    0.028
 3793.00    0.51043   0.66036    0.028
 3794.00    0.67778   0.64373    0.028
 3795.00    0.72529   0.63138    0.027
 3796.00    0.62469   0.62535    0.027
 3797.00    0.54755   0.63022    0.027
 3798.00    0.49597   0.64939    0.027
 3799.00    0.46720   0.68020    0.027
 3800.00    0.46034   0.71628    0.027
 3801.00    0.49095   0.75257    0.027
 3802.00    0.55330   0.78505    0.028
 3803.00    0.56470   0.80999    0.028
 3804.00    0.53808   0.82601    0.028
 3805.00    0.62679   0.83468    0.028
 3806.00    0.79110   0.83997    0.027
 3807.00    1.01265   0.84440    0.027
 3808.00    1.26704   0.84575    0.027
 3809.00    1.27334   0.84053    0.028
 3810.00    1.15563   0.82713    0.027
 3811.00    0.88553   0.80572    0.027
 3812.00    0.54953   0.77916    0.026
 3813.00    0.42158   0.75199    0.026
 3814.00    0.37080   0.72764    0.026
 3815.00    0.40770   0.70879    0.026
 3816.00    0.47217   0.69504    0.026
 3817.00    0.49457   0.68174    0.026
 3818.00    0.50592   0.66650    0.026
 3819.00    0.47780   0.65213    0.026
 3820.00    0.44121   0.64139    0.025
 3821.00    0.56947   0.63156    0.025
 3822.00    0.72571   0.61769    0.025
 3823.00    0.86074   0.60007    0.026
 3824.00    0.99305   0.58346    0.026
 3825.00    0.83610   0.57035    0.026
 3826.00    0.65319   0.55978    0.026
 3827.00    0.62383   0.54999    0.026
 3828.00    0.60271   0.54010    0.025
 3829.00    0.55832   0.52931    0.026
 3830.00    0.51263   0.51633    0.026
 3831.00    0.39682   0.50199    0.027
 3832.00    0.28392   0.48981    0.027
 3833.00    0.23575   0.48231    0.027
 3834.00    0.20092   0.48077    0.026
 3835.00    0.33185   0.48508    0.026
 3836.00    0.46497   0.49418    0.027
 3837.00    0.61661   0.50884    0.027
 3838.00    0.75315   0.53056    0.027
 3839.00    0.79477   0.55910    0.028
 3840.00    0.80299   0.59362    0.028
 3841.00    0.64640   0.63088    0.027
 3842.00    0.50631   0.66517    0.027
 3843.00    0.43227   0.69368    0.027
 3844.00    0.35924   0.71603    0.028
 3845.00    0.28954   0.73282    0.028
 3846.00    0.26480   0.74461    0.028
 3847.00    0.36633   0.75019    0.000
 3848.00    0.44331   0.75014    0.000
 3849.00    0.46132   0.74924    0.000
 3850.00    0.52515   0.74999    0.000
 3851.00    0.68402   0.74885    0.000
 3852.00    0.76179   0.74272    0.000
 3853.00    0.69330   0.73272    0.000
 3854.00    0.73436   0.72080    0.000
 3855.00    0.94817   0.70937    0.000
 3856.00    1.08048   0.70022    0.000
 3857.00    1.09995   0.69314    0.000
 3858.00    1.11124   0.69076    0.000
 3859.00    1.11254   0.69773    0.000
 3860.00    1.03817   0.71361    0.000
 3861.00    0.88251   0.73278    0.000
 3862.00    0.86146   0.74924    0.000
 3863.00    0.96795   0.76011    0.000
 3864.00    1.00361   0.76539    0.000
 3865.00    0.98010   0.76568    0.000
 3866.00    0.94921   0.76122    0.000
 3867.00    0.91290   0.75267    0.000
 3868.00    0.90563   0.74173    0.000
 3869.00    0.91713   0.73051    0.000
 3870.00    0.83590   0.72149    0.000
 3871.00    0.70227   0.71680    0.000
 3872.00    0.66078   0.71842    0.000
 3873.00    0.66461   0.72450    0.000
 3874.00    0.60458   0.72889    0.000
 3875.00    0.51738   0.72734    0.000
 3876.00    0.50652   0.72054    0.000
 3877.00    0.52345   0.71279    0.000
 3878.00    0.67003   0.70775    0.000
 3879.00    0.85657   0.70251    0.000
 3880.00    0.83612   0.69336    0.000
 3881.00    0.76252   0.68323    0.025
 3882.00    0.80649   0.67560    0.025
 3883.00    0.87504   0.66759    0.025
 3884.00    0.84598   0.65578    0.026
 3885.00    0.80082   0.64510    0.027
 3886.00    0.96465   0.64268    0.027
 3887.00    1.15435   0.64957    0.027
 3888.00    0.84267   0.66504    0.026
 3889.00    0.48808   0.68931    0.026
 3890.00    0.61803   0.71910    0.026
 3891.00    0.77212   0.74869    0.027
 3892.00    0.47793   0.77338    0.026
 3893.00    0.18414   0.79190    0.026
 3894.00    0.39013   0.80621    0.026
 3895.00    0.59383   0.81872    0.025
 3896.00    0.75092   0.82822    0.025
 3897.00    0.90066   0.83270    0.025
 3898.00    0.96340   0.83480    0.024
 3899.00    1.00756   0.83794    0.024
 3900.00    0.90026   0.84184    0.023
 3901.00    0.79278   0.84283    0.023
 3902.00    0.68422   0.84226    0.022
 3903.00    0.58934   0.84426    0.022
 3904.00    0.56033   0.84930    0.021
 3905.00    0.52630   0.86026    0.021
 3906.00    0.47261   0.87919    0.021
 3907.00    0.42614   0.90202    0.022
 3908.00    0.40319   0.92399    0.022
 3909.00    0.43188   0.94234    0.022
 3910.00    0.60301   0.95631    0.023
 3911.00    0.75495   0.96400    0.023
 3912.00    0.86159   0.96290    0.024
 3913.00    0.91482   0.95410    0.025
 3914.00    0.85906   0.93951    0.025
 3915.00    0.81023   0.91985    0.025
 3916.00    0.77369   0.89768    0.025
 3917.00    0.72618   0.87451    0.026
 3918.00    0.66159   0.85067    0.026
 3919.00    0.62986   0.82779    0.026
 3920.00    0.64295   0.80762    0.026
 3921.00    0.55606   0.78961    0.026
 3922.00    0.34905   0.77065    0.026
 3923.00    0.31477   0.74706    0.026
 3924.00    0.46341   0.71504    0.026
 3925.00    0.66188   0.67403    0.027
 3926.00    0.90690   0.62517    0.027
 3927.00    0.91454   0.57024    0.027
 3928.00    0.72667   0.51352    0.027
 3929.00    0.64122   0.45938    0.027
 3930.00    0.63001   0.41257    0.027
 3931.00    0.55241   0.37795    0.027
 3932.00    0.43256   0.35959    0.027
 3933.00    0.44871   0.36038    0.027
 3934.00    0.54055   0.38016    0.027
 3935.00    0.47485   0.41572    0.027
 3936.00    0.33290   0.46180    0.027
 3937.00    0.43297   0.51292    0.027
 3938.00    0.63423   0.56465    0.027
 3939.00    0.72526   0.61290    0.027
 3940.00    0.77687   0.65509    0.027
 3941.00    0.96123   0.69103    0.027
 3942.00    1.18570   0.72169    0.026
 3943.00    1.11325   0.75095    0.027
 3944.00    0.96621   0.78284    0.027
 3945.00    0.93613   0.81418    0.027
 3946.00    0.92990   0.83943    0.027
 3947.00    0.82906   0.86068    0.027
 3948.00    0.71306   0.88263    0.026
 3949.00    0.67893   0.90324    0.026
 3950.00    0.65458   0.91664    0.026
 3951.00    0.77517   0.92203    0.026
 3952.00    0.90756   0.92561    0.026
 3953.00    0.80666   0.92847    0.026
 3954.00    0.69503   0.92238    0.026
 3955.00    0.73727   0.90511    0.026
 3956.00    0.78246   0.88284    0.027
 3957.00    0.87898   0.85780    0.026
 3958.00    0.96758   0.82522    0.026
 3959.00    0.90626   0.77988    0.026
 3960.00    0.84500   0.72422    0.000
 3961.00    0.78426   0.66656    0.000
 3962.00    0.73984   0.61019    0.000
 3963.00    0.82368   0.55355    0.000
 3964.00    0.89020   0.49784    0.000
 3965.00    0.85392   0.44818    0.000
 3966.00    0.81536   0.41088    0.000
 3967.00    0.76610   0.39030    0.000
 3968.00    0.74228   0.38894    0.000
 3969.00    0.81600   0.40752    0.000
 3970.00    0.88392   0.44399    0.000
 3971.00    0.93329   0.49439    0.000
 3972.00    0.95419   0.55457    0.000
 3973.00    0.89803   0.62115    0.000
 3974.00    0.94296   0.68984    0.000
 3975.00    1.22263   0.75481    0.000
 3976.00    1.40090   0.81366    0.000
 3977.00    1.37547   0.86639    0.000
 3978.00    1.24579   0.91187    0.000
 3979.00    0.93374   0.94826    0.000
 3980.00    0.86806   0.97417    0.000
 3981.00    1.17955   0.99330    0.028
 3982.00    1.29933   1.01096    0.028
 3983.00    1.16128   1.02786    0.028
 3984.00    1.00029   1.04354    0.027
 3985.00    0.81212   1.05777    0.027
 3986.00    0.79183   1.07247    0.027
 3987.00    0.94684   1.08792    0.027
 3988.00    1.08969   1.09911    0.027
 3989.00    1.22135   1.10657    0.027
 3990.00    1.27838   1.11340    0.027
 3991.00    1.27482   1.11818    0.027
 3992.00    1.29820   1.11949    0.026
 3993.00    1.34083   1.11772    0.026
 3994.00    1.16100   1.11575    0.026
 3995.00    0.84169   1.11527    0.026
 3996.00    0.84123   1.11744    0.025
 3997.00    1.01551   1.12520    0.025
 3998.00    1.12472   1.13755    0.025
 3999.00    1.20294   1.14724    0.025
 4000.00    1.12444   1.15120    0.025
 4001.00    0.98153   1.15326    0.025
 4002.00    1.04601   1.15307    0.025
 4003.00    1.18333   1.14607    0.025
 4004.00    1.25626   1.13545    0.026
 4005.00    1.31010   1.13297    0.026
 4006.00    1.31418   1.14210    0.025
 4007.00    1.30603   1.15561    0.025
 4008.00    1.30805   1.16873    0.025
 4009.00    1.31210   1.18303    0.025
 4010.00    1.10923   1.19897    0.025
 4011.00    0.87420   1.21278    0.025
 4012.00    0.80954   1.22335    0.025
 4013.00    0.76448   1.23196    0.025
 4014.00    0.82298   1.23972    0.025
 4015.00    0.88947   1.24458    0.025
 4016.00    0.92446   1.24558    0.025
 4017.00    0.95811   1.24758    0.025
 4018.00    0.93561   1.25078    0.025
 4019.00    0.91318   1.25029    0.025
 4020.00    0.91682   1.24678    0.026
 4021.00    0.92536   1.24404    0.026
 4022.00    1.02026   1.24282    0.026
 4023.00    1.11961   1.23983    0.026
 4024.00    1.26669   1.23459    0.026
 4025.00    1.40398   1.22886    0.026
 4026.00    1.46692   1.21968    0.026
 4027.00    1.49028   1.20359    0.027
 4028.00    1.28535   1.17947    0.026
 4029.00    1.10376   1.15042    0.026
 4030.00    1.02911   1.12709    0.026
 4031.00    0.96428   1.11582    0.026
 4032.00    0.93629   1.11527    0.026
 4033.00    0.88568   1.12584    0.025
 4034.00    0.76419   1.14672    0.025
 4035.00    0.68159   1.17513    0.025
 4036.00    0.70241   1.20442    0.025
 4037.00    0.76372   1.22507    0.025
 4038.00    0.91746   1.23131    0.025
 4039.00    1.09924   1.22247    0.025
 4040.00    1.33645   1.20467    0.026
 4041.00    1.45050   1.18464    0.026
 4042.00    1.35238   1.16047    0.026
 4043.00    1.20743   1.13175    0.026
 4044.00    0.99186   1.10907    0.026
 4045.00    0.92739   1.10580    0.026
 4046.00    1.06323   1.12248    0.026
 4047.00    1.30859   1.14429    0.026
 4048.00    1.68183   1.16259    0.026
 4049.00    1.78107   1.17953    0.026
 4050.00    1.59822   1.19295    0.026
 4051.00    1.42368   1.19679    0.026
 4052.00    1.25669   1.19039    0.026
 4053.00    1.04132   1.17820    0.026
 4054.00    0.78723   1.16607    0.026
 4055.00    0.72707   1.15620    0.026
 4056.00    0.80347   1.14439    0.026
 4057.00    0.89657   1.13131    0.026
 4058.00    1.00000   1.12282    0.026
 4059.00    1.10722   1.11874    0.026
 4060.00    1.21648   1.11202    0.026
 4061.00    1.37440   1.09812    0.026
 4062.00    1.55512   1.08454    0.026
 4063.00    1.33090   1.08429    0.026
 4064.00    0.94308   1.09597    0.025
 4065.00    1.03676   1.10468    0.025
 4066.00    1.29647   1.10945    0.025
 4067.00    1.28934   1.12074    0.025
 4068.00    1.20472   1.13608    0.025
 4069.00    1.05672   1.14094    0.025
 4070.00    0.89349   1.13183    0.025
 4071.00    1.03132   1.12245    0.025
 4072.00    1.22747   1.12023    0.025
 4073.00    1.26531   1.11639    0.025
 4074.00    1.27930   1.10707    0.025
 4075.00    1.38099   1.09879    0.025
 4076.00    1.49239   1.09895    0.026
 4077.00    1.52165   1.11021    0.025
 4078.00    1.54488   1.12893    0.025
 4079.00    1.52393   1.15078    0.025
 4080.00    1.50129   1.17285    0.025
 4081.00    1.39835   1.19167    0.026
 4082.00    1.29802   1.20739    0.026
 4083.00    1.31241   1.22242    0.026
 4084.00    1.31016   1.23673    0.026
 4085.00    1.03379   1.25033    0.025
 4086.00    0.79821   1.26367    0.025
 4087.00    0.98253   1.27487    0.025
 4088.00    1.15904   1.28039    0.025
 4089.00    1.27823   1.27788    0.026
 4090.00    1.36897   1.26722    0.026
 4091.00    1.30011   1.24936    0.026
 4092.00    1.27931   1.22727    0.000
 4093.00    1.47356   1.20002    0.000
 4094.00    1.59217   1.16389    0.000
 4095.00    1.43299   1.12338    0.000
 4096.00    1.31704   1.08568    0.000
 4097.00    1.33410   1.05319    0.000
 4098.00    1.30912   1.02487    0.000
 4099.00    1.17425   1.00046    0.000
 4100.00    1.07489   0.98536    0.000
 4101.00    1.05527   0.98740    0.000
 4102.00    1.02442   1.00467    0.000
 4103.00    0.97174   1.02841    0.000
 4104.00    0.99163   1.05493    0.000
 4105.00    1.13468   1.08303    0.000
 4106.00    1.23457   1.10845    0.000
 4107.00    1.27028   1.12859    0.000
 4108.00    1.26053   1.14363    0.000
 4109.00    1.19138   1.15546    0.000
 4110.00    1.17465   1.16655    0.000
 4111.00    1.21826   1.17808    0.000
 4112.00    1.23330   1.18943    0.000
 4113.00    1.21933   1.19776    0.025
 4114.00    1.14765   1.20296    0.025
 4115.00    1.02428   1.20667    0.025
 4116.00    1.09390   1.20597    0.025
 4117.00    1.31577   1.19849    0.025
 4118.00    1.36291   1.19075    0.025
 4119.00    1.28881   1.18918    0.025
 4120.00    1.26973   1.18904    0.036
 4121.00    1.28414   1.18596    0.140
 4122.00    1.27306   1.18329   -1.000
 4123.00    1.24845   1.18403   -1.000
 4124.00    1.17522   1.18387   -1.000
 4125.00    1.07957   1.17706   -1.000
 4126.00    1.12566   1.16454   -1.000
 4127.00    1.22802   1.15020   -1.000
 4128.00    1.25045   1.13733    0.065
 4129.00    1.24583   1.12616    0.028
 4130.00    1.29961   1.11709    0.024
 4131.00    1.37002   1.11235    0.024
 4132.00    1.35835   1.11615    0.024
 4133.00    1.32742   1.12863    0.024
 4134.00    1.34320   1.14723    0.024
 4135.00    1.36779   1.16661    0.024
 4136.00    1.24570   1.17963    0.024
 4137.00    1.10219   1.18551    0.024
 4138.00    1.14005   1.18442    0.024
 4139.00    1.19718   1.17686    0.024
 4140.00    1.29659   1.16355    0.024
 4141.00    1.39892   1.14417    0.025
 4142.00    1.29742   1.12477    0.024
 4143.00    1.18888   1.11556    0.024
 4144.00    1.34305   1.11717    0.025
 4145.00    1.49025   1.12109    0.025
 4146.00    1.38996   1.12435    0.025
 4147.00    1.28270   1.12807    0.025
 4148.00    1.06764   1.13015    0.025
 4149.00    0.87278   1.12921    0.024
 4150.00    0.87696   1.12701    0.024
 4151.00    0.88680   1.12345    0.024
 4152.00    0.93696   1.11975    0.024
 4153.00    0.98356   1.11880    0.024
 4154.00    1.01083   1.12310    0.024
 4155.00    1.04140   1.13095    0.024
 4156.00    1.08645   1.14193    0.024
 4157.00    1.14607   1.15838    0.024
 4158.00    1.25808   1.17652    0.024
 4159.00    1.32813   1.19090    0.024
 4160.00    1.27153   1.20166    0.024
 4161.00    1.19805   1.21120    0.024
 4162.00    1.08123   1.21551    0.024
 4163.00    1.07860   1.21211    0.025
 4164.00    1.32824   1.20560    0.025
 4165.00    1.43392   1.19644    0.025
 4166.00    1.26387   1.18150    0.025
 4167.00    1.12517   1.16378    0.025
 4168.00    1.03885   1.14775    0.025
 4169.00    1.02426   1.13135    0.025
 4170.00    1.11475   1.11169    0.025
 4171.00    1.16656   1.09118    0.025
 4172.00    1.16857   1.07656    0.025
 4173.00    1.13513   1.07057    0.025
 4174.00    1.06146   1.07050    0.025
 4175.00    1.15290   1.07319    0.025
 4176.00    1.40959   1.07733    0.026
 4177.00    1.49261   1.08465    0.026
 4178.00    1.42233   1.09654    0.026
 4179.00    1.49759   1.10932    0.025
 4180.00    1.68605   1.11858    0.026
 4181.00    1.52147   1.12423    0.025
 4182.00    1.11545   1.12938    0.025
 4183.00    0.97226   1.13646    0.025
 4184.00    0.98660   1.14430    0.025
 4185.00    1.07770   1.14678    0.025
 4186.00    1.20896   1.14435    0.025
 4187.00    1.29075   1.14822    0.025
 4188.00    1.35010   1.15966    0.025
 4189.00    1.48657   1.16631    0.025
 4190.00    1.65314   1.16442    0.025
 4191.00    1.50013   1.16335    0.025
 4192.00    1.24099   1.16355    0.024
 4193.00    1.08189   1.15382    0.024
 4194.00    0.95068   1.13436    0.024
 4195.00    0.91119   1.11565    0.024
 4196.00    0.89273   1.09969    0.025
 4197.00    1.14681   1.08371    0.025
 4198.00    1.45097   1.07392    0.025
 4199.00    1.33467   1.07396    0.025
 4200.00    1.15891   1.07812    0.024
 4201.00    1.25625   1.08649    0.024
 4202.00    1.38144   1.10385    0.024
 4203.00    1.31772   1.12576    0.024
 4204.00    1.24170   1.14530    0.024
 4205.00    1.11073   1.16334    0.023
 4206.00    0.97852   1.18155    0.022
 4207.00    1.13350   1.19662    0.023
 4208.00    1.28484   1.20401    0.023
 4209.00    1.32924   1.20443    0.023
 4210.00    1.36489   1.20184    0.024
 4211.00    1.27322   1.19920    0.023
 4212.00    1.18269   1.19695    0.023
 4213.00    1.10289   1.19354    0.023
 4214.00    1.04502   1.19017    0.023
 4215.00    1.13797   1.19401    0.023
 4216.00    1.22767   1.20604    0.023
 4217.00    1.30018   1.21411    0.023
 4218.00    1.34615   1.21171    0.023
 4219.00    1.27873   1.20241    0.023
 4220.00    1.20863   1.18469    0.023
 4221.00    1.12907   1.15182    0.023
 4222.00    1.08250   1.11037    0.023
 4223.00    1.13364   1.07409    0.023
 4224.00    1.14403   1.04507    0.023
 4225.00    1.05159   1.02330    0.023
 4226.00    1.01141   1.01935    0.023
 4227.00    1.08479   1.03743    0.022
 4228.00    1.09758   1.06442    0.022
 4229.00    0.99611   1.09131    0.022
 4230.00    0.94674   1.11686    0.022
 4231.00    0.98312   1.13521    0.022
 4232.00    1.03555   1.14474    0.022
 4233.00    1.11117   1.15080    0.022
 4234.00    1.09302   1.15320    0.022
 4235.00    0.95581   1.15270    0.022
 4236.00    0.97555   1.15835    0.022
 4237.00    1.17088   1.17002    0.022
 4238.00    1.29484   1.18240    0.022
 4239.00    1.34835   1.19885    0.022
 4240.00    1.26088   1.21957    0.022
 4241.00    1.05071   1.23415    0.021
 4242.00    1.02989   1.24021    0.021
 4243.00    1.15423   1.24455    0.022
 4244.00    1.16674   1.24280    0.022
 4245.00    1.10390   1.22711    0.022
 4246.00    1.01159   1.20552    0.023
 4247.00    0.90187   1.18923    0.023
 4248.00    1.06892   1.17392    0.023
 4249.00    1.37846   1.15437    0.023
 4250.00    1.38814   1.14166    0.024
 4251.00    1.26403   1.14287    0.024
 4252.00    1.19572   1.14635    0.024
 4253.00    1.14882   1.14377    0.023
 4254.00    1.13663   1.14351    0.023
 4255.00    1.13575   1.15022    0.023
 4256.00    1.17839   1.15647    0.023
 4257.00    1.23292   1.15865    0.023
 4258.00    1.21660   1.16229    0.023
 4259.00    1.18439   1.17081    0.023
 4260.00    1.23232   1.18535    0.023
 4261.00    1.29457   1.20573    0.023
 4262.00    1.10044   1.22454    0.023
 4263.00    0.87124   1.23559    0.024
 4264.00    0.96151   1.24032    0.024
 4265.00    1.08299   1.23625    0.023
 4266.00    1.07274   1.21546    0.023
 4267.00    1.05444   1.18339    0.023
 4268.00    1.17736   1.15158    0.023
 4269.00    1.30286   1.11883    0.023
 4270.00    1.18760   1.08548    0.023
 4271.00    1.07729   1.06661    0.023
 4272.00    1.09793   1.06834    0.023
 4273.00    1.11822   1.07850    0.023
 4274.00    1.13385   1.09294    0.023
 4275.00    1.16921   1.11681    0.023
 4276.00    1.38377   1.14540    0.024
 4277.00    1.54069   1.16770    0.024
 4278.00    1.31376   1.18020    0.024
 4279.00    1.17455   1.18558    0.024
 4280.00    1.48946   1.18593    0.024
 4281.00    1.69819   1.18079    0.024
 4282.00    1.46365   1.17129   -2.000
 4283.00    1.20917   1.15851   -2.000
 4284.00    0.88581   1.14021   -2.000
 4285.00    0.62323   1.11992   -2.000
 4286.00    0.53733   1.10446   -2.000
 4287.00    0.61095   1.09256   -2.000
 4288.00    1.08026   1.07889   -2.000
 4289.00    1.47615   1.06787   -2.000
 4290.00    1.71509   1.06684   -2.000
 4291.00    1.79892   1.07148   -2.000
 4292.00    1.59477   1.07110   -2.000
 4293.00    1.43462   1.06202   -2.000
 4294.00    1.34583   1.04854   -2.000
 4295.00    1.32465   1.03146   -2.000
 4296.00    1.39964   1.00819   -2.000
 4297.00    1.35193   0.97871   -2.000
 4298.00    1.15065   0.94728    0.023
 4299.00    1.05393   0.92217    0.023
 4300.00    1.07254   0.90571    0.023
 4301.00    1.17737   0.89186    0.023
 4302.00    1.36610   0.87942    0.024
 4303.00    1.37516   0.87288    0.024
 4304.00    1.23009   0.87088    0.023
 4305.00    1.17712   0.87092    0.023
 4306.00    1.19374   0.87467    0.023
 4307.00    1.16994   0.88528    0.023
 4308.00    1.11930   0.90644    0.023
 4309.00    1.16387   0.93846    0.023
 4310.00    1.26382   0.97989    0.023
 4311.00    1.33591   1.03097    0.023
 4312.00    1.39389   1.08859    0.022
 4313.00    1.39182   1.14503    0.022
 4314.00    1.36339   1.19890    0.022
 4315.00    1.31887   1.24921    0.022
 4316.00    1.26828   1.28488    0.022
 4317.00    1.20446   1.30103    0.022
 4318.00    1.13640   1.30218    0.022
 4319.00    1.26844   1.28919    0.023
 4320.00    1.45396   1.26118    0.025
 4321.00    1.56256   1.22729    0.026
 4322.00    1.65432   1.19616    0.026
 4323.00    1.46112   1.17180    0.026
 4324.00    1.21835   1.15731    0.026
 4325.00    1.34980   1.15770    0.025
 4326.00    1.53076   1.17565    0.025
 4327.00    1.44674   1.20490    0.024
 4328.00    1.33795   1.23354    0.023
 4329.00    1.35373   1.25641    0.023
 4330.00    1.37663   1.27669    0.000
 4331.00    1.32641   1.28941    0.000
 4332.00    1.27499   1.28338    0.000
 4333.00    1.28049   1.26138    0.000
 4334.00    1.28621   1.23350    0.000
 4335.00    1.29712   1.19696    0.000
 4336.00    1.30087   1.15086    0.000
 4337.00    1.21151   1.11203    0.000
 4338.00    1.14206   1.08777    0.000
 4339.00    1.24652   1.07128    0.000
 4340.00    1.34524   1.07025    0.000
 4341.00    1.40681   1.09212    0.000
 4342.00    1.42502   1.12180    0.000
 4343.00    1.22440   1.15042    0.000
 4344.00    1.05569   1.18576    0.000
 4345.00    1.01724   1.21981    0.000
 4346.00    1.02143   1.23682    0.000
 4347.00    1.16985   1.24315    0.000
 4348.00    1.33641   1.25042    0.000
 4349.00    1.55471   1.25099    0.000
 4350.00    1.69689   1.23927    0.000
 4351.00    1.65347   1.23139    0.022
 4352.00    1.53811   1.23853    0.022
 4353.00    1.27146   1.24877    0.022
 4354.00    1.09456   1.25431    0.027
 4355.00    1.08175   1.26667    0.072
 4356.00    1.11897   1.28901   -1.000
 4357.00    1.23614   1.30755   -1.000
 4358.00    1.31326   1.31860   -1.000
 4359.00    1.33423   1.33348   -1.000
 4360.00    1.33817   1.35319    0.098
 4361.00    1.32109   1.36597    0.030
 4362.00    1.35041   1.36896    0.022
 4363.00    1.43021   1.37121    0.022
 4364.00    1.42380   1.37321    0.022
 4365.00    1.33468   1.36541    0.022
 4366.00    1.30035   1.34789    0.022
 4367.00    1.31236   1.33153    0.022
 4368.00    1.29068   1.31829    0.022
 4369.00    1.24389   1.30060    0.023
 4370.00    1.22392   1.28077    0.023
 4371.00    1.22149   1.26705    0.022
 4372.00    1.19987   1.25843    0.022
 4373.00    1.16727   1.24947    0.022
 4374.00    1.21578   1.24197    0.022
 4375.00    1.30475   1.23893    0.022
 4376.00    1.35122   1.23693    0.022
 4377.00    1.37935   1.22864    0.022
 4378.00    1.40405   1.20966    0.022
 4379.00    1.42748   1.18351    0.023
 4380.00    1.41969   1.15805    0.023
 4381.00    1.40211   1.13303    0.023
 4382.00    1.22746   1.10588    0.023
 4383.00    1.01171   1.08737    0.022
 4384.00    1.16470   1.08851    0.022
 4385.00    1.39646   1.10207    0.022
 4386.00    1.47413   1.11643    0.022
 4387.00    1.52575   1.13503    0.022
 4388.00    1.44675   1.16086    0.022
 4389.00    1.35106   1.18457    0.023
 4390.00    1.25882   1.20142    0.022
 4391.00    1.16689   1.21823    0.022
 4392.00    1.16975   1.23636    0.022
 4393.00    1.17765   1.24928    0.022
 4394.00    1.31019   1.25795    0.022
 4395.00    1.44476   1.26711    0.022
 4396.00    1.54508   1.27247    0.022
 4397.00    1.63613   1.27037    0.023
 4398.00    1.52348   1.26332    0.023
 4399.00    1.42393   1.24880    0.023
 4400.00    1.48608   1.22939    0.023
 4401.00    1.53186   1.21570    0.023
 4402.00    1.43999   1.20393    0.023
 4403.00    1.35886   1.18578    0.023
 4404.00    1.34498   1.17639    0.023
 4405.00    1.35452   1.18783    0.023
 4406.00    1.47927   1.20324    0.023
 4407.00    1.56539   1.21396    0.023
 4408.00    1.49736   1.23394    0.023
 4409.00    1.42212   1.26043    0.023
 4410.00    1.32299   1.27528    0.023
 4411.00    1.30652   1.28164    0.023
 4412.00    1.52166   1.28963    0.023
 4413.00    1.67675   1.29150    0.023
 4414.00    1.68794   1.28684    0.023
 4415.00    1.61943   1.28971    0.023
 4416.00    1.38598   1.29789    0.023
 4417.00    1.31552   1.30185    0.023
 4418.00    1.53845   1.30630    0.023
 4419.00    1.68539   1.31486    0.023
 4420.00    1.71272   1.31986    0.023
 4421.00    1.61427   1.31792    0.023
 4422.00    1.34203   1.31551    0.023
 4423.00    1.33562   1.31598    0.023
 4424.00    1.65253   1.31519    0.023
 4425.00    1.74218   1.31035    0.023
 4426.00    1.58815   1.30521    0.023
 4427.00    1.47969   1.30449    0.023
 4428.00    1.41433   1.30266    0.023
 4429.00    1.40425   1.29366    0.023
 4430.00    1.44028   1.28517    0.023
 4431.00    1.42672   1.28284    0.023
 4432.00    1.37676   1.28129    0.023
 4433.00    1.43929   1.27881    0.023
 4434.00    1.57435   1.28144    0.023
 4435.00    1.59521   1.29103    0.024
 4436.00    1.55167   1.30203    0.024
 4437.00    1.48963   1.31018    0.023
 4438.00    1.41851   1.31605    0.023
 4439.00    1.35508   1.31990    0.023
 4440.00    1.29492   1.32251    0.023
 4441.00    1.28076   1.32524    0.023
 4442.00    1.28331   1.32791    0.024
 4443.00    1.44278   1.33302    0.024
 4444.00    1.65051   1.34422    0.024
 4445.00    1.63462   1.35450    0.024
 4446.00    1.56148   1.35749    0.024
 4447.00    1.44906   1.36011    0.024
 4448.00    1.32844   1.36112    0.023
 4449.00    1.43360   1.35011    0.023
 4450.00    1.57586   1.33063    0.023
 4451.00    1.39934   1.31130    0.023
 4452.00    1.18353   1.29066    0.023
 4453.00    1.25452   1.26511    0.023
 4454.00    1.34991   1.24010    0.023
 4455.00    1.27784   1.22376    0.023
 4456.00    1.19750   1.21354    0.023
 4457.00    1.34574   1.20328    0.023
 4458.00    1.49688   1.19882    0.022
 4459.00    1.60208   1.20646    0.023
 4460.00    1.69705   1.21584    0.023
 4461.00    1.58487   1.22363    0.000
 4462.00    1.46467   1.23924    0.000
 4463.00    1.25020   1.25762    0.000
 4464.00    1.08504   1.26930    0.000
 4465.00    1.31981   1.27968    0.000
 4466.00    1.50212   1.29455    0.000
 4467.00    1.36518   1.30806    0.000
 4468.00    1.26932   1.31898    0.000
 4469.00    1.37052   1.33480    0.000
 4470.00    1.45041   1.35438    0.000
 4471.00    1.44703   1.37187    0.000
 4472.00    1.42428   1.38875    0.000
 4473.00    1.33851   1.40545    0.000
 4474.00    1.31441   1.41505    0.000
 4475.00    1.45999   1.41659    0.000
 4476.00    1.56562   1.41459    0.000
 4477.00    1.57713   1.40786    0.000
 4478.00    1.55138   1.39596    0.000
 4479.00    1.44974   1.38547    0.000
 4480.00    1.36469   1.37953    0.000
 4481.00    1.30906   1.37701    0.000
 4482.00    1.28929   1.37962    0.022
 4483.00    1.32514   1.38518    0.022
 4484.00    1.36368   1.38877    0.022
 4485.00    1.40587   1.39004    0.022
 4486.00    1.37239   1.38913    0.022
 4487.00    1.24815   1.38417    0.022
 4488.00    1.23067   1.37598    0.022
 4489.00    1.32603   1.36714    0.022
 4490.00    1.45956   1.35903    0.022
 4491.00    1.62868   1.35415    0.023
 4492.00    1.67074   1.35203    0.023
 4493.00    1.60835   1.35109    0.022
 4494.00    1.54328   1.35555    0.022
 4495.00    1.47627   1.36650    0.023
 4496.00    1.34910   1.37939    0.022
 4497.00    1.18372   1.39297    0.022
 4498.00    1.22713   1.41152    0.022
 4499.00    1.38650   1.43328    0.022
 4500.00    1.43405   1.45086    0.022
 4501.00    1.42757   1.46723    0.022
 4502.00    1.39822   1.48555    0.022
 4503.00    1.35933   1.49885    0.023
 4504.00    1.41118   1.50494    0.022
 4505.00    1.49542   1.50885    0.022
 4506.00    1.54670   1.51042    0.022
 4507.00    1.58804   1.50607    0.022
 4508.00    1.52066   1.49802    0.022
 4509.00    1.42604   1.48931    0.021
 4510.00    1.67348   1.47829    0.022
 4511.00    1.99045   1.46551    0.022
 4512.00    1.76021   1.45460    0.022
 4513.00    1.44266   1.44433    0.022
 4514.00    1.53688   1.43477    0.022
 4515.00    1.68004   1.42956    0.022
 4516.00    1.62567   1.42641    0.022
 4517.00    1.55531   1.42244    0.022
 4518.00    1.55555   1.41764    0.022
 4519.00    1.55899   1.41171    0.021
 4520.00    1.44821   1.40328    0.022
 4521.00    1.33860   1.38748    0.022
 4522.00    1.36026   1.36618    0.022
 4523.00    1.37212   1.34470    0.021
 4524.00    1.20018   1.32116    0.021
 4525.00    1.06518   1.29613    0.022
 4526.00    1.34406   1.27529    0.022
 4527.00    1.57387   1.26002    0.022
 4528.00    1.41974   1.25082    0.022
 4529.00    1.30644   1.24745    0.022
 4530.00    1.43452   1.24857    0.022
 4531.00    1.55116   1.25554    0.022
 4532.00    1.61423   1.26833    0.022
 4533.00    1.63832   1.28451    0.022
 4534.00    1.51346   1.30075    0.022
 4535.00    1.42988   1.31900    0.022
 4536.00    1.47796   1.33899    0.022
 4537.00    1.51352   1.35404    0.022
 4538.00    1.51526   1.36492    0.022
 4539.00    1.47658   1.37399    0.022
 4540.00    1.34427   1.37714    0.022
 4541.00    1.27882   1.37547    0.022
 4542.00    1.34742   1.37375    0.021
 4543.00    1.40027   1.36941    0.021
 4544.00    1.42562   1.36108    0.021
 4545.00    1.43852   1.35291    0.021
 4546.00    1.43237   1.34769    0.021
 4547.00    1.37070   1.34279    0.021
 4548.00    1.23452   1.33519    0.021
 4549.00    1.22131   1.33136    0.022
 4550.00    1.35350   1.33306    0.000
 4551.00    1.48913   1.33427    0.000
 4552.00    1.62836   1.33814    0.000
 4553.00    1.62201   1.34875    0.000
 4554.00    1.48182   1.36136    0.000
 4555.00    1.47453   1.37464    0.000
 4556.00    1.57497   1.38994    0.000
 4557.00    1.57118   1.40402    0.000
 4558.00    1.49306   1.41432    0.000
 4559.00    1.45832   1.41965    0.000
 4560.00    1.45072   1.42099    0.000
 4561.00    1.50175   1.41983    0.000
 4562.00    1.58485   1.41690    0.000
 4563.00    1.59628   1.41427    0.000
 4564.00    1.57364   1.41229    0.000
 4565.00    1.42310   1.41309    0.000
 4566.00    1.22011   1.41731    0.000
 4567.00    1.23838   1.41845    0.000
 4568.00    1.33417   1.41967    0.000
 4569.00    1.40335   1.42607    0.000
 4570.00    1.46467   1.42747    0.000
 4571.00    1.43932   1.42429    0.000
 4572.00    1.39275   1.42615    0.000
 4573.00    1.18548   1.42599    0.000
 4574.00    0.94637   1.41845    0.000
 4575.00    1.24372   1.41015    0.000
 4576.00    1.62411   1.40098    0.000
 4577.00    1.45572   1.38834    0.000
 4578.00    1.22453   1.37552    0.000
 4579.00    1.25025   1.36362    0.000
 4580.00    1.29569   1.35437    0.000
 4581.00    1.35640   1.35032    0.000
 4582.00    1.41774   1.34888    0.000
 4583.00    1.44058   1.35133    0.000
 4584.00    1.46327   1.35851    0.000
 4585.00    1.49375   1.36622    0.000
 4586.00    1.51536   1.37335    0.000
 4587.00    1.38212   1.37924    0.000
 4588.00    1.27767   1.38194    0.000
 4589.00    1.48129   1.38204    0.000
 4590.00    1.63827   1.37884    0.000
 4591.00    1.44273   1.37232    0.000
 4592.00    1.26655   1.36657    0.000
 4593.00    1.20155   1.36118    0.000
 4594.00    1.19084   1.35564    0.000
 4595.00    1.42812   1.35374    0.000
 4596.00    1.61635   1.35233    0.000
 4597.00    1.62101   1.35155    0.000
 4598.00    1.61016   1.35482    0.000
 4599.00    1.55081   1.35782    0.000
 4600.00    1.49852   1.36104    0.000
 4601.00    1.46493   1.36772    0.000
 4602.00    1.52057   1.37646    0.000
 4603.00    1.77951   1.38632    0.000
 4604.00    1.85206   1.39895    0.000
 4605.00    1.55687   1.41346    0.000
 4606.00    1.36509   1.42605    0.000
 4607.00    1.35111   1.43755    0.000
 4608.00    1.30532   1.44823    0.000
 4609.00    1.21161   1.45368    0.000
 4610.00    1.19034   1.45669    0.000
 4611.00    1.26492   1.45970    0.000
 4612.00    1.40535   1.45803    0.000
 4613.00    1.62252   1.45702    0.000
 4614.00    1.71385   1.45888    0.000
 4615.00    1.67584   1.45657    0.000
 4616.00    1.66083   1.45601    0.000
 4617.00    1.66668   1.46012    0.000
 4618.00    1.59480   1.45930    0.000
 4619.00    1.46080   1.45789    0.000
 4620.00    1.42873   1.46175    0.000
 4621.00    1.46830   1.46140    0.000
 4622.00    1.48420   1.45747    0.000
 4623.00    1.48550   1.45814    0.000
 4624.00    1.53634   1.45762    0.000
 4625.00    1.61385   1.45159    0.000
 4626.00    1.62851   1.44815    0.000
 4627.00    1.61377   1.44788    0.000
 4628.00    1.53891   1.44240    0.000
 4629.00    1.43982   1.43460    0.000
 4630.00    1.45090   1.43024    0.000
 4631.00    1.49990   1.42388    0.000
 4632.00    1.45912   1.41306    0.000
 4633.00    1.39234   1.40262    0.000
 4634.00    1.36880   1.39414    0.000
 4635.00    1.35562   1.38483    0.000
 4636.00    1.42861   1.37440    0.000
 4637.00    1.51824   1.36795    0.000
 4638.00    1.51195   1.36374    0.000
 4639.00    1.49126   1.35626    0.000
 4640.00    1.38967   1.34996    0.000
 4641.00    1.27918   1.34548    0.000
 4642.00    1.42759   1.33633    0.000
 4643.00    1.59482   1.32672    0.000
 4644.00    1.53404   1.32091    0.000
 4645.00    1.46464   1.31540    0.000
 4646.00    1.37329   1.31263    0.000
 4647.00    1.28190   1.31500    0.000
 4648.00    1.19290   1.32072    0.000
 4649.00    1.11416   1.32933    0.000
 4650.00    1.20309   1.33809    0.000
 4651.00    1.29408   1.34710    0.000
 4652.00    1.40622   1.35739    0.000
 4653.00    1.49516   1.36596    0.000
 4654.00    1.41465   1.37444    0.000
 4655.00    1.35898   1.38449    0.000
 4656.00    1.44213   1.39271    0.000
 4657.00    1.48221   1.39866    0.000
 4658.00    1.33010   1.40218    0.000
 4659.00    1.20330   1.39904    0.000
 4660.00    1.16922   1.38934    0.000
 4661.00    1.12944   1.37574    0.000
 4662.00    1.07218   1.35602    0.000
 4663.00    1.08358   1.33261    0.000
 4664.00    1.27404   1.31327    0.000
 4665.00    1.42196   1.29800    0.000
 4666.00    1.47458   1.28602    0.000
 4667.00    1.49571   1.28326    0.000
 4668.00    1.45572   1.28906    0.000
 4669.00    1.43502   1.29848    0.000
 4670.00    1.44698   1.31135    0.000
 4671.00    1.37791   1.32609    0.000
 4672.00    1.18859   1.33958    0.000
 4673.00    1.18505   1.34974    0.000
 4674.00    1.42382   1.35525    0.000
 4675.00    1.52326   1.35791    0.000
 4676.00    1.46258   1.35815    0.000
 4677.00    1.40652   1.35436    0.000
 4678.00    1.35512   1.34976    0.000
 4679.00    1.34015   1.34796    0.000
 4680.00    1.35775   1.34605    0.000
 4681.00    1.38611   1.34431    0.000
 4682.00    1.42293   1.34678    0.000
 4683.00    1.41059   1.34960    0.000
 4684.00    1.36419   1.35016    0.000
 4685.00    1.38761   1.35262    0.000
 4686.00    1.45344   1.35474    0.000
 4687.00    1.46946   1.35377    0.000
 4688.00    1.45906   1.35442    0.000
 4689.00    1.50700   1.35649    0.000
 4690.00    1.58178   1.35655    0.000
 4691.00    1.56752   1.35713    0.000
 4692.00    1.51798   1.35897    0.000
 4693.00    1.47716   1.35843    0.000
 4694.00    1.43930   1.35449    0.000
 4695.00    1.48233   1.34912    0.000
 4696.00    1.54832   1.34211    0.000
 4697.00    1.42387   1.33205    0.000
 4698.00    1.25484   1.32111    0.000
 4699.00    1.26502   1.31169    0.000
 4700.00    1.30892   1.30386    0.000
 4701.00    1.47078   1.29789    0.000
 4702.00    1.64980   1.29369    0.000
 4703.00    1.46949   1.29211    0.000
 4704.00    1.25118   1.29351    0.000
 4705.00    1.29860   1.29509    0.000
 4706.00    1.36428   1.29755    0.000
 4707.00    1.34407   1.30293    0.000
 4708.00    1.32093   1.30870    0.000
 4709.00    1.26954   1.31511    0.000
 4710.00    1.22154   1.32330    0.000
 4711.00    1.28518   1.33196    0.000
 4712.00    1.34986   1.34257    0.000
 4713.00    1.43044   1.35419    0.000
 4714.00    1.49299   1.36556    0.000
 4715.00    1.37876   1.37932    0.000
 4716.00    1.30264   1.39330    0.000
 4717.00    1.49600   1.40448    0.000
 4718.00    1.63753   1.41435    0.000
 4719.00    1.49711   1.42178    0.000
 4720.00    1.38723   1.42401    0.000
 4721.00    1.41040   1.42159    0.000
 4722.00    1.40091   1.41536    0.000
 4723.00    1.27428   1.40410    0.000
 4724.00    1.22317   1.38913    0.000
 4725.00    1.39940   1.37383    0.000
 4726.00    1.52452   1.35755    0.000
 4727.00    1.51871   1.34203    0.000
 4728.00    1.53324   1.33267    0.000
 4729.00    1.59262   1.32704    0.000
 4730.00    1.61916   1.32371    0.000
 4731.00    1.58294   1.32773    0.000
 4732.00    1.54836   1.33416    0.000
 4733.00    1.51653   1.33893    0.000
 4734.00    1.50387   1.34803    0.000
 4735.00    1.51922   1.35716    0.000
 4736.00    1.51270   1.36200    0.000
 4737.00    1.47806   1.36901    0.000
 4738.00    1.41276   1.37653    0.000
 4739.00    1.31272   1.38121    0.000
 4740.00    1.25598   1.38649    0.000
 4741.00    1.24251   1.39191    0.000
 4742.00    1.28058   1.39706    0.000
 4743.00    1.36405   1.40223    0.000
 4744.00    1.43884   1.40534    0.000
 4745.00    1.50689   1.40798    0.000
 4746.00    1.45649   1.41039    0.000
 4747.00    1.32524   1.40917    0.000
 4748.00    1.36158   1.40552    0.000
 4749.00    1.49818   1.40150    0.000
 4750.00    1.52931   1.39523    0.000
 4751.00    1.50538   1.38712    0.000
 4752.00    1.53650   1.37978    0.000
 4753.00    1.59254   1.37316    0.000
 4754.00    1.45791   1.36662    0.000
 4755.00    1.24904   1.36064    0.000
 4756.00    1.23289   1.35576    0.000
 4757.00    1.28059   1.35016    0.000
 4758.00    1.32090   1.34221    0.000
 4759.00    1.35915   1.33421    0.000
 4760.00    1.33991   1.32588    0.000
 4761.00    1.30752   1.31540    0.019
 4762.00    1.35802   1.30686    0.019
 4763.00    1.42371   1.30261    0.020
 4764.00    1.40944   1.30005    0.020
 4765.00    1.38391   1.30110    0.020
 4766.00    1.34302   1.30815    0.020
 4767.00    1.30056   1.31724    0.020
 4768.00    1.37529   1.32726    0.020
 4769.00    1.45759   1.33979    0.020
 4770.00    1.51779   1.35243    0.020
 4771.00    1.57692   1.36341    0.020
 4772.00    1.44115   1.37311    0.019
 4773.00    1.31259   1.38210    0.019
 4774.00    1.39284   1.38912    0.019
 4775.00    1.46711   1.39189    0.020
 4776.00    1.45496   1.39224    0.020
 4777.00    1.44897   1.39130    0.020
 4778.00    1.50092   1.38631    0.019
 4779.00    1.53791   1.37752    0.019
 4780.00    1.47249   1.36935    0.019
 4781.00    1.40248   1.36174    0.019
 4782.00    1.30813   1.35097    0.019
 4783.00    1.22596   1.34260    0.018
 4784.00    1.19570   1.33986    0.018
 4785.00    1.17070   1.33569    0.018
 4786.00    1.16416   1.33428    0.018
 4787.00    1.18527   1.34047    0.018
 4788.00    1.28804   1.34654    0.018
 4789.00    1.37409   1.35398    0.018
 4790.00    1.41805   1.36642    0.018
 4791.00    1.44425   1.37742    0.019
 4792.00    1.43194   1.38591    0.019
 4793.00    1.36683   1.39414    0.019
 4794.00    1.20234   1.39892    0.019
 4795.00    1.14086   1.39931    0.019
 4796.00    1.24868   1.39812    0.019
 4797.00    1.27369   1.39560    0.019
 4798.00    1.17939   1.39148    0.019
 4799.00    1.14481   1.38785    0.019
 4800.00    1.18592   1.38485    0.019
 4801.00    1.24696   1.38105    0.019
 4802.00    1.33026   1.37783    0.019
 4803.00    1.36628   1.37472    0.019
 4804.00    1.35572   1.36994    0.019
 4805.00    1.39081   1.36669    0.019
 4806.00    1.46554   1.36505    0.019
 4807.00    1.45293   1.36304    0.019
 4808.00    1.37346   1.36391    0.020
 4809.00    1.35908   1.36752    0.020
 4810.00    1.38849   1.37157    0.019
 4811.00    1.35904   1.37722    0.019
 4812.00    1.29490   1.38435    0.019
 4813.00    1.26700   1.39119    0.019
 4814.00    1.25773   1.39702    0.019
 4815.00    1.35303   1.40228    0.019
 4816.00    1.49489   1.40520    0.020
 4817.00    1.56871   1.40450    0.020
 4818.00    1.61648   1.40240    0.020
 4819.00    1.63484   1.39694    0.020
 4820.00    1.64364   1.38826    0.020
 4821.00    1.55029   1.38097    0.020
 4822.00    1.42912   1.37271    0.019
 4823.00    1.52487   1.36417    0.020
 4824.00    1.66909   1.35940    0.020
 4825.00    1.52758   1.35489    0.020
 4826.00    1.33515   1.35107    0.020
 4827.00    1.33019   1.34965    0.020
 4828.00    1.35076   1.34730    0.020
 4829.00    1.36736   1.34588    0.020
 4830.00    1.38358   1.34596    0.020
 4831.00    1.38944   1.34460    0.020
 4832.00    1.39468   1.34389    0.020
 4833.00    1.33641   1.34410    0.020
 4834.00    1.27694   1.34262    0.020
 4835.00    1.30429   1.34012    0.020
 4836.00    1.32769   1.33741    0.021
 4837.00    1.24758   1.33420    0.020
 4838.00    1.17913   1.33079    0.020
 4839.00    1.26969   1.32735    0.020
 4840.00    1.35578   1.32556    0.021
 4841.00    1.40142   1.32559    0.020
 4842.00    1.43334   1.32488    0.020
 4843.00    1.37418   1.32531    0.020
 4844.00    1.31840   1.32668    0.021
 4845.00    1.28003   1.32503    0.020
 4846.00    1.28466   1.32304    0.020
 4847.00    1.46832   1.31998    0.020
 4848.00    1.57503   1.31222    0.000
 4849.00    1.41677   1.30362    0.000
 4850.00    1.26395   1.29283    0.000
 4851.00    1.12690   1.27598    0.000
 4852.00    1.06343   1.25758    0.000
 4853.00    1.18206   1.23758    0.000
 4854.00    1.26169   1.21189    0.000
 4855.00    1.25814   1.18531    0.000
 4856.00    1.25717   1.16126    0.000
 4857.00    1.26098   1.13595    0.000
 4858.00    1.26769   1.11439    0.000
 4859.00    1.27909   1.10248    0.000
 4860.00    1.29660   1.09519    0.000
 4861.00    1.32276   1.09526    0.000
 4862.00    1.27313   1.10633    0.000
 4863.00    1.12881   1.12022    0.000
 4864.00    1.17522   1.13548    0.000
 4865.00    1.43165   1.15358    0.000
 4866.00    1.44808   1.16868    0.000
 4867.00    1.23139   1.17873    0.000
 4868.00    1.16699   1.18713    0.000
 4869.00    1.23301   1.19474    0.000
 4870.00    1.27247   1.20018    0.000
 4871.00    1.29191   1.20638    0.000
 4872.00    1.23284   1.21661    0.000
 4873.00    1.12173   1.22854    0.000
 4874.00    1.23623   1.24006    0.000
 4875.00    1.48167   1.25350    0.020
 4876.00    1.43741   1.26733    0.020
 4877.00    1.24663   1.27570    0.020
 4878.00    1.25151   1.28132    0.020
 4879.00    1.34208   1.28545    0.020
 4880.00    1.30163   1.28269    0.020
 4881.00    1.21193   1.27644    0.019
 4882.00    1.23889   1.26988    0.020
 4883.00    1.30306   1.26052    0.020
 4884.00    1.33348   1.25036    0.020
 4885.00    1.35490   1.24277    0.020
 4886.00    1.34619   1.23870    0.020
 4887.00    1.33091   1.23687    0.020
 4888.00    1.34953   1.24047    0.020
 4889.00    1.37402   1.25179    0.020
 4890.00    1.29985   1.26527    0.020
 4891.00    1.21267   1.28357    0.020
 4892.00    1.27015   1.30655    0.020
 4893.00    1.34107   1.32571    0.020
 4894.00    1.54681   1.34378    0.020
 4895.00    1.76020   1.35965    0.020
 4896.00    1.63822   1.36707    0.020
 4897.00    1.51097   1.37096    0.019
 4898.00    1.64299   1.37202    0.020
 4899.00    1.76966   1.36776    0.020
 4900.00    1.76932   1.36350    0.020
 4901.00    1.76190   1.35958    0.019
 4902.00    1.66280   1.35410    0.019
 4903.00    1.57481   1.34961    0.020
 4904.00    1.58343   1.34528    0.020
 4905.00    1.57496   1.34003    0.019
 4906.00    1.45647   1.33423    0.019
 4907.00    1.36240   1.32819    0.019
 4908.00    1.39115   1.32310    0.019
 4909.00    1.41878   1.31797    0.019
 4910.00    1.44179   1.31310    0.019
 4911.00    1.46099   1.30932    0.020
 4912.00    1.46735   1.30374    0.019
 4913.00    1.50650   1.29546    0.019
 4914.00    1.63904   1.28497    0.019
 4915.00    1.72468   1.27108    0.019
 4916.00    1.69626   1.25529    0.019
 4917.00    1.65085   1.23988    0.019
 4918.00    1.56974   1.22697    0.019
 4919.00    1.48523   1.21956    0.019
 4920.00    1.39452   1.21841    0.019
 4921.00    1.35842   1.22398    0.019
 4922.00    1.40943   1.23688    0.019
 4923.00    1.38479   1.25412    0.019
 4924.00    1.25425   1.27295    0.019
 4925.00    1.12562   1.29373    0.019
 4926.00    0.99934   1.31192    0.018
 4927.00    1.03548   1.32399    0.018
 4928.00    1.24795   1.33370    0.019
 4929.00    1.36447   1.33714    0.019
 4930.00    1.38910   1.33237    0.019
 4931.00    1.47769   1.32656    0.019
 4932.00    1.62029   1.31687    0.019
 4933.00    1.55010   1.30352    0.019
 4934.00    1.32170   1.29462    0.018
 4935.00    1.33452   1.28692    0.018
 4936.00    1.50490   1.28095    0.019
 4937.00    1.57284   1.28297    0.019
 4938.00    1.58223   1.28859    0.019
 4939.00    1.46478   1.29677    0.019
 4940.00    1.28418   1.31031    0.000
 4941.00    1.22608   1.32440    0.000
 4942.00    1.22071   1.33771    0.000
 4943.00    1.22944   1.35157    0.000
 4944.00    1.24336   1.36235    0.000
 4945.00    1.36344   1.37008    0.000
 4946.00    1.51673   1.37643    0.000
 4947.00    1.56382   1.37888    0.000
 4948.00    1.58321   1.37696    0.000
 4949.00    1.46528   1.37263    0.000
 4950.00    1.31812   1.36472    0.000
 4951.00    1.29569   1.35141    0.000
 4952.00    1.29427   1.33686    0.000
 4953.00    1.32525   1.32215    0.000
 4954.00    1.36036   1.30592    0.000
 4955.00    1.42053   1.29407    0.000
 4956.00    1.48291   1.28590    0.000
 4957.00    1.45962   1.28110    0.000
 4958.00    1.43181   1.28290    0.000
 4959.00    1.42506   1.28519    0.000
 4960.00    1.41849   1.28861    0.000
 4961.00    1.39423   1.29381    0.000
 4962.00    1.36898   1.29528    0.000
 4963.00    1.32207   1.29551    0.000
 4964.00    1.28735   1.29486    0.000
 4965.00    1.40219   1.29354    0.000
 4966.00    1.51233   1.29393    0.000
 4967.00    1.58304   1.29431    0.000
 4968.00    1.61833   1.29744    0.000
 4969.00    1.43239   1.30246    0.000
 4970.00    1.29390   1.30625    0.000
 4971.00    1.38806   1.31066    0.000
 4972.00    1.45264   1.31199    0.000
 4973.00    1.39948   1.30944    0.000
 4974.00    1.37935   1.30419    0.000
 4975.00    1.46846   1.29321    0.000
 4976.00    1.51121   1.27873    0.000
 4977.00    1.42437   1.26235    0.000
 4978.00    1.36310   1.24421    0.000
 4979.00    1.36303   1.22711    0.000
 4980.00    1.36187   1.21291    0.000
 4981.00    1.35843   1.20296    0.000
 4982.00    1.33274   1.19794    0.000
 4983.00    1.26708   1.19921    0.000
 4984.00    1.22258   1.20473    0.000
 4985.00    1.21132   1.21245    0.000
 4986.00    1.20111   1.22465    0.000
 4987.00    1.19236   1.23556    0.000
 4988.00    1.21857   1.24373    0.000
 4989.00    1.28722   1.25371    0.000
 4990.00    1.34103   1.25898    0.000
 4991.00    1.37894   1.26131    0.000
 4992.00    1.34832   1.26422    0.000
 4993.00    1.25301   1.26152    0.000
 4994.00    1.29022   1.25791    0.000
 4995.00    1.43773   1.25331    0.000
 4996.00    1.45006   1.24314    0.000
 4997.00    1.36332   1.23364    0.000
 4998.00    1.21666   1.22325    0.000
 4999.00    1.03144   1.21009    0.000
 5000.00    1.07493   1.19911    0.000
 5001.00    1.24716   1.18946    0.000
 5002.00    1.36182   1.18095    0.000
 5003.00    1.44828   1.17499    0.000
 5004.00    1.38619   1.17122    0.000
 5005.00    1.26121   1.16906    0.000
 5006.00    1.23318   1.16761    0.000
 5007.00    1.24031   1.16685    0.000
 5008.00    1.29096   1.16425    0.000
 5009.00    1.35497   1.16041    0.000
 5010.00    1.39816   1.15730    0.000
 5011.00    1.43603   1.15122    0.000
 5012.00    1.34362   1.14555    0.000
 5013.00    1.22414   1.14313    0.000
 5014.00    1.21404   1.14078    0.000
 5015.00    1.22184   1.14102    0.000
 5016.00    1.23220   1.14364    0.000
 5017.00    1.24287   1.14797    0.000
 5018.00    1.17292   1.15485    0.000
 5019.00    1.09615   1.16139    0.000
 5020.00    1.10913   1.16927    0.000
 5021.00    1.12649   1.17735    0.000
 5022.00    1.19583   1.18505    0.000
 5023.00    1.26407   1.19442    0.000
 5024.00    1.21539   1.20157    0.000
 5025.00    1.16755   1.21002    0.000
 5026.00    1.13650   1.21987    0.000
 5027.00    1.11166   1.22680    0.000
 5028.00    1.15943   1.23517    0.000
 5029.00    1.20317   1.24082    0.018
 5030.00    1.21430   1.24229    0.019
 5031.00    1.22211   1.24362    0.019
 5032.00    1.20977   1.23823    0.019
 5033.00    1.20669   1.22803    0.019
 5034.00    1.24791   1.21712    0.019
 5035.00    1.29273   1.20144    0.019
 5036.00    1.35161   1.18764    0.019
 5037.00    1.40095   1.17662    0.019
 5038.00    1.41935   1.16607    0.019
 5039.00    1.41320   1.16455    0.019
 5040.00    1.33964   1.16806    0.019
 5041.00    1.24937   1.17387    0.019
 5042.00    1.11980   1.18543    0.019
 5043.00    1.07507   1.19658    0.019
 5044.00    1.20278   1.20719    0.019
 5045.00    1.27150   1.21648    0.019
 5046.00    1.23582   1.22062    0.019
 5047.00    1.21888   1.22353    0.019
 5048.00    1.23094   1.22592    0.019
 5049.00    1.27644   1.22752    0.019
 5050.00    1.36741   1.23028    0.019
 5051.00    1.40293   1.23534    0.019
 5052.00    1.37208   1.24377    0.019
 5053.00    1.36342   1.25280    0.019
 5054.00    1.37816   1.26208    0.019
 5055.00    1.37245   1.27219    0.019
 5056.00    1.34768   1.27971    0.020
 5057.00    1.29464   1.28486    0.019
 5058.00    1.21838   1.28594    0.019
 5059.00    1.18724   1.28286    0.019
 5060.00    1.18869   1.27882    0.019
 5061.00    1.17046   1.26996    0.019
 5062.00    1.13976   1.25837    0.019
 5063.00    1.14415   1.24842    0.019
 5064.00    1.16798   1.23812    0.019
 5065.00    1.20626   1.22899    0.019
 5066.00    1.25149   1.22110    0.019
 5067.00    1.29237   1.21587    0.019
 5068.00    1.33143   1.21381    0.019
 5069.00    1.35194   1.21087    0.019
 5070.00    1.36585   1.20819    0.019
 5071.00    1.35793   1.20640    0.019
 5072.00    1.34344   1.20358    0.019
 5073.00    1.33021   1.19749    0.019
 5074.00    1.31730   1.18960    0.019
 5075.00    1.31214   1.18291    0.019
 5076.00    1.30854   1.17469    0.019
 5077.00    1.26476   1.16548    0.019
 5078.00    1.21459   1.15897    0.019
 5079.00    1.11917   1.15615    0.018
 5080.00    1.01840   1.15645    0.018
 5081.00    1.11888   1.15888    0.018
 5082.00    1.23554   1.16538    0.018
 5083.00    1.29613   1.17617    0.018
 5084.00    1.35420   1.18758    0.018
 5085.00    1.28373   1.19849    0.018
 5086.00    1.21069   1.21039    0.018
 5087.00    1.08577   1.22156    0.017
 5088.00    0.97089   1.22963    0.017
 5089.00    1.04264   1.23516    0.017
 5090.00    1.11377   1.23810    0.017
 5091.00    1.17788   1.23797    0.017
 5092.00    1.23388   1.23423    0.018
 5093.00    1.22665   1.22680    0.018
 5094.00    1.23229   1.21892    0.017
 5095.00    1.31378   1.21041    0.018
 5096.00    1.35749   1.20057    0.018
 5097.00    1.22498   1.19303    0.018
 5098.00    1.11539   1.18735    0.017
 5099.00    1.09315   1.18372    0.017
 5100.00    1.07030   1.18214    0.017
 5101.00    1.04553   1.17970    0.017
 5102.00    1.06266   1.17915    0.017
 5103.00    1.19282   1.17942    0.018
 5104.00    1.26671   1.17656    0.018
 5105.00    1.21051   1.17552    0.018
 5106.00    1.17635   1.17588    0.018
 5107.00    1.18627   1.17540    0.018
 5108.00    1.20719   1.17930    0.018
 5109.00    1.24730   1.18429    0.018
 5110.00    1.27358   1.19024    0.018
 5111.00    1.27875   1.20045    0.018
 5112.00    1.29103   1.20849    0.018
 5113.00    1.31283   1.21602    0.019
 5114.00    1.33615   1.22365    0.019
 5115.00    1.36125   1.22586    0.019
 5116.00    1.33125   1.22562    0.019
 5117.00    1.24392   1.22134    0.019
 5118.00    1.20766   1.21197    0.019
 5119.00    1.21828   1.20169    0.018
 5120.00    1.27473   1.18825    0.019
 5121.00    1.36824   1.17368    0.019
 5122.00    1.35117   1.16118    0.019
 5123.00    1.25537   1.14970    0.019
 5124.00    1.19987   1.14177    0.019
 5125.00    1.16952   1.13728    0.019
 5126.00    1.10036   1.13524    0.019
 5127.00    1.01001   1.13724    0.019
 5128.00    0.99715   1.14151    0.019
 5129.00    1.02107   1.14729    0.019
 5130.00    1.08268   1.15310    0.019
 5131.00    1.15970   1.15762    0.019
 5132.00    1.19770   1.16252    0.019
 5133.00    1.22206   1.16376    0.019
 5134.00    1.25310   1.16335    0.019
 5135.00    1.28611   1.16218    0.019
 5136.00    1.21633   1.15541    0.019
 5137.00    1.12143   1.15136    0.019
 5138.00    1.14953   1.14773    0.019
 5139.00    1.20194   1.13963    0.019
 5140.00    1.15601   1.13580    0.019
 5141.00    1.09493   1.13230    0.019
 5142.00    1.05224   1.12834    0.018
 5143.00    1.01165   1.12824    0.018
 5144.00    1.01363   1.12536    0.018
 5145.00    1.01885   1.12293    0.018
 5146.00    1.06027   1.12482    0.019
 5147.00    1.10319   1.12445    0.019
 5148.00    1.15166   1.12412    0.019
 5149.00    1.19965   1.12703    0.019
 5150.00    1.22547   1.13027    0.018
 5151.00    1.25430   1.13552    0.018
 5152.00    1.33544   1.14277    0.018
 5153.00    1.39836   1.14957    0.019
 5154.00    1.26736   1.15804    0.019
 5155.00    1.16242   1.16583    0.018
 5156.00    1.25358   1.16899    0.018
 5157.00    1.34444   1.17029    0.018
 5158.00    1.43354   1.16658    0.018
 5159.00    1.47916   1.15466    0.018
 5160.00    1.32666   1.13784    0.018
 5161.00    1.19115   1.11383    0.018
 5162.00    1.11901   1.08523    0.018
 5163.00    1.08001   1.05532    0.018
 5164.00    1.14439   1.02251    0.017
 5165.00    1.19958   0.99230    0.017
 5166.00    1.23041   0.96726    0.017
 5167.00    1.24510   0.94852    0.018
 5168.00    1.22306   0.93739    0.018
 5169.00    1.16533   0.93192    0.018
 5170.00    1.03734   0.93516    0.018
 5171.00    0.97596   0.94795    0.018
 5172.00    1.02889   0.96546    0.018
 5173.00    1.09718   0.98376    0.018
 5174.00    1.18855   1.00090    0.018
 5175.00    1.21083   1.01657    0.018
 5176.00    1.14185   1.02934    0.018
 5177.00    1.09748   1.03466    0.018
 5178.00    1.08174   1.03363    0.017
 5179.00    1.05259   1.03028    0.017
 5180.00    1.00970   1.02310    0.018
 5181.00    0.96212   1.01729    0.017
 5182.00    0.91030   1.01682    0.017
 5183.00    0.92073   1.02004    0.017
 5184.00    0.98080   1.02906    0.017
 5185.00    1.09413   1.03848    0.017
 5186.00    1.24481   1.05023    0.018
 5187.00    1.23288   1.06745    0.018
 5188.00    1.12088   1.07959    0.018
 5189.00    1.14232   1.08732    0.018
 5190.00    1.23547   1.09532    0.000
 5191.00    1.20930   1.10180    0.000
 5192.00    1.12742   1.10791    0.000
 5193.00    1.08256   1.11363    0.000
 5194.00    1.05259   1.11824    0.000
 5195.00    1.03443   1.12511    0.000
 5196.00    1.02033   1.13240    0.000
 5197.00    0.99313   1.13533    0.000
 5198.00    0.96214   1.13585    0.000
 5199.00    0.98899   1.13325    0.000
 5200.00    1.02966   1.12680    0.000
 5201.00    1.09204   1.11749    0.000
 5202.00    1.15860   1.10440    0.000
 5203.00    1.10091   1.09228    0.000
 5204.00    1.02464   1.08291    0.000
 5205.00    1.04396   1.07503    0.000
 5206.00    1.07376   1.07315    0.000
 5207.00    1.09717   1.07563    0.000
 5208.00    1.12012   1.08294    0.000
 5209.00    1.18490   1.09617    0.000
 5210.00    1.25124   1.10931    0.000
 5211.00    1.27650   1.12393    0.019
 5212.00    1.29857   1.13871    0.019
 5213.00    1.21129   1.15119    0.018
 5214.00    1.13939   1.16245    0.018
 5215.00    1.31689   1.17141    0.018
 5216.00    1.45870   1.17756    0.018
 5217.00    1.23710   1.17987    0.018
 5218.00    1.04861   1.17928    0.018
 5219.00    1.10110   1.17579    0.018
 5220.00    1.13465   1.16914    0.018
 5221.00    1.06269   1.15933    0.018
 5222.00    1.02762   1.14840    0.018
 5223.00    1.15660   1.13756    0.018
 5224.00    1.23578   1.12715    0.018
 5225.00    1.13303   1.12278    0.018
 5226.00    1.07136   1.12135    0.018
 5227.00    1.13545   1.12219    0.018
 5228.00    1.17181   1.12884    0.018
 5229.00    1.13602   1.13535    0.018
 5230.00    1.09598   1.14526    0.018
 5231.00    1.04645   1.15778    0.017
 5232.00    1.02515   1.16716    0.017
 5233.00    1.05853   1.17913    0.017
 5234.00    1.11679   1.19029    0.017
 5235.00    1.21711   1.19919    0.017
 5236.00    1.27897   1.20921    0.017
 5237.00    1.28385   1.21712    0.018
 5238.00    1.25531   1.22385    0.018
 5239.00    1.18323   1.22794    0.018
 5240.00    1.14100   1.22824    0.018
 5241.00    1.13299   1.22674    0.017
 5242.00    1.16132   1.22291    0.017
 5243.00    1.22643   1.21621    0.017
 5244.00    1.26180   1.20652    0.017
 5245.00    1.27063   1.19781    0.017
 5246.00    1.28315   1.19031    0.017
 5247.00    1.29857   1.18207    0.017
 5248.00    1.21185   1.17621    0.018
 5249.00    1.05450   1.17236    0.018
 5250.00    1.02087   1.17275    0.018
 5251.00    1.06225   1.17604    0.018
 5252.00    1.05769   1.17748    0.018
 5253.00    1.02883   1.18207    0.018
 5254.00    1.05396   1.18715    0.018
 5255.00    1.10387   1.18842    0.018
 5256.00    1.08153   1.18638    0.018
 5257.00    1.03062   1.17808    0.018
 5258.00    1.12492   1.16578    0.018
 5259.00    1.26813   1.14965    0.018
 5260.00    1.22591   1.12817    0.019
 5261.00    1.13120   1.10469    0.019
 5262.00    1.12639   1.08082    0.019
 5263.00    1.14255   1.05785    0.019
 5264.00    1.10640   1.04082    0.019
 5265.00    1.06044   1.02895    0.019
 5266.00    1.09391   1.01956    0.019
 5267.00    1.13889   1.01693    0.019
 5268.00    1.23140   1.02331    0.019
 5269.00    1.32890   1.03589    0.019
 5270.00    1.30047   1.05166    0.019
 5271.00    1.26345   1.06865    0.019
 5272.00    1.06419   1.08627    0.019
 5273.00    0.85948   1.10819    0.019
 5274.00    0.95927   1.13050    0.019
 5275.00    1.05939   1.14709    0.018
 5276.00    1.15948   1.16142    0.018
 5277.00    1.24876   1.17246    0.018
 5278.00    1.17340   1.18067    0.018
 5279.00    1.10339   1.18957    0.018
 5280.00    1.08549   1.19600    0.018
 5281.00    1.07446   1.20118    0.018
 5282.00    1.11178   1.20947    0.018
 5283.00    1.12735   1.21877    0.018
 5284.00    1.02500   1.22866    0.018
 5285.00    0.98501   1.23822    0.018
 5286.00    1.21594   1.24647    0.018
 5287.00    1.37669   1.25500    0.018
 5288.00    1.28631   1.26032    0.017
 5289.00    1.22227   1.26015    0.017
 5290.00    1.23734   1.25548    0.017
 5291.00    1.25406   1.24844    0.017
 5292.00    1.27500   1.23939    0.017
 5293.00    1.28881   1.22761    0.018
 5294.00    1.28693   1.21446    0.018
 5295.00    1.27214   1.20250    0.018
 5296.00    1.23272   1.19619    0.017
 5297.00    1.18852   1.19369    0.017
 5298.00    1.13635   1.19296    0.017
 5299.00    1.13766   1.19634    0.018
 5300.00    1.21702   1.20406    0.018
 5301.00    1.21898   1.21652    0.018
 5302.00    1.12160   1.22990    0.018
 5303.00    1.07170   1.24099    0.018
 5304.00    1.07548   1.25111    0.018
 5305.00    1.05771   1.26080    0.018
 5306.00    1.01844   1.26935    0.018
 5307.00    0.97887   1.27469    0.018
 5308.00    0.93906   1.27652    0.018
 5309.00    1.05220   1.27614    0.018
 5310.00    1.28387   1.27407    0.018
 5311.00    1.35599   1.27120    0.018
 5312.00    1.31940   1.26688    0.018
 5313.00    1.32202   1.26011    0.018
 5314.00    1.34807   1.25325    0.018
 5315.00    1.34077   1.24640    0.018
 5316.00    1.31611   1.23818    0.018
 5317.00    1.25692   1.22995    0.018
 5318.00    1.18215   1.21986    0.018
 5319.00    1.12235   1.20815    0.018
 5320.00    1.06838   1.19508    0.017
 5321.00    1.04924   1.17970    0.018
 5322.00    1.04162   1.16555    0.018
 5323.00    1.06531   1.15241    0.018
 5324.00    1.09769   1.13868    0.018
 5325.00    1.10008   1.12565    0.018
 5326.00    1.09564   1.11953    0.017
 5327.00    1.11867   1.12124    0.017
 5328.00    1.14671   1.12709    0.017
 5329.00    1.19170   1.13470    0.017
 5330.00    1.23907   1.14307    0.017
 5331.00    1.09219   1.15684    0.017
 5332.00    0.92572   1.17178    0.017
 5333.00    0.95393   1.18269    0.017
 5334.00    0.99463   1.18998    0.017
 5335.00    1.05537   1.19412    0.017
 5336.00    1.11655   1.19681    0.017
 5337.00    1.11887   1.19578    0.017
 5338.00    1.12015   1.19361    0.017
 5339.00    1.09155   1.19326    0.017
 5340.00    1.06710   1.19217    0.017
 5341.00    1.10228   1.19191    0.017
 5342.00    1.13479   1.19119    0.017
 5343.00    1.14225   1.19186    0.017
 5344.00    1.15118   1.19706    0.017
 5345.00    1.17015   1.20075    0.017
 5346.00    1.18960   1.20494    0.017
 5347.00    1.21161   1.21171    0.016
 5348.00    1.22022   1.21987    0.016
 5349.00    1.17194   1.23071    0.017
 5350.00    1.14049   1.24071    0.017
 5351.00    1.16808   1.25103    0.017
 5352.00    1.21665   1.26263    0.017
 5353.00    1.32704   1.27242    0.017
 5354.00    1.38795   1.27990    0.017
 5355.00    1.32455   1.28414    0.017
 5356.00    1.25418   1.28543    0.017
 5357.00    1.16873   1.28393    0.017
 5358.00    1.08253   1.27861    0.017
 5359.00    0.99492   1.26982    0.017
 5360.00    0.98287   1.25991    0.017
 5361.00    1.09474   1.24809    0.017
 5362.00    1.14867   1.23408    0.017
 5363.00    1.11926   1.22069    0.017
 5364.00    1.11486   1.20725    0.017
 5365.00    1.14210   1.19626    0.017
 5366.00    1.16188   1.18664    0.017
 5367.00    1.17332   1.17757    0.017
 5368.00    1.16958   1.17255   -2.000
 5369.00    1.15088   1.17229   -2.000
 5370.00    1.14018   1.17747   -2.000
 5371.00    1.13641   1.18425   -2.000
 5372.00    1.18830   1.19219   -2.000
 5373.00    1.28270   1.20129   -2.000
 5374.00    1.34964   1.21090   -2.000
 5375.00    1.39815   1.22139   -2.000
 5376.00    1.42286   1.22887   -2.000
 5377.00    1.43358   1.23320   -2.000
 5378.00    1.41959   1.23521   -2.000
 5379.00    1.39293   1.23555   -2.000
 5380.00    1.28791   1.23450   -2.000
 5381.00    1.14806   1.23278   -2.000
 5382.00    1.14182   1.23031   -2.000
 5383.00    1.18658   1.22605    0.017
 5384.00    1.11324   1.22149    0.017
 5385.00    1.00160   1.21568    0.017
 5386.00    1.06146   1.20877    0.017
 5387.00    1.16790   1.20162    0.016
 5388.00    1.23203   1.19296    0.016
 5389.00    1.28674   1.18359    0.017
 5390.00    1.22760   1.17500    0.016
 5391.00    1.14823   1.16631    0.016
 5392.00    1.13896   1.15872    0.016
 5393.00    1.13919   1.15176    0.016
 5394.00    1.15000   1.14478    0.016
 5395.00    1.16183   1.14173    0.016
 5396.00    1.27745   1.13952    0.016
 5397.00    1.39930   1.13646    0.016
 5398.00    1.29420   1.13351    0.016
 5399.00    1.18352   1.13035    0.016
 5400.00    1.12652   1.12747    0.016
 5401.00    1.07262   1.12290    0.016
 5402.00    1.09853   1.11712    0.016
 5403.00    1.12492   1.11305    0.016
 5404.00    1.15777   1.11247    0.016
 5405.00    1.18085   1.11322    0.016
 5406.00    1.11602   1.11448    0.016
 5407.00    1.06119   1.11838    0.016
 5408.00    1.07256   1.12750    0.016
 5409.00    1.07478   1.14012    0.016
 5410.00    1.02997   1.15272    0.016
 5411.00    0.98880   1.16425    0.016
 5412.00    0.96270   1.17492    0.016
 5413.00    0.97156   1.18675    0.016
 5414.00    1.10052   1.19744    0.017
 5415.00    1.20541   1.20415    0.017
 5416.00    1.24068   1.20796    0.016
 5417.00    1.22895   1.20967    0.016
 5418.00    1.10113   1.21053    0.016
 5419.00    1.04295   1.21086    0.016
 5420.00    1.13302   1.20830    0.016
 5421.00    1.14886   1.20307    0.016
 5422.00    1.02738   1.19920    0.016
 5423.00    0.96114   1.19584    0.016
 5424.00    0.98414   1.19152    0.016
 5425.00    1.03034   1.18568    0.017
 5426.00    1.10940   1.17625    0.017
 5427.00    1.14994   1.16934    0.017
 5428.00    1.14244   1.16609    0.016
 5429.00    1.12933   1.16102    0.016
 5430.00    1.11004   1.15725    0.017
 5431.00    1.05851   1.15424    0.016
 5432.00    0.97572   1.15514    0.016
 5433.00    0.95968   1.16185    0.016
 5434.00    1.00070   1.16914    0.016
 5435.00    1.05317   1.17861    0.016
 5436.00    1.11426   1.18824    0.016
 5437.00    1.14728   1.19740    0.016
 5438.00    1.16173   1.20548    0.016
 5439.00    1.15177   1.21049    0.016
 5440.00    1.12767   1.21335    0.016
 5441.00    1.10519   1.21181    0.016
 5442.00    1.08354   1.20698    0.016
 5443.00    1.09825   1.19994    0.016
 5444.00    1.12886   1.19212    0.016
 5445.00    1.07611   1.18709    0.016
 5446.00    0.99208   1.18197    0.015
 5447.00    1.00631   1.17703    0.015
 5448.00    1.05179   1.17301    0.015
 5449.00    1.05837   1.17013    0.015
 5450.00    1.05460   1.16912    0.015
 5451.00    1.12758   1.16805    0.015
 5452.00    1.21726   1.16549    0.015
 5453.00    1.26431   1.16417    0.015
 5454.00    1.30399   1.16508    0.015
 5455.00    1.25031   1.16559    0.015
 5456.00    1.18438   1.16680    0.016
 5457.00    1.22567   1.16685    0.016
 5458.00    1.27687   1.16776    0.016
 5459.00    1.25458   1.17003    0.016
 5460.00    1.22817   1.17071    0.016
 5461.00    1.20282   1.17216    0.016
 5462.00    1.17814   1.17311    0.016
 5463.00    1.21947   1.17291    0.016
 5464.00    1.25731   1.17304    0.016
 5465.00    1.21311   1.17230    0.016
 5466.00    1.17759   1.17125    0.016
 5467.00    1.25366   1.16920    0.016
 5468.00    1.30889   1.16500    0.016
 5469.00    1.18376   1.16050    0.016
 5470.00    1.07167   1.15440    0.016
 5471.00    1.04311   1.14746    0.016
 5472.00    1.02571   1.14105    0.016
 5473.00    1.06420   1.13364    0.016
 5474.00    1.10140   1.12845    0.017
 5475.00    1.13337   1.12613    0.016
 5476.00    1.13084   1.12538    0.016
 5477.00    1.01216   1.12645    0.016
 5478.00    0.93453   1.12726   -2.000
 5479.00    0.97353   1.13091   -2.000
 5480.00    1.00991   1.13746   -2.000
 5481.00    1.03995   1.14413   -2.000
 5482.00    1.14092   1.15022   -2.000
 5483.00    1.39051   1.15451   -2.000
 5484.00    1.48168   1.15844   -2.000
 5485.00    1.28438   1.16222   -2.000
 5486.00    1.16319   1.16609   -2.000
 5487.00    1.16317   1.16848   -2.000
 5488.00    1.20743   1.16993   -2.000
 5489.00    1.31357   1.17078   -2.000
 5490.00    1.55788   1.17081   -2.000
 5491.00    1.97207   1.17162   -2.000
 5492.00    2.11601   1.17187   -2.000
 5493.00    1.96708   1.17177   -2.000
 5494.00    1.71043   1.17088   -2.000
 5495.00    1.35080   1.16952   -2.000
 5496.00    1.18203   1.16860   -2.000
 5497.00    1.17412   1.16683   -2.000
 5498.00    1.12474   1.16381   -2.000
 5499.00    1.04457   1.16033   -2.000
 5500.00    1.03461   1.15756   -2.000
 5501.00    1.07040   1.15482   -2.000
 5502.00    1.07785   1.15170    0.015
 5503.00    1.06912   1.14755    0.015
 5504.00    1.03797   1.14436    0.015
 5505.00    0.99567   1.14287    0.015
 5506.00    1.00650   1.14070    0.015
 5507.00    1.04015   1.13881    0.015
 5508.00    1.13665   1.13704    0.016
 5509.00    1.25629   1.13567    0.016
 5510.00    1.19557   1.13657    0.016
 5511.00    1.07856   1.13822    0.016
 5512.00    1.04930   1.14108    0.016
 5513.00    1.04287   1.14569    0.015
 5514.00    1.05401   1.15060    0.016
 5515.00    1.06888   1.15720    0.016
 5516.00    1.02595   1.16393    0.016
 5517.00    0.97330   1.16953    0.016
 5518.00    1.13678   1.17416    0.016
 5519.00    1.32762   1.17689    0.016
 5520.00    1.26460   1.17801    0.016
 5521.00    1.17918   1.17714    0.016
 5522.00    1.13573   1.17389    0.016
 5523.00    1.09448   1.16952    0.016
 5524.00    1.05869   1.16482    0.016
 5525.00    1.02383   1.15996    0.015
 5526.00    1.05109   1.15688    0.015
 5527.00    1.07614   1.15503    0.015
 5528.00    1.05385   1.15394    0.015
 5529.00    1.03344   1.15390    0.015
 5530.00    1.03609   1.15451    0.015
 5531.00    1.03799   1.15702    0.015
 5532.00    1.03358   1.15992    0.015
 5533.00    1.03703   1.16314    0.015
 5534.00    1.08945   1.16663    0.015
 5535.00    1.12554   1.16950    0.015
 5536.00    1.08177   1.17300    0.015
 5537.00    1.06041   1.17597    0.015
 5538.00    1.12799   1.17910    0.015
 5539.00    1.17129   1.18191    0.015
 5540.00    1.13447   1.18366    0.015
 5541.00    1.08447   1.18585    0.015
 5542.00    0.99771   1.18807    0.015
 5543.00    0.93979   1.18996    0.017
 5544.00    0.95066   1.19180    0.043
 5545.00    0.97081   1.19378   -1.000
 5546.00    1.01013   1.19558   -1.000
 5547.00    1.04218   1.19703   -1.000
 5548.00    1.06120   1.19761   -1.000
 5549.00    1.07122   1.19758   -1.000
 5550.00    1.06711   1.19681   -1.000
 5551.00    1.10554   1.19508    0.073
 5552.00    1.20256   1.19265    0.022
 5553.00    1.23562   1.18990    0.015
 5554.00    1.19118   1.18667    0.015
 5555.00    1.13852   1.18281    0.015
 5556.00    1.07707   1.17921    0.015
 5557.00    1.01645   1.17528    0.015
 5558.00    0.95662   1.17139    0.015
 5559.00    0.94682   1.16718    0.015
 5560.00    0.97860   1.16250    0.015
 5561.00    1.02476   1.15867    0.016
 5562.00    1.08146   1.15435    0.016
 5563.00    1.05536   1.15036    0.016
 5564.00    0.97610   1.14710    0.015
 5565.00    0.94023   1.14442    0.015
 5566.00    0.92874   1.14297    0.015
 5567.00    0.96129   1.14174    0.015
 5568.00    1.01537   1.14193    0.015
 5569.00    0.99805   1.14276    0.015
 5570.00    0.95056   1.14395    0.015
 5571.00    0.97157   1.14649    0.015
 5572.00    1.01737   1.14915    0.015
 5573.00    1.04825   1.15196    0.015
 5574.00    1.07458   1.15436    0.015
 5575.00    1.03743   1.15608    0.015
 5576.00    0.98413   1.15717    0.015
 5577.00    0.95304   1.15690    0.015
 5578.00    0.92656   1.15473    0.015
 5579.00    0.97973   1.15075    0.015
 5580.00    1.04588   1.14531    0.015
 5581.00    1.06540   1.13759    0.014
 5582.00    1.07922   1.12877    0.014
 5583.00    1.05070   1.11921    0.014
 5584.00    1.01861   1.10933    0.014
 5585.00    0.99150   1.10147    0.015
 5586.00    0.96462   1.09514    0.015
 5587.00    1.00229   1.09087    0.015
 5588.00    1.04069   1.08906    0.015
 5589.00    1.06498   1.08862    0.015
 5590.00    1.08784   1.09092    0.015
 5591.00    1.08214   1.09440    0.015
 5592.00    1.07858   1.09863    0.016
 5593.00    1.09987   1.10313    0.015
 5594.00    1.12015   1.10639    0.015
 5595.00    1.13239   1.10871    0.016
 5596.00    1.14399   1.11034    0.016
 5597.00    1.15180   1.11228    0.016
 5598.00    1.15226   1.11440    0.016
 5599.00    1.11773   1.11766    0.016
 5600.00    1.07706   1.12161    0.016
 5601.00    1.01258   1.12789    0.016
 5602.00    0.97554   1.13534    0.016
 5603.00    1.02729   1.14311    0.016
 5604.00    1.08137   1.15138    0.016
 5605.00    1.14189   1.15836    0.016
 5606.00    1.17939   1.16469    0.016
 5607.00    1.16290   1.16858    0.015
 5608.00    1.13760   1.16986    0.015
 5609.00    1.09443   1.16818    0.015
 5610.00    1.06489   1.16317    0.015
 5611.00    1.05942   1.15688    0.015
 5612.00    1.05991   1.14931    0.015
 5613.00    1.06963   1.14214    0.015
 5614.00    1.07939   1.13602    0.015
 5615.00    1.08923   1.13036    0.015
 5616.00    1.09794   1.12609    0.015
 5617.00    1.10530   1.12270    0.014
 5618.00    1.09822   1.12119    0.014
 5619.00    1.07591   1.12081    0.014
 5620.00    1.08887   1.12088    0.014
 5621.00    1.13462   1.12176    0.014
 5622.00    1.13387   1.12311    0.014
 5623.00    1.09506   1.12564    0.014
 5624.00    1.06736   1.12890    0.014
 5625.00    1.04768   1.13247    0.014
 5626.00    1.06443   1.13640    0.014
 5627.00    1.10424   1.14026    0.014
 5628.00    1.09935   1.14405    0.014
 5629.00    1.06974   1.14674    0.014
 5630.00    1.10494   1.14821    0.014
 5631.00    1.17134   1.14824    0.014
 5632.00    1.19270   1.14658    0.014
 5633.00    1.19535   1.14394    0.015
 5634.00    1.14887   1.14048    0.015
 5635.00    1.08494   1.13683    0.014
 5636.00    1.05596   1.13309    0.014
 5637.00    1.03747   1.13011    0.014
 5638.00    1.02089   1.12784    0.015
 5639.00    1.00479   1.12650    0.015
 5640.00    1.01381   1.12668    0.015
 5641.00    1.02791   1.12748    0.015
 5642.00    1.04752   1.12926    0.015
 5643.00    1.06800   1.13120    0.015
 5644.00    1.05682   1.13339    0.015
 5645.00    1.04192   1.13561    0.015
 5646.00    1.05444   1.13726    0.015
 5647.00    1.06915   1.13864    0.015
 5648.00    1.08838   1.13891    0.015
 5649.00    1.10781   1.13789    0.015
 5650.00    1.14148   1.13554    0.015
 5651.00    1.17274   1.13209    0.015
 5652.00    1.07884   1.12744    0.014
 5653.00    0.98848   1.12162    0.014
 5654.00    0.96338   1.11604    0.014
 5655.00    0.94175   1.11060    0.014
 5656.00    0.95841   1.10578    0.014
 5657.00    0.97123   1.10220    0.014
 5658.00    0.95413   1.10014    0.014
 5659.00    0.93445   1.09983    0.014
 5660.00    0.89967   1.10072    0.014
 5661.00    0.87837   1.10360    0.014
 5662.00    0.91978   1.10729    0.014
 5663.00    0.96871   1.11169    0.013
 5664.00    1.04630   1.11652    0.014
 5665.00    1.09786   1.12163    0.014
 5666.00    1.06688   1.12696    0.014
 5667.00    1.04052   1.13243    0.014
 5668.00    1.02658   1.13817    0.014
 5669.00    1.01798   1.14332    0.014
 5670.00    1.02169   1.14812    0.014
 5671.00    1.02889   1.15245    0.014
 5672.00    1.04308   1.15613    0.014
 5673.00    1.05170   1.15860    0.014
 5674.00    1.05063   1.15987    0.014
 5675.00    1.07920   1.15971    0.015
 5676.00    1.15288   1.15807    0.015
 5677.00    1.19820   1.15476    0.015
 5678.00    1.20557   1.15076    0.015
 5679.00    1.16753   1.14626    0.015
 5680.00    1.07598   1.14164    0.015
 5681.00    1.03301   1.13731    0.015
 5682.00    1.04051   1.13336    0.015
 5683.00    1.05110   1.13057    0.015
 5684.00    1.06452   1.12878    0.015
 5685.00    1.08810   1.12889    0.015
 5686.00    1.11987   1.12992    0.015
 5687.00    1.14138   1.13245    0.014
 5688.00    1.15560   1.13538    0.015
 5689.00    1.14297   1.13830    0.014
 5690.00    1.11359   1.14110    0.014
 5691.00    1.07156   1.14300    0.014
 5692.00    1.02265   1.14430    0.014
 5693.00    1.02252   1.14344    0.014
 5694.00    1.04547   1.14174    0.014
 5695.00    1.04392   1.13824    0.014
 5696.00    1.03236   1.13327    0.014
 5697.00    1.05557   1.12774    0.014
 5698.00    1.09090   1.12154    0.014
 5699.00    1.05097   1.11544    0.014
 5700.00    0.98890   1.10889    0.014
 5701.00    1.01137   1.10239    0.014
 5702.00    1.05443   1.09621    0.014
 5703.00    1.06464   1.09024    0.014
 5704.00    1.06838   1.08494    0.014
 5705.00    1.08199   1.08127    0.014
 5706.00    1.09712   1.07853    0.014
 5707.00    1.10786   1.07766    0.014
 5708.00    1.11810   1.07922    0.014
 5709.00    1.05389   1.08249    0.014
 5710.00    0.98404   1.08798    0.014
 5711.00    0.99132   1.09518    0.014
 5712.00    1.00173   1.10401    0.014
 5713.00    1.04356   1.11347    0.014
 5714.00    1.08326   1.12346    0.014
 5715.00    1.02470   1.13337    0.014
 5716.00    0.96892   1.14229    0.014
 5717.00    0.96091   1.15044    0.014
 5718.00    0.95922   1.15715    0.014
 5719.00    1.02448   1.16219    0.014
 5720.00    1.07481   1.16573    0.015
 5721.00    1.01321   1.16789    0.014
 5722.00    0.96175   1.16826    0.014
 5723.00    0.96822   1.16812    0.014
 5724.00    0.97625   1.16733    0.014
 5725.00    0.99138   1.16583    0.015
 5726.00    1.01520   1.16378    0.015
 5727.00    1.07134   1.16205    0.014
 5728.00    1.11471   1.16099    0.014
 5729.00    1.11838   1.16017    0.014
 5730.00    1.11325   1.16011    0.015
 5731.00    1.08487   1.16025    0.014
 5732.00    1.05034   1.16077    0.014
 5733.00    1.00188   1.16144    0.014
 5734.00    0.99098   1.16200    0.014
 5735.00    1.05391   1.16244    0.014
 5736.00    1.12164   1.16269    0.014
 5737.00    1.19761   1.16282    0.014
 5738.00    1.23261   1.16245    0.014
 5739.00    1.20615   1.16205    0.014
 5740.00    1.15962   1.16157    0.000
 5741.00    1.08662   1.16079    0.000
 5742.00    1.04419   1.15954    0.000
 5743.00    1.03727   1.15770    0.000
 5744.00    1.03088   1.15616    0.000
 5745.00    1.02502   1.15429    0.000
 5746.00    1.03701   1.15208    0.000
 5747.00    1.06512   1.14921    0.000
 5748.00    1.07889   1.14616    0.000
 5749.00    1.08123   1.14329    0.000
 5750.00    1.06175   1.14107    0.000
 5751.00    1.02697   1.13968    0.000
 5752.00    1.02711   1.13844    0.000
 5753.00    1.04868   1.13807    0.000
 5754.00    1.03713   1.13771    0.000
 5755.00    1.00781   1.13753    0.000
 5756.00    0.97954   1.13722    0.000
 5757.00    0.95176   1.13731    0.000
 5758.00    0.96010   1.13772    0.000
 5759.00    0.98295   1.13932    0.000
 5760.00    0.97369   1.14120    0.000
 5761.00    0.95344   1.14313    0.000
 5762.00    0.97548   1.14567    0.000
 5763.00    1.00970   1.14838    0.000
 5764.00    1.06143   1.15138    0.000
 5765.00    1.11733   1.15402    0.000
 5766.00    1.14620   1.15662    0.000
 5767.00    1.16988   1.15791    0.000
 5768.00    1.13573   1.15877    0.000
 5769.00    1.09296   1.15824    0.000
 5770.00    1.03214   1.15631    0.000
 5771.00    0.96936   1.15373    0.000
 5772.00    0.99879   1.14990    0.000
 5773.00    1.03483   1.14530    0.000
 5774.00    1.04319   1.13941    0.000
 5775.00    1.05053   1.13279    0.000
 5776.00    1.06554   1.12494    0.000
 5777.00    1.08077   1.11733    0.000
 5778.00    1.10262   1.10991    0.000
 5779.00    1.12116   1.10280    0.000
 5780.00    1.08641   1.09657    0.000
 5781.00    1.05355   1.09214    0.000
 5782.00    1.03988   1.08996    0.000
 5783.00    1.02970   1.08924    0.000
 5784.00    1.04483   1.09098    0.000
 5785.00    1.06723   1.09399    0.000
 5786.00    1.12992   1.09857    0.000
 5787.00    1.17870   1.10464    0.000
 5788.00    1.16571   1.11094    0.000
 5789.00    1.14768   1.11741    0.000
 5790.00    1.11126   1.12363    0.000
 5791.00    1.08645   1.12967   -2.000
 5792.00    1.09709   1.13461   -2.000
 5793.00    1.10278   1.13895   -2.000
 5794.00    1.09557   1.14333   -2.000
 5795.00    1.10822   1.14701   -2.000
 5796.00    1.16517   1.15023   -2.000
 5797.00    1.22996   1.15301   -2.000
 5798.00    1.30989   1.15484   -2.000
 5799.00    1.34185   1.15590   -2.000
 5800.00    1.29287   1.15642   -2.000
 5801.00    1.25022   1.15639   -2.000
 5802.00    1.21693   1.15604   -2.000
 5803.00    1.19814   1.15557   -2.000
 5804.00    1.19817   1.15501   -2.000
 5805.00    1.22896   1.15415   -2.000
 5806.00    1.29495   1.15347   -2.000
 5807.00    1.31775   1.15282   -2.000
 5808.00    1.29693   1.15224   -2.000
 5809.00    1.25340   1.15184   -2.000
 5810.00    1.18965   1.15164   -2.000
 5811.00    1.11551   1.15154    0.000
 5812.00    1.03324   1.15178    0.000
 5813.00    1.01404   1.15257    0.000
 5814.00    1.03838   1.15350    0.000
 5815.00    1.09776   1.15498    0.000
 5816.00    1.17834   1.15671    0.000
 5817.00    1.21791   1.15872    0.000
 5818.00    1.23580   1.16099    0.000
 5819.00    1.21220   1.16313    0.000
 5820.00    1.16958   1.16536    0.000
 5821.00    1.15690   1.16721    0.000
 5822.00    1.15603   1.16895    0.000
 5823.00    1.12826   1.16999    0.000
 5824.00    1.09145   1.17059    0.000
 5825.00    1.07845   1.17085    0.000
 5826.00    1.07219   1.17056    0.000
 5827.00    1.05495   1.17010    0.000
 5828.00    1.03515   1.16928    0.000
 5829.00    1.05400   1.16835    0.000
 5830.00    1.08007   1.16717    0.000
 5831.00    1.11242   1.16601    0.000
 5832.00    1.14568   1.16501    0.000
 5833.00    1.16535   1.16401    0.000
 5834.00    1.18359   1.16351    0.000
 5835.00    1.16206   1.16318    0.000
 5836.00    1.13785   1.16323    0.000
 5837.00    1.09630   1.16334    0.000
 5838.00    1.05418   1.16333    0.000
 5839.00    1.03612   1.16303    0.000
 5840.00    1.01842   1.16226    0.000
 5841.00    1.01141   1.16091    0.000
 5842.00    1.00820   1.15843    0.000
 5843.00    1.06232   1.15538    0.000
 5844.00    1.10649   1.15159    0.000
 5845.00    1.05411   1.14696    0.000
 5846.00    1.00188   1.14156    0.000
 5847.00    0.95068   1.13563    0.000
 5848.00    0.91634   1.12942    0.000
 5849.00    0.97315   1.12306    0.000
 5850.00    1.01725   1.11688    0.000
 5851.00    1.00629   1.11073    0.000
 5852.00    0.99706   1.10525    0.000
 5853.00    0.99401   1.10045    0.000
 5854.00    0.99788   1.09706    0.000
 5855.00    1.02244   1.09433    0.000
 5856.00    1.05057   1.09313    0.000
 5857.00    1.08780   1.09278    0.000
 5858.00    1.10943   1.09391    0.000
 5859.00    1.09677   1.09605    0.000
 5860.00    1.08440   1.09869    0.000
 5861.00    1.07257   1.10185    0.000
 5862.00    1.05209   1.10513    0.000
 5863.00    1.01725   1.10926    0.000
 5864.00    1.01031   1.11281    0.000
 5865.00    1.04401   1.11644    0.000
 5866.00    1.06472   1.11928    0.000
 5867.00    1.06878   1.12197    0.000
 5868.00    1.05115   1.12412    0.000
 5869.00    1.00903   1.12563    0.000
 5870.00    0.99762   1.12635    0.000
 5871.00    1.01679   1.12600    0.000
 5872.00    1.03588   1.12510    0.000
 5873.00    1.05489   1.12290    0.000
 5874.00    1.06948   1.11998    0.000
 5875.00    1.08065   1.11587    0.000
 5876.00    1.11018   1.11093    0.000
 5877.00    1.15221   1.10485    0.000
 5878.00    1.13768   1.09768    0.000
 5879.00    1.08946   1.08915    0.000
 5880.00    1.07229   1.07873    0.000
 5881.00    1.07128   1.06629    0.000
 5882.00    1.06335   1.05119    0.000
 5883.00    1.05231   1.03381    0.000
 5884.00    1.03791   1.01519    0.000
 5885.00    1.02222   0.99562    0.000
 5886.00    1.02390   0.97654    0.000
 5887.00    1.03131   0.95852    0.000
 5888.00    1.01484   0.94199    0.000
 5889.00    0.99178   0.92881    0.000
 5890.00    0.96465   0.91992    0.000
 5891.00    0.93661   0.91560    0.000
 5892.00    0.92250   0.91600    0.000
 5893.00    0.91093   0.92102    0.000
 5894.00    0.87263   0.93003    0.000
 5895.00    0.83060   0.94321    0.000
 5896.00    0.86018   0.95904    0.000
 5897.00    0.89694   0.97611    0.000
 5898.00    0.92230   0.99368    0.000
 5899.00    0.94692   1.01087    0.000
 5900.00    0.96136   1.02688    0.000
 5901.00    0.97551   1.04207    0.013
 5902.00    0.99912   1.05523    0.013
 5903.00    1.02110   1.06579    0.014
 5904.00    0.99712   1.07422    0.014
 5905.00    0.97569   1.08042    0.013
 5906.00    0.99068   1.08464    0.013
 5907.00    1.00829   1.08702    0.013
 5908.00    1.05030   1.08836    0.013
 5909.00    1.08673   1.08839    0.013
 5910.00    1.08528   1.08808    0.013
 5911.00    1.07934   1.08730    0.013
 5912.00    1.04978   1.08655    0.013
 5913.00    1.02610   1.08607    0.013
 5914.00    1.02734   1.08582    0.013
 5915.00    1.03179   1.08627    0.013
 5916.00    1.04743   1.08709    0.013
 5917.00    1.06205   1.08859    0.013
 5918.00    1.07370   1.09008    0.013
 5919.00    1.07623   1.09207    0.013
 5920.00    1.05591   1.09371    0.013
 5921.00    1.02807   1.09514    0.013
 5922.00    0.98398   1.09612    0.013
 5923.00    0.94688   1.09636    0.013
 5924.00    0.92286   1.09656    0.013
 5925.00    0.91620   1.09615    0.013
 5926.00    0.93796   1.09558    0.013
 5927.00    0.97846   1.09461    0.014
 5928.00    1.04588   1.09384    0.014
 5929.00    1.08369   1.09336    0.014
 5930.00    1.08412   1.09302    0.013
 5931.00    1.09043   1.09302    0.013
 5932.00    1.10329   1.09318    0.014
 5933.00    1.10811   1.09362    0.014
 5934.00    1.10502   1.09391    0.014
 5935.00    1.09549   1.09455    0.014
 5936.00    1.08039   1.09517    0.014
 5937.00    1.05935   1.09559    0.013
 5938.00    1.03378   1.09595    0.013
 5939.00    1.03500   1.09600    0.013
 5940.00    1.05417   1.09604    0.013
 5941.00    1.08581   1.09563    0.013
 5942.00    1.12479   1.09505    0.013
 5943.00    1.11275   1.09439    0.013
 5944.00    1.07460   1.09346    0.013
 5945.00    1.02476   1.09214    0.013
 5946.00    0.96974   1.09063    0.012
 5947.00    0.96738   1.08931    0.012
 5948.00    0.98507   1.08791    0.013
 5949.00    1.02503   1.08664    0.013
 5950.00    1.07219   1.08553    0.013
 5951.00    1.07494   1.08492    0.013
 5952.00    1.06568   1.08477    0.013
 5953.00    1.04452   1.08526    0.013
 5954.00    1.02071   1.08634    0.013
 5955.00    1.02685   1.08807    0.013
 5956.00    1.03829   1.09008    0.013
 5957.00    1.05096   1.09255    0.014
 5958.00    1.06381   1.09516    0.014
 5959.00    1.02700   1.09784    0.014
 5960.00    0.98542   1.10055    0.014
 5961.00    1.01031   1.10300    0.013
 5962.00    1.03917   1.10531    0.013
 5963.00    1.06818   1.10719    0.013
 5964.00    1.09708   1.10896    0.014
 5965.00    1.10820   1.11018    0.013
 5966.00    1.12008   1.11108    0.013
 5967.00    1.15111   1.11134    0.013
 5968.00    1.17599   1.11106    0.013
 5969.00    1.11793   1.11007    0.013
 5970.00    1.05839   1.10845    0.013
 5971.00    0.98554   1.10632    0.013
 5972.00    0.92597   1.10361    0.013
 5973.00    0.95389   1.10063    0.013
 5974.00    0.98203   1.09733    0.012
 5975.00    1.01138   1.09398    0.012
 5976.00    1.02910   1.09066    0.012
 5977.00    0.99870   1.08758    0.013
 5978.00    0.97205   1.08486    0.013
 5979.00    0.95828   1.08262    0.013
 5980.00    0.95602   1.08075    0.013
 5981.00    0.98697   1.07947    0.012
 5982.00    1.01758   1.07869    0.012
 5983.00    1.04735   1.07863    0.013
 5984.00    1.06339   1.07910    0.013
 5985.00    1.05028   1.08019    0.013
 5986.00    1.05142   1.08177    0.013
 5987.00    1.07889   1.08361    0.013
 5988.00    1.08590   1.08551    0.013
 5989.00    1.05992   1.08728    0.013
 5990.00    1.02880   1.08879    0.013
 5991.00    0.99042   1.08980    0.013
 5992.00    0.97526   1.09037    0.013
 5993.00    0.98901   1.09017    0.013
 5994.00    0.98934   1.08941    0.013
 5995.00    0.97494   1.08812    0.013
 5996.00    0.98234   1.08641    0.013
 5997.00    1.01084   1.08447    0.013
 5998.00    1.05284   1.08231    0.013
 5999.00    1.10636   1.08001    0.013
 6000.00    1.10949   1.07777    0.013
 6001.00    1.07474   1.07548    0.013
 6002.00    1.03423   1.07342    0.013
 6003.00    0.98991   1.07149    0.013
 6004.00    0.98108   1.06977    0.013
 6005.00    0.99277   1.06836    0.013
 6006.00    0.97968   1.06715    0.013
 6007.00    0.95411   1.06618    0.012
 6008.00    0.94581   1.06540    0.012
 6009.00    0.94505   1.06475    0.012
 6010.00    0.97252   1.06416    0.013
 6011.00    1.01056   1.06354    0.013
 6012.00    1.06690   1.06283    0.013
 6013.00    1.12904   1.06201    0.013
 6014.00    1.13743   1.06136    0.013
 6015.00    1.13156   1.06069    0.013
 6016.00    1.07895   1.06055    0.013
 6017.00    1.01621   1.06052    0.013
 6018.00    0.98942   1.06105    0.013
 6019.00    0.96883   1.06227    0.013
 6020.00    0.97170   1.06413    0.013
 6021.00    0.97763   1.06692    0.014
 6022.00    0.98520   1.07000    0.014
 6023.00    0.99291   1.07394    0.014
 6024.00    0.98613   1.07799    0.013
 6025.00    0.97855   1.08256    0.013
 6026.00    1.02281   1.08681    0.013
 6027.00    1.06779   1.09119    0.013
 6028.00    1.07043   1.09520    0.013
 6029.00    1.07381   1.09879    0.013
 6030.00    1.09422   1.10190    0.013
 6031.00    1.11625   1.10430    0.013
 6032.00    1.15914   1.10640    0.013
 6033.00    1.19452   1.10759    0.013
 6034.00    1.16524   1.10868    0.012
 6035.00    1.13180   1.10916    0.012
 6036.00    1.07180   1.10957    0.012
 6037.00    1.01695   1.10967    0.012
 6038.00    0.98784   1.10996    0.012
 6039.00    0.96294   1.11026    0.012
 6040.00    0.95507   1.11069    0.012
 6041.00    0.95098   1.11133    0.012
 6042.00    0.95958   1.11197    0.012
 6043.00    0.97540   1.11269    0.013
 6044.00    1.01168   1.11310    0.013
 6045.00    1.03571   1.11331    0.013
 6046.00    1.03010   1.11304    0.013
 6047.00    1.02972   1.11227    0.013
 6048.00    1.04026   1.11106    0.013
 6049.00    1.04802   1.10925    0.013
 6050.00    1.05072   1.10727    0.013
 6051.00    1.05510   1.10480    0.013
 6052.00    1.06214   1.10243    0.013
 6053.00    1.05609   1.09993    0.013
 6054.00    1.03178   1.09765    0.013
 6055.00    1.00927   1.09558    0.013
 6056.00    0.98896   1.09363    0.013
 6057.00    0.98693   1.09216    0.013
 6058.00    1.00469   1.09076    0.013
 6059.00    1.02489   1.08990    0.013
 6060.00    1.04742   1.08920    0.013
 6061.00    1.04463   1.08922    0.013
 6062.00    1.02051   1.08969    0.013
 6063.00    1.02112   1.09094    0.013
 6064.00    1.04003   1.09290    0.013
 6065.00    1.04525   1.09540    0.013
 6066.00    1.04155   1.09841    0.012
 6067.00    1.03656   1.10139    0.012
 6068.00    1.03085   1.10425    0.012
 6069.00    1.04762   1.10643    0.012
 6070.00    1.07554   1.10779    0.012
 6071.00    1.08924   1.10804    0.012
 6072.00    1.09684   1.10710    0.012
 6073.00    1.06791   1.10506    0.012
 6074.00    1.02555   1.10193    0.012
 6075.00    1.02292   1.09808    0.012
 6076.00    1.03266   1.09368    0.013
 6077.00    1.03567   1.08919    0.013
 6078.00    1.03695   1.08479    0.013
 6079.00    1.00378   1.08079    0.013
 6080.00    0.96332   1.07729    0.013
 6081.00    0.93702   1.07440    0.013
 6082.00    0.91310   1.07214    0.013
 6083.00    0.90759   1.07045    0.013
 6084.00    0.90440   1.06931    0.013
 6085.00    0.96687   1.06855    0.013
 6086.00    1.03510   1.06822    0.013
 6087.00    1.08472   1.06814    0.013
 6088.00    1.13339   1.06836    0.013
 6089.00    1.11606   1.06878    0.013
 6090.00    1.09745   1.06936    0.013
 6091.00    1.07214   1.06985    0.013
 6092.00    1.04583   1.07027    0.012
 6093.00    0.99833   1.07046    0.012
 6094.00    0.95275   1.07019    0.012
 6095.00    0.93052   1.06948    0.012
 6096.00    0.91210   1.06810    0.012
 6097.00    0.92531   1.06642    0.012
 6098.00    0.93683   1.06440    0.012
 6099.00    0.93797   1.06252    0.012
 6100.00    0.93580   1.06083    0.012
 6101.00    0.91746   1.05987    0.012
 6102.00    0.89630   1.05963    0.013
 6103.00    0.86396   1.06032    0.013
 6104.00    0.84593   1.06184    0.013
 6105.00    0.87497   1.06397    0.013
 6106.00    0.90886   1.06660    0.013
 6107.00    0.95627   1.06926    0.013
 6108.00    1.00505   1.07178    0.013
 6109.00    1.05708   1.07371    0.013
 6110.00    1.08998   1.07503    0.013
 6111.00    1.08352   1.07534    0.013
 6112.00    1.07143   1.07484    0.013
 6113.00    1.04926   1.07327    0.013
 6114.00    1.00764   1.07080    0.013
 6115.00    0.93559   1.06756    0.013
 6116.00    0.87263   1.06389    0.013
 6117.00    0.82216   1.06004    0.013
 6118.00    0.81033   1.05636    0.012
 6119.00    0.84523   1.05319    0.012
 6120.00    0.88668   1.05067    0.012
 6121.00    0.93511   1.04914    0.012
 6122.00    0.95552   1.04838    0.012
 6123.00    0.94956   1.04845    0.012
 6124.00    0.94744   1.04892    0.012
 6125.00    0.94848   1.04963    0.012
 6126.00    0.98780   1.05012    0.012
 6127.00    1.05506   1.05008    0.012
 6128.00    1.11510   1.04919    0.012
 6129.00    1.17051   1.04736    0.012
 6130.00    1.16465   1.04452    0.012
 6131.00    1.12444   1.04097    0.012
 6132.00    1.06678   1.03702    0.013
 6133.00    1.00062   1.03309    0.013
 6134.00    0.95672   1.02975    0.013
 6135.00    0.92222   1.02744    0.013
 6136.00    0.95947   1.02659    0.013
 6137.00    1.02261   1.02718    0.013
 6138.00    1.06840   1.02938    0.013
 6139.00    1.10890   1.03266    0.014
 6140.00    1.11204   1.03683    0.013
 6141.00    1.10570   1.04119    0.013
 6142.00    1.07868   1.04547    0.013
 6143.00    1.04740   1.04911    0.013
 6144.00    1.02661   1.05194    0.013
 6145.00    1.00753   1.05373    0.013
 6146.00    1.00377   1.05452    0.013
 6147.00    1.00188   1.05431    0.013
 6148.00    0.98338   1.05308    0.013
 6149.00    0.96349   1.05097    0.013
 6150.00    0.96896   1.04796    0.012
 6151.00    0.97565   1.04415    0.012
 6152.00    0.96567   1.03934    0.012
 6153.00    0.95503   1.03361    0.012
 6154.00    0.92102   1.02685    0.012
 6155.00    0.88787   1.01931    0.012
 6156.00    0.87192   1.01110    0.012
 6157.00    0.85855   1.00266    0.012
 6158.00    0.87502   0.99441    0.012
 6159.00    0.89546   0.98681    0.013
 6160.00    0.94767   0.98034    0.013
 6161.00    0.99571   0.97530    0.013
 6162.00    1.01867   0.97196    0.013
 6163.00    1.03209   0.97032    0.013
 6164.00    1.00014   0.97032    0.013
 6165.00    0.96685   0.97178    0.013
 6166.00    0.92833   0.97438    0.013
 6167.00    0.90217   0.97794    0.013
 6168.00    0.91592   0.98212    0.013
 6169.00    0.93120   0.98680    0.013
 6170.00    0.95065   0.99177    0.013
 6171.00    0.97031   0.99685    0.013
 6172.00    0.99045   1.00196    0.013
 6173.00    1.00108   1.00686    0.013
 6174.00    0.99247   1.01155    0.013
 6175.00    0.98152   1.01569    0.012
 6176.00    0.96647   1.01934    0.012
 6177.00    0.95169   1.02216    0.012
 6178.00    0.93734   1.02422    0.012
 6179.00    0.92813   1.02522    0.012
 6180.00    0.92591   1.02522    0.012
 6181.00    0.91459   1.02415    0.012
 6182.00    0.89244   1.02204    0.012
 6183.00    0.86694   1.01911    0.012
 6184.00    0.83792   1.01550    0.012
 6185.00    0.82945   1.01169    0.012
 6186.00    0.84003   1.00789    0.013
 6187.00    0.84833   1.00462    0.013
 6188.00    0.85477   1.00210    0.013
 6189.00    0.88134   1.00060    0.013
 6190.00    0.92238   1.00023    0.013
 6191.00    0.95144   1.00091    0.013
 6192.00    0.97291   1.00256    0.013
 6193.00    0.95849   1.00487    0.013
 6194.00    0.92424   1.00762    0.013
 6195.00    0.89850   1.01059    0.013
 6196.00    0.87684   1.01350   -2.000
 6197.00    0.95667   1.01633   -2.000
 6198.00    1.07856   1.01889   -2.000
 6199.00    1.29735   1.02124   -2.000
 6200.00    1.55048   1.02319   -2.000
 6201.00    1.72837   1.02478   -2.000
 6202.00    1.88375   1.02575   -2.000
 6203.00    1.76907   1.02606   -2.000
 6204.00    1.58731   1.02544   -2.000
 6205.00    1.39511   1.02382   -2.000
 6206.00    1.20081   1.02108   -2.000
 6207.00    1.09503   1.01726   -2.000
 6208.00    1.00321   1.01248    0.013
 6209.00    0.95358   1.00695    0.013
 6210.00    0.90889   1.00103    0.012
 6211.00    0.89536   0.99500    0.012
 6212.00    0.88430   0.98932    0.012
 6213.00    0.90116   0.98422    0.012
 6214.00    0.91926   0.98003    0.012
 6215.00    0.93506   0.97681    0.012
 6216.00    0.95029   0.97466    0.012
 6217.00    0.93988   0.97343    0.012
 6218.00    0.93020   0.97297    0.012
 6219.00    0.93380   0.97305    0.012
 6220.00    0.93799   0.97336    0.012
 6221.00    0.94871   0.97372    0.012
 6222.00    0.95640   0.97381    0.012
 6223.00    0.94069   0.97363    0.012
 6224.00    0.92621   0.97300    0.012
 6225.00    0.91885   0.97214    0.013
 6226.00    0.91452   0.97104    0.013
 6227.00    0.92418   0.97003    0.012
 6228.00    0.93894   0.96921    0.012
 6229.00    0.97304   0.96878    0.012
 6230.00    1.00491   0.96879    0.013
 6231.00    1.02971   0.96912    0.012
 6232.00    1.04231   0.96972    0.012
 6233.00    1.02220   0.97020    0.012
 6234.00    1.00222   0.97052    0.012
 6235.00    0.98255   0.97028    0.012
 6236.00    0.96419   0.96958    0.012
 6237.00    0.94847   0.96828    0.012
 6238.00    0.93031   0.96665    0.012
 6239.00    0.90790   0.96480    0.012
 6240.00    0.89726   0.96303    0.012
 6241.00    0.90450   0.96147    0.012
 6242.00    0.92227   0.96031    0.012
 6243.00    0.95410   0.95947    0.012
 6244.00    0.97884   0.95895    0.013
 6245.00    0.99526   0.95845    0.013
 6246.00    0.95410   0.95786    0.013
 6247.00    0.85325   0.95687    0.012
 6248.00    0.79752   0.95542    0.012
 6249.00    0.78305   0.95345    0.013
 6250.00    0.79018   0.95106    0.013
 6251.00    0.81472   0.94854    0.013
 6252.00    0.83000   0.94611    0.012
 6253.00    0.83872   0.94426    0.012
 6254.00    0.83580   0.94314    0.012
 6255.00    0.82565   0.94317    0.013
 6256.00    0.84709   0.94433    0.013
 6257.00    0.88572   0.94673    0.013
 6258.00    0.95659   0.95015    0.013
 6259.00    1.04270   0.95436    0.013
 6260.00    1.09196   0.95908    0.013
 6261.00    1.12621   0.96391    0.014
 6262.00    1.14214   0.96869    0.015
 6263.00    1.15171   0.97302    0.015
 6264.00    1.13909   0.97697    0.015
 6265.00    1.11996   0.98028    0.014
 6266.00    1.09181   0.98314    0.014
 6267.00    1.06148   0.98544    0.013
 6268.00    1.04448   0.98735    0.013
 6269.00    1.03011   0.98887    0.013
 6270.00    1.00744   0.99004    0.013
 6271.00    0.98351   0.99092    0.012
 6272.00    0.93255   0.99145    0.012
 6273.00    0.87854   0.99179    0.012
 6274.00    0.86632   0.99185    0.013
 6275.00    0.85725   0.99188    0.013
 6276.00    0.82558   0.99185    0.013
 6277.00    0.79301   0.99204    0.013
 6278.00    0.78095   0.99244    0.013
 6279.00    0.77012   0.99326    0.013
 6280.00    0.80298   0.99444    0.000
 6281.00    0.83613   0.99599    0.000
 6282.00    0.87418   0.99780    0.000
 6283.00    0.90928   0.99964    0.000
 6284.00    0.91341   1.00138    0.000
 6285.00    0.91993   1.00268    0.000
 6286.00    0.94433   1.00350    0.000
 6287.00    0.96911   1.00354    0.000
 6288.00    0.99604   1.00286    0.000
 6289.00    1.01796   1.00135    0.000
 6290.00    1.01722   0.99919    0.000
 6291.00    1.01442   0.99642    0.000
 6292.00    1.00394   0.99332    0.000
 6293.00    0.98755   0.99004    0.000
 6294.00    0.95280   0.98685    0.000
 6295.00    0.91971   0.98395    0.000
 6296.00    0.89098   0.98156    0.000
 6297.00    0.86644   0.97985    0.000
 6298.00    0.85133   0.97890    0.000
 6299.00    0.84832   0.97878    0.000
 6300.00    0.86905   0.97945    0.000
 6301.00    0.88017   0.98078    0.000
 6302.00    0.87487   0.98259    0.000
 6303.00    0.87472   0.98463    0.000
 6304.00    0.88228   0.98659    0.000
 6305.00    0.89982   0.98823    0.000
 6306.00    0.93050   0.98925    0.000
 6307.00    0.95431   0.98954    0.000
 6308.00    0.97018   0.98897    0.000
 6309.00    0.98269   0.98763    0.000
 6310.00    0.99176   0.98561    0.000
 6311.00    0.99281   0.98319    0.000
 6312.00    0.98661   0.98063    0.000
 6313.00    0.95406   0.97827    0.000
 6314.00    0.90057   0.97639    0.000
 6315.00    0.87580   0.97526    0.000
 6316.00    0.87111   0.97503    0.000
 6317.00    0.89317   0.97579    0.000
 6318.00    0.93163   0.97747    0.000
 6319.00    0.93941   0.97999    0.000
 6320.00    0.93076   0.98309    0.000
 6321.00    0.91679   0.98653    0.012
 6322.00    0.90034   0.99006    0.012
 6323.00    0.89402   0.99332    0.012
 6324.00    0.89176   0.99619    0.012
 6325.00    0.88465   0.99835    0.012
 6326.00    0.87589   0.99980    0.012
 6327.00    0.87418   1.00037    0.012
 6328.00    0.87450   1.00017    0.012
 6329.00    0.90908   0.99916    0.012
 6330.00    0.95179   0.99760    0.012
 6331.00    0.94193   0.99557    0.012
 6332.00    0.92203   0.99335    0.012
 6333.00    0.88522   0.99107    0.012
 6334.00    0.84590   0.98902    0.012
 6335.00    0.86087   0.98726    0.011
 6336.00    0.88172   0.98599    0.011
 6337.00    0.88978   0.98516    0.011
 6338.00    0.89692   0.98484    0.011
 6339.00    0.89401   0.98493    0.011
 6340.00    0.89073   0.98542    0.011
 6341.00    0.90735   0.98620    0.012
 6342.00    0.92387   0.98721    0.012
 6343.00    0.93448   0.98836    0.012
 6344.00    0.94311   0.98950    0.012
 6345.00    0.92015   0.99054    0.012
 6346.00    0.89616   0.99126    0.012
 6347.00    0.86188   0.99153    0.012
 6348.00    0.83210   0.99113    0.012
 6349.00    0.83474   0.98997    0.012
 6350.00    0.84095   0.98793    0.012
 6351.00    0.86693   0.98504    0.012
 6352.00    0.89173   0.98136    0.012
 6353.00    0.91132   0.97711    0.013
 6354.00    0.92010   0.97250    0.013
 6355.00    0.88961   0.96787    0.012
 6356.00    0.86590   0.96356    0.012
 6357.00    0.86284   0.95991    0.012
 6358.00    0.85781   0.95720    0.012
 6359.00    0.84770   0.95570    0.012
 6360.00    0.84146   0.95554    0.012
 6361.00    0.84384   0.95676    0.012
 6362.00    0.84674   0.95931    0.012
 6363.00    0.85064   0.96299    0.012
 6364.00    0.85881   0.96758    0.012
 6365.00    0.87415   0.97275    0.012
 6366.00    0.87707   0.97821    0.012
 6367.00    0.86166   0.98360    0.012
 6368.00    0.84859   0.98867    0.012
 6369.00    0.83856   0.99317    0.012
 6370.00    0.84681   0.99696    0.012
 6371.00    0.87596   0.99994    0.012
 6372.00    0.90883   1.00207    0.012
 6373.00    0.94546   1.00342    0.012
 6374.00    0.97199   1.00405    0.012
 6375.00    0.98954   1.00413    0.012
 6376.00    0.97740   1.00379    0.012
 6377.00    0.94200   1.00322    0.012
 6378.00    0.90549   1.00254    0.012
 6379.00    0.86821   1.00188    0.012
 6380.00    0.85925   1.00129    0.012
 6381.00    0.86740   1.00077    0.012
 6382.00    0.91145   1.00028    0.012
 6383.00    0.97442   0.99974    0.012
 6384.00    1.00072   0.99906    0.012
 6385.00    1.01025   0.99813    0.012
 6386.00    0.98798   0.99693    0.012
 6387.00    0.95319   0.99540    0.012
 6388.00    0.94036   0.99365    0.012
 6389.00    0.93489   0.99173    0.011
 6390.00    0.96985   0.98976    0.011
 6391.00    1.01620   0.98790    0.011
 6392.00    1.01983   0.98627    0.012
 6393.00    1.01356   0.98499    0.012
 6394.00    0.97673   0.98410    0.012
 6395.00    0.93422   0.98368    0.012
 6396.00    0.93351   0.98366    0.013
 6397.00    0.93881   0.98407    0.013
 6398.00    0.94534   0.98475    0.013
 6399.00    0.95199   0.98567    0.013
 6400.00    0.91810   0.98665    0.013
 6401.00    0.88149   0.98758    0.012
 6402.00    0.88793   0.98835    0.012
 6403.00    0.89578   0.98881    0.013
 6404.00    0.91702   0.98898    0.012
 6405.00    0.93790   0.98879    0.012
 6406.00    0.94733   0.98835    0.012
 6407.00    0.95549   0.98768    0.012
 6408.00    0.94461   0.98693    0.012
 6409.00    0.93392   0.98614    0.011
 6410.00    0.92500   0.98542    0.012
 6411.00    0.91205   0.98479    0.012
 6412.00    0.87098   0.98431    0.011
 6413.00    0.83927   0.98396    0.011
 6414.00    0.85800   0.98379    0.011
 6415.00    0.87590   0.98382    0.012
 6416.00    0.89018   0.98406    0.012
 6417.00    0.89258   0.98460    0.012
 6418.00    0.85264   0.98540    0.012
 6419.00    0.82620   0.98651    0.012
 6420.00    0.84009   0.98779    0.012
 6421.00    0.85702   0.98921    0.012
 6422.00    0.88169   0.99054    0.012
 6423.00    0.90690   0.99171    0.012
 6424.00    0.93332   0.99251    0.012
 6425.00    0.94990   0.99293    0.012
 6426.00    0.94777   0.99291    0.013
 6427.00    0.93619   0.99256    0.013
 6428.00    0.90891   0.99194    0.013
 6429.00    0.90331   0.99125    0.013
 6430.00    0.92921   0.99060    0.012
 6431.00    0.94838   0.99017    0.012
 6432.00    0.95891   0.99001    0.012
 6433.00    0.95762   0.99023    0.012
 6434.00    0.94300   0.99077    0.012
 6435.00    0.94545   0.99170    0.012
 6436.00    0.96485   0.99285    0.012
 6437.00    0.98728   0.99422    0.012
 6438.00    1.01236   0.99554    0.012
 6439.00    1.01946   0.99675    0.012
 6440.00    1.01269   0.99751    0.012
 6441.00    0.99678   0.99777    0.012
 6442.00    0.97466   0.99726    0.012
 6443.00    0.95897   0.99606    0.012
 6444.00    0.94710   0.99407    0.012
 6445.00    0.93022   0.99163    0.012
 6446.00    0.91073   0.98881    0.012
 6447.00    0.91264   0.98610    0.012
 6448.00    0.92418   0.98362    0.013
 6449.00    0.94408   0.98181    0.013
 6450.00    0.96723   0.98065    0.013
 6451.00    0.97384   0.98029    0.013
 6452.00    0.97502   0.98058    0.013
 6453.00    0.94070   0.98138    0.013
 6454.00    0.89659   0.98247    0.012
 6455.00    0.86155   0.98361    0.012
 6456.00    0.82857   0.98470    0.012
 6457.00    0.83647   0.98552    0.012
 6458.00    0.85179   0.98619    0.012
 6459.00    0.86775   0.98656    0.012
 6460.00    0.88381   0.98695    0.011
 6461.00    0.88728   0.98719    0.011
 6462.00    0.88949   0.98764    0.011
 6463.00    0.90030   0.98809    0.011
 6464.00    0.91164   0.98874    0.011
 6465.00    0.91323   0.98939    0.012
 6466.00    0.91440   0.99006    0.012
 6467.00    0.87437   0.99064    0.012
 6468.00    0.83683   0.99102    0.012
 6469.00    0.86844   0.99126    0.012
 6470.00    0.90068   0.99117    0.012
 6471.00    0.94191   0.99093    0.012
 6472.00    0.98004   0.99031    0.013
 6473.00    0.98955   0.98954    0.013
 6474.00    0.99579   0.98843    0.013
 6475.00    0.97996   0.98714    0.012
 6476.00    0.95999   0.98561    0.012
 6477.00    0.91829   0.98392    0.012
 6478.00    0.88152   0.98210    0.012
 6479.00    0.86554   0.98017    0.012
 6480.00    0.85826   0.97814    0.012
 6481.00    0.88132   0.97595    0.012
 6482.00    0.89598   0.97351    0.011
 6483.00    0.88603   0.97066    0.011
 6484.00    0.87884   0.96719    0.011
 6485.00    0.87860   0.96295    0.011
 6486.00    0.88012   0.95778    0.011
 6487.00    0.88544   0.95169    0.011
 6488.00    0.88526   0.94480    0.011
 6489.00    0.87479   0.93735    0.011
 6490.00    0.86466   0.92987    0.011
 6491.00    0.85509   0.92273    0.012
 6492.00    0.84730   0.91670    0.012
 6493.00    0.84209   0.91205    0.012
 6494.00    0.84882   0.90945    0.012
 6495.00    0.87061   0.90891    0.012
 6496.00    0.89541   0.91062    0.012
 6497.00    0.92354   0.91432    0.012
 6498.00    0.94680   0.91967    0.012
 6499.00    0.96526   0.92628    0.012
 6500.00    0.96545   0.93345    0.012
 6501.00    0.94986   0.94094    0.012
 6502.00    0.95210   0.94797    0.012
 6503.00    0.96792   0.95451    0.012
 6504.00    0.99072   0.95999    0.012
 6505.00    1.01820   0.96457    0.011
 6506.00    1.01624   0.96794    0.011
 6507.00    0.99703   0.97038    0.011
 6508.00    0.98446   0.97176    0.011
 6509.00    0.97528   0.97242    0.011
 6510.00    0.96535   0.97235    0.011
 6511.00    0.95508   0.97186    0.011
 6512.00    0.93542   0.97106    0.011
 6513.00    0.91220   0.97017    0.011
 6514.00    0.89675   0.96933    0.012
 6515.00    0.88380   0.96869    0.012
 6516.00    0.87135   0.96834    0.012
 6517.00    0.85903   0.96828    0.012
 6518.00    0.86087   0.96856    0.012
 6519.00    0.86585   0.96902    0.012
 6520.00    0.88025   0.96965    0.012
 6521.00    0.89632   0.97026    0.012
 6522.00    0.89439   0.97084    0.012
 6523.00    0.89005   0.97124    0.012
 6524.00    0.88780   0.97151    0.012
 6525.00    0.88576   0.97158    0.012
 6526.00    0.87202   0.97157    0.012
 6527.00    0.85759   0.97148    0.011
 6528.00    0.89607   0.97142    0.000
 6529.00    0.93583   0.97142    0.000
 6530.00    0.96903   0.97155    0.000
 6531.00    1.00011   0.97174    0.000
 6532.00    0.97765   0.97204    0.000
 6533.00    0.95572   0.97227    0.000
 6534.00    0.94097   0.97241    0.000
 6535.00    0.92842   0.97227    0.000
 6536.00    0.93543   0.97176    0.000
 6537.00    0.94183   0.97078    0.000
 6538.00    0.94423   0.96924    0.000
 6539.00    0.94064   0.96718    0.000
 6540.00    0.90645   0.96454    0.000
 6541.00    0.88093   0.96149    0.000
 6542.00    0.89122   0.95805    0.000
 6543.00    0.89799   0.95436    0.000
 6544.00    0.89277   0.95050    0.000
 6545.00    0.89203   0.94643    0.000
 6546.00    0.90422   0.94224    0.000
 6547.00    0.91854   0.93770    0.000
 6548.00    0.93808   0.93286    0.000
 6549.00    0.94275   0.92737    0.000
 6550.00    0.91590   0.92123    0.000
 6551.00    0.89505   0.91415    0.000
 6552.00    0.88525   0.90618    0.000
 6553.00    0.89029   0.89720    0.000
 6554.00    0.91921   0.88747    0.000
 6555.00    0.93209   0.87715    0.000
 6556.00    0.92232   0.86683    0.000
 6557.00    0.92021   0.85685    0.000
 6558.00    0.92762   0.84815    0.000
 6559.00    0.98296   0.84102    0.000
 6560.00    1.09082   0.83638    0.000
 6561.00    1.16917   0.83427    0.000
 6562.00    1.21902   0.83513    0.000
 6563.00    1.21453   0.83856    0.000
 6564.00    1.16374   0.84440    0.000
 6565.00    1.11667   0.85190    0.000
 6566.00    1.07237   0.86057    0.000
 6567.00    1.01311   0.86964    0.000
 6568.00    0.94399   0.87866    0.000
 6569.00    0.90746   0.88715    0.000
 6570.00    0.88973   0.89498    0.000
 6571.00    0.89565   0.90193    0.000
 6572.00    0.91346   0.90817    0.000
 6573.00    0.91603   0.91364    0.000
 6574.00    0.91196   0.91859    0.000
 6575.00    0.90600   0.92298    0.000
 6576.00    0.89932   0.92697    0.000
 6577.00    0.91201   0.93050    0.000
 6578.00    0.93083   0.93359    0.000
 6579.00    0.98686   0.93625    0.000
 6580.00    1.05274   0.93839    0.000
 6581.00    1.08722   0.94004    0.000
 6582.00    1.11491   0.94110    0.000
 6583.00    1.05784   0.94159    0.000
 6584.00    0.98623   0.94149    0.000
 6585.00    0.93860   0.94083    0.000
 6586.00    0.89408   0.93967    0.000
 6587.00    0.91247   0.93809    0.000
 6588.00    0.93661   0.93630    0.000
 6589.00    0.94570   0.93441    0.000
 6590.00    0.95396   0.93271    0.000
 6591.00    0.93820   0.93131    0.000
 6592.00    0.92191   0.93044    0.000
 6593.00    0.90363   0.93012    0.000
 6594.00    0.88607   0.93041    0.000
 6595.00    0.88499   0.93116    0.000
 6596.00    0.88129   0.93233    0.000
 6597.00    0.84451   0.93358    0.000
 6598.00    0.81029   0.93489    0.000
 6599.00    0.79805   0.93587    0.000
 6600.00    0.78994   0.93666    0.000
 6601.00    0.80812   0.93694    0.000
 6602.00    0.82498   0.93701    0.000
 6603.00    0.83523   0.93673    0.000
 6604.00    0.84472   0.93647    0.000
 6605.00    0.85117   0.93623    0.000
 6606.00    0.85950   0.93626    0.000
 6607.00    0.87416   0.93668    0.000
 6608.00    0.89721   0.93748    0.000
 6609.00    0.94401   0.93877    0.012
 6610.00    0.97611   0.94032    0.012
 6611.00    0.97269   0.94220    0.012
 6612.00    0.95566   0.94404    0.012
 6613.00    0.91026   0.94586    0.012
 6614.00    0.87702   0.94735    0.012
 6615.00    0.86584   0.94848    0.012
 6616.00    0.86582   0.94908    0.012
 6617.00    0.88351   0.94913    0.012
 6618.00    0.88071   0.94863    0.012
 6619.00    0.84939   0.94756    0.012
 6620.00    0.82854   0.94606    0.011
 6621.00    0.82053   0.94414    0.011
 6622.00    0.83311   0.94197    0.011
 6623.00    0.86794   0.93962    0.011
 6624.00    0.88307   0.93715    0.011
 6625.00    0.87946   0.93474    0.011
 6626.00    0.86396   0.93233    0.011
 6627.00    0.83848   0.93018    0.012
 6628.00    0.83262   0.92811    0.012
 6629.00    0.84126   0.92647    0.012
 6630.00    0.85220   0.92504    0.012
 6631.00    0.86462   0.92408    0.012
 6632.00    0.86233   0.92341    0.012
 6633.00    0.85167   0.92317    0.012
 6634.00    0.84732   0.92319    0.012
 6635.00    0.84610   0.92347    0.012
 6636.00    0.89144   0.92390    0.012
 6637.00    0.95671   0.92440    0.012
 6638.00    0.97589   0.92492    0.012
 6639.00    0.97817   0.92537    0.012
 6640.00    0.93119   0.92581    0.012
 6641.00    0.86890   0.92616    0.011
 6642.00    0.86256   0.92650    0.011
 6643.00    0.87068   0.92681    0.011
 6644.00    0.89886   0.92712    0.011
 6645.00    0.93127   0.92744    0.011
 6646.00    0.92274   0.92771    0.011
 6647.00    0.90739   0.92797    0.012
 6648.00    0.91312   0.92808    0.012
 6649.00    0.92148   0.92810    0.012
 6650.00    0.93396   0.92787    0.012
 6651.00    0.94679   0.92743    0.012
 6652.00    0.91058   0.92669    0.012
 6653.00    0.87187   0.92569    0.012
 6654.00    0.87049   0.92439    0.012
 6655.00    0.86968   0.92279    0.012
 6656.00    0.86170   0.92103    0.012
 6657.00    0.85340   0.91907    0.012
 6658.00    0.83828   0.91717    0.012
 6659.00    0.82574   0.91530    0.012
 6660.00    0.84423   0.91371    0.012
 6661.00    0.86162   0.91245    0.012
 6662.00    0.86985   0.91163    0.011
 6663.00    0.87232   0.91131    0.011
 6664.00    0.83916   0.91142    0.011
 6665.00    0.81299   0.91193    0.011
 6666.00    0.82082   0.91263    0.011
 6667.00    0.83399   0.91350    0.011
 6668.00    0.86820   0.91418    0.011
 6669.00    0.89897   0.91474    0.011
 6670.00    0.91843   0.91485    0.011
 6671.00    0.92498   0.91467    0.011
 6672.00    0.89570   0.91401    0.012
 6673.00    0.86917   0.91317    0.012
 6674.00    0.84917   0.91213    0.012
 6675.00    0.83047   0.91116    0.012
 6676.00    0.81445   0.91037    0.012
 6677.00    0.81646   0.90990    0.012
 6678.00    0.85068   0.90985    0.012
 6679.00    0.88485   0.91021    0.012
 6680.00    0.91891   0.91096    0.012
 6681.00    0.92483   0.91200    0.012
 6682.00    0.89212   0.91314    0.012
 6683.00    0.86450   0.91437    0.012
 6684.00    0.84303   0.91534    0.012
 6685.00    0.84915   0.91621    0.011
 6686.00    0.88464   0.91656    0.011
 6687.00    0.90034   0.91671    0.011
 6688.00    0.89744   0.91635    0.011
 6689.00    0.87484   0.91575    0.011
 6690.00    0.83593   0.91482    0.011
 6691.00    0.83804   0.91369    0.011
 6692.00    0.87004   0.91250    0.011
 6693.00    0.89344   0.91120    0.011
 6694.00    0.91133   0.91009    0.011
 6695.00    0.90733   0.90899    0.011
 6696.00    0.89106   0.90823    0.000
 6697.00    0.89851   0.90751    0.000
 6698.00    0.91750   0.90706    0.000
 6699.00    0.94681   0.90666    0.000
 6700.00    0.98046   0.90631    0.000
 6701.00    0.96506   0.90600    0.000
 6702.00    0.93199   0.90552    0.000
 6703.00    0.88838   0.90495    0.000
 6704.00    0.84157   0.90406    0.000
 6705.00    0.83655   0.90298    0.000
 6706.00    0.84211   0.90151    0.000
 6707.00    0.85582   0.89974    0.000
 6708.00    0.87120   0.89769    0.000
 6709.00    0.88331   0.89548    0.000
 6710.00    0.89490   0.89312    0.000
 6711.00    0.89550   0.89085    0.000
 6712.00    0.89476   0.88865    0.000
 6713.00    0.89453   0.88693    0.000
 6714.00    0.89434   0.88546    0.000
 6715.00    0.92044   0.88476    0.000
 6716.00    0.94778   0.88437    0.000
 6717.00    0.96326   0.88485    0.000
 6718.00    0.97842   0.88555    0.000
 6719.00    0.98505   0.88693    0.000
 6720.00    0.98998   0.88841    0.000
 6721.00    0.96172   0.89018    0.000
 6722.00    0.93608   0.89192    0.000
 6723.00    0.94043   0.89360    0.000
 6724.00    0.94368   0.89518    0.000
 6725.00    0.93815   0.89645    0.000
 6726.00    0.93911   0.89763    0.000
 6727.00    0.97900   0.89834    0.000
 6728.00    1.01009   0.89895    0.000
 6729.00    0.99949   0.89904    0.000
 6730.00    0.98163   0.89900    0.000
 6731.00    0.93567   0.89852    0.000
 6732.00    0.89555   0.89787    0.000
 6733.00    0.87416   0.89691    0.000
 6734.00    0.86376   0.89574    0.000
 6735.00    0.88328   0.89445    0.000
 6736.00    0.88778   0.89298    0.000
 6737.00    0.85717   0.89159    0.000
 6738.00    0.83083   0.89001    0.000
 6739.00    0.81314   0.88867    0.000
 6740.00    0.79143   0.88719    0.000
 6741.00    0.76264   0.88603    0.000
 6742.00    0.76317   0.88477    0.000
 6743.00    0.80884   0.88386    0.000
 6744.00    0.84541   0.88302    0.000
 6745.00    0.86967   0.88240    0.000
 6746.00    0.87792   0.88217    0.000
 6747.00    0.86709   0.88208    0.000
 6748.00    0.84845   0.88257    0.000
 6749.00    0.82158   0.88317    0.000
 6750.00    0.80680   0.88444    0.000
 6751.00    0.80321   0.88577    0.000
 6752.00    0.81998   0.88760    0.000
 6753.00    0.85337   0.88946    0.012
 6754.00    0.89213   0.89142    0.013
 6755.00    0.93474   0.89335    0.013
 6756.00    0.94012   0.89497    0.013
 6757.00    0.92204   0.89639    0.013
 6758.00    0.88812   0.89721    0.013
 6759.00    0.84548   0.89771    0.013
 6760.00    0.84763   0.89761    0.014
 6761.00    0.87126   0.89729    0.014
 6762.00    0.89598   0.89649    0.014
 6763.00    0.92114   0.89558    0.015
 6764.00    0.97312   0.89458    0.014
 6765.00    1.03457   0.89377    0.014
 6766.00    1.02305   0.89320    0.014
 6767.00    0.98974   0.89292    0.013
 6768.00    0.95861   0.89311    0.013
 6769.00    0.92801   0.89355    0.013
 6770.00    0.96914   0.89439    0.013
 6771.00    1.02467   0.89539    0.013
 6772.00    0.99661   0.89645    0.012
 6773.00    0.95541   0.89736    0.012
 6774.00    0.90556   0.89794    0.012
 6775.00    0.85471   0.89815    0.012
 6776.00    0.85615   0.89776    0.012
 6777.00    0.86171   0.89704    0.012
 6778.00    0.88163   0.89573    0.013
 6779.00    0.90218   0.89422    0.013
 6780.00    0.90297   0.89243    0.013
 6781.00    0.90257   0.89059    0.013
 6782.00    0.85660   0.88884    0.013
 6783.00    0.81190   0.88729    0.013
 6784.00    0.79033   0.88609    0.013
 6785.00    0.77212   0.88511    0.013
 6786.00    0.79080   0.88455    0.013
 6787.00    0.81086   0.88424    0.013
 6788.00    0.84155   0.88418    0.013
 6789.00    0.86607   0.88435    0.013
 6790.00    0.85471   0.88456    0.013
 6791.00    0.85484   0.88497    0.013
 6792.00    0.90817   0.88530    0.012
 6793.00    0.95354   0.88583    0.012
 6794.00    0.96887   0.88624    0.013
 6795.00    0.97176   0.88677    0.013
 6796.00    0.93539   0.88718    0.012
 6797.00    0.90283   0.88766    0.012
 6798.00    0.88046   0.88805    0.012
 6799.00    0.86444   0.88831    0.012
 6800.00    0.86297   0.88861    0.013
 6801.00    0.86065   0.88863    0.013
 6802.00    0.85665   0.88867    0.013
 6803.00    0.87290   0.88852    0.013
 6804.00    0.92423   0.88834    0.013
 6805.00    0.94314   0.88810    0.013
 6806.00    0.91290   0.88778    0.013
 6807.00    0.88853   0.88750    0.013
 6808.00    0.87198   0.88723    0.012
 6809.00    0.87434   0.88712    0.012
 6810.00    0.89887   0.88703    0.012
 6811.00    0.93095   0.88714    0.012
 6812.00    0.97083   0.88722    0.013
 6813.00    0.99599   0.88756    0.013
 6814.00    1.00772   0.88790    0.013
 6815.00    0.96544   0.88846    0.013
 6816.00    0.87969   0.88900    0.013
 6817.00    0.83797   0.88965    0.012
 6818.00    0.82743   0.89021    0.012
 6819.00    0.83647   0.89075    0.012
 6820.00    0.85766   0.89112    0.012
 6821.00    0.87628   0.89143    0.012
 6822.00    0.89350   0.89154    0.012
 6823.00    0.91466   0.89161    0.013
 6824.00    0.93768   0.89146    0.013
 6825.00    0.93256   0.89126    0.013
 6826.00    0.91600   0.89084    0.013
 6827.00    0.89306   0.89036    0.013
 6828.00    0.86790   0.88969    0.013
 6829.00    0.87541   0.88888    0.013
 6830.00    0.89246   0.88787    0.013
 6831.00    0.95982   0.88652    0.013
 6832.00    1.03936   0.88509    0.013
 6833.00    1.06016   0.88317    0.012
 6834.00    1.06947   0.88136    0.012
 6835.00    1.05544   0.87918    0.012
 6836.00    1.03785   0.87736    0.012
 6837.00    1.00576   0.87550    0.013
 6838.00    0.97205   0.87417    0.013
 6839.00    0.95465   0.87309    0.013
 6840.00    0.93846   0.87254    0.013
 6841.00    0.95192   0.87238    0.013
 6842.00    0.96656   0.87262    0.013
 6843.00    0.89774   0.87321    0.013
 6844.00    0.83078   0.87386    0.012
 6845.00    0.86103   0.87464    0.012
 6846.00    0.88720   0.87514    0.012
 6847.00    0.84459   0.87547    0.012
 6848.00    0.80721   0.87534    0.013
 6849.00    0.82449   0.87483    0.012
 6850.00    0.84107   0.87405    0.012
 6851.00    0.85243   0.87303    0.012
 6852.00    0.86096   0.87178    0.012
 6853.00    0.85348   0.87045    0.012
 6854.00    0.83780   0.86918    0.012
 6855.00    0.78515   0.86793    0.011
 6856.00    0.73490   0.86701    0.011
 6857.00    0.69347   0.86636    0.011
 6858.00    0.68485   0.86604    0.012
 6859.00    0.77787   0.86576    0.012
 6860.00    0.85483   0.86571    0.012
 6861.00    0.88955   0.86565    0.012
 6862.00    0.90233   0.86573    0.012
 6863.00    0.86552   0.86584    0.012
 6864.00    0.85600   0.86602    0.013
 6865.00    0.89991   0.86607    0.013
 6866.00    0.91773   0.86611    0.013
 6867.00    0.89102   0.86620    0.013
 6868.00    0.87138   0.86639    0.013
 6869.00    0.86228   0.86661    0.013
 6870.00    0.84685   0.86694    0.013
 6871.00    0.82307   0.86741    0.013
 6872.00    0.81293   0.86802    0.012
 6873.00    0.81857   0.86858    0.012
 6874.00    0.83501   0.86921    0.012
 6875.00    0.86247   0.86970    0.012
 6876.00    0.89280   0.87025    0.012
 6877.00    0.92570   0.87076    0.012
 6878.00    0.93269   0.87146    0.012
 6879.00    0.91912   0.87219    0.012
 6880.00    0.91815   0.87288    0.012
 6881.00    0.92596   0.87385    0.012
 6882.00    0.89308   0.87495    0.012
 6883.00    0.83529   0.87625    0.012
 6884.00    0.81206   0.87762    0.012
 6885.00    0.80731   0.87912    0.012
 6886.00    0.82112   0.88061    0.012
 6887.00    0.84354   0.88194    0.013
 6888.00    0.83911   0.88334    0.013
 6889.00    0.82395   0.88432    0.013
 6890.00    0.80232   0.88528    0.012
 6891.00    0.77848   0.88592    0.012
 6892.00    0.79899   0.88653    0.012
 6893.00    0.83222   0.88685    0.012
 6894.00    0.84204   0.88704    0.012
 6895.00    0.84631   0.88722    0.012
 6896.00    0.89664   0.88746    0.012
 6897.00    0.95575   0.88768    0.012
 6898.00    0.99952   0.88787    0.012
 6899.00    1.04102   0.88815    0.012
 6900.00    0.99472   0.88841    0.012
 6901.00    0.93895   0.88880    0.012
 6902.00    0.92864   0.88893    0.012
 6903.00    0.92154   0.88912    0.012
 6904.00    0.89078   0.88898    0.012
 6905.00    0.85917   0.88872    0.012
 6906.00    0.84707   0.88811    0.012
 6907.00    0.83657   0.88740    0.012
 6908.00    0.87927   0.88630    0.013
 6909.00    0.91983   0.88527    0.013
 6910.00    0.92637   0.88420    0.013
 6911.00    0.93150   0.88297    0.013
 6912.00    0.92256   0.88208    0.012
 6913.00    0.90675   0.88107    0.012
 6914.00    0.84158   0.88051    0.012
 6915.00    0.78313   0.87984    0.012
 6916.00    0.76173   0.87948    0.012
 6917.00    0.75179   0.87904    0.012
 6918.00    0.79229   0.87855    0.012
 6919.00    0.82928   0.87816    0.012
 6920.00    0.85351   0.87771    0.012
 6921.00    0.87054   0.87752    0.012
 6922.00    0.86568   0.87718    0.012
 6923.00    0.83841   0.87699    0.012
 6924.00    0.75321   0.87677    0.012
 6925.00    0.69753   0.87666    0.012
 6926.00    0.70748   0.87664    0.012
 6927.00    0.73490   0.87659    0.012
 6928.00    0.79598   0.87683    0.013
 6929.00    0.84729   0.87719    0.013
 6930.00    0.88216   0.87754    0.013
 6931.00    0.90496   0.87803    0.013
 6932.00    0.91000   0.87835    0.012
 6933.00    0.90466   0.87888    0.012
 6934.00    0.88590   0.87914    0.012
 6935.00    0.86142   0.87948    0.012
 6936.00    0.83039   0.87941    0.012
 6937.00    0.81975   0.87926    0.012
 6938.00    0.82963   0.87880    0.012
 6939.00    0.84580   0.87812    0.012
 6940.00    0.86755   0.87750    0.012
 6941.00    0.85382   0.87681    0.012
 6942.00    0.81233   0.87614    0.012
 6943.00    0.79066   0.87547    0.012
 6944.00    0.78261   0.87489    0.012
 6945.00    0.78193   0.87421    0.012
 6946.00    0.78570   0.87383    0.012
 6947.00    0.80732   0.87353    0.013
 6948.00    0.83832   0.87344    0.013
 6949.00    0.86209   0.87361    0.013
 6950.00    0.88256   0.87394    0.013
 6951.00    0.87045   0.87461    0.013
 6952.00    0.84555   0.87524    0.013
 6953.00    0.83474   0.87634    0.013
 6954.00    0.82864   0.87725    0.012
 6955.00    0.86351   0.87858    0.013
 6956.00    0.90989   0.87968    0.013
 6957.00    0.88848   0.88099    0.013
 6958.00    0.85139   0.88216    0.012
 6959.00    0.85816   0.88319    0.012
 6960.00    0.87306   0.88416    0.012
 6961.00    0.87165   0.88486    0.012
 6962.00    0.86792   0.88554    0.013
 6963.00    0.86851   0.88575    0.012
 6964.00    0.86955   0.88582    0.012
 6965.00    0.85893   0.88526    0.013
 6966.00    0.84753   0.88451    0.013
 6967.00    0.83043   0.88334    0.013
 6968.00    0.81316   0.88171    0.013
 6969.00    0.82601   0.87981    0.013
 6970.00    0.83833   0.87740    0.013
 6971.00    0.83440   0.87492    0.013
 6972.00    0.83317   0.87210    0.013
 6973.00    0.87233   0.86960    0.013
 6974.00    0.90886   0.86753    0.012
 6975.00    0.92014   0.86601    0.012
 6976.00    0.92640   0.86525    0.012
 6977.00    0.89767   0.86513    0.012
 6978.00    0.87334   0.86567    0.013
 6979.00    0.87264   0.86681    0.012
 6980.00    0.87163   0.86846    0.012
 6981.00    0.86930   0.87040    0.012
 6982.00    0.86694   0.87246    0.013
 6983.00    0.86447   0.87449    0.013
 6984.00    0.86269   0.87641    0.013
 6985.00    0.86293   0.87809    0.013
 6986.00    0.86704   0.87947    0.013
 6987.00    0.88100   0.88063    0.013
 6988.00    0.89108   0.88126    0.013
 6989.00    0.89270   0.88152    0.013
 6990.00    0.88911   0.88135    0.013
 6991.00    0.87562   0.88093    0.013
 6992.00    0.86907   0.88019    0.013
 6993.00    0.87404   0.87919    0.013
 6994.00    0.87924   0.87794    0.013
 6995.00    0.88477   0.87664    0.013
 6996.00    0.88622   0.87523    0.013
 6997.00    0.88246   0.87396    0.013
 6998.00    0.85731   0.87261    0.013
 6999.00    0.80810   0.87142    0.013
 7000.00    0.78716   0.87012    0.013
 7001.00    0.79427   0.86919    0.012
 7002.00    0.82361   0.86830    0.013
 7003.00    0.87239   0.86777    0.013
 7004.00    0.87243   0.86722    0.013
 7005.00    0.83491   0.86675    0.013
 7006.00    0.80888   0.86631    0.013
 7007.00    0.79065   0.86576    0.013
 7008.00    0.81658   0.86533    0.013
 7009.00    0.86873   0.86471    0.013
 7010.00    0.87228   0.86394    0.013
 7011.00    0.85066   0.86309    0.013
 7012.00    0.80898   0.86240    0.013
 7013.00    0.75829   0.86193    0.013
 7014.00    0.80976   0.86188    0.013
 7015.00    0.90065   0.86182    0.013
 7016.00    0.90490   0.86190    0.013
 7017.00    0.88071   0.86195    0.013
 7018.00    0.88175   0.86218    0.013
 7019.00    0.88972   0.86240    0.013
 7020.00    0.92761   0.86301    0.013
 7021.00    0.97227   0.86358    0.013
 7022.00    0.96032   0.86448    0.013
 7023.00    0.93814   0.86517    0.013
 7024.00    0.88337   0.86615    0.013
 7025.00    0.82409   0.86719    0.013
 7026.00    0.78769   0.86821    0.013
 7027.00    0.75356   0.86917    0.013
 7028.00    0.81776   0.87008    0.014
 7029.00    0.88812   0.87107    0.014
 7030.00    0.87222   0.87209    0.014
 7031.00    0.85380   0.87316    0.014
 7032.00    0.81698   0.87431    0.014
 7033.00    0.78169   0.87560    0.013
 7034.00    0.78836   0.87690    0.013
 7035.00    0.79791   0.87849    0.013
 7036.00    0.84797   0.88055    0.013
 7037.00    0.88985   0.88258    0.013
 7038.00    0.85634   0.88461    0.013
 7039.00    0.83177   0.88642    0.013
 7040.00    0.86749   0.88810    0.013
 7041.00    0.89569   0.88941    0.013
 7042.00    0.88458   0.89044    0.013
 7043.00    0.87919   0.89096    0.013
 7044.00    0.89792   0.89068    0.014
 7045.00    0.92085   0.88967    0.014
 7046.00    0.95840   0.88764    0.014
 7047.00    0.97293   0.88508    0.014
 7048.00    0.92008   0.88154    0.014
 7049.00    0.87632   0.87740    0.014
 7050.00    0.85523   0.87303   -2.000
 7051.00    0.83874   0.86843   -2.000
 7052.00    0.83214   0.86400   -2.000
 7053.00    0.83287   0.85951   -2.000
 7054.00    0.84727   0.85532   -2.000
 7055.00    0.86308   0.85123   -2.000
 7056.00    0.88121   0.84756   -2.000
 7057.00    0.91764   0.84437   -2.000
 7058.00    0.98025   0.84177   -2.000
 7059.00    0.98437   0.83955   -2.000
 7060.00    0.91491   0.83772   -2.000
 7061.00    0.89310   0.83643   -2.000
 7062.00    0.92411   0.83520   -2.000
 7063.00    0.94552   0.83459   -2.000
 7064.00    0.95754   0.83415   -2.000
 7065.00    0.93888   0.83438   -2.000
 7066.00    0.89376   0.83501   -2.000
 7067.00    0.86282   0.83604   -2.000
 7068.00    0.84266   0.83720   -2.000
 7069.00    0.89403   0.83852   -2.000
 7070.00    0.99316   0.83996   -2.000
 7071.00    1.04013   0.84114   -2.000
 7072.00    1.05658   0.84227   -2.000
 7073.00    1.03485   0.84286   -2.000
 7074.00    0.99367   0.84318   -2.000
 7075.00    0.93272   0.84282   -2.000
 7076.00    0.86305   0.84185   -2.000
 7077.00    0.87954   0.84018   -2.000
 7078.00    0.92870   0.83760   -2.000
 7079.00    0.91582   0.83430   -2.000
 7080.00    0.88297   0.83041   -2.000
 7081.00    0.88380   0.82623   -2.000
 7082.00    0.89370   0.82216   -2.000
 7083.00    0.91451   0.81785   -2.000
 7084.00    0.93773   0.81366   -2.000
 7085.00    0.91363   0.80973   -2.000
 7086.00    0.88120   0.80633   -2.000
 7087.00    0.87784   0.80324   -2.000
 7088.00    0.87837   0.80110   -2.000
 7089.00    0.82074   0.79914   -2.000
 7090.00    0.75758   0.79810   -2.000
 7091.00    0.80159   0.79760   -2.000
 7092.00    0.85188   0.79744   -2.000
 7093.00    0.85764   0.79824   -2.000
 7094.00    0.86206   0.79867   -2.000
 7095.00    0.83433   0.80027   -2.000
 7096.00    0.80850   0.80101   -2.000
 7097.00    0.82979   0.80257   -2.000
 7098.00    0.85081   0.80342   -2.000
 7099.00    0.86838   0.80462   -2.000
 7100.00    0.88466   0.80558   -2.000
 7101.00    0.88950   0.80632   -2.000
 7102.00    0.88665   0.80692   -2.000
 7103.00    0.83363   0.80696   -2.000
 7104.00    0.79580   0.80721   -2.000
 7105.00    0.83531   0.80709   -2.000
 7106.00    0.84229   0.80699   -2.000
 7107.00    0.71536   0.80653   -2.000
 7108.00    0.64034   0.80643   -2.000
 7109.00    0.74228   0.80631   -2.000
 7110.00    0.84637   0.80647   -2.000
 7111.00    0.95661   0.80635   -2.000
 7112.00    0.99579   0.80646   -2.000
 7113.00    0.86056   0.80641   -2.000
 7114.00    0.78570   0.80623   -2.000
 7115.00    0.83856   0.80609   -2.000
 7116.00    0.87804   0.80540   -2.000
 7117.00    0.89292   0.80497   -2.000
 7118.00    0.87313   0.80373   -2.000
 7119.00    0.79764   0.80279   -2.000
 7120.00    0.77138   0.80151   -2.000
 7121.00    0.81454   0.79981   -2.000
 7122.00    0.87281   0.79805   -2.000
 7123.00    0.94982   0.79613   -2.000
 7124.00    1.00168   0.79466   -2.000
 7125.00    1.02603   0.79294   -2.000
 7126.00    1.09502   0.79161   -2.000
 7127.00    1.20707   0.79032   -2.000
 7128.00    1.27551   0.79003   -2.000
 7129.00    1.30686   0.78995   -2.000
 7130.00    1.27936   0.79032   -2.000
 7131.00    1.20779   0.79097   -2.000
 7132.00    1.08756   0.79168   -2.000
 7133.00    0.93533   0.79290   -2.000
 7134.00    0.78123   0.79387   -2.000
 7135.00    0.62606   0.79483   -2.000
 7136.00    0.65491   0.79564   -2.000
 7137.00    0.77611   0.79670   -2.000
 7138.00    0.82795   0.79726   -2.000
 7139.00    0.84968   0.79764   -2.000
 7140.00    0.85444   0.79783   -2.000
 7141.00    0.85287   0.79774   -2.000
 7142.00    0.89069   0.79757   -2.000
 7143.00    0.94094   0.79740   -2.000
 7144.00    0.84349   0.79683   -2.000
 7145.00    0.70710   0.79699   -2.000
 7146.00    0.78234   0.79747   -2.000
 7147.00    0.90321   0.79797   -2.000
 7148.00    0.91107   0.79887   -2.000
 7149.00    0.89960   0.79987   -2.000
 7150.00    0.81879   0.80089   -2.000
 7151.00    0.72899   0.80170   -2.000
 7152.00    0.74096   0.80252   -2.000
 7153.00    0.76216   0.80364   -2.000
 7154.00    0.75363   0.80406   -2.000
 7155.00    0.74346   0.80451   -2.000
 7156.00    0.78059   0.80431   -2.000
 7157.00    0.81802   0.80430   -2.000
 7158.00    0.79216   0.80408   -2.000
 7159.00    0.77378   0.80354   -2.000
 7160.00    0.92507   0.80281   -2.000
 7161.00    1.07407   0.80204   -2.000
 7162.00    1.19420   0.80238   -2.000
 7163.00    1.28745   0.80268   -2.000
 7164.00    1.15140   0.80346   -2.000
 7165.00    1.01470   0.80410   -2.000
 7166.00    0.87384   0.80500   -2.000
 7167.00    0.77252   0.80610   -2.000
 7168.00    0.86757   0.80720   -2.000
 7169.00    0.96140   0.80817   -2.000
 7170.00    1.05033   0.80875   -2.000
 7171.00    1.08775   0.80921   -2.000
 7172.00    0.95303   0.80910   -2.000
 7173.00    0.85262   0.80893   -2.000
 7174.00    0.84896   0.80852   -2.000
 7175.00    0.86050   0.80743   -2.000
 7176.00    0.90870   0.80593   -2.000
 7177.00    0.93845   0.80423   -2.000
 7178.00    0.92978   0.80285   -2.000
 7179.00    0.91738   0.80161   -2.000
 7180.00    0.89824   0.80029   -2.000
 7181.00    0.87325   0.79864   -2.000
 7182.00    0.83902   0.79731   -2.000
 7183.00    0.79911   0.79570   -2.000
 7184.00    0.75130   0.79443   -2.000
 7185.00    0.73342   0.79356   -2.000
 7186.00    0.75213   0.79286   -2.000
 7187.00    0.77420   0.79295   -2.000
 7188.00    0.79991   0.79277   -2.000
 7189.00    0.81194   0.79298   -2.000
 7190.00    0.81098   0.79323   -2.000
 7191.00    0.83107   0.79403   -2.000
 7192.00    0.86882   0.79471   -2.000
 7193.00    0.82127   0.79516   -2.000
 7194.00    0.71074   0.79612   -2.000
 7195.00    0.70505   0.79698   -2.000
 7196.00    0.76731   0.79776   -2.000
 7197.00    0.75338   0.79821   -2.000
 7198.00    0.69622   0.79829   -2.000
 7199.00    0.79144   0.79852   -2.000
 7200.00    0.96191   0.79873   -2.000
 7201.00    1.00098   0.79855   -2.000
 7202.00    0.98394   0.79808   -2.000
 7203.00    0.85762   0.79713   -2.000
 7204.00    0.69131   0.79693   -2.000
 7205.00    0.68858   0.79694   -2.000
 7206.00    0.73652   0.79711   -2.000
 7207.00    0.73832   0.79781   -2.000
 7208.00    0.72820   0.79821   -2.000
 7209.00    0.73167   0.79908   -2.000
 7210.00    0.73800   0.79974   -2.000
 7211.00    0.75623   0.80081   -2.000
 7212.00    0.77643   0.80184   -2.000
 7213.00    0.86671   0.80325   -2.000
 7214.00    0.96573   0.80506   -2.000
 7215.00    0.94351   0.80630   -2.000
 7216.00    0.91078   0.80785   -2.000
 7217.00    0.83170   0.80893   -2.000
 7218.00    0.75027   0.81023   -2.000
