###################################################################
## OUTPUT of StarlightChains_v04.for    [Cid@UFSC - 01/Apr/2007] ##
###################################################################

## Some input info
KUG0210-078._43_28.txt                   [arq_obs]
Base.CB07.vall.4m                        [arq_base]
Masks.EmLines.NEW.gm                     [arq_masks]
StCv04.C11.config                        [arq_config]
   66                                    [N_base]
    0                                    [N_YAV_components = # of components with extra extinction!]
    0                                    [i_FitPowerLaw (1/0 = Yes/No)]
-9.99                                    [alpha_PowerLaw]
CCM                                      [red_law_option]
 1.458241                                [q_norm = A(l_norm)/A(V)]

## (Re)Sampling Parameters
 3741.00                                 [l_ini (A)]
 7218.00                                 [l_fin (A)]
    1.00                                 [dl    (A)]     (OBS: dl_cushion =    50.00 A)

## Normalization info
 4020.00                                 [l_norm (A) - for base]
 4010.00                                 [llow_norm (A) - window for f_obs]
 4060.00                                 [lupp_norm (A) - window for f_obs]
1.159000E-17                             [fobs_norm (in input units)]

## S/N
 3691.00                                 [llow_SN (A) - window for S/N]
 7268.00                                 [lupp_SN (A) - window for S/N]
   2.779                                 [S/N in S/N window]
   3.968                                 [S/N in norm. window]
   0.011                                 [S/N_err in S/N window]
   0.016                                 [S/N_err in norm. window]
  1.0000                                 [fscale_chi2]

## etc...
    -2007800                             [idum_orig]
  2338                                   [NOl_eff]
  2111                                   [Nl_eff]
   227    NSIGMA                         [Ntot_cliped & clip_method]
 10397100                                [Nglobal_steps]
   7                                     [N_chains]
  34                                     [NEX0s_base = N_base in EX0s-fits]
 0   0   1      227   2.0   7.865E+03    [Clip-Bug, RC-Crash & Burn-In warning-flags, n_censored_weights, wei_nsig_threshold & wei_limit]
    79     79.198     78.547      0.651  [idt_all, wdt_TotTime, wdt_UsrTime & wdt_SysTime (sec)]

## Synthesis Results - Best model ##

 9.79269E-06                             [chi2/Nl_eff]
    18.13858                             [adev (%)]

   101.75550                             [sum-of-x (%)]
 3.07854E-18                             [Flux_tot (units of input spectrum!)]
 6.61159E-14                             [Mini_tot (???)]
 3.61502E-14                             [Mcor_tot (???)]

-171.29                                  [v0_min  (km/s)]
 215.14                                  [vd_min  (km/s)]
-1.0000                                  [AV_min  (mag)]
 0.0000                                  [YAV_min (mag)]

# j     x_j(%)      Mini_j(%)     Mcor_j(%)     age_j(yr)     Z_j      (L/M)_j    YAV?  Mstars   component_j        a/Fe...       SSP_chi2r SSP_adev(%)   SSP_AV   SSP_x(%)
  1      0.4142     1.7323E-03    3.1683E-03    1.000000E+06  0.00400  1.094E-02    0   1.0000   age020_m42            0.0000     1.0996E-05    17.2691   2.1130    95.9137
  2      0.0000     0.0000E+00    0.0000E+00    3.160000E+06  0.00400  4.007E-02    0   0.9999   age045_m42            0.0000     1.1296E-05    17.8430   1.4758    98.6259
  3      0.0000     0.0000E+00    0.0000E+00    5.010000E+06  0.00400  2.539E-02    0   0.9488   age055_m42            0.0000     1.1125E-05    17.6069   1.7553    97.9363
  4      0.0000     0.0000E+00    0.0000E+00    6.610000E+06  0.00400  2.620E-02    0   0.9220   age061_m42            0.0000     1.1284E-05    17.9234   1.4005    98.8918
  5      0.0000     0.0000E+00    0.0000E+00    1.000000E+07  0.00400  1.322E-02    0   0.8862   age070_m42            0.0000     1.1558E-05    18.7307   1.1117   101.5967
  6      0.0000     0.0000E+00    0.0000E+00    1.445000E+07  0.00400  7.883E-03    0   0.8571   age078_m42            0.0000     1.1454E-05    18.4702   1.4177    99.8949
  7      0.0000     0.0000E+00    0.0000E+00    2.512000E+07  0.00400  5.251E-03    0   0.8174   age090_m42            0.0000     1.1646E-05    18.9499   0.9875   101.9567
  8      0.0000     0.0000E+00    0.0000E+00    4.000000E+07  0.00400  3.649E-03    0   0.7851   age104_m42            0.0000     1.1622E-05    18.9467   0.7743   102.1463
  9      0.0000     0.0000E+00    0.0000E+00    5.500000E+07  0.00400  3.098E-03    0   0.7629   age110_m42            0.0000     1.1580E-05    18.6829   0.9460   101.2449
 10      0.0000     0.0000E+00    0.0000E+00    1.015200E+08  0.00400  2.228E-03    0   0.7207   age116_m42            0.0000     1.1528E-05    18.5177   0.9765   100.8804
 11      2.8859     1.2082E-01    1.4690E-01    2.861200E+08  0.00400  1.093E-03    0   0.6648   age125_m42            0.0000     1.1815E-05    19.2782   0.4220   103.0436
 12      0.0000     0.0000E+00    0.0000E+00    5.088000E+08  0.00400  6.597E-04    0   0.6365   age130_m42            0.0000     1.1640E-05    18.9073   0.4309   102.9761
 13      0.0499     1.0706E-02    1.1353E-02    1.434000E+09  0.00400  2.132E-04    0   0.5798   age139_m42            0.0000     1.0998E-05    18.5991  -0.5154   103.9697
 14      0.0000     0.0000E+00    0.0000E+00    4.250000E+09  0.00400  5.895E-05    0   0.5377   age158_m42            0.0000     1.0198E-05    17.6257  -0.9849   100.9969
 15      0.0000     0.0000E+00    0.0000E+00    7.500000E+09  0.00400  3.510E-05    0   0.5212   age171_m42            0.0000     1.0223E-05    19.0491  -1.0000    95.7792
 16      0.0000     0.0000E+00    0.0000E+00    1.300000E+10  0.00400  2.005E-05    0   0.5034   age193_m42            0.0000     1.0692E-05    20.9498  -1.0000    90.8947
 17      0.0000     0.0000E+00    0.0000E+00    1.800000E+10  0.00400  1.525E-05    0   0.4967   age213_m42            0.0000     1.0779E-05    21.3440  -1.0000    89.9436
 18      0.0000     0.0000E+00    0.0000E+00    1.000000E+06  0.00800  1.238E-02    0   1.0000   age020_m52            0.0000     1.0995E-05    17.2882   2.1130    96.0067
 19      1.6170     2.4070E-03    4.3873E-03    3.160000E+06  0.00800  3.074E-02    0   0.9966   age045_m52            0.0000     1.0976E-05    17.2617   2.0399    96.6740
 20      0.0000     0.0000E+00    0.0000E+00    5.010000E+06  0.00800  2.668E-02    0   0.9443   age055_m52            0.0000     1.1078E-05    17.5375   1.8257    97.6010
 21      1.0195     2.1841E-03    3.6658E-03    6.610000E+06  0.00800  2.136E-02    0   0.9177   age061_m52            0.0000     1.1150E-05    18.3848   0.6026   103.1796
 22      0.0000     0.0000E+00    0.0000E+00    1.000000E+07  0.00800  1.215E-02    0   0.8827   age070_m52            0.0000     1.1686E-05    18.9956   1.2771   101.9886
 23      0.0000     0.0000E+00    0.0000E+00    1.445000E+07  0.00800  8.717E-03    0   0.8552   age078_m52            0.0000     1.1500E-05    18.5892   1.3909   100.9743
 24      2.7865     2.2802E-02    3.4038E-02    2.512000E+07  0.00800  5.592E-03    0   0.8162   age090_m52            0.0000     1.1720E-05    19.1530   1.0569   102.8978
 25      0.0091     1.0742E-04    1.5405E-04    4.000000E+07  0.00800  3.896E-03    0   0.7841   age104_m52            0.0000     1.1700E-05    19.1187   0.9861   102.8216
 26      0.0000     0.0000E+00    0.0000E+00    1.015200E+08  0.00800  2.148E-03    0   0.7226   age116_m52            0.0000     1.1559E-05    18.7726   0.9409   101.8241
 27      0.0000     0.0000E+00    0.0000E+00    2.861200E+08  0.00800  9.925E-04    0   0.6683   age125_m52            0.0000     1.1572E-05    18.8631   0.4920   104.1077
 28      0.0000     0.0000E+00    0.0000E+00    9.047900E+08  0.00800  3.141E-04    0   0.6138   age135_m52            0.0000     1.1065E-05    18.6058  -0.2621   106.1077
 29      0.0000     0.0000E+00    0.0000E+00    1.434000E+09  0.00800  1.719E-04    0   0.5853   age139_m52            0.0000     1.0483E-05    18.3160  -0.8735   105.2469
 30      0.7877     4.5787E-01    4.6895E-01    2.500000E+09  0.00800  7.872E-05    0   0.5600   age150_m52            0.0000     1.0085E-05    18.7788  -1.0000    98.7621
 31      0.0000     0.0000E+00    0.0000E+00    4.250000E+09  0.00800  4.336E-05    0   0.5426   age158_m52            0.0000     1.0068E-05    18.8791  -1.0000    97.4574
 32      0.0000     0.0000E+00    0.0000E+00    6.250000E+09  0.00800  3.159E-05    0   0.5319   age166_m52            0.0000     1.0568E-05    21.0528  -1.0000    91.9293
 33      0.0000     0.0000E+00    0.0000E+00    1.300000E+10  0.00800  1.361E-05    0   0.5073   age193_m52            0.0000     1.3913E-05    27.7540  -1.0000    78.6292
 34      0.0000     0.0000E+00    0.0000E+00    1.800000E+10  0.00800  9.886E-06    0   0.4990   age213_m52            0.0000     1.4961E-05    29.0346  -1.0000    75.2812
 35      0.0000     0.0000E+00    0.0000E+00    1.000000E+06  0.02000  1.544E-02    0   1.0000   age020_m62            0.0000     1.0999E-05    17.2605   2.1043    96.3880
 36      0.0000     0.0000E+00    0.0000E+00    3.160000E+06  0.02000  3.762E-02    0   0.9858   age045_m62            0.0000     1.1002E-05    17.2409   2.0436    97.2022
 37      0.0000     0.0000E+00    0.0000E+00    5.010000E+06  0.02000  3.296E-02    0   0.9342   age055_m62            0.0000     1.1160E-05    17.6024   1.7280    98.5969
 38      0.0000     0.0000E+00    0.0000E+00    8.710000E+06  0.02000  1.154E-02    0   0.8861   age067_m62            0.0000     1.2499E-05    21.0613   0.6865   107.3137
 39      0.0000     0.0000E+00    0.0000E+00    1.445000E+07  0.02000  7.663E-03    0   0.8472   age078_m62            0.0000     1.1928E-05    19.7516   0.9172   104.6283
 40      0.0000     0.0000E+00    0.0000E+00    2.512000E+07  0.02000  4.532E-03    0   0.8099   age090_m62            0.0000     1.2030E-05    19.9952   0.9116   104.2213
 41      0.0000     0.0000E+00    0.0000E+00    5.500000E+07  0.02000  2.733E-03    0   0.7595   age110_m62            0.0000     1.1550E-05    18.9979   0.9555   102.7010
 42      0.0000     0.0000E+00    0.0000E+00    1.609000E+08  0.02000  1.369E-03    0   0.6985   age120_m62            0.0000     1.1543E-05    18.7878   0.8313   103.6427
 43      0.0000     0.0000E+00    0.0000E+00    2.861200E+08  0.02000  9.013E-04    0   0.6714   age125_m62            0.0000     1.1564E-05    18.7733   0.6111   105.1864
 44      4.9359     4.4921E-01    5.2984E-01    5.088000E+08  0.02000  5.028E-04    0   0.6449   age130_m62            0.0000     1.1331E-05    18.3991   0.2679   106.1297
 45      3.7374     7.0437E-01    7.9600E-01    9.047900E+08  0.02000  2.428E-04    0   0.6179   age135_m62            0.0000     1.0584E-05    17.9764  -0.3206   105.4180
 46      0.0000     0.0000E+00    0.0000E+00    1.434000E+09  0.02000  1.263E-04    0   0.5908   age139_m62            0.0000     1.0100E-05    17.6207  -0.7802   104.4756
 47      7.6082     5.8170E+00    6.0354E+00    2.500000E+09  0.02000  5.985E-05    0   0.5673   age150_m62            0.0000     9.8410E-06    18.5127  -1.0000    99.2855
 48     15.8254     2.2139E+01    2.2140E+01    4.250000E+09  0.02000  3.271E-05    0   0.5468   age158_m62            0.0000     1.0731E-05    21.9207  -1.0000    90.1142
 49      0.0000     0.0000E+00    0.0000E+00    1.000000E+10  0.02000  1.360E-05    0   0.5167   age181_m62            0.0000     1.3273E-05    26.6883  -1.0000    80.0831
 50      1.1816     7.5900E+00    6.9588E+00    1.800000E+10  0.02000  7.124E-06    0   0.5013   age213_m62            0.0000     1.5560E-05    29.4829  -1.0000    73.7329
 51      0.0022     3.8728E-06    7.0817E-06    1.000000E+06  0.05000  2.592E-02    0   0.9998   age020_m72            0.0000     1.0979E-05    17.2529   2.0902    96.6719
 52      0.0000     0.0000E+00    0.0000E+00    3.160000E+06  0.05000  4.845E-02    0   0.9577   age045_m72            0.0000     1.1014E-05    17.3003   1.9482    97.5590
 53      0.0000     0.0000E+00    0.0000E+00    5.010000E+06  0.05000  3.072E-02    0   0.9147   age055_m72            0.0000     1.1663E-05    18.9719   1.4739   101.5038
 54      0.0000     0.0000E+00    0.0000E+00    6.610000E+06  0.05000  1.455E-02    0   0.8877   age061_m72            0.0000     1.3908E-05    23.2665   0.6888   109.3643
 55      0.0000     0.0000E+00    0.0000E+00    1.000000E+07  0.05000  9.074E-03    0   0.8524   age070_m72            0.0000     1.2021E-05    19.4851   1.6334   101.4679
 56      0.0000     0.0000E+00    0.0000E+00    2.512000E+07  0.05000  4.250E-03    0   0.7902   age090_m72            0.0000     1.1986E-05    19.5437   1.3821   101.7407
 57      0.8137     1.2061E-02    1.6805E-02    4.000000E+07  0.05000  3.087E-03    0   0.7618   age104_m72            0.0000     1.2153E-05    19.9424   1.1715   102.7751
 58      0.0000     0.0000E+00    0.0000E+00    1.015200E+08  0.05000  1.700E-03    0   0.7096   age116_m72            0.0000     1.1810E-05    19.2055   0.9665   103.5310
 59      0.0000     0.0000E+00    0.0000E+00    2.861200E+08  0.05000  7.384E-04    0   0.6633   age125_m72            0.0000     1.1348E-05    18.6269   0.5002   105.5476
 60      0.0000     0.0000E+00    0.0000E+00    5.088000E+08  0.05000  3.819E-04    0   0.6372   age130_m72            0.0000     1.0740E-05    18.0211   0.0242   106.3731
 61     21.1785     5.7823E+00    6.4616E+00    9.047900E+08  0.05000  1.676E-04    0   0.6110   age135_m72            0.0000     9.9158E-06    17.1635  -0.6888   104.9541
 62      7.5452     3.9070E+00    4.1974E+00    1.434000E+09  0.05000  8.837E-05    0   0.5874   age139_m72            0.0000     9.8334E-06    18.4526  -1.0000   100.4803
 63     19.2788     2.0841E+01    2.1337E+01    2.500000E+09  0.05000  4.233E-05    0   0.5598   age150_m72            0.0000     1.0673E-05    21.7916  -1.0000    90.8249
 64     10.0789     3.2140E+01    3.0854E+01    6.250000E+09  0.05000  1.435E-05    0   0.5249   age166_m72            0.0000     1.4298E-05    28.0748  -1.0000    77.1194
 65      0.0000     0.0000E+00    0.0000E+00    1.300000E+10  0.05000  6.513E-06    0   0.5036   age193_m72            0.0000     1.7899E-05    31.8412  -1.0000    70.2189
 66      0.0000     0.0000E+00    0.0000E+00    1.800000E+10  0.05000  4.527E-06    0   0.4945   age213_m72            0.0000     2.0360E-05    33.8665  -1.0000    65.7719


## Synthesis Results - Average & Chains ##

# j      x_j: min, <> & last-chain-values for 1 ...  7 chains
  1      0.4142      0.1287      0.0000      0.6390      0.0173      0.4883      0.1411      0.2072      0.3427
  2      0.0000      0.1349      0.4885      0.2826      0.2480      0.2954      0.1272      0.0544      0.0000
  3      0.0000      0.1077      0.0467      0.0000      0.0207      0.1040      0.0000      0.0248      0.0000
  4      0.0000      0.1378      0.0000      0.0000      0.1662      0.2073      0.2481      0.1122      0.2116
  5      0.0000      0.1009      0.2196      0.3206      0.0418      0.2601      0.0235      0.0183      0.2120
  6      0.0000      0.1368      0.2739      0.4508      0.1467      0.0637      0.1964      0.2250      0.0000
  7      0.0000      0.1228      0.0000      0.1510      0.0221      0.3351      0.1373      0.0878      0.1596
  8      0.0000      0.1210      0.4745      0.8918      0.0000      0.1218      0.1940      0.0705      0.0000
  9      0.0000      0.0967      0.1915      0.0000      0.1125      0.1592      0.0143      0.1742      0.0000
 10      0.0000      0.1050      0.4277      0.0000      0.0573      0.2237      0.2961      0.0985      0.2648
 11      2.8859      0.1527      0.0629      0.5197      0.1329      0.0000      0.0624      0.2250      0.3887
 12      0.0000      0.1054      0.0579      0.2160      0.1244      0.4415      0.0000      0.0739      0.1273
 13      0.0499      0.1047      0.0000      0.3391      0.0000      0.0513      0.0000      0.0700      0.0103
 14      0.0000      0.1497      0.0038      0.2283      0.0000      0.4455      0.5266      0.1488      0.0000
 15      0.0000      0.1286      0.5426      0.7766      0.1853      0.2943      0.5119      0.0000      0.0477
 16      0.0000      0.1330      0.2916      0.0000      0.1939      0.0710      0.1409      0.0000      0.2327
 17      0.0000      0.0810      0.1977      0.0000      0.2074      0.3820      0.0684      0.0043      0.0967
 18      0.0000      0.0919      0.0771      0.0000      0.0670      0.0215      0.0000      0.0283      0.0315
 19      1.6170      0.1421      0.0623      0.8671      0.0907      0.3482      0.0000      0.2273      0.1836
 20      0.0000      0.1028      0.0000      0.0107      0.0000      0.0000      0.0998      0.0000      0.3642
 21      1.0195      0.0862      0.0000      0.5118      0.0786      0.0088      0.0549      0.1352      0.5070
 22      0.0000      0.1109      0.0159      0.1118      0.0204      0.2082      0.0000      0.2363      0.0920
 23      0.0000      0.1369      0.1621      0.1601      0.1395      0.9903      0.0000      0.0000      0.1428
 24      2.7865      0.1058      0.1549      0.3495      0.0005      0.0719      0.1393      0.1743      0.1579
 25      0.0091      0.1137      0.0211      0.4868      0.0000      0.0000      0.3102      0.0000      0.0589
 26      0.0000      0.1443      0.0000      0.0388      0.2068      0.0000      0.3207      0.1096      0.0460
 27      0.0000      0.1275      0.0652      0.0000      0.0883      0.0000      0.4098      0.2531      0.0000
 28      0.0000      0.1288      0.0000      0.0000      0.0000      0.0000      0.2010      0.1267      0.0428
 29      0.0000      0.1013      0.4461      0.1765      0.1302      0.6087      0.0909      0.1589      0.1136
 30      0.7877      0.1223      0.1137      0.8699      0.1270      0.0000      0.4231      0.3761      0.0876
 31      0.0000      0.1094      0.0000      0.0907      0.0000      0.0000      0.2359      0.2158      0.0000
 32      0.0000      0.1385      0.2473      0.4886      0.0000      0.5959      0.1056      0.2013      0.1725
 33      0.0000      0.0960      0.0588      0.4169      0.0921      0.0334      0.0549      0.1956      0.3106
 34      0.0000      0.1161      0.2884      0.0000      0.0006      0.1069      0.3570      0.1503      0.2554
 35      0.0000      0.1139      0.0740      0.0000      0.2169      0.0235      0.3537      0.0913      0.0000
 36      0.0000      0.1273      0.0892      0.0848      0.2314      0.0000      0.0308      0.1615      0.2037
 37      0.0000      0.1515      0.1973      0.4363      0.0306      0.6154      0.1172      0.2399      0.6194
 38      0.0000      0.0793      0.0155      0.3722      0.0309      0.2834      0.2893      0.2260      0.0000
 39      0.0000      0.1025      0.0381      0.0133      0.1736      0.1406      0.2446      0.0000      0.0000
 40      0.0000      0.0938      0.1247      0.0359      0.1295      0.1666      0.0000      0.0000      0.0288
 41      0.0000      0.0808      0.0076      0.2346      0.1184      0.0000      0.0000      0.0065      0.0722
 42      0.0000      0.0971      0.1286      0.0000      0.0024      0.0000      0.0000      0.2059      0.2650
 43      0.0000      0.0873      0.0000      0.3087      0.0000      0.0000      0.0360      0.0000      0.0060
 44      4.9359     39.0525     38.3381     31.1899     38.8614     36.2769     37.8615     39.0713     37.3207
 45      3.7374      0.1358      0.0417      0.5376      0.0435      0.0587      0.0768      0.2899      0.2531
 46      0.0000      0.0971      0.0000      0.0000      0.1262      0.0106      0.1504      0.0955      0.5010
 47      7.6082      0.1212      0.1792      0.4411      0.0307      0.1148      0.0789      0.0529      0.2447
 48     15.8254      0.1235      0.2855      0.3211      0.0227      0.1260      0.2067      0.0318      0.0000
 49      0.0000      0.1239      0.0501      0.4645      0.0272      0.4947      0.0927      0.0834      0.1167
 50      1.1816      0.0970      0.0352      0.4670      0.0911      0.0672      0.0351      0.0153      0.0744
 51      0.0022      0.1182      0.6090      0.2745      0.0871      0.2069      0.1507      0.0878      0.0000
 52      0.0000      0.1491      0.0000      1.3265      0.2065      0.0909      0.0000      0.0000      0.1923
 53      0.0000      0.1092      0.0074      0.1025      0.2079      0.2359      0.1804      0.0783      0.0000
 54      0.0000      0.1066      0.0170      0.0400      0.0793      0.1933      0.0000      0.0503      0.2711
 55      0.0000      0.0833      0.0000      0.0000      0.0556      0.2188      0.0000      0.0323      0.2011
 56      0.0000      0.1220      0.1441      0.0000      0.0153      0.0000      0.0000      0.0435      0.0781
 57      0.8137      0.1159      0.0000      0.2764      0.1568      0.0537      0.0243      0.0803      0.0594
 58      0.0000      0.1248      0.5162      0.0602      0.1400      0.0000      0.1688      0.1481      0.3061
 59      0.0000      0.0877      0.0000      0.0546      0.0033      0.1398      0.2999      0.0228      0.1084
 60      0.0000      0.1539      0.0310      0.0544      0.1663      0.1108      0.0000      0.0000      0.0000
 61     21.1785      0.1500      0.1764      1.3166      0.0463      0.2356      0.0320      0.3768      0.1451
 62      7.5452      0.1535      0.6873      0.3203      0.8701      0.0906      0.1247      0.1950      0.5352
 63     19.2788      0.1432      0.0274      1.7619      0.0704      0.0000      0.6540      0.2482      0.2683
 64     10.0789      0.1111      0.3431      0.2570      0.0227      0.0812      0.6281      0.0873      0.1190
 65      0.0000     12.1694     12.6262     12.6281     18.7585     12.1488     12.0656     12.6672     12.1177
 66      0.0000     30.8058     29.6219     27.1380     25.7340     30.4723     30.0953     30.8203     30.8865

# j      m_j: min, <> & last-chain-values for 1 ...  7 chains
  1  3.1683E-03  2.6712E-04  0.0000E+00  1.4144E-03  3.6293E-05  1.0171E-03  2.9577E-04  4.2674E-04  7.0800E-04
  2  0.0000E+00  7.6444E-05  2.8111E-04  1.7078E-04  1.4233E-04  1.6795E-04  7.2805E-05  3.0598E-05  0.0000E+00
  3  0.0000E+00  9.1406E-05  4.0248E-05  0.0000E+00  1.7795E-05  8.8574E-05  0.0000E+00  2.0903E-05  0.0000E+00
  4  0.0000E+00  1.1013E-04  0.0000E+00  0.0000E+00  1.3448E-04  1.6622E-04  2.0020E-04  8.8944E-05  1.6827E-04
  5  0.0000E+00  1.5357E-04  3.3949E-04  5.2038E-04  6.4447E-05  3.9726E-04  3.6074E-05  2.7622E-05  3.2117E-04
  6  0.0000E+00  3.3764E-04  6.8680E-04  1.1867E-03  3.6681E-04  1.5781E-04  4.8973E-04  5.5125E-04  0.0000E+00
  7  0.0000E+00  4.3415E-04  0.0000E+00  5.6914E-04  7.9027E-05  1.1884E-03  4.9008E-04  3.0795E-04  5.6150E-04
  8  0.0000E+00  5.9125E-04  2.3545E-03  4.6461E-03  0.0000E+00  5.9707E-04  9.5744E-04  3.4151E-04  0.0000E+00
  9  0.0000E+00  5.4080E-04  1.0872E-03  0.0000E+00  6.3717E-04  8.9351E-04  8.0756E-05  9.6645E-04  0.0000E+00
 10  0.0000E+00  7.7102E-04  3.1905E-03  0.0000E+00  4.2640E-04  1.6488E-03  2.1967E-03  7.1795E-04  1.9354E-03
 11  1.4690E-01  2.1089E-03  8.8271E-04  7.6538E-03  1.8593E-03  0.0000E+00  8.7023E-04  3.0837E-03  5.3426E-03
 12  0.0000E+00  2.3098E-03  1.2888E-03  5.0468E-03  2.7597E-03  9.7069E-03  0.0000E+00  1.6064E-03  2.7758E-03
 13  1.1353E-02  6.4645E-03  0.0000E+00  2.2329E-02  0.0000E+00  3.1820E-03  0.0000E+00  4.2877E-03  6.3596E-04
 14  0.0000E+00  3.1000E-02  7.9840E-04  5.0427E-02  0.0000E+00  9.2590E-02  1.1016E-01  3.0573E-02  0.0000E+00
 15  0.0000E+00  4.3356E-02  1.8582E-01  2.7923E-01  6.3275E-02  9.9582E-02  1.7433E-01  0.0000E+00  1.5996E-02
 16  0.0000E+00  7.5836E-02  1.6885E-01  0.0000E+00  1.1197E-01  4.0646E-02  8.1107E-02  0.0000E+00  1.3202E-01
 17  0.0000E+00  5.9896E-02  1.4846E-01  0.0000E+00  1.5535E-01  2.8349E-01  5.1118E-02  3.1901E-03  7.1145E-02
 18  0.0000E+00  1.6849E-04  1.4371E-04  0.0000E+00  1.2451E-04  3.9563E-05  0.0000E+00  5.1462E-05  5.7463E-05
 19  4.3873E-03  1.0457E-04  4.6595E-05  6.8069E-04  6.7631E-05  2.5721E-04  0.0000E+00  1.6602E-04  1.3451E-04
 20  0.0000E+00  8.2616E-05  0.0000E+00  9.2077E-06  0.0000E+00  0.0000E+00  8.1002E-05  0.0000E+00  2.9132E-04
 21  3.6658E-03  8.4061E-05  0.0000E+00  5.3239E-04  7.7715E-05  8.6066E-06  5.4088E-05  1.3083E-04  4.9228E-04
 22  0.0000E+00  1.8289E-04  2.6597E-05  1.9660E-04  3.4073E-05  3.4467E-04  0.0000E+00  3.8682E-04  1.5110E-04
 23  0.0000E+00  3.0499E-04  3.6668E-04  3.8038E-04  3.1473E-04  2.2139E-03  0.0000E+00  0.0000E+00  3.1659E-04
 24  3.4038E-02  3.5062E-04  5.2154E-04  1.2352E-03  1.6914E-06  2.3898E-04  4.6637E-04  5.7310E-04  5.2081E-04
 25  1.5405E-04  5.1940E-04  9.7769E-05  2.3724E-03  0.0000E+00  0.0000E+00  1.4317E-03  0.0000E+00  2.6786E-04
 26  0.0000E+00  1.1023E-03  0.0000E+00  3.1582E-04  1.5997E-03  0.0000E+00  2.4741E-03  8.3056E-04  3.4992E-04
 27  0.0000E+00  1.9487E-03  1.0131E-03  0.0000E+00  1.3681E-03  0.0000E+00  6.3277E-03  3.8394E-03  0.0000E+00
 28  0.0000E+00  5.7147E-03  0.0000E+00  0.0000E+00  0.0000E+00  0.0000E+00  9.0100E-03  5.5787E-03  1.8886E-03
 29  0.0000E+00  7.8285E-03  3.5027E-02  1.4552E-02  1.0195E-02  4.7226E-02  7.1013E-03  1.2187E-02  8.7384E-03
 30  4.6895E-01  1.9749E-02  1.8654E-02  1.4985E-01  2.0774E-02  0.0000E+00  6.9025E-02  6.0278E-02  1.4090E-02
 31  0.0000E+00  3.1075E-02  0.0000E+00  2.7470E-02  0.0000E+00  0.0000E+00  6.7694E-02  6.0841E-02  0.0000E+00
 32  0.0000E+00  5.2944E-02  9.6027E-02  1.9920E-01  0.0000E+00  2.2862E-01  4.0780E-02  7.6354E-02  6.5628E-02
 33  0.0000E+00  8.1240E-02  5.0540E-02  3.7631E-01  7.8968E-02  2.8370E-02  4.6940E-02  1.6427E-01  2.6165E-01
 34  0.0000E+00  1.3300E-01  3.3565E-01  0.0000E+00  6.5300E-04  1.2292E-01  4.1322E-01  1.7096E-01  2.9133E-01
 35  0.0000E+00  1.6753E-04  1.1058E-04  0.0000E+00  3.2311E-04  3.4697E-05  5.2540E-04  1.3321E-04  0.0000E+00
 36  0.0000E+00  7.5752E-05  5.3904E-05  5.3826E-05  1.3947E-04  0.0000E+00  1.8502E-05  9.5321E-05  1.2065E-04
 37  0.0000E+00  9.7478E-05  1.2895E-04  2.9943E-04  1.9963E-05  3.9746E-04  7.6169E-05  1.5316E-04  3.9674E-04
 38  0.0000E+00  1.3828E-04  2.7470E-05  6.9201E-04  5.4554E-05  4.9575E-04  5.0948E-04  3.9096E-04  0.0000E+00
 39  0.0000E+00  2.5718E-04  9.7113E-05  3.5675E-05  4.4146E-04  3.5410E-04  6.2012E-04  0.0000E+00  0.0000E+00
 40  0.0000E+00  3.8064E-04  5.1398E-04  1.5527E-04  5.3213E-04  6.7840E-04  0.0000E+00  0.0000E+00  1.1615E-04
 41  0.0000E+00  5.0987E-04  4.8570E-05  1.5786E-03  7.5657E-04  0.0000E+00  0.0000E+00  4.0963E-05  4.5365E-04
 42  0.0000E+00  1.1248E-03  1.5126E-03  0.0000E+00  2.8574E-05  0.0000E+00  0.0000E+00  2.3666E-03  3.0562E-03
 43  0.0000E+00  1.4758E-03  0.0000E+00  5.5691E-03  0.0000E+00  0.0000E+00  6.1418E-04  0.0000E+00  1.0168E-04
 44  5.2984E-01  1.1372E+00  1.1340E+00  9.6868E-01  1.1464E+00  1.0602E+00  1.1137E+00  1.1290E+00  1.0818E+00
 45  7.9600E-01  7.8460E-03  2.4455E-03  3.3131E-02  2.5433E-03  3.4016E-03  4.4807E-03  1.6622E-02  1.4558E-02
 46  0.0000E+00  1.0313E-02  0.0000E+00  0.0000E+00  1.3574E-02  1.1335E-03  1.6138E-02  1.0063E-02  5.2963E-02
 47  6.0354E+00  2.6085E-02  3.9161E-02  1.0124E-01  6.6998E-03  2.4790E-02  1.7147E-02  1.1287E-02  5.2424E-02
 48  2.2140E+01  4.6856E-02  1.1006E-01  1.2995E-01  8.7114E-03  4.7989E-02  7.9241E-02  1.1959E-02  0.0000E+00
 49  0.0000E+00  1.0686E-01  4.3897E-02  4.2729E-01  2.3788E-02  4.2823E-01  8.0813E-02  7.1414E-02  1.0019E-01
 50  6.9588E+00  1.5491E-01  5.7076E-02  7.9576E-01  1.4746E-01  1.0770E-01  5.6675E-02  2.4185E-02  1.1832E-01
 51  7.0817E-06  1.0349E-04  5.4170E-04  2.5641E-04  7.7226E-05  1.8185E-04  1.3330E-04  7.6317E-05  0.0000E+00
 52  0.0000E+00  6.6892E-05  0.0000E+00  6.3491E-04  9.3880E-05  4.0960E-05  0.0000E+00  0.0000E+00  8.5889E-05
 53  0.0000E+00  7.3790E-05  5.0535E-06  7.3918E-05  1.4237E-04  1.6006E-04  1.2320E-04  5.2503E-05  0.0000E+00
 54  0.0000E+00  1.4772E-04  2.3962E-05  5.9151E-05  1.1134E-04  2.6874E-04  0.0000E+00  6.9075E-05  3.7377E-04
 55  0.0000E+00  1.7774E-04  0.0000E+00  0.0000E+00  1.2007E-04  4.6836E-04  0.0000E+00  6.8346E-05  4.2690E-04
 56  0.0000E+00  5.1520E-04  6.1795E-04  0.0000E+00  6.5508E-05  0.0000E+00  0.0000E+00  1.8201E-04  3.2805E-04
 57  1.6805E-02  6.4940E-04  0.0000E+00  1.6515E-03  8.9021E-04  3.0175E-04  1.3776E-04  4.4653E-04  3.3114E-04
 58  0.0000E+00  1.1824E-03  4.9685E-03  6.0808E-04  1.3439E-03  0.0000E+00  1.6162E-03  1.3923E-03  2.8874E-03
 59  0.0000E+00  1.7886E-03  0.0000E+00  1.1876E-03  6.8113E-05  2.8625E-03  6.1779E-03  4.6145E-04  2.2011E-03
 60  0.0000E+00  5.8287E-03  1.1925E-03  2.1975E-03  6.3810E-03  4.2127E-03  0.0000E+00  0.0000E+00  0.0000E+00
 61  6.4616E+00  1.2417E-02  1.4834E-02  1.1622E-01  3.8859E-03  1.9571E-02  2.6734E-03  3.0947E-02  1.1952E-02
 62  4.1974E+00  2.3165E-02  1.0535E-01  5.1550E-02  1.3303E-01  1.3729E-02  1.9017E-02  2.9202E-02  8.0397E-02
 63  2.1337E+01  4.2989E-02  8.3534E-03  5.6420E-01  2.1408E-02  0.0000E+00  1.9833E-01  7.3954E-02  8.0175E-02
 64  3.0854E+01  9.2226E-02  2.8943E-01  2.2766E-01  1.9078E-02  6.7653E-02  5.2686E-01  7.1921E-02  9.8362E-02
 65  0.0000E+00  2.1364E+01  2.2514E+01  2.3643E+01  3.3359E+01  2.1404E+01  2.1396E+01  2.2066E+01  2.1175E+01
 66  0.0000E+00  7.6400E+01  7.4619E+01  7.1780E+01  6.4651E+01  7.5845E+01  7.5392E+01  7.5845E+01  7.6246E+01

# AV, chi2 & Mass for <> & i_chain = 1 ...  7 solutions
AV      -1.0000     -0.9910     -1.0000     -0.9886     -1.0000     -1.0000     -1.0000     -1.0000     -1.0000
chi2 9.7927E-06  1.1711E-05  1.1688E-05  1.1571E-05  1.1647E-05  1.1663E-05  1.1645E-05  1.1628E-05  1.1640E-05
Mass 3.6150E-14  1.3487E-13  1.3119E-13  1.2687E-13  1.3154E-13  1.3278E-13  1.3192E-13  1.3429E-13  1.3387E-13
-171.29                                  [v0_min (km/s) before EX0s...]
 215.14                                  [vd_min (km/s) before EX0s...]


## Synthetic spectrum (Best Model) ##l_obs f_obs f_syn wei
 3478    [Nl_obs]
 3741.00   -0.43447   0.55454    0.000
 3742.00   -0.75153   0.53057    0.000
 3743.00   -1.95424   0.50354    0.000
 3744.00   -2.31737   0.47830    0.000
 3745.00   -2.19133   0.45907    0.000
 3746.00   -1.27979   0.45001    0.000
 3747.00    0.03064   0.45426   -1.000
 3748.00    0.43443   0.47247   -1.000
 3749.00    0.43956   0.50275   -1.000
 3750.00   -0.15646   0.53986    0.000
 3751.00   -0.97943   0.57568    0.000
 3752.00   -1.14091   0.60261    0.000
 3753.00   -1.09040   0.61660    0.000
 3754.00   -0.94487   0.61781    0.000
 3755.00   -0.77389   0.60962    0.000
 3756.00   -1.09312   0.59755    0.000
 3757.00   -1.51994   0.58743    0.000
 3758.00   -1.55998   0.58313    0.000
 3759.00   -1.53249   0.58448    0.000
 3760.00   -1.06708   0.58794    0.000
 3761.00   -0.54350   0.58991    0.000
 3762.00   -0.19538   0.58868    0.000
 3763.00    0.13626   0.58415   -1.000
 3764.00   -0.19048   0.57771    0.000
 3765.00   -0.55520   0.57134    0.000
 3766.00   -0.71791   0.56715    0.000
 3767.00   -0.87062   0.56785    0.000
 3768.00   -0.39172   0.57500    0.000
 3769.00    0.06611   0.58780   -1.000
 3770.00    0.01215   0.60484   -1.000
 3771.00   -0.04034   0.62489    0.000
 3772.00   -0.07339   0.64594    0.000
 3773.00   -0.12421   0.66617    0.000
 3774.00   -0.33090   0.68552    0.000
 3775.00   -0.51055   0.70475    0.000
 3776.00   -0.51480   0.72382    0.000
 3777.00   -0.53339   0.74142    0.000
 3778.00   -0.62462   0.75565    0.000
 3779.00   -0.60242   0.76457    0.000
 3780.00   -0.11596   0.76612    0.000
 3781.00    0.08254   0.75895   -1.000
 3782.00   -0.69564   0.74353    0.000
 3783.00   -1.14397   0.72173    0.000
 3784.00   -0.64886   0.69615    0.000
 3785.00   -0.40978   0.66989    0.000
 3786.00   -0.79619   0.64655    0.000
 3787.00   -1.11779   0.62831    0.000
 3788.00   -1.30278   0.61379    0.000
 3789.00   -1.21334   0.60015    0.000
 3790.00   -0.62120   0.58519    0.000
 3791.00   -0.09428   0.56759    0.000
 3792.00    0.32823   0.54760   -1.000
 3793.00    0.49017   0.52806   -1.000
 3794.00    0.28610   0.51344   -1.000
 3795.00   -0.01263   0.50773    0.000
 3796.00   -0.42836   0.51330    0.000
 3797.00   -0.61625   0.53049    0.000
 3798.00   -0.55590   0.55788    0.000
 3799.00   -0.38669   0.59150    0.000
 3800.00   -0.11288   0.62541    0.000
 3801.00    0.20854   0.65443   -1.000
 3802.00    0.57031   0.67640   -1.000
 3803.00    0.45961   0.69172   -1.000
 3804.00   -0.00367   0.70199    0.000
 3805.00   -0.42093   0.70936    0.000
 3806.00   -0.80803   0.71515    0.000
 3807.00   -0.18949   0.71889    0.000
 3808.00    1.00614   0.71844   -1.000
 3809.00    0.81766   0.71124   -1.000
 3810.00   -0.06261   0.69682    0.000
 3811.00   -0.24016   0.67763    0.000
 3812.00   -0.11384   0.65753    0.000
 3813.00    0.05798   0.64015   -1.000
 3814.00    0.24669   0.62746   -1.000
 3815.00   -0.13495   0.61875    0.000
 3816.00   -0.69588   0.61211    0.000
 3817.00   -0.77639   0.60552    0.000
 3818.00   -0.73087   0.59724    0.000
 3819.00   -0.55941   0.58715    0.000
 3820.00   -0.36098   0.57627    0.000
 3821.00   -0.31219   0.56496    0.000
 3822.00   -0.28880   0.55222    0.000
 3823.00   -0.12968   0.53754    0.000
 3824.00    0.04685   0.52254   -1.000
 3825.00   -0.12019   0.50919    0.000
 3826.00   -0.31807   0.49718    0.000
 3827.00   -0.63754   0.48469    0.000
 3828.00   -0.96354   0.47036    0.000
 3829.00   -0.72190   0.45422    0.000
 3830.00   -0.47032   0.43759    0.000
 3831.00   -0.33993   0.42263    0.000
 3832.00   -0.21814   0.41214    0.000
 3833.00   -0.28753   0.40860    0.000
 3834.00   -0.33857   0.41270    0.000
 3835.00   -0.16135   0.42400    0.000
 3836.00   -0.01257   0.44172    0.000
 3837.00   -0.10423   0.46489    0.000
 3838.00   -0.14052   0.49262    0.000
 3839.00    0.17161   0.52364   -1.000
 3840.00    0.41736   0.55556   -1.000
 3841.00    0.33555   0.58562   -1.000
 3842.00    0.15534   0.61124   -1.000
 3843.00   -0.41884   0.63065    0.000
 3844.00   -0.75468   0.64416    0.000
 3845.00   -0.29813   0.65317    0.000
 3846.00    0.07319   0.65911   -1.000
 3847.00    0.20519   0.66314    0.000
 3848.00    0.39007   0.66553    0.000
 3849.00    0.70192   0.66642    0.000
 3850.00    0.78059   0.66629    0.000
 3851.00    0.37569   0.66457    0.000
 3852.00    0.00401   0.65966    0.000
 3853.00   -0.30772   0.65163    0.000
 3854.00   -0.41036   0.64274    0.000
 3855.00   -0.18325   0.63542    0.000
 3856.00    0.06804   0.63186    0.000
 3857.00    0.35278   0.63361    0.000
 3858.00    0.43103   0.64052    0.000
 3859.00    0.25766   0.65190    0.000
 3860.00    0.11883   0.66618    0.000
 3861.00    0.01711   0.67978    0.000
 3862.00    0.00556   0.68894    0.000
 3863.00    0.07942   0.69196    0.000
 3864.00    0.12646   0.68939    0.000
 3865.00    0.15109   0.68271    0.000
 3866.00    0.16411   0.67350    0.000
 3867.00    0.16859   0.66327    0.000
 3868.00    0.08423   0.65356    0.000
 3869.00   -0.05752   0.64598    0.000
 3870.00    0.14128   0.64173    0.000
 3871.00    0.53255   0.64105    0.000
 3872.00    0.70789   0.64273    0.000
 3873.00    0.77701   0.64457    0.000
 3874.00    0.58815   0.64386    0.000
 3875.00    0.28960   0.63873    0.000
 3876.00    0.22773   0.62975    0.000
 3877.00    0.25207   0.61907    0.000
 3878.00    0.16907   0.60854    0.000
 3879.00    0.05297   0.59857    0.000
 3880.00    0.06431   0.58708    0.000
 3881.00    0.10837   0.57230   -1.000
 3882.00    0.17511   0.55561   -1.000
 3883.00    0.24659   0.53943   -1.000
 3884.00    0.27438   0.52551   -1.000
 3885.00    0.29497   0.51628   -1.000
 3886.00    0.36821   0.51573   -1.000
 3887.00    0.44796   0.52593   -1.000
 3888.00    0.24108   0.54504   -1.000
 3889.00    0.00966   0.56976   -1.000
 3890.00    0.06682   0.59658   -1.000
 3891.00    0.13836   0.62149   -1.000
 3892.00    0.50765   0.64185   -1.000
 3893.00    0.87387   0.65749   -1.000
 3894.00    0.72694   0.66976   -1.000
 3895.00    0.56976   0.68010   -1.000
 3896.00    0.20298   0.68925   -1.000
 3897.00   -0.11882   0.69667    0.000
 3898.00    0.09130   0.70158   -1.000
 3899.00    0.27767   0.70458   -1.000
 3900.00    0.27055   0.70659   -1.000
 3901.00    0.26076   0.70807   -1.000
 3902.00    0.23462   0.70973   -1.000
 3903.00    0.22944   0.71415   -1.000
 3904.00    0.32512   0.72365   -1.000
 3905.00    0.40369   0.73770   -1.000
 3906.00    0.41521   0.75499   -1.000
 3907.00    0.38565   0.77308   -1.000
 3908.00    0.22216   0.78800   -1.000
 3909.00    0.14851   0.79703   -1.000
 3910.00    0.32260   0.79974   -1.000
 3911.00    0.44713   0.79683   -1.000
 3912.00    0.45464   0.78896   -1.000
 3913.00    0.41943   0.77704   -1.000
 3914.00    0.29700   0.76275   -1.000
 3915.00    0.29156   0.74736   -1.000
 3916.00    0.49393   0.73154   -1.000
 3917.00    0.53938   0.71657   -1.000
 3918.00    0.34098   0.70308   -1.000
 3919.00    0.24563   0.69065   -1.000
 3920.00    0.29085   0.67848   -1.000
 3921.00    0.38892   0.66485   -1.000
 3922.00    0.55045   0.64707   -1.000
 3923.00    0.60502   0.62255   -1.000
 3924.00    0.54632   0.59022   -1.000
 3925.00    0.49691   0.55071   -1.000
 3926.00    0.45619   0.50674   -1.000
 3927.00    0.45804   0.46195   -1.000
 3928.00    0.49494   0.42000   -1.000
 3929.00    0.49534   0.38499   -1.000
 3930.00    0.46927   0.36049   -1.000
 3931.00    0.40847   0.34920   -1.000
 3932.00    0.32556   0.35259   -1.000
 3933.00    0.54906   0.37043   -1.000
 3934.00    0.94309   0.40047   -1.000
 3935.00    1.00299   0.43851   -1.000
 3936.00    0.90115   0.47951   -1.000
 3937.00    0.73198   0.51905   -1.000
 3938.00    0.53467   0.55433   -1.000
 3939.00    0.54344   0.58432   -1.000
 3940.00    0.62593   0.60929   -1.000
 3941.00    0.57137   0.63076   -1.000
 3942.00    0.47539   0.65072   -1.000
 3943.00    0.20098   0.67016   -1.000
 3944.00   -0.11826   0.68929    0.000
 3945.00   -0.13928   0.70773    0.000
 3946.00   -0.09950   0.72355    0.000
 3947.00    0.19657   0.73531   -1.000
 3948.00    0.53367   0.74408   -1.000
 3949.00    0.61716   0.75102   -1.000
 3950.00    0.67037   0.75534   -1.000
 3951.00    0.65708   0.75584   -1.000
 3952.00    0.63837   0.75262   -1.000
 3953.00    0.61087   0.74645   -1.000
 3954.00    0.58296   0.73644   -1.000
 3955.00    0.54864   0.72022   -1.000
 3956.00    0.51566   0.69769   -1.000
 3957.00    0.55708   0.67002   -1.000
 3958.00    0.59703   0.63661   -1.000
 3959.00    0.60947   0.59641   -1.000
 3960.00    0.61754   0.55032    0.000
 3961.00    0.57639   0.50149    0.000
 3962.00    0.54724   0.45394    0.000
 3963.00    0.61242   0.41013    0.000
 3964.00    0.64766   0.37188    0.000
 3965.00    0.50516   0.34245    0.000
 3966.00    0.40401   0.32578    0.000
 3967.00    0.49700   0.32486    0.000
 3968.00    0.58075   0.34047    0.000
 3969.00    0.62907   0.37106    0.000
 3970.00    0.57396   0.41331    0.000
 3971.00    0.18825   0.46290    0.000
 3972.00    0.04044   0.51562    0.000
 3973.00    0.53695   0.56805    0.000
 3974.00    0.88240   0.61779    0.000
 3975.00    0.87710   0.66288    0.000
 3976.00    0.73942   0.70157    0.000
 3977.00    0.33583   0.73336    0.000
 3978.00    0.11498   0.75849    0.000
 3979.00    0.21375   0.77743    0.000
 3980.00    0.54300   0.79148    0.000
 3981.00    1.22509   0.80243   -1.000
 3982.00    1.56507   0.81271   -1.000
 3983.00    1.44498   0.82400   -1.000
 3984.00    1.16623   0.83602   -1.000
 3985.00    0.69958   0.84784   -1.000
 3986.00    0.28999   0.85858   -1.000
 3987.00   -0.06003   0.86801    0.000
 3988.00   -0.49372   0.87565    0.000
 3989.00   -1.00448   0.88017    0.000
 3990.00   -0.54845   0.88206    0.000
 3991.00    0.69249   0.88254   -1.000
 3992.00    1.57140   0.88172   -1.000
 3993.00    2.19164   0.88026   -1.000
 3994.00    2.15325   0.87990   -1.000
 3995.00    1.70188   0.88261   -1.000
 3996.00    1.06856   0.88878   -1.000
 3997.00    0.33552   0.89690   -1.000
 3998.00    0.18674   0.90487   -1.000
 3999.00    0.31626   0.91010   -1.000
 4000.00    0.47875   0.91000   -1.000
 4001.00    0.65479   0.90507   -1.000
 4002.00    0.32377   0.89874   -1.000
 4003.00   -0.18534   0.89384    0.000
 4004.00   -0.10806   0.89199    0.000
 4005.00    0.14296   0.89544   -1.000
 4006.00    0.13256   0.90564   -1.000
 4007.00    0.05795   0.91966   -1.000
 4008.00    0.33125   0.93289   -1.000
 4009.00    0.67372   0.94337   -1.000
 4010.00    0.48706   0.95147   -1.000
 4011.00    0.21818   0.95800   -1.000
 4012.00   -0.35574   0.96339    0.000
 4013.00   -0.96475   0.96797    0.000
 4014.00   -0.31176   0.97172    0.000
 4015.00    0.43880   0.97459   -1.000
 4016.00    0.58391   0.97583   -1.000
 4017.00    0.70353   0.97512   -1.000
 4018.00    1.00921   0.97372   -1.000
 4019.00    1.31830   0.97180   -1.000
 4020.00    1.70285   0.96852   -1.000
 4021.00    2.04771   0.96499   -1.000
 4022.00    1.69287   0.96231   -1.000
 4023.00    1.34879   0.95923   -1.000
 4024.00    1.12047   0.95394   -1.000
 4025.00    0.92976   0.94565   -1.000
 4026.00    1.02456   0.93343   -1.000
 4027.00    1.09609   0.91675   -1.000
 4028.00    1.03347   0.89804   -1.000
 4029.00    0.95642   0.88183   -1.000
 4030.00    0.81329   0.87300   -1.000
 4031.00    0.79365   0.87554   -1.000
 4032.00    1.23723   0.88892   -1.000
 4033.00    1.50785   0.90876   -1.000
 4034.00    1.23625   0.93091   -1.000
 4035.00    1.04728   0.95116   -1.000
 4036.00    1.07813   0.96509   -1.000
 4037.00    1.07634   0.96896   -1.000
 4038.00    1.00000   0.96145   -1.000
 4039.00    0.79579   0.94513   -1.000
 4040.00    0.33879   0.92499   -1.000
 4041.00    0.25637   0.90576   -1.000
 4042.00    0.81925   0.89080   -1.000
 4043.00    1.23548   0.88171   -1.000
 4044.00    1.43051   0.88015   -1.000
 4045.00    1.47669   0.88786   -1.000
 4046.00    1.32557   0.90372   -1.000
 4047.00    0.88174   0.92143   -1.000
 4048.00    0.09618   0.93305   -1.000
 4049.00   -0.21715   0.93616    0.000
 4050.00   -0.04428   0.93243    0.000
 4051.00    0.21147   0.92353   -1.000
 4052.00    0.54249   0.91233   -1.000
 4053.00    1.10939   0.90235   -1.000
 4054.00    1.86507   0.89506   -1.000
 4055.00    1.89832   0.89002   -1.000
 4056.00    1.42285   0.88565   -1.000
 4057.00    1.01157   0.88059   -1.000
 4058.00    0.63993   0.87557   -1.000
 4059.00    0.54784   0.87086   -1.000
 4060.00    0.60659   0.86544   -1.000
 4061.00    0.54784   0.86012   -1.000
 4062.00    0.43402   0.85762   -1.000
 4063.00    0.56100   0.86025   -1.000
 4064.00    0.78528   0.86813   -1.000
 4065.00    0.92128   0.87786   -1.000
 4066.00    1.02686   0.88507   -1.000
 4067.00    0.88704   0.88907   -1.000
 4068.00    0.67597   0.89067   -1.000
 4069.00    0.55270   0.88794   -1.000
 4070.00    0.45051   0.87935   -1.000
 4071.00    0.44946   0.86816   -1.000
 4072.00    0.46800   0.85951   -1.000
 4073.00    0.46960   0.85461   -1.000
 4074.00    0.46866   0.85174   -1.000
 4075.00    0.45467   0.85163   -1.000
 4076.00    0.43924   0.85657   -1.000
 4077.00    0.66206   0.86757   -1.000
 4078.00    0.90233   0.88311   -1.000
 4079.00    0.79800   0.89917   -1.000
 4080.00    0.68047   0.91236   -1.000
 4081.00    0.79369   0.92177   -1.000
 4082.00    0.90872   0.92805   -1.000
 4083.00    1.04349   0.93348   -1.000
 4084.00    1.14722   0.94002   -1.000
 4085.00    0.73939   0.94703   -1.000
 4086.00    0.35867   0.95288   -1.000
 4087.00    0.25678   0.95559   -1.000
 4088.00    0.18207   0.95234   -1.000
 4089.00    0.30675   0.94171   -1.000
 4090.00    0.46341   0.92494   -1.000
 4091.00    0.79945   0.90374   -1.000
 4092.00    1.04261   0.87895    0.000
 4093.00    0.87016   0.85100    0.000
 4094.00    0.61651   0.81946    0.000
 4095.00    0.06464   0.78547    0.000
 4096.00   -0.28018   0.75390    0.000
 4097.00    0.01178   0.72884    0.000
 4098.00    0.24538   0.71188    0.000
 4099.00    0.32646   0.70444    0.000
 4100.00    0.41994   0.70738    0.000
 4101.00    0.54126   0.72100    0.000
 4102.00    0.67936   0.74421    0.000
 4103.00    0.85012   0.77202    0.000
 4104.00    0.57288   0.79825    0.000
 4105.00   -0.46451   0.82019    0.000
 4106.00   -0.78980   0.83758    0.000
 4107.00   -0.05655   0.85105    0.000
 4108.00    0.49735   0.86251    0.000
 4109.00    0.81690   0.87371    0.000
 4110.00    0.64407   0.88538    0.000
 4111.00   -0.09553   0.89671    0.000
 4112.00   -0.26607   0.90585    0.000
 4113.00    0.14103   0.91176   -1.000
 4114.00    0.45762   0.91398   -1.000
 4115.00    0.69320   0.91256   -1.000
 4116.00    0.71078   0.90854   -1.000
 4117.00    0.55638   0.90333   -1.000
 4118.00    0.44818   0.89900   -1.000
 4119.00    0.37204   0.89776   -1.000
 4120.00    0.60752   0.89905   -1.000
 4121.00    1.03264   0.89976   -1.000
 4122.00    1.11642   0.89863   -1.000
 4123.00    1.01886   0.89633   -1.000
 4124.00    0.97431   0.89246    0.083
 4125.00    0.95418   0.88537    0.034
 4126.00    1.11013   0.87509    0.029
 4127.00    1.33599   0.86464    0.029
 4128.00    1.00486   0.85718    0.028
 4129.00    0.48522   0.85472    0.028
 4130.00    0.69125   0.85722    0.028
 4131.00    1.10374   0.86387    0.028
 4132.00    0.87973   0.87504    0.027
 4133.00    0.50627   0.89056    0.027
 4134.00    0.54760   0.90692    0.027
 4135.00    0.66723   0.91965    0.027
 4136.00    0.99349   0.92455    0.028
 4137.00    1.34992   0.92029    0.028
 4138.00    0.96884   0.91086    0.028
 4139.00    0.50939   0.89963    0.027
 4140.00    0.50448   0.88787    0.027
 4141.00    0.53101   0.87749    0.027
 4142.00    0.68032   0.87044    0.027
 4143.00    0.83386   0.86854    0.027
 4144.00    0.61475   0.87257    0.027
 4145.00    0.40857   0.87907    0.027
 4146.00    0.65379   0.88273    0.027
 4147.00    0.88141   0.88219    0.027
 4148.00    0.83704   0.87854    0.027
 4149.00    0.80879   0.87331    0.027
 4150.00    0.93940   0.86849    0.026
 4151.00    1.05367   0.86546    0.026
 4152.00    1.05192   0.86477    0.026
 4153.00    0.97747   0.86693    0.026
 4154.00    0.50613   0.87207    0.026
 4155.00    0.21245   0.88049    0.026
 4156.00    0.69529   0.89178    0.026
 4157.00    1.06210   0.90441    0.026
 4158.00    1.01158   0.91640    0.026
 4159.00    0.99969   0.92556    0.026
 4160.00    1.10432   0.93050    0.026
 4161.00    1.10625   0.93142    0.026
 4162.00    0.84441   0.92995    0.026
 4163.00    0.68293   0.92602    0.026
 4164.00    0.74316   0.91863    0.026
 4165.00    0.73715   0.90806    0.026
 4166.00    0.60425   0.89420    0.026
 4167.00    0.54987   0.87852    0.026
 4168.00    0.62672   0.86405    0.026
 4169.00    0.75633   0.85123    0.026
 4170.00    0.96321   0.83878    0.026
 4171.00    1.04469   0.82749    0.026
 4172.00    0.96465   0.82031    0.027
 4173.00    0.88993   0.82013    0.027
 4174.00    0.82126   0.82584    0.027
 4175.00    0.74460   0.83308    0.027
 4176.00    0.65997   0.83936    0.027
 4177.00    0.60035   0.84535    0.027
 4178.00    0.56282   0.85251    0.027
 4179.00    0.53192   0.86104    0.027
 4180.00    0.50619   0.86791    0.027
 4181.00    0.62155   0.87068    0.027
 4182.00    0.83341   0.87229    0.027
 4183.00    1.03427   0.87586    0.027
 4184.00    1.22853   0.88016    0.026
 4185.00    1.08324   0.88352    0.027
 4186.00    0.76037   0.88628    0.027
 4187.00    0.72794   0.89060    0.027
 4188.00    0.82725   0.89725    0.026
 4189.00    0.92132   0.90227    0.027
 4190.00    1.01333   0.90177    0.027
 4191.00    1.21031   0.89606    0.027
 4192.00    1.44215   0.88694    0.026
 4193.00    1.17406   0.87512    0.026
 4194.00    0.76663   0.86083    0.026
 4195.00    0.52794   0.84599    0.026
 4196.00    0.32795   0.83440    0.026
 4197.00    0.50691   0.82865    0.026
 4198.00    0.75551   0.82828    0.026
 4199.00    0.77095   0.83319    0.026
 4200.00    0.75341   0.84263    0.026
 4201.00    0.82967   0.85410    0.026
 4202.00    0.91548   0.86740    0.025
 4203.00    1.03316   0.88210    0.025
 4204.00    1.15291   0.89527    0.025
 4205.00    1.05170   0.90618    0.025
 4206.00    0.94348   0.91536    0.025
 4207.00    0.69354   0.92135    0.025
 4208.00    0.44913   0.92268    0.025
 4209.00    0.36746   0.91914    0.025
 4210.00    0.30249   0.91391    0.025
 4211.00    0.48063   0.91137    0.025
 4212.00    0.65669   0.91168    0.025
 4213.00    0.81306   0.91309    0.025
 4214.00    0.91978   0.91582    0.025
 4215.00    0.68522   0.92052    0.024
 4216.00    0.48291   0.92638    0.024
 4217.00    0.45201   0.92910    0.024
 4218.00    0.46543   0.92257    0.024
 4219.00    0.66819   0.90496    0.024
 4220.00    0.78604   0.87873    0.024
 4221.00    0.60472   0.84865    0.024
 4222.00    0.47841   0.82134    0.024
 4223.00    0.51501   0.80301    0.024
 4224.00    0.55415   0.79604    0.024
 4225.00    0.59974   0.79999    0.024
 4226.00    0.58029   0.81323    0.024
 4227.00    0.41951   0.83326    0.024
 4228.00    0.32753   0.85599    0.024
 4229.00    0.36529   0.87369    0.024
 4230.00    0.43844   0.88196    0.024
 4231.00    0.56983   0.88319    0.024
 4232.00    0.60398   0.88046    0.023
 4233.00    0.49773   0.87725    0.023
 4234.00    0.46625   0.87756    0.023
 4235.00    0.52969   0.88171    0.023
 4236.00    0.53853   0.88900    0.023
 4237.00    0.48629   0.89981    0.022
 4238.00    0.56355   0.91258    0.022
 4239.00    0.76859   0.92513    0.023
 4240.00    0.75157   0.93535    0.023
 4241.00    0.54130   0.94057    0.023
 4242.00    0.56140   0.93933    0.023
 4243.00    0.75811   0.93313    0.023
 4244.00    0.91183   0.92322    0.024
 4245.00    1.03657   0.90959    0.025
 4246.00    0.86972   0.89562    0.025
 4247.00    0.53070   0.88506    0.025
 4248.00    0.52173   0.87796    0.025
 4249.00    0.68270   0.87326    0.025
 4250.00    0.63412   0.87200    0.025
 4251.00    0.49205   0.87594    0.025
 4252.00    0.57608   0.88141    0.025
 4253.00    0.74681   0.88262    0.025
 4254.00    0.92022   0.88026    0.025
 4255.00    1.09451   0.87915    0.025
 4256.00    1.29310   0.88190    0.025
 4257.00    1.49831   0.88738    0.025
 4258.00    1.38146   0.89396    0.025
 4259.00    1.19243   0.90316    0.025
 4260.00    0.95109   0.91605    0.025
 4261.00    0.70039   0.93047    0.025
 4262.00    0.63568   0.94161    0.025
 4263.00    0.59642   0.94421    0.025
 4264.00    0.47892   0.93616    0.025
 4265.00    0.35379   0.91841    0.024
 4266.00    0.54537   0.89364    0.024
 4267.00    0.75632   0.86691    0.024
 4268.00    0.89367   0.84362    0.024
 4269.00    1.02920   0.82621    0.025
 4270.00    1.19700   0.81656    0.024
 4271.00    1.36182   0.81745    0.024
 4272.00    1.44784   0.82968    0.024
 4273.00    1.51904   0.84849    0.024
 4274.00    1.38664   0.86627    0.024
 4275.00    1.25272   0.88145    0.024
 4276.00    1.10507   0.89483    0.024
 4277.00    0.96880   0.90338    0.024
 4278.00    0.90829   0.90522    0.024
 4279.00    0.87173   0.90105    0.024
 4280.00    0.95920   0.89281    0.024
 4281.00    1.02949   0.88389    0.024
 4282.00    1.02803   0.87422   -2.000
 4283.00    1.13975   0.86178   -2.000
 4284.00    1.64220   0.84651   -2.000
 4285.00    2.03044   0.83127   -2.000
 4286.00    2.08670   0.82112   -2.000
 4287.00    1.93435   0.81676   -2.000
 4288.00    1.26459   0.81436   -2.000
 4289.00    0.66580   0.81225   -2.000
 4290.00    0.21872   0.81296   -2.000
 4291.00    0.05834   0.81574   -2.000
 4292.00    0.43027   0.81425   -2.000
 4293.00    0.84425   0.80359   -2.000
 4294.00    1.32641   0.78449   -2.000
 4295.00    1.46938   0.76344   -2.000
 4296.00    1.12979   0.74373   -2.000
 4297.00    0.82872   0.72440   -2.000
 4298.00    0.57586   0.70720    0.023
 4299.00    0.55254   0.69480    0.023
 4300.00    0.78243   0.68835    0.023
 4301.00    0.77910   0.68602    0.023
 4302.00    0.54887   0.68377    0.023
 4303.00    0.41215   0.68176    0.023
 4304.00    0.35565   0.68308    0.023
 4305.00    0.51138   0.68822    0.023
 4306.00    0.82750   0.69790    0.023
 4307.00    0.83676   0.71283    0.023
 4308.00    0.64224   0.73362    0.023
 4309.00    0.62291   0.76157    0.023
 4310.00    0.70546   0.79639    0.023
 4311.00    0.72239   0.83536    0.023
 4312.00    0.70606   0.87301    0.023
 4313.00    0.70223   0.90551    0.022
 4314.00    0.70389   0.93161    0.022
 4315.00    0.76939   0.95035    0.022
 4316.00    0.85893   0.95958    0.022
 4317.00    1.06699   0.95644    0.023
 4318.00    1.31295   0.94083    0.023
 4319.00    1.18720   0.91642    0.023
 4320.00    0.96210   0.88855    0.023
 4321.00    1.07935   0.86470    0.023
 4322.00    1.27152   0.85137    0.023
 4323.00    1.11572   0.84749    0.023
 4324.00    0.89939   0.85042    0.023
 4325.00    0.79429   0.86009    0.023
 4326.00    0.70391   0.87747    0.023
 4327.00    0.95958   0.89912    0.023
 4328.00    1.24758   0.91591    0.024
 4329.00    1.14527   0.92262    0.023
 4330.00    1.02063   0.91978    0.000
 4331.00    1.03557   0.90786    0.000
 4332.00    1.05122   0.88570    0.000
 4333.00    0.77542   0.85489    0.000
 4334.00    0.53414   0.81979    0.000
 4335.00    1.12178   0.78401    0.000
 4336.00    1.65441   0.75296    0.000
 4337.00    1.47093   0.73282    0.000
 4338.00    1.30014   0.72645    0.000
 4339.00    1.24024   0.73325    0.000
 4340.00    1.14862   0.75214    0.000
 4341.00    0.85205   0.78057    0.000
 4342.00    0.62913   0.81233    0.000
 4343.00    0.77783   0.84158    0.000
 4344.00    0.92936   0.86622    0.000
 4345.00    1.09247   0.88329    0.000
 4346.00    1.21047   0.88907    0.000
 4347.00    1.17582   0.88823    0.000
 4348.00    1.12067   0.88864    0.000
 4349.00    1.00704   0.88989    0.000
 4350.00    0.91800   0.88934    0.000
 4351.00    0.88894   0.89118    0.069
 4352.00    0.92103   0.90042   -1.000
 4353.00    1.08177   0.91411   -1.000
 4354.00    1.23048   0.92655   -1.000
 4355.00    1.35723   0.93869   -1.000
 4356.00    1.29823   0.95287   -1.000
 4357.00    0.94244   0.96579   -1.000
 4358.00    0.75192   0.97498   -1.000
 4359.00    0.79312   0.98409   -1.000
 4360.00    1.02739   0.99486    0.105
 4361.00    1.49986   1.00196    0.032
 4362.00    1.67444   1.00107    0.024
 4363.00    1.52505   0.99514    0.023
 4364.00    1.29471   0.98834    0.023
 4365.00    0.98670   0.97936    0.023
 4366.00    0.90101   0.96711    0.023
 4367.00    1.00337   0.95429    0.023
 4368.00    0.85861   0.94283    0.023
 4369.00    0.52979   0.93184    0.022
 4370.00    0.57054   0.92188    0.022
 4371.00    0.85313   0.91654    0.022
 4372.00    0.91501   0.91619    0.022
 4373.00    0.85048   0.91629    0.023
 4374.00    0.97291   0.91425    0.023
 4375.00    1.18859   0.91167    0.023
 4376.00    1.30105   0.90852    0.023
 4377.00    1.36896   0.89864    0.022
 4378.00    1.15579   0.87729    0.022
 4379.00    0.83863   0.85061    0.023
 4380.00    0.69959   0.82915    0.022
 4381.00    0.61642   0.81643    0.022
 4382.00    0.73196   0.80874    0.022
 4383.00    0.89949   0.80612    0.022
 4384.00    1.14914   0.81350    0.022
 4385.00    1.41632   0.82976    0.022
 4386.00    1.31260   0.84806    0.022
 4387.00    1.14615   0.86400    0.022
 4388.00    1.21887   0.87711    0.022
 4389.00    1.32214   0.88736    0.022
 4390.00    1.23509   0.89539    0.022
 4391.00    1.13106   0.90486    0.022
 4392.00    0.93834   0.91626    0.022
 4393.00    0.74089   0.92444    0.022
 4394.00    0.91842   0.92656    0.022
 4395.00    1.10167   0.92477    0.022
 4396.00    1.15364   0.92320    0.022
 4397.00    1.20634   0.92148    0.022
 4398.00    1.27481   0.91362    0.022
 4399.00    1.32835   0.89820    0.022
 4400.00    1.19742   0.88279    0.022
 4401.00    1.06716   0.87574    0.022
 4402.00    0.94253   0.87458    0.022
 4403.00    0.82988   0.87236    0.022
 4404.00    0.79239   0.87265    0.022
 4405.00    0.78126   0.88293    0.022
 4406.00    0.89985   0.89999    0.022
 4407.00    1.05752   0.91523    0.022
 4408.00    1.37124   0.92621    0.022
 4409.00    1.63041   0.93335    0.022
 4410.00    1.70874   0.93563    0.022
 4411.00    1.66602   0.93467    0.022
 4412.00    1.28419   0.93333    0.022
 4413.00    1.03446   0.93213    0.022
 4414.00    1.10133   0.93178    0.022
 4415.00    1.17149   0.93504    0.022
 4416.00    1.24847   0.94176    0.021
 4417.00    1.23210   0.94718    0.021
 4418.00    1.04771   0.95056    0.021
 4419.00    0.90892   0.95417    0.021
 4420.00    0.84192   0.95573    0.021
 4421.00    0.84595   0.95319    0.022
 4422.00    0.94813   0.94967    0.022
 4423.00    1.11853   0.94923    0.022
 4424.00    1.37191   0.95012    0.022
 4425.00    1.44126   0.94731    0.022
 4426.00    1.31326   0.94231    0.022
 4427.00    1.18339   0.93897    0.022
 4428.00    1.05175   0.93595    0.022
 4429.00    0.88301   0.92988    0.022
 4430.00    0.68333   0.92241    0.022
 4431.00    0.70340   0.92029    0.022
 4432.00    0.88481   0.92465    0.022
 4433.00    1.10135   0.93067    0.023
 4434.00    1.34055   0.93659    0.023
 4435.00    1.26017   0.94292    0.023
 4436.00    0.99952   0.94899    0.022
 4437.00    0.80703   0.95222    0.022
 4438.00    0.64800   0.95150    0.022
 4439.00    0.75685   0.94997    0.022
 4440.00    0.97936   0.95046    0.023
 4441.00    1.09820   0.95276    0.023
 4442.00    1.17935   0.95620    0.023
 4443.00    1.34641   0.96245    0.023
 4444.00    1.53988   0.97140    0.023
 4445.00    1.50066   0.97787    0.023
 4446.00    1.40186   0.97789    0.023
 4447.00    1.25816   0.97324    0.023
 4448.00    1.10511   0.96594    0.022
 4449.00    1.37209   0.95310    0.023
 4450.00    1.70808   0.93467    0.023
 4451.00    1.35648   0.91722    0.023
 4452.00    0.92012   0.90302    0.022
 4453.00    1.06907   0.88903    0.022
 4454.00    1.26782   0.87586    0.023
 4455.00    1.09777   0.86762    0.022
 4456.00    0.90952   0.86527    0.021
 4457.00    1.04706   0.86592    0.022
 4458.00    1.18465   0.86982    0.022
 4459.00    1.00033   0.87787    0.022
 4460.00    0.83095   0.88698    0.022
 4461.00    0.96421   0.89480    0.000
 4462.00    1.07902   0.90339    0.000
 4463.00    0.97699   0.91318    0.000
 4464.00    0.88361   0.91998    0.000
 4465.00    0.86044   0.92438    0.000
 4466.00    0.86076   0.93095    0.000
 4467.00    1.00407   0.94061    0.000
 4468.00    1.14504   0.95224    0.000
 4469.00    1.27481   0.96527    0.000
 4470.00    1.35681   0.97907    0.000
 4471.00    1.25223   0.99166    0.000
 4472.00    1.23331   1.00199    0.000
 4473.00    1.49292   1.00867    0.000
 4474.00    1.59323   1.00868    0.000
 4475.00    1.25528   1.00126    0.000
 4476.00    0.99248   0.99060    0.000
 4477.00    0.90680   0.98126    0.000
 4478.00    0.90378   0.97460    0.000
 4479.00    1.06914   0.97073    0.000
 4480.00    1.24789   0.97021    0.000
 4481.00    1.45036   0.97367    0.000
 4482.00    1.48470   0.97991    0.022
 4483.00    1.25828   0.98521    0.022
 4484.00    1.16315   0.98567    0.021
 4485.00    1.24682   0.98167    0.021
 4486.00    1.21101   0.97651    0.021
 4487.00    1.03191   0.97128    0.021
 4488.00    0.97529   0.96527    0.021
 4489.00    1.04814   0.95896    0.022
 4490.00    1.10845   0.95512    0.022
 4491.00    1.15707   0.95576    0.021
 4492.00    1.21052   0.95937    0.021
 4493.00    1.26793   0.96410    0.021
 4494.00    1.24640   0.97075    0.021
 4495.00    1.16774   0.98057    0.021
 4496.00    1.20451   0.99173    0.021
 4497.00    1.31461   1.00333    0.021
 4498.00    1.39621   1.01741    0.021
 4499.00    1.46199   1.03222    0.021
 4500.00    1.42082   1.04370    0.021
 4501.00    1.32798   1.05159    0.022
 4502.00    1.25657   1.05880    0.021
 4503.00    1.19410   1.06453    0.021
 4504.00    1.13483   1.06576    0.021
 4505.00    1.07669   1.06347    0.021
 4506.00    1.17580   1.05951    0.021
 4507.00    1.32233   1.05348    0.021
 4508.00    1.27799   1.04552    0.021
 4509.00    1.18585   1.03702    0.021
 4510.00    1.03454   1.02877    0.021
 4511.00    0.87121   1.02104    0.021
 4512.00    0.89847   1.01413    0.020
 4513.00    0.95614   1.00805    0.020
 4514.00    0.81097   1.00369    0.020
 4515.00    0.64170   1.00247    0.020
 4516.00    0.84942   1.00275    0.020
 4517.00    1.08766   1.00025    0.020
 4518.00    1.10685   0.99361    0.020
 4519.00    1.11609   0.98549    0.020
 4520.00    1.15081   0.97565    0.020
 4521.00    1.18667   0.96141    0.021
 4522.00    1.26496   0.94306    0.020
 4523.00    1.33212   0.92503    0.020
 4524.00    1.19037   0.91023    0.020
 4525.00    1.06592   0.89768    0.020
 4526.00    1.13525   0.88835    0.020
 4527.00    1.20634   0.88411    0.020
 4528.00    1.29125   0.88497    0.020
 4529.00    1.34219   0.88857    0.020
 4530.00    1.19227   0.89408    0.020
 4531.00    1.06187   0.90300    0.020
 4532.00    1.02280   0.91654    0.020
 4533.00    0.96725   0.93124    0.020
 4534.00    0.84868   0.94324    0.020
 4535.00    0.78545   0.95317    0.020
 4536.00    0.89870   0.96242    0.020
 4537.00    1.02001   0.97013    0.020
 4538.00    1.16311   0.97404    0.020
 4539.00    1.20531   0.97348    0.020
 4540.00    1.01370   0.96908    0.020
 4541.00    0.87610   0.96389    0.020
 4542.00    0.84676   0.96084    0.020
 4543.00    0.85765   0.95735    0.020
 4544.00    0.93879   0.94992    0.020
 4545.00    1.00979   0.94154    0.020
 4546.00    1.06531   0.93758    0.020
 4547.00    1.09028   0.93641    0.020
 4548.00    1.07426   0.93369    0.020
 4549.00    1.11010   0.93104    0.020
 4550.00    1.20723   0.93261    0.000
 4551.00    1.21251   0.93832    0.000
 4552.00    1.12203   0.94608    0.000
 4553.00    1.07872   0.95594    0.000
 4554.00    1.07878   0.96654    0.000
 4555.00    1.13877   0.97651    0.000
 4556.00    1.24735   0.98587    0.000
 4557.00    1.11262   0.99353    0.000
 4558.00    0.80438   0.99674    0.000
 4559.00    0.77986   0.99481    0.000
 4560.00    0.93289   0.99066    0.000
 4561.00    1.03984   0.98791    0.000
 4562.00    1.12159   0.98732    0.000
 4563.00    1.10108   0.98723    0.000
 4564.00    1.03195   0.98776    0.000
 4565.00    1.03149   0.99063    0.000
 4566.00    1.05918   0.99421    0.000
 4567.00    0.99919   0.99552    0.000
 4568.00    0.90848   0.99646    0.000
 4569.00    0.77932   0.99930    0.000
 4570.00    0.63881   0.99999    0.000
 4571.00    0.73149   0.99652    0.000
 4572.00    0.88131   0.99384    0.000
 4573.00    0.94483   0.99257    0.000
 4574.00    0.99125   0.98679    0.000
 4575.00    1.20908   0.97579    0.000
 4576.00    1.45343   0.96466    0.000
 4577.00    1.38412   0.95593    0.000
 4578.00    1.27891   0.94836    0.000
 4579.00    1.09365   0.94137    0.000
 4580.00    0.90224   0.93762    0.000
 4581.00    0.99302   0.93885    0.000
 4582.00    1.09554   0.94302    0.000
 4583.00    1.09159   0.94838    0.000
 4584.00    1.08529   0.95462    0.000
 4585.00    1.01803   0.96068    0.000
 4586.00    0.95967   0.96409    0.000
 4587.00    1.05685   0.96445    0.000
 4588.00    1.14455   0.96293    0.000
 4589.00    1.13078   0.96040    0.000
 4590.00    1.12113   0.95625    0.000
 4591.00    1.14259   0.95085    0.000
 4592.00    1.14946   0.94668    0.000
 4593.00    1.07244   0.94509    0.000
 4594.00    0.95220   0.94505    0.000
 4595.00    0.63447   0.94527    0.000
 4596.00    0.44186   0.94520    0.000
 4597.00    0.71732   0.94633    0.000
 4598.00    0.93489   0.94973    0.000
 4599.00    0.97146   0.95377    0.000
 4600.00    0.94911   0.95744    0.000
 4601.00    0.77037   0.96272    0.000
 4602.00    0.74296   0.97105    0.000
 4603.00    1.06035   0.98084    0.000
 4604.00    1.23687   0.99096    0.000
 4605.00    1.13543   0.99993    0.000
 4606.00    1.06918   1.00684    0.000
 4607.00    1.06341   1.01178    0.000
 4608.00    1.05006   1.01469    0.000
 4609.00    1.02529   1.01507    0.000
 4610.00    1.05708   1.01387    0.000
 4611.00    1.16372   1.01214    0.000
 4612.00    1.20765   1.01019    0.000
 4613.00    1.17849   1.00965    0.000
 4614.00    1.15648   1.00987    0.000
 4615.00    1.14181   1.00908    0.000
 4616.00    1.12959   1.00925    0.000
 4617.00    1.11960   1.01158    0.000
 4618.00    1.10743   1.01233    0.000
 4619.00    1.09352   1.01181    0.000
 4620.00    1.16109   1.01274    0.000
 4621.00    1.28594   1.01255    0.000
 4622.00    1.23579   1.01021    0.000
 4623.00    1.07773   1.00911    0.000
 4624.00    1.11670   1.00781    0.000
 4625.00    1.26177   1.00333    0.000
 4626.00    1.16174   0.99984    0.000
 4627.00    0.94707   0.99955    0.000
 4628.00    0.78760   0.99664    0.000
 4629.00    0.65037   0.98933    0.000
 4630.00    0.75835   0.98339    0.000
 4631.00    0.95068   0.97958    0.000
 4632.00    1.03103   0.97322    0.000
 4633.00    1.07896   0.96478    0.000
 4634.00    0.96275   0.95865    0.000
 4635.00    0.80724   0.95464    0.000
 4636.00    0.91747   0.95049    0.000
 4637.00    1.07902   0.94731    0.000
 4638.00    0.99467   0.94454    0.000
 4639.00    0.87342   0.93982    0.000
 4640.00    0.74442   0.93403    0.000
 4641.00    0.61456   0.92857    0.000
 4642.00    0.84260   0.92159    0.000
 4643.00    1.09666   0.91443    0.000
 4644.00    0.97141   0.91116    0.000
 4645.00    0.83182   0.91210    0.000
 4646.00    0.76955   0.91494    0.000
 4647.00    0.71402   0.91966    0.000
 4648.00    0.89310   0.92694    0.000
 4649.00    1.05625   0.93503    0.000
 4650.00    0.95891   0.94102    0.000
 4651.00    0.87721   0.94560    0.000
 4652.00    0.95554   0.95085    0.000
 4653.00    1.02418   0.95671    0.000
 4654.00    1.02199   0.96271    0.000
 4655.00    0.99562   0.96846    0.000
 4656.00    0.83408   0.97245    0.000
 4657.00    0.72854   0.97292    0.000
 4658.00    0.87285   0.96871    0.000
 4659.00    0.98229   0.95905    0.000
 4660.00    0.96401   0.94603    0.000
 4661.00    0.95536   0.93119    0.000
 4662.00    0.97628   0.91365    0.000
 4663.00    0.97844   0.89667    0.000
 4664.00    0.93167   0.88689    0.000
 4665.00    0.92233   0.88458    0.000
 4666.00    0.99684   0.88569    0.000
 4667.00    1.02038   0.89093    0.000
 4668.00    0.94491   0.90145    0.000
 4669.00    0.87069   0.91368    0.000
 4670.00    0.79858   0.92430    0.000
 4671.00    0.75486   0.93331    0.000
 4672.00    0.75323   0.94036    0.000
 4673.00    0.76954   0.94317    0.000
 4674.00    0.80923   0.94186    0.000
 4675.00    0.84332   0.93966    0.000
 4676.00    0.87099   0.93767    0.000
 4677.00    0.94437   0.93427    0.000
 4678.00    1.06410   0.93108    0.000
 4679.00    1.10128   0.93108    0.000
 4680.00    1.06469   0.93267    0.000
 4681.00    1.03138   0.93391    0.000
 4682.00    1.00064   0.93593    0.000
 4683.00    1.00608   0.93797    0.000
 4684.00    1.03657   0.93849    0.000
 4685.00    0.97699   0.93855    0.000
 4686.00    0.86270   0.93854    0.000
 4687.00    0.92049   0.93757    0.000
 4688.00    1.06952   0.93743    0.000
 4689.00    1.04662   0.93875    0.000
 4690.00    0.94461   0.93915    0.000
 4691.00    0.89690   0.93861    0.000
 4692.00    0.87070   0.93839    0.000
 4693.00    0.92740   0.93606    0.000
 4694.00    1.01208   0.92951    0.000
 4695.00    1.10319   0.92186    0.000
 4696.00    1.19613   0.91573    0.000
 4697.00    1.03841   0.90895    0.000
 4698.00    0.82202   0.90065    0.000
 4699.00    0.74306   0.89425    0.000
 4700.00    0.68995   0.89248    0.000
 4701.00    0.77687   0.89248    0.000
 4702.00    0.88415   0.89159    0.000
 4703.00    1.06317   0.89134    0.000
 4704.00    1.24976   0.89384    0.000
 4705.00    1.08823   0.89722    0.000
 4706.00    0.90279   0.90024    0.000
 4707.00    0.84010   0.90446    0.000
 4708.00    0.78158   0.90985    0.000
 4709.00    0.92664   0.91511    0.000
 4710.00    1.06510   0.92031    0.000
 4711.00    0.97890   0.92753    0.000
 4712.00    0.90549   0.93696    0.000
 4713.00    1.02825   0.94608    0.000
 4714.00    1.12021   0.95406    0.000
 4715.00    0.91016   0.96332    0.000
 4716.00    0.72697   0.97341    0.000
 4717.00    0.73377   0.98025    0.000
 4718.00    0.74328   0.98289    0.000
 4719.00    0.76755   0.98312    0.000
 4720.00    0.76267   0.98099    0.000
 4721.00    0.63078   0.97536    0.000
 4722.00    0.55354   0.96576    0.000
 4723.00    0.67236   0.95295    0.000
 4724.00    0.78887   0.94004    0.000
 4725.00    0.89840   0.92929    0.000
 4726.00    0.94939   0.91993    0.000
 4727.00    0.85037   0.91241    0.000
 4728.00    0.76841   0.90966    0.000
 4729.00    0.72405   0.91112    0.000
 4730.00    0.75466   0.91475    0.000
 4731.00    0.92855   0.92056    0.000
 4732.00    1.01938   0.92614    0.000
 4733.00    0.97165   0.93038    0.000
 4734.00    0.94011   0.93648    0.000
 4735.00    0.93225   0.94327    0.000
 4736.00    0.89012   0.94629    0.000
 4737.00    0.80393   0.94829    0.000
 4738.00    0.77130   0.95346    0.000
 4739.00    0.79935   0.95875    0.000
 4740.00    0.86300   0.96097    0.000
 4741.00    0.96222   0.96239    0.000
 4742.00    0.94295   0.96600    0.000
 4743.00    0.81926   0.96965    0.000
 4744.00    0.75516   0.96996    0.000
 4745.00    0.73733   0.96863    0.000
 4746.00    0.81853   0.96809    0.000
 4747.00    0.96734   0.96575    0.000
 4748.00    1.01926   0.96021    0.000
 4749.00    1.01321   0.95449    0.000
 4750.00    0.88711   0.94951    0.000
 4751.00    0.69833   0.94431    0.000
 4752.00    0.70126   0.93960    0.000
 4753.00    0.79096   0.93638    0.000
 4754.00    0.91102   0.93343    0.000
 4755.00    1.04290   0.93040    0.000
 4756.00    1.11619   0.92736    0.000
 4757.00    1.17006   0.92239    0.000
 4758.00    1.23085   0.91484    0.000
 4759.00    1.29356   0.90767    0.000
 4760.00    1.10587   0.90191    0.000
 4761.00    0.86091   0.89590    0.018
 4762.00    0.86273   0.89179    0.018
 4763.00    0.90977   0.89285    0.018
 4764.00    0.88521   0.89708    0.018
 4765.00    0.85057   0.90289    0.017
 4766.00    0.87682   0.91126    0.018
 4767.00    0.90924   0.92052    0.018
 4768.00    1.13855   0.92863    0.018
 4769.00    1.38058   0.93710    0.018
 4770.00    1.12470   0.94638    0.018
 4771.00    0.85439   0.95288    0.018
 4772.00    0.90297   0.95644    0.017
 4773.00    0.94724   0.96067    0.017
 4774.00    0.86673   0.96447    0.017
 4775.00    0.79251   0.96332    0.017
 4776.00    0.80915   0.95889    0.017
 4777.00    0.84182   0.95569    0.017
 4778.00    1.02543   0.95085    0.017
 4779.00    1.15880   0.94190    0.017
 4780.00    0.94829   0.93461    0.017
 4781.00    0.78203   0.93057    0.017
 4782.00    0.85017   0.92466    0.017
 4783.00    0.90351   0.91940    0.017
 4784.00    0.89382   0.91966    0.016
 4785.00    0.89696   0.92164    0.016
 4786.00    0.94521   0.92351    0.017
 4787.00    0.98355   0.92947    0.017
 4788.00    0.99261   0.93789    0.017
 4789.00    0.98149   0.94523    0.017
 4790.00    0.91955   0.95299    0.017
 4791.00    0.88440   0.95993    0.017
 4792.00    0.90737   0.96311    0.017
 4793.00    0.90969   0.96388    0.017
 4794.00    0.87314   0.96329    0.017
 4795.00    0.86070   0.96052    0.017
 4796.00    0.88787   0.95648    0.017
 4797.00    0.87628   0.95317    0.017
 4798.00    0.80883   0.95082    0.017
 4799.00    0.77755   0.94875    0.017
 4800.00    0.79211   0.94605    0.017
 4801.00    0.83131   0.94299    0.017
 4802.00    0.89804   0.94100    0.017
 4803.00    0.91197   0.93875    0.017
 4804.00    0.87388   0.93524    0.017
 4805.00    0.85711   0.93316    0.017
 4806.00    0.85885   0.93415    0.017
 4807.00    0.85310   0.93573    0.017
 4808.00    0.84161   0.93769    0.017
 4809.00    0.92426   0.94183    0.017
 4810.00    1.07022   0.94707    0.017
 4811.00    1.10060   0.95192    0.017
 4812.00    1.06285   0.95670    0.017
 4813.00    1.01488   0.96100    0.017
 4814.00    0.96166   0.96406    0.017
 4815.00    0.95945   0.96526    0.017
 4816.00    0.97996   0.96346    0.017
 4817.00    0.95760   0.95952    0.017
 4818.00    0.91884   0.95470    0.017
 4819.00    0.93958   0.94784    0.017
 4820.00    0.97966   0.93980    0.017
 4821.00    0.95051   0.93425    0.017
 4822.00    0.90250   0.93078    0.017
 4823.00    0.79604   0.92687    0.017
 4824.00    0.67653   0.92373    0.017
 4825.00    0.82807   0.92273    0.017
 4826.00    1.02793   0.92282    0.017
 4827.00    0.98894   0.92208    0.017
 4828.00    0.91742   0.91981    0.017
 4829.00    0.85711   0.91861    0.017
 4830.00    0.79789   0.91976    0.017
 4831.00    0.76339   0.91935    0.017
 4832.00    0.73039   0.91658    0.017
 4833.00    0.79641   0.91521    0.017
 4834.00    0.86500   0.91457    0.017
 4835.00    0.92366   0.91117    0.017
 4836.00    0.97816   0.90625    0.017
 4837.00    0.92380   0.90398    0.017
 4838.00    0.86765   0.90301    0.018
 4839.00    0.78717   0.90054    0.017
 4840.00    0.71646   0.89884    0.017
 4841.00    0.73406   0.89941    0.017
 4842.00    0.74880   0.89966    0.017
 4843.00    0.74462   0.89816    0.017
 4844.00    0.72984   0.89538    0.017
 4845.00    0.66044   0.89181    0.017
 4846.00    0.62657   0.88794    0.017
 4847.00    0.74059   0.88141    0.017
 4848.00    0.82877   0.87057    0.000
 4849.00    0.82798   0.85936    0.000
 4850.00    0.81527   0.84783    0.000
 4851.00    0.76801   0.83082    0.000
 4852.00    0.73657   0.81082    0.000
 4853.00    0.74425   0.79168    0.000
 4854.00    0.76220   0.77047    0.000
 4855.00    0.80205   0.74876    0.000
 4856.00    0.85461   0.73135    0.000
 4857.00    0.93072   0.71736    0.000
 4858.00    0.92562   0.70879    0.000
 4859.00    0.78903   0.70932    0.000
 4860.00    0.68889   0.71509    0.000
 4861.00    0.64051   0.72420    0.000
 4862.00    0.69902   0.74034    0.000
 4863.00    0.89109   0.75818    0.000
 4864.00    0.89672   0.77027    0.000
 4865.00    0.69705   0.78087    0.000
 4866.00    0.68295   0.79144    0.000
 4867.00    0.84907   0.79662    0.000
 4868.00    0.88494   0.79907    0.000
 4869.00    0.80923   0.80565    0.000
 4870.00    0.79904   0.81352    0.000
 4871.00    0.83827   0.81935    0.000
 4872.00    0.77461   0.82916    0.000
 4873.00    0.64274   0.84245    0.000
 4874.00    0.70649   0.85202    0.000
 4875.00    0.88377   0.85969    0.018
 4876.00    0.87078   0.86807    0.018
 4877.00    0.76155   0.87163    0.018
 4878.00    0.81913   0.86961    0.018
 4879.00    0.94975   0.86778    0.018
 4880.00    1.01573   0.86425    0.018
 4881.00    1.05743   0.85614    0.018
 4882.00    0.94618   0.84855    0.018
 4883.00    0.78615   0.84333    0.018
 4884.00    0.77809   0.83789    0.018
 4885.00    0.81053   0.83536    0.018
 4886.00    0.79515   0.83737    0.018
 4887.00    0.76934   0.84181    0.018
 4888.00    0.73957   0.85055    0.017
 4889.00    0.70911   0.86448    0.017
 4890.00    0.67424   0.87931    0.017
 4891.00    0.63879   0.89361    0.018
 4892.00    0.66492   0.90843    0.018
 4893.00    0.69678   0.92009    0.018
 4894.00    0.77222   0.92760    0.018
 4895.00    0.85014   0.93150    0.018
 4896.00    0.80354   0.93018    0.018
 4897.00    0.75456   0.92720    0.018
 4898.00    0.75584   0.92556    0.018
 4899.00    0.75808   0.92202    0.018
 4900.00    0.78327   0.91722    0.018
 4901.00    0.80452   0.91541    0.017
 4902.00    0.77482   0.91404    0.017
 4903.00    0.75433   0.90951    0.018
 4904.00    0.81398   0.90465    0.018
 4905.00    0.87499   0.90135    0.018
 4906.00    0.94470   0.89711    0.018
 4907.00    1.00788   0.89195    0.018
 4908.00    1.03820   0.88923    0.018
 4909.00    1.05116   0.88789    0.018
 4910.00    0.99340   0.88488    0.018
 4911.00    0.93848   0.88105    0.018
 4912.00    0.89316   0.87620    0.018
 4913.00    0.86110   0.86746    0.018
 4914.00    0.86676   0.85546    0.018
 4915.00    0.86722   0.84361    0.018
 4916.00    0.85506   0.83248    0.018
 4917.00    0.82409   0.82293    0.018
 4918.00    0.75367   0.81891    0.018
 4919.00    0.73914   0.82177    0.017
 4920.00    0.82661   0.82818    0.017
 4921.00    0.86168   0.83858    0.017
 4922.00    0.81321   0.85467    0.017
 4923.00    0.76982   0.87045    0.017
 4924.00    0.73353   0.88274    0.017
 4925.00    0.74076   0.89477    0.017
 4926.00    0.80159   0.90379    0.017
 4927.00    0.79241   0.90606    0.017
 4928.00    0.70721   0.90549    0.017
 4929.00    0.61896   0.90214    0.017
 4930.00    0.52778   0.89329    0.017
 4931.00    0.63391   0.88418    0.017
 4932.00    0.90665   0.87706    0.017
 4933.00    0.90672   0.86926    0.017
 4934.00    0.70407   0.86392    0.017
 4935.00    0.68779   0.86338    0.017
 4936.00    0.79323   0.86627    0.017
 4937.00    0.79314   0.87281    0.017
 4938.00    0.73271   0.88095    0.017
 4939.00    0.69676   0.88960    0.017
 4940.00    0.67299   0.90098    0.000
 4941.00    0.72680   0.91169    0.000
 4942.00    0.81403   0.91790    0.000
 4943.00    0.83387   0.92335    0.000
 4944.00    0.82884   0.92914    0.000
 4945.00    0.83732   0.93122    0.000
 4946.00    0.85002   0.93028    0.000
 4947.00    0.87321   0.92890    0.000
 4948.00    0.89912   0.92565    0.000
 4949.00    0.80463   0.91870    0.000
 4950.00    0.68450   0.90836    0.000
 4951.00    0.70621   0.89787    0.000
 4952.00    0.75182   0.88898    0.000
 4953.00    0.85259   0.87962    0.000
 4954.00    0.96037   0.87117    0.000
 4955.00    0.92846   0.86929    0.000
 4956.00    0.88416   0.87221    0.000
 4957.00    0.89420   0.87360    0.000
 4958.00    0.90712   0.87619    0.000
 4959.00    0.84572   0.88190    0.000
 4960.00    0.78482   0.88526    0.000
 4961.00    0.87488   0.88422    0.000
 4962.00    0.96043   0.88187    0.000
 4963.00    0.94801   0.88062    0.000
 4964.00    0.93443   0.87937    0.000
 4965.00    0.90652   0.87800    0.000
 4966.00    0.87899   0.87909    0.000
 4967.00    0.85467   0.88249    0.000
 4968.00    0.83028   0.88621    0.000
 4969.00    0.80540   0.88987    0.000
 4970.00    0.79439   0.89248    0.000
 4971.00    0.85132   0.89290    0.000
 4972.00    0.90559   0.88997    0.000
 4973.00    0.94927   0.88381    0.000
 4974.00    0.97817   0.87502    0.000
 4975.00    0.95817   0.86233    0.000
 4976.00    0.91441   0.84814    0.000
 4977.00    0.80424   0.83564    0.000
 4978.00    0.71965   0.82318    0.000
 4979.00    0.69621   0.81246    0.000
 4980.00    0.68221   0.80805    0.000
 4981.00    0.68771   0.80826    0.000
 4982.00    0.69794   0.81042    0.000
 4983.00    0.71665   0.81658    0.000
 4984.00    0.74168   0.82598    0.000
 4985.00    0.77664   0.83462    0.000
 4986.00    0.81116   0.84208    0.000
 4987.00    0.84506   0.84842    0.000
 4988.00    0.86954   0.85285    0.000
 4989.00    0.88260   0.85603    0.000
 4990.00    0.89697   0.85677    0.000
 4991.00    0.91276   0.85584    0.000
 4992.00    0.82491   0.85526    0.000
 4993.00    0.63920   0.85178    0.000
 4994.00    0.64586   0.84581    0.000
 4995.00    0.81263   0.83988    0.000
 4996.00    0.92540   0.83171    0.000
 4997.00    0.99859   0.82271    0.000
 4998.00    0.99239   0.81474    0.000
 4999.00    0.93508   0.80625    0.000
 5000.00    0.89617   0.79946    0.000
 5001.00    0.86761   0.79578    0.000
 5002.00    0.84705   0.79261    0.000
 5003.00    0.83041   0.79070    0.000
 5004.00    0.90056   0.79160    0.000
 5005.00    1.00746   0.79218    0.000
 5006.00    0.92826   0.79051    0.000
 5007.00    0.78159   0.78877    0.000
 5008.00    0.83062   0.78655    0.000
 5009.00    0.93967   0.78206    0.000
 5010.00    0.93618   0.77698    0.000
 5011.00    0.90395   0.77258    0.000
 5012.00    0.89318   0.76966    0.000
 5013.00    0.88687   0.76922    0.000
 5014.00    0.89005   0.76954    0.000
 5015.00    0.89478   0.77149    0.000
 5016.00    0.87318   0.77663    0.000
 5017.00    0.84835   0.78198    0.000
 5018.00    0.82261   0.78644    0.000
 5019.00    0.79681   0.79238    0.000
 5020.00    0.72447   0.79930    0.000
 5021.00    0.64985   0.80470    0.000
 5022.00    0.63527   0.80980    0.000
 5023.00    0.62315   0.81620    0.000
 5024.00    0.70465   0.82151    0.000
 5025.00    0.78474   0.82679    0.000
 5026.00    0.83647   0.83351    0.000
 5027.00    0.88017   0.83799    0.000
 5028.00    0.83011   0.84067    0.000
 5029.00    0.77879   0.84264    0.017
 5030.00    0.71730   0.84130    0.017
 5031.00    0.65660   0.83614    0.017
 5032.00    0.60060   0.82752    0.017
 5033.00    0.58322   0.81743    0.017
 5034.00    0.75046   0.80736    0.017
 5035.00    0.86712   0.79630    0.017
 5036.00    0.78679   0.78829    0.017
 5037.00    0.70794   0.78557    0.017
 5038.00    0.63393   0.78540    0.017
 5039.00    0.58318   0.79055    0.016
 5040.00    0.59626   0.79977    0.016
 5041.00    0.59881   0.80745    0.016
 5042.00    0.57657   0.81592    0.016
 5043.00    0.59320   0.82430    0.016
 5044.00    0.68884   0.82745    0.017
 5045.00    0.79369   0.82733    0.017
 5046.00    0.91482   0.82752    0.017
 5047.00    0.97725   0.82765    0.017
 5048.00    0.94880   0.82747    0.017
 5049.00    0.89782   0.82956    0.017
 5050.00    0.81622   0.83513    0.017
 5051.00    0.75309   0.84205    0.017
 5052.00    0.71207   0.84919    0.016
 5053.00    0.75278   0.85670    0.016
 5054.00    0.87974   0.86369    0.016
 5055.00    0.86092   0.86876    0.016
 5056.00    0.70638   0.87103    0.016
 5057.00    0.68386   0.87087    0.016
 5058.00    0.76968   0.86794    0.016
 5059.00    0.83674   0.86246    0.016
 5060.00    0.89024   0.85581    0.016
 5061.00    0.92074   0.84711    0.016
 5062.00    0.93664   0.83818    0.016
 5063.00    0.84876   0.83233    0.016
 5064.00    0.70334   0.82677    0.016
 5065.00    0.71102   0.82096    0.016
 5066.00    0.79252   0.81896    0.016
 5067.00    0.83789   0.81915    0.016
 5068.00    0.86822   0.81713    0.016
 5069.00    0.87317   0.81438    0.016
 5070.00    0.86909   0.81383    0.016
 5071.00    0.83775   0.81185    0.016
 5072.00    0.79822   0.80580    0.016
 5073.00    0.71361   0.79975    0.016
 5074.00    0.61775   0.79513    0.016
 5075.00    0.65005   0.78884    0.016
 5076.00    0.70832   0.78164    0.016
 5077.00    0.62778   0.77814    0.016
 5078.00    0.52517   0.77842    0.015
 5079.00    0.64716   0.77943    0.016
 5080.00    0.79571   0.78268    0.016
 5081.00    0.73593   0.79006    0.016
 5082.00    0.65941   0.79890    0.016
 5083.00    0.60546   0.80686    0.015
 5084.00    0.55252   0.81471    0.015
 5085.00    0.64258   0.82280    0.015
 5086.00    0.73232   0.82960    0.014
 5087.00    0.72096   0.83395    0.015
 5088.00    0.71242   0.83640    0.015
 5089.00    0.75619   0.83730    0.015
 5090.00    0.80347   0.83547    0.015
 5091.00    0.88978   0.83074    0.015
 5092.00    0.96352   0.82431    0.015
 5093.00    0.93933   0.81698    0.015
 5094.00    0.91019   0.80988    0.015
 5095.00    0.85190   0.80348    0.016
 5096.00    0.80055   0.79850    0.016
 5097.00    0.78160   0.79650    0.015
 5098.00    0.77092   0.79617    0.015
 5099.00    0.79172   0.79608    0.015
 5100.00    0.81771   0.79672    0.015
 5101.00    0.86021   0.79687    0.015
 5102.00    0.88315   0.79650    0.015
 5103.00    0.85336   0.79550    0.015
 5104.00    0.82977   0.79338    0.016
 5105.00    0.82053   0.79354    0.016
 5106.00    0.79792   0.79545    0.016
 5107.00    0.74859   0.79678    0.016
 5108.00    0.75822   0.80168    0.016
 5109.00    0.87060   0.80865    0.016
 5110.00    0.94793   0.81396    0.016
 5111.00    0.97180   0.82063    0.016
 5112.00    0.94484   0.82666    0.016
 5113.00    0.84978   0.82924    0.016
 5114.00    0.79799   0.83017    0.017
 5115.00    0.79726   0.82824    0.017
 5116.00    0.76793   0.82281    0.017
 5117.00    0.70885   0.81496    0.017
 5118.00    0.71322   0.80540    0.017
 5119.00    0.77583   0.79540    0.016
 5120.00    0.81924   0.78499    0.016
 5121.00    0.84714   0.77588    0.016
 5122.00    0.88097   0.76993    0.016
 5123.00    0.91903   0.76553    0.016
 5124.00    0.94985   0.76332    0.016
 5125.00    0.97615   0.76463    0.016
 5126.00    0.93859   0.76731    0.016
 5127.00    0.86615   0.77052    0.016
 5128.00    0.84918   0.77525    0.016
 5129.00    0.85852   0.77999    0.016
 5130.00    0.75980   0.78239    0.016
 5131.00    0.61686   0.78429    0.016
 5132.00    0.67249   0.78578    0.017
 5133.00    0.79755   0.78292    0.017
 5134.00    0.76449   0.77978    0.017
 5135.00    0.68482   0.77805    0.017
 5136.00    0.69592   0.77209    0.017
 5137.00    0.72919   0.76804    0.017
 5138.00    0.76926   0.76742    0.017
 5139.00    0.81066   0.76259    0.017
 5140.00    0.78310   0.76022    0.017
 5141.00    0.74490   0.76158    0.017
 5142.00    0.79332   0.75901    0.017
 5143.00    0.85160   0.75759    0.017
 5144.00    0.84491   0.75871    0.017
 5145.00    0.83325   0.75768    0.017
 5146.00    0.78439   0.75775    0.016
 5147.00    0.73399   0.75891    0.016
 5148.00    0.78690   0.75967    0.016
 5149.00    0.83838   0.76284    0.016
 5150.00    0.79419   0.76681    0.016
 5151.00    0.75338   0.77108    0.016
 5152.00    0.77112   0.77721    0.016
 5153.00    0.78684   0.78256    0.016
 5154.00    0.78111   0.78699    0.016
 5155.00    0.79083   0.78975    0.016
 5156.00    0.91679   0.78775    0.016
 5157.00    1.00708   0.78292    0.016
 5158.00    0.89298   0.77389    0.016
 5159.00    0.78933   0.75816    0.016
 5160.00    0.73328   0.74034    0.016
 5161.00    0.71612   0.72058    0.016
 5162.00    0.84409   0.69772    0.016
 5163.00    0.91658   0.67690    0.016
 5164.00    0.81592   0.65981    0.016
 5165.00    0.70934   0.64544    0.015
 5166.00    0.58705   0.63605    0.015
 5167.00    0.51764   0.63390    0.015
 5168.00    0.56847   0.63726    0.015
 5169.00    0.59449   0.64399    0.015
 5170.00    0.57166   0.65588    0.016
 5171.00    0.58027   0.67178    0.016
 5172.00    0.64283   0.68636    0.015
 5173.00    0.72286   0.69853    0.015
 5174.00    0.82914   0.70891    0.015
 5175.00    0.85327   0.71471    0.015
 5176.00    0.76888   0.71398    0.015
 5177.00    0.72501   0.70853    0.015
 5178.00    0.72826   0.70254    0.015
 5179.00    0.78293   0.69675    0.015
 5180.00    0.89034   0.69069    0.015
 5181.00    0.91932   0.69006    0.015
 5182.00    0.87733   0.69485    0.015
 5183.00    0.85784   0.70073    0.015
 5184.00    0.85627   0.71016    0.015
 5185.00    0.82439   0.71955    0.015
 5186.00    0.77124   0.72598    0.015
 5187.00    0.74403   0.73360    0.015
 5188.00    0.73278   0.73738    0.015
 5189.00    0.71761   0.73720    0.015
 5190.00    0.70033   0.74131    0.000
 5191.00    0.71391   0.74503    0.000
 5192.00    0.74189   0.74578    0.000
 5193.00    0.76781   0.75097    0.000
 5194.00    0.79289   0.75736    0.000
 5195.00    0.71580   0.75970    0.000
 5196.00    0.60364   0.76164    0.000
 5197.00    0.58304   0.76298    0.000
 5198.00    0.58889   0.75955    0.000
 5199.00    0.58619   0.75238    0.000
 5200.00    0.58144   0.74564    0.000
 5201.00    0.51317   0.73786    0.000
 5202.00    0.43267   0.72772    0.000
 5203.00    0.60371   0.72229    0.000
 5204.00    0.81237   0.72143    0.000
 5205.00    0.76404   0.72036    0.000
 5206.00    0.68758   0.72464    0.000
 5207.00    0.62062   0.73392    0.000
 5208.00    0.55434   0.74185    0.000
 5209.00    0.52518   0.75077    0.000
 5210.00    0.49740   0.76094    0.000
 5211.00    0.60747   0.76866    0.016
 5212.00    0.71958   0.77480    0.016
 5213.00    0.88284   0.78055    0.016
 5214.00    1.02303   0.78460    0.016
 5215.00    0.78938   0.78704    0.016
 5216.00    0.58832   0.78821    0.016
 5217.00    0.71903   0.78643    0.016
 5218.00    0.82842   0.78202    0.017
 5219.00    0.78257   0.77631    0.017
 5220.00    0.73905   0.76754    0.017
 5221.00    0.70848   0.75746    0.017
 5222.00    0.71623   0.75101    0.016
 5223.00    0.89445   0.74519    0.017
 5224.00    0.97825   0.74025    0.017
 5225.00    0.71710   0.74280    0.016
 5226.00    0.53949   0.74665    0.016
 5227.00    0.61762   0.74927    0.016
 5228.00    0.68238   0.75740    0.016
 5229.00    0.71239   0.76475    0.016
 5230.00    0.75104   0.76951    0.016
 5231.00    0.80903   0.77758    0.016
 5232.00    0.84876   0.78499    0.016
 5233.00    0.85308   0.79089    0.016
 5234.00    0.84426   0.79817    0.016
 5235.00    0.81322   0.80486    0.016
 5236.00    0.82286   0.80976    0.016
 5237.00    0.89276   0.81302    0.016
 5238.00    0.88450   0.81528    0.016
 5239.00    0.77447   0.81574    0.015
 5240.00    0.70728   0.81271    0.015
 5241.00    0.68924   0.80830    0.015
 5242.00    0.71170   0.80434    0.015
 5243.00    0.77514   0.79786    0.015
 5244.00    0.81193   0.78974    0.015
 5245.00    0.82496   0.78519    0.015
 5246.00    0.88833   0.78148    0.015
 5247.00    0.99128   0.77695    0.015
 5248.00    1.06295   0.77656    0.015
 5249.00    1.11298   0.77843    0.015
 5250.00    1.04540   0.78060    0.015
 5251.00    0.90652   0.78441    0.015
 5252.00    0.78002   0.78767    0.015
 5253.00    0.66009   0.79026    0.016
 5254.00    0.70975   0.79088    0.016
 5255.00    0.83729   0.78708    0.016
 5256.00    0.85376   0.77985    0.016
 5257.00    0.82630   0.76881    0.016
 5258.00    0.82964   0.75430    0.016
 5259.00    0.84334   0.73764    0.016
 5260.00    0.87886   0.71946    0.016
 5261.00    0.92055   0.70391    0.016
 5262.00    0.84607   0.69130    0.016
 5263.00    0.74447   0.67905    0.016
 5264.00    0.77457   0.67319    0.016
 5265.00    0.82936   0.67431    0.016
 5266.00    0.72450   0.67464    0.016
 5267.00    0.59651   0.67940    0.016
 5268.00    0.73626   0.69228    0.017
 5269.00    0.90417   0.70322    0.017
 5270.00    0.82492   0.71398    0.017
 5271.00    0.72882   0.73025    0.017
 5272.00    0.71948   0.74338    0.017
 5273.00    0.71305   0.75333    0.017
 5274.00    0.88454   0.76496    0.017
 5275.00    1.04737   0.77278    0.018
 5276.00    0.92613   0.77761    0.017
 5277.00    0.81451   0.78257    0.017
 5278.00    0.84946   0.78556    0.017
 5279.00    0.86551   0.78926    0.017
 5280.00    0.69731   0.79432    0.017
 5281.00    0.57484   0.79928    0.017
 5282.00    0.77445   0.80687    0.017
 5283.00    0.93657   0.81550    0.017
 5284.00    0.89541   0.82241    0.017
 5285.00    0.84197   0.82887    0.017
 5286.00    0.73516   0.83369    0.016
 5287.00    0.68722   0.83499    0.016
 5288.00    0.84992   0.83336    0.016
 5289.00    0.95713   0.82893    0.016
 5290.00    0.89767   0.82185    0.017
 5291.00    0.85313   0.81313    0.017
 5292.00    0.84677   0.80371    0.017
 5293.00    0.84753   0.79534    0.016
 5294.00    0.86398   0.78849    0.016
 5295.00    0.86474   0.78368    0.016
 5296.00    0.83557   0.78346    0.016
 5297.00    0.81293   0.78640    0.016
 5298.00    0.80115   0.79064    0.016
 5299.00    0.79720   0.79822    0.016
 5300.00    0.80466   0.80742    0.016
 5301.00    0.79688   0.81544    0.016
 5302.00    0.76954   0.82322    0.016
 5303.00    0.74334   0.83045    0.016
 5304.00    0.71842   0.83531    0.016
 5305.00    0.76225   0.83862    0.015
 5306.00    0.87463   0.84092    0.016
 5307.00    0.87777   0.84066    0.015
 5308.00    0.78482   0.83904    0.015
 5309.00    0.71640   0.83712    0.015
 5310.00    0.66698   0.83305    0.015
 5311.00    0.63253   0.82850    0.015
 5312.00    0.60827   0.82475    0.015
 5313.00    0.67487   0.81943    0.015
 5314.00    0.79572   0.81425    0.015
 5315.00    0.82559   0.81003    0.015
 5316.00    0.80806   0.80409    0.015
 5317.00    0.74656   0.79733    0.015
 5318.00    0.66518   0.78980    0.015
 5319.00    0.71905   0.78071    0.015
 5320.00    0.82546   0.77115    0.015
 5321.00    0.84982   0.76031    0.015
 5322.00    0.84705   0.74991    0.015
 5323.00    0.78320   0.74309    0.015
 5324.00    0.70242   0.73784    0.015
 5325.00    0.74553   0.73471    0.015
 5326.00    0.81688   0.73786    0.015
 5327.00    0.79722   0.74451    0.015
 5328.00    0.76094   0.75159    0.015
 5329.00    0.79742   0.76102    0.015
 5330.00    0.84410   0.77083    0.016
 5331.00    0.92329   0.77848    0.016
 5332.00    1.00576   0.78412    0.016
 5333.00    0.91703   0.78706    0.016
 5334.00    0.81732   0.78732    0.016
 5335.00    0.80610   0.78698    0.016
 5336.00    0.79727   0.78595    0.016
 5337.00    0.69219   0.78306    0.016
 5338.00    0.59217   0.78205    0.016
 5339.00    0.63651   0.78294    0.016
 5340.00    0.68353   0.78220    0.016
 5341.00    0.76888   0.78330    0.016
 5342.00    0.84017   0.78585    0.016
 5343.00    0.77986   0.78707    0.016
 5344.00    0.74191   0.79038    0.016
 5345.00    0.85638   0.79464    0.016
 5346.00    0.92278   0.79862    0.016
 5347.00    0.73530   0.80515    0.016
 5348.00    0.60202   0.81306    0.016
 5349.00    0.69891   0.82060    0.016
 5350.00    0.77037   0.82812    0.016
 5351.00    0.75267   0.83586    0.016
 5352.00    0.73039   0.84214    0.016
 5353.00    0.69461   0.84538    0.016
 5354.00    0.70034   0.84699    0.016
 5355.00    0.81041   0.84652    0.016
 5356.00    0.87786   0.84263    0.016
 5357.00    0.85310   0.83724    0.016
 5358.00    0.88037   0.83025    0.016
 5359.00    1.00536   0.82108    0.016
 5360.00    1.06299   0.81237    0.016
 5361.00    1.01017   0.80320    0.015
 5362.00    0.93817   0.79308    0.015
 5363.00    0.83862   0.78509    0.015
 5364.00    0.81280   0.77786    0.015
 5365.00    0.88028   0.77138    0.015
 5366.00    0.89684   0.76842    0.015
 5367.00    0.85661   0.76769    0.015
 5368.00    0.85591   0.76888   -2.000
 5369.00    0.89408   0.77381   -2.000
 5370.00    0.96355   0.78080   -2.000
 5371.00    1.06016   0.78730   -2.000
 5372.00    1.09135   0.79483   -2.000
 5373.00    1.07256   0.80215   -2.000
 5374.00    1.02849   0.80617   -2.000
 5375.00    0.96743   0.80913   -2.000
 5376.00    0.96014   0.81112   -2.000
 5377.00    0.98448   0.81025   -2.000
 5378.00    1.00096   0.80924   -2.000
 5379.00    1.01342   0.80869   -2.000
 5380.00    0.86879   0.80620   -2.000
 5381.00    0.65435   0.80393   -2.000
 5382.00    0.66770   0.80237   -2.000
 5383.00    0.76800   0.79869    0.015
 5384.00    0.77787   0.79456    0.015
 5385.00    0.75841   0.79057    0.015
 5386.00    0.76692   0.78477    0.015
 5387.00    0.78302   0.77862    0.015
 5388.00    0.79338   0.77273    0.015
 5389.00    0.80247   0.76668    0.015
 5390.00    0.74118   0.76121    0.015
 5391.00    0.66739   0.75618    0.015
 5392.00    0.71321   0.75275    0.015
 5393.00    0.77525   0.75031    0.016
 5394.00    0.84988   0.74723    0.016
 5395.00    0.92573   0.74624    0.016
 5396.00    0.83814   0.74583    0.016
 5397.00    0.74072   0.74271    0.016
 5398.00    0.67528   0.74007    0.016
 5399.00    0.61159   0.73815    0.016
 5400.00    0.70230   0.73398    0.016
 5401.00    0.79312   0.72973    0.016
 5402.00    0.88668   0.72760    0.016
 5403.00    0.96262   0.72642    0.016
 5404.00    0.79946   0.72698    0.016
 5405.00    0.66606   0.73046    0.016
 5406.00    0.80028   0.73554    0.016
 5407.00    0.89627   0.74223    0.016
 5408.00    0.73965   0.75104    0.016
 5409.00    0.61314   0.75954    0.016
 5410.00    0.64152   0.76723    0.015
 5411.00    0.66814   0.77513    0.015
 5412.00    0.68738   0.78148    0.015
 5413.00    0.70415   0.78624    0.015
 5414.00    0.71245   0.78954    0.015
 5415.00    0.73332   0.79049    0.015
 5416.00    0.79055   0.79087    0.015
 5417.00    0.82891   0.79037    0.015
 5418.00    0.82063   0.78789    0.015
 5419.00    0.84199   0.78630    0.015
 5420.00    0.92644   0.78436    0.015
 5421.00    0.95096   0.78054    0.015
 5422.00    0.86464   0.77851    0.015
 5423.00    0.81457   0.77580    0.015
 5424.00    0.82310   0.77092    0.015
 5425.00    0.82845   0.76765    0.015
 5426.00    0.82927   0.76324    0.015
 5427.00    0.78818   0.75885    0.015
 5428.00    0.69482   0.75735    0.015
 5429.00    0.67338   0.75489    0.015
 5430.00    0.73100   0.75455    0.015
 5431.00    0.81763   0.75857    0.015
 5432.00    0.93237   0.76320    0.015
 5433.00    0.94031   0.76918    0.015
 5434.00    0.85694   0.77673    0.015
 5435.00    0.78441   0.78418    0.015
 5436.00    0.72006   0.79045    0.015
 5437.00    0.74923   0.79482    0.015
 5438.00    0.84029   0.79654    0.015
 5439.00    0.84340   0.79547    0.015
 5440.00    0.79556   0.79246    0.015
 5441.00    0.77029   0.78749    0.015
 5442.00    0.75642   0.78238    0.015
 5443.00    0.70816   0.77776    0.015
 5444.00    0.64487   0.77345    0.015
 5445.00    0.69471   0.77156    0.015
 5446.00    0.78697   0.77017    0.015
 5447.00    0.77788   0.76844    0.015
 5448.00    0.73655   0.76842    0.015
 5449.00    0.82978   0.76791    0.015
 5450.00    0.95878   0.76653    0.016
 5451.00    0.94751   0.76594    0.016
 5452.00    0.90572   0.76485    0.016
 5453.00    0.93237   0.76477    0.016
 5454.00    0.97083   0.76606    0.016
 5455.00    0.90441   0.76612    0.016
 5456.00    0.82423   0.76685    0.015
 5457.00    0.82686   0.76821    0.015
 5458.00    0.83713   0.76851    0.015
 5459.00    0.74689   0.76874    0.015
 5460.00    0.65100   0.76832    0.016
 5461.00    0.71819   0.76848    0.016
 5462.00    0.78794   0.76903    0.016
 5463.00    0.74648   0.76828    0.015
 5464.00    0.70975   0.76802    0.015
 5465.00    0.78436   0.76739    0.015
 5466.00    0.85501   0.76495    0.015
 5467.00    0.87495   0.76156    0.015
 5468.00    0.89366   0.75734    0.015
 5469.00    0.90168   0.75265    0.015
 5470.00    0.91123   0.74684    0.015
 5471.00    0.93065   0.74158    0.015
 5472.00    0.93075   0.73837    0.015
 5473.00    0.83397   0.73460    0.015
 5474.00    0.75448   0.73271    0.015
 5475.00    0.74516   0.73423    0.015
 5476.00    0.73956   0.73564    0.015
 5477.00    0.74648   0.73799    0.015
 5478.00    0.77785   0.74227   -2.000
 5479.00    0.87867   0.74692   -2.000
 5480.00    0.93408   0.75114   -2.000
 5481.00    0.87924   0.75441   -2.000
 5482.00    0.87245   0.75754   -2.000
 5483.00    0.96629   0.76046   -2.000
 5484.00    1.12265   0.76196   -2.000
 5485.00    1.39284   0.76299   -2.000
 5486.00    1.84070   0.76419   -2.000
 5487.00    2.57137   0.76415   -2.000
 5488.00    2.79937   0.76424   -2.000
 5489.00    2.32518   0.76504   -2.000
 5490.00    1.82051   0.76471   -2.000
 5491.00    1.27839   0.76455   -2.000
 5492.00    0.79086   0.76480   -2.000
 5493.00    0.36249   0.76400   -2.000
 5494.00    0.21506   0.76265   -2.000
 5495.00    0.33619   0.76169   -2.000
 5496.00    0.47264   0.76067   -2.000
 5497.00    0.62200   0.75830   -2.000
 5498.00    0.68271   0.75534   -2.000
 5499.00    0.67763   0.75367   -2.000
 5500.00    0.75453   0.75171   -2.000
 5501.00    0.88487   0.74863   -2.000
 5502.00    0.85465   0.74686    0.015
 5503.00    0.73283   0.74525    0.016
 5504.00    0.76788   0.74351    0.016
 5505.00    0.88089   0.74303    0.016
 5506.00    0.94070   0.74152    0.016
 5507.00    0.97766   0.74059    0.016
 5508.00    0.83923   0.74153    0.016
 5509.00    0.63620   0.74182    0.016
 5510.00    0.61619   0.74355    0.016
 5511.00    0.65328   0.74685    0.016
 5512.00    0.70293   0.75017    0.016
 5513.00    0.75586   0.75476    0.015
 5514.00    0.83528   0.75948    0.015
 5515.00    0.92033   0.76382    0.015
 5516.00    0.85322   0.76734    0.015
 5517.00    0.76057   0.76883    0.015
 5518.00    0.73326   0.76947    0.015
 5519.00    0.71423   0.76844    0.015
 5520.00    0.77207   0.76528    0.015
 5521.00    0.83669   0.76192    0.015
 5522.00    0.76987   0.75820    0.015
 5523.00    0.69618   0.75432    0.015
 5524.00    0.69369   0.75145    0.014
 5525.00    0.69223   0.74928    0.014
 5526.00    0.66805   0.74848    0.014
 5527.00    0.64515   0.74882    0.014
 5528.00    0.64982   0.74955    0.014
 5529.00    0.65685   0.75116    0.014
 5530.00    0.69275   0.75338    0.014
 5531.00    0.73543   0.75564    0.014
 5532.00    0.83462   0.75740    0.015
 5533.00    0.91633   0.75974    0.015
 5534.00    0.88928   0.76227    0.015
 5535.00    0.85717   0.76369    0.014
 5536.00    0.80037   0.76595    0.014
 5537.00    0.76438   0.76814    0.014
 5538.00    0.81105   0.76896    0.014
 5539.00    0.83156   0.77023    0.014
 5540.00    0.76575   0.77152    0.015
 5541.00    0.70884   0.77255    0.015
 5542.00    0.67678   0.77401    0.015
 5543.00    0.65726   0.77512    0.015
 5544.00    0.66769   0.77655    0.015
 5545.00    0.68807   0.77840    0.015
 5546.00    0.72896   0.77899    0.015
 5547.00    0.74363   0.77919    0.015
 5548.00    0.71130   0.77938    0.014
 5549.00    0.72296   0.77813    0.014
 5550.00    0.80360   0.77631    0.015
 5551.00    0.89311   0.77447    0.015
 5552.00    0.99481   0.77210    0.015
 5553.00    0.99659   0.76983    0.015
 5554.00    0.87724   0.76723    0.015
 5555.00    0.81685   0.76444    0.015
 5556.00    0.81944   0.76241    0.015
 5557.00    0.80090   0.75953    0.015
 5558.00    0.76245   0.75617    0.015
 5559.00    0.73450   0.75363    0.015
 5560.00    0.71526   0.75076    0.015
 5561.00    0.72801   0.74794    0.015
 5562.00    0.76414   0.74564    0.015
 5563.00    0.73687   0.74397    0.015
 5564.00    0.66888   0.74262    0.014
 5565.00    0.69697   0.74171    0.014
 5566.00    0.77906   0.74198    0.014
 5567.00    0.83165   0.74227    0.014
 5568.00    0.86983   0.74331    0.014
 5569.00    0.86199   0.74497    0.014
 5570.00    0.83471   0.74613    0.014
 5571.00    0.79333   0.74872    0.014
 5572.00    0.74684   0.75099    0.014
 5573.00    0.76404   0.75150    0.014
 5574.00    0.80072   0.75310    0.014
 5575.00    0.81749   0.75404    0.014
 5576.00    0.82919   0.75235    0.014
 5577.00    0.82449   0.75044    0.014
 5578.00    0.81639   0.74697    0.014
 5579.00    0.87709   0.74121    0.014
 5580.00    0.94901   0.73565    0.014
 5581.00    0.95922   0.72883    0.014
 5582.00    0.96190   0.72151    0.015
 5583.00    0.91413   0.71575    0.014
 5584.00    0.86211   0.71047    0.014
 5585.00    0.79563   0.70716    0.014
 5586.00    0.72846   0.70553    0.014
 5587.00    0.69444   0.70547    0.014
 5588.00    0.66153   0.70813    0.014
 5589.00    0.66510   0.71076    0.014
 5590.00    0.67220   0.71367    0.014
 5591.00    0.74932   0.71740    0.015
 5592.00    0.81687   0.71986    0.015
 5593.00    0.77320   0.72151    0.015
 5594.00    0.73496   0.72233    0.015
 5595.00    0.74031   0.72254    0.015
 5596.00    0.75447   0.72407    0.015
 5597.00    0.82175   0.72564    0.015
 5598.00    0.86244   0.72705    0.015
 5599.00    0.77632   0.73093    0.015
 5600.00    0.71030   0.73619    0.015
 5601.00    0.72237   0.74194    0.015
 5602.00    0.74462   0.74807    0.015
 5603.00    0.79981   0.75367    0.015
 5604.00    0.83517   0.75880    0.015
 5605.00    0.81623   0.76216    0.014
 5606.00    0.77818   0.76297    0.014
 5607.00    0.69530   0.76123    0.014
 5608.00    0.67072   0.75818    0.014
 5609.00    0.76443   0.75402    0.014
 5610.00    0.81129   0.74802    0.013
 5611.00    0.77543   0.74222    0.014
 5612.00    0.73928   0.73717    0.014
 5613.00    0.70269   0.73322    0.014
 5614.00    0.69072   0.73058    0.013
 5615.00    0.71217   0.72781    0.013
 5616.00    0.72451   0.72647    0.013
 5617.00    0.72597   0.72709    0.013
 5618.00    0.74549   0.72760    0.013
 5619.00    0.78403   0.72748    0.013
 5620.00    0.80697   0.72788    0.013
 5621.00    0.81540   0.72939    0.013
 5622.00    0.81753   0.73147    0.013
 5623.00    0.81450   0.73406    0.013
 5624.00    0.78032   0.73666    0.013
 5625.00    0.72368   0.73950    0.013
 5626.00    0.70828   0.74298    0.013
 5627.00    0.71897   0.74545    0.013
 5628.00    0.77406   0.74631    0.013
 5629.00    0.85373   0.74627    0.013
 5630.00    0.80807   0.74517    0.013
 5631.00    0.70211   0.74300    0.014
 5632.00    0.65881   0.74011    0.014
 5633.00    0.64154   0.73682    0.014
 5634.00    0.69691   0.73404    0.014
 5635.00    0.77808   0.73187    0.014
 5636.00    0.82738   0.73000    0.014
 5637.00    0.86713   0.72911    0.014
 5638.00    0.87339   0.72902    0.014
 5639.00    0.87131   0.72993    0.014
 5640.00    0.83259   0.73146    0.014
 5641.00    0.78646   0.73252    0.013
 5642.00    0.72748   0.73429    0.014
 5643.00    0.66646   0.73640    0.014
 5644.00    0.69196   0.73761    0.014
 5645.00    0.72765   0.73837    0.014
 5646.00    0.72867   0.73846    0.014
 5647.00    0.72692   0.73775    0.013
 5648.00    0.75790   0.73650    0.014
 5649.00    0.79033   0.73368    0.014
 5650.00    0.77771   0.72946    0.014
 5651.00    0.76354   0.72585    0.013
 5652.00    0.69897   0.72198    0.013
 5653.00    0.63911   0.71719    0.013
 5654.00    0.66635   0.71308    0.013
 5655.00    0.68953   0.71022    0.013
 5656.00    0.66777   0.70920    0.013
 5657.00    0.65352   0.70929    0.013
 5658.00    0.69753   0.70930    0.013
 5659.00    0.72630   0.71104    0.013
 5660.00    0.66567   0.71479    0.012
 5661.00    0.61993   0.71822    0.012
 5662.00    0.64349   0.72096    0.012
 5663.00    0.67058   0.72426    0.012
 5664.00    0.71110   0.72815    0.013
 5665.00    0.74127   0.73204    0.013
 5666.00    0.73865   0.73563    0.013
 5667.00    0.72471   0.73892    0.013
 5668.00    0.68033   0.74258    0.013
 5669.00    0.65402   0.74606    0.013
 5670.00    0.66941   0.74857    0.013
 5671.00    0.68643   0.75037    0.013
 5672.00    0.70673   0.75139    0.013
 5673.00    0.75447   0.75131    0.013
 5674.00    0.84992   0.74978    0.013
 5675.00    0.89535   0.74716    0.014
 5676.00    0.86462   0.74420    0.014
 5677.00    0.82099   0.74064    0.014
 5678.00    0.76012   0.73669    0.014
 5679.00    0.75460   0.73293    0.014
 5680.00    0.81430   0.73007    0.014
 5681.00    0.77025   0.72803    0.014
 5682.00    0.61845   0.72638    0.013
 5683.00    0.57137   0.72587    0.013
 5684.00    0.62023   0.72696    0.013
 5685.00    0.66487   0.72908    0.014
 5686.00    0.70610   0.73125    0.014
 5687.00    0.72707   0.73384    0.014
 5688.00    0.73366   0.73630    0.013
 5689.00    0.71006   0.73841    0.013
 5690.00    0.66763   0.73979    0.013
 5691.00    0.65731   0.73983    0.013
 5692.00    0.66449   0.73903    0.013
 5693.00    0.70131   0.73663    0.013
 5694.00    0.75215   0.73354    0.013
 5695.00    0.74783   0.72993    0.013
 5696.00    0.72098   0.72558    0.013
 5697.00    0.74425   0.72143    0.013
 5698.00    0.78500   0.71670    0.013
 5699.00    0.78996   0.71245    0.013
 5700.00    0.78438   0.70862    0.013
 5701.00    0.73346   0.70397    0.013
 5702.00    0.67150   0.70024    0.012
 5703.00    0.68497   0.69727    0.012
 5704.00    0.71330   0.69467    0.012
 5705.00    0.74323   0.69396    0.012
 5706.00    0.77341   0.69392    0.012
 5707.00    0.76704   0.69542    0.013
 5708.00    0.75653   0.69955    0.013
 5709.00    0.79919   0.70419    0.013
 5710.00    0.84588   0.71032    0.013
 5711.00    0.83954   0.71737    0.013
 5712.00    0.83105   0.72373    0.013
 5713.00    0.86760   0.73065    0.013
 5714.00    0.90274   0.73717    0.013
 5715.00    0.86517   0.74227    0.013
 5716.00    0.82877   0.74690    0.013
 5717.00    0.81238   0.75048    0.013
 5718.00    0.79772   0.75282    0.013
 5719.00    0.80132   0.75448    0.013
 5720.00    0.80257   0.75518    0.013
 5721.00    0.78620   0.75484    0.013
 5722.00    0.77454   0.75374    0.013
 5723.00    0.78968   0.75254    0.013
 5724.00    0.79913   0.75126    0.013
 5725.00    0.78273   0.75009    0.013
 5726.00    0.76419   0.74869    0.013
 5727.00    0.73771   0.74748    0.013
 5728.00    0.73378   0.74747    0.013
 5729.00    0.80007   0.74788    0.013
 5730.00    0.82890   0.74832    0.013
 5731.00    0.75876   0.74838    0.013
 5732.00    0.69838   0.74847    0.013
 5733.00    0.66013   0.74909    0.013
 5734.00    0.65377   0.74932    0.013
 5735.00    0.71009   0.74919    0.013
 5736.00    0.73018   0.74889    0.013
 5737.00    0.68825   0.74824    0.013
 5738.00    0.65646   0.74753    0.013
 5739.00    0.63991   0.74696    0.012
 5740.00    0.65379   0.74630    0.000
 5741.00    0.70780   0.74549    0.000
 5742.00    0.77353   0.74402    0.000
 5743.00    0.85288   0.74188    0.000
 5744.00    0.85784   0.74017    0.000
 5745.00    0.78661   0.73863    0.000
 5746.00    0.75196   0.73674    0.000
 5747.00    0.75034   0.73441    0.000
 5748.00    0.79267   0.73199    0.000
 5749.00    0.86999   0.73047    0.000
 5750.00    0.90918   0.73018    0.000
 5751.00    0.92165   0.73017    0.000
 5752.00    0.92139   0.72988    0.000
 5753.00    0.91332   0.72982    0.000
 5754.00    0.91156   0.72997    0.000
 5755.00    0.91319   0.73043    0.000
 5756.00    0.89705   0.73103    0.000
 5757.00    0.87264   0.73123    0.000
 5758.00    0.87109   0.73170    0.000
 5759.00    0.87873   0.73330    0.000
 5760.00    0.82842   0.73517    0.000
 5761.00    0.75827   0.73722    0.000
 5762.00    0.69806   0.73949    0.000
 5763.00    0.64072   0.74161    0.000
 5764.00    0.69662   0.74374    0.000
 5765.00    0.77950   0.74514    0.000
 5766.00    0.87907   0.74543    0.000
 5767.00    0.98185   0.74478    0.000
 5768.00    0.89541   0.74381    0.000
 5769.00    0.78079   0.74202    0.000
 5770.00    0.72757   0.73946    0.000
 5771.00    0.68104   0.73661    0.000
 5772.00    0.72605   0.73292    0.000
 5773.00    0.77763   0.72888    0.000
 5774.00    0.79378   0.72422    0.000
 5775.00    0.80863   0.71846    0.000
 5776.00    0.79141   0.71271    0.000
 5777.00    0.77206   0.70768    0.000
 5778.00    0.68123   0.70337    0.000
 5779.00    0.59559   0.70008    0.000
 5780.00    0.59354   0.69735    0.000
 5781.00    0.59396   0.69643    0.000
 5782.00    0.61931   0.69809    0.000
 5783.00    0.64589   0.70064    0.000
 5784.00    0.68144   0.70432    0.000
 5785.00    0.72014   0.70789    0.000
 5786.00    0.77633   0.71162    0.000
 5787.00    0.82559   0.71645    0.000
 5788.00    0.84408   0.72036    0.000
 5789.00    0.85421   0.72411    0.000
 5790.00    0.83388   0.72752    0.000
 5791.00    0.83787   0.72997   -2.000
 5792.00    0.91607   0.73242   -2.000
 5793.00    0.98701   0.73437   -2.000
 5794.00    1.03908   0.73645   -2.000
 5795.00    1.04094   0.73851   -2.000
 5796.00    0.93074   0.73964   -2.000
 5797.00    0.84931   0.74037   -2.000
 5798.00    0.82356   0.74055   -2.000
 5799.00    0.81922   0.74033   -2.000
 5800.00    0.85104   0.74021   -2.000
 5801.00    0.85465   0.73955   -2.000
 5802.00    0.81658   0.73886   -2.000
 5803.00    0.78525   0.73832   -2.000
 5804.00    0.76270   0.73751   -2.000
 5805.00    0.73482   0.73727   -2.000
 5806.00    0.70085   0.73726   -2.000
 5807.00    0.70488   0.73722   -2.000
 5808.00    0.74728   0.73746   -2.000
 5809.00    0.76415   0.73740   -2.000
 5810.00    0.75828   0.73737   -2.000
 5811.00    0.75735   0.73749    0.000
 5812.00    0.76028   0.73805    0.000
 5813.00    0.74868   0.73941    0.000
 5814.00    0.72704   0.74076    0.000
 5815.00    0.72365   0.74223    0.000
 5816.00    0.73130   0.74379    0.000
 5817.00    0.71750   0.74543    0.000
 5818.00    0.69235   0.74722    0.000
 5819.00    0.68821   0.74857    0.000
 5820.00    0.69368   0.74961    0.000
 5821.00    0.71780   0.75019    0.000
 5822.00    0.74928   0.75045    0.000
 5823.00    0.78858   0.75052    0.000
 5824.00    0.83051   0.75042    0.000
 5825.00    0.80368   0.75017    0.000
 5826.00    0.75745   0.74951    0.000
 5827.00    0.77044   0.74872    0.000
 5828.00    0.79721   0.74780    0.000
 5829.00    0.87551   0.74676    0.000
 5830.00    0.96344   0.74581    0.000
 5831.00    0.97418   0.74523    0.000
 5832.00    0.97378   0.74486    0.000
 5833.00    0.89559   0.74443    0.000
 5834.00    0.80925   0.74439    0.000
 5835.00    0.73776   0.74470    0.000
 5836.00    0.66727   0.74519    0.000
 5837.00    0.60970   0.74538    0.000
 5838.00    0.55255   0.74497    0.000
 5839.00    0.60573   0.74420    0.000
 5840.00    0.66009   0.74302    0.000
 5841.00    0.74928   0.74115    0.000
 5842.00    0.83116   0.73848    0.000
 5843.00    0.80275   0.73537    0.000
 5844.00    0.77046   0.73205    0.000
 5845.00    0.70056   0.72846    0.000
 5846.00    0.64239   0.72450    0.000
 5847.00    0.66643   0.72010    0.000
 5848.00    0.69070   0.71564    0.000
 5849.00    0.71615   0.71189    0.000
 5850.00    0.73673   0.70854    0.000
 5851.00    0.73618   0.70532    0.000
 5852.00    0.73187   0.70206    0.000
 5853.00    0.71414   0.69975    0.000
 5854.00    0.70646   0.69933    0.000
 5855.00    0.72886   0.69971    0.000
 5856.00    0.76266   0.70080    0.000
 5857.00    0.82550   0.70177    0.000
 5858.00    0.85290   0.70360    0.000
 5859.00    0.80248   0.70662    0.000
 5860.00    0.73105   0.70945    0.000
 5861.00    0.61958   0.71204    0.000
 5862.00    0.56505   0.71411    0.000
 5863.00    0.60514   0.71649    0.000
 5864.00    0.65533   0.71895    0.000
 5865.00    0.72021   0.72096    0.000
 5866.00    0.75859   0.72226    0.000
 5867.00    0.76301   0.72302    0.000
 5868.00    0.76047   0.72357    0.000
 5869.00    0.75008   0.72371    0.000
 5870.00    0.73501   0.72319    0.000
 5871.00    0.71528   0.72174    0.000
 5872.00    0.70254   0.71977    0.000
 5873.00    0.69592   0.71718    0.000
 5874.00    0.71525   0.71421    0.000
 5875.00    0.75464   0.71066    0.000
 5876.00    0.78063   0.70646    0.000
 5877.00    0.79749   0.70157    0.000
 5878.00    0.78885   0.69532    0.000
 5879.00    0.76501   0.68756    0.000
 5880.00    0.75787   0.67837    0.000
 5881.00    0.75942   0.66818    0.000
 5882.00    0.75558   0.65640    0.000
 5883.00    0.74932   0.64291    0.000
 5884.00    0.70096   0.62847    0.000
 5885.00    0.63627   0.61456    0.000
 5886.00    0.57970   0.60403    0.000
 5887.00    0.52580   0.59610    0.000
 5888.00    0.53596   0.58966    0.000
 5889.00    0.56384   0.58595    0.000
 5890.00    0.59336   0.58479    0.000
 5891.00    0.62324   0.58804    0.000
 5892.00    0.66331   0.59611    0.000
 5893.00    0.70523   0.60546    0.000
 5894.00    0.69487   0.61579    0.000
 5895.00    0.67720   0.62676    0.000
 5896.00    0.65280   0.63800    0.000
 5897.00    0.62773   0.65065    0.000
 5898.00    0.65149   0.66248    0.000
 5899.00    0.67836   0.67218    0.000
 5900.00    0.66597   0.68021    0.000
 5901.00    0.65248   0.68676    0.012
 5902.00    0.65753   0.69189    0.012
 5903.00    0.66326   0.69567    0.012
 5904.00    0.68825   0.69810    0.012
 5905.00    0.71012   0.69939    0.012
 5906.00    0.68744   0.69995    0.012
 5907.00    0.66344   0.69993    0.012
 5908.00    0.62716   0.69940    0.012
 5909.00    0.59747   0.69820    0.012
 5910.00    0.61244   0.69741    0.012
 5911.00    0.62204   0.69686    0.012
 5912.00    0.60330   0.69673    0.012
 5913.00    0.59717   0.69703    0.012
 5914.00    0.64440   0.69731    0.012
 5915.00    0.67674   0.69852    0.012
 5916.00    0.65699   0.69983    0.012
 5917.00    0.64802   0.70108    0.012
 5918.00    0.67072   0.70236    0.012
 5919.00    0.70027   0.70325    0.012
 5920.00    0.74702   0.70381    0.012
 5921.00    0.77354   0.70403    0.012
 5922.00    0.75634   0.70357    0.011
 5923.00    0.73443   0.70281    0.011
 5924.00    0.70366   0.70214    0.011
 5925.00    0.68499   0.70112    0.011
 5926.00    0.68613   0.70067    0.011
 5927.00    0.69542   0.70023    0.012
 5928.00    0.71643   0.69966    0.012
 5929.00    0.71856   0.69948    0.011
 5930.00    0.69684   0.69934    0.011
 5931.00    0.66688   0.70014    0.011
 5932.00    0.62775   0.70103    0.011
 5933.00    0.62795   0.70146    0.012
 5934.00    0.66674   0.70181    0.012
 5935.00    0.70874   0.70196    0.012
 5936.00    0.75350   0.70222    0.012
 5937.00    0.75385   0.70242    0.012
 5938.00    0.72033   0.70238    0.012
 5939.00    0.70380   0.70232    0.012
 5940.00    0.69867   0.70197    0.012
 5941.00    0.67127   0.70119    0.012
 5942.00    0.63080   0.70042    0.012
 5943.00    0.64310   0.69960    0.012
 5944.00    0.68242   0.69859    0.012
 5945.00    0.70456   0.69768    0.012
 5946.00    0.71909   0.69671    0.012
 5947.00    0.72156   0.69562    0.012
 5948.00    0.71943   0.69457    0.012
 5949.00    0.68281   0.69404    0.012
 5950.00    0.63501   0.69422    0.012
 5951.00    0.63562   0.69458    0.012
 5952.00    0.64934   0.69504    0.012
 5953.00    0.67215   0.69587    0.012
 5954.00    0.69698   0.69751    0.012
 5955.00    0.71108   0.69951    0.011
 5956.00    0.72327   0.70121    0.011
 5957.00    0.72730   0.70299    0.011
 5958.00    0.73023   0.70472    0.011
 5959.00    0.68958   0.70644    0.011
 5960.00    0.64474   0.70800    0.011
 5961.00    0.59891   0.70914    0.011
 5962.00    0.55303   0.71031    0.011
 5963.00    0.55234   0.71106    0.011
 5964.00    0.55304   0.71160    0.011
 5965.00    0.59003   0.71186    0.011
 5966.00    0.62580   0.71163    0.011
 5967.00    0.63048   0.71123    0.011
 5968.00    0.63284   0.71026    0.012
 5969.00    0.60398   0.70863    0.012
 5970.00    0.58206   0.70662    0.012
 5971.00    0.62232   0.70423    0.012
 5972.00    0.66177   0.70172    0.012
 5973.00    0.69596   0.69943    0.012
 5974.00    0.72434   0.69717    0.012
 5975.00    0.72298   0.69511    0.012
 5976.00    0.71693   0.69303    0.012
 5977.00    0.69151   0.69115    0.012
 5978.00    0.67885   0.68978    0.012
 5979.00    0.70987   0.68856    0.012
 5980.00    0.73156   0.68795    0.012
 5981.00    0.72634   0.68787    0.012
 5982.00    0.71614   0.68791    0.011
 5983.00    0.69367   0.68845    0.011
 5984.00    0.66922   0.68914    0.011
 5985.00    0.64058   0.69039    0.011
 5986.00    0.62510   0.69209    0.011
 5987.00    0.63393   0.69334    0.011
 5988.00    0.65211   0.69456    0.011
 5989.00    0.68537   0.69535    0.011
 5990.00    0.70476   0.69550    0.011
 5991.00    0.70449   0.69511    0.011
 5992.00    0.70089   0.69437    0.011
 5993.00    0.69313   0.69366    0.011
 5994.00    0.67544   0.69276    0.011
 5995.00    0.64684   0.69136    0.011
 5996.00    0.61611   0.68976    0.011
 5997.00    0.58332   0.68827    0.011
 5998.00    0.59094   0.68673    0.011
 5999.00    0.63305   0.68556    0.011
 6000.00    0.66239   0.68425    0.011
 6001.00    0.68214   0.68264    0.012
 6002.00    0.70062   0.68140    0.012
 6003.00    0.71826   0.68015    0.011
 6004.00    0.73143   0.67956    0.012
 6005.00    0.74200   0.67917    0.012
 6006.00    0.71865   0.67836    0.012
 6007.00    0.67820   0.67786    0.012
 6008.00    0.65735   0.67717    0.012
 6009.00    0.64503   0.67680    0.012
 6010.00    0.70030   0.67672    0.012
 6011.00    0.78085   0.67617    0.012
 6012.00    0.82053   0.67528    0.012
 6013.00    0.84725   0.67440    0.012
 6014.00    0.80686   0.67394    0.012
 6015.00    0.74868   0.67381    0.011
 6016.00    0.71256   0.67400    0.011
 6017.00    0.68123   0.67435    0.012
 6018.00    0.64910   0.67572    0.012
 6019.00    0.61683   0.67730    0.011
 6020.00    0.63485   0.67907    0.011
 6021.00    0.65943   0.68175    0.011
 6022.00    0.70343   0.68445    0.011
 6023.00    0.74923   0.68756    0.011
 6024.00    0.72471   0.69041    0.011
 6025.00    0.69628   0.69337    0.011
 6026.00    0.67556   0.69622    0.011
 6027.00    0.65539   0.69841    0.011
 6028.00    0.67260   0.70056    0.011
 6029.00    0.68940   0.70233    0.011
 6030.00    0.69677   0.70357    0.011
 6031.00    0.70519   0.70444    0.011
 6032.00    0.72707   0.70499    0.011
 6033.00    0.74309   0.70524    0.011
 6034.00    0.70872   0.70527    0.011
 6035.00    0.66804   0.70502    0.011
 6036.00    0.58706   0.70508    0.011
 6037.00    0.52685   0.70510    0.011
 6038.00    0.57045   0.70528    0.012
 6039.00    0.61127   0.70559    0.012
 6040.00    0.64083   0.70587    0.012
 6041.00    0.65662   0.70636    0.012
 6042.00    0.62624   0.70657    0.012
 6043.00    0.60009   0.70687    0.012
 6044.00    0.58599   0.70682    0.011
 6045.00    0.58530   0.70628    0.011
 6046.00    0.61709   0.70529    0.011
 6047.00    0.63563   0.70400    0.011
 6048.00    0.62647   0.70248    0.011
 6049.00    0.61570   0.70057    0.011
 6050.00    0.60200   0.69893    0.011
 6051.00    0.60069   0.69726    0.011
 6052.00    0.61907   0.69582    0.011
 6053.00    0.64966   0.69451    0.011
 6054.00    0.69726   0.69344    0.011
 6055.00    0.71887   0.69267    0.011
 6056.00    0.70856   0.69173    0.011
 6057.00    0.69326   0.69118    0.011
 6058.00    0.67253   0.69051    0.011
 6059.00    0.67767   0.69041    0.011
 6060.00    0.70748   0.69087    0.011
 6061.00    0.72611   0.69158    0.011
 6062.00    0.73534   0.69295    0.011
 6063.00    0.73182   0.69451    0.011
 6064.00    0.71887   0.69661    0.011
 6065.00    0.67874   0.69868    0.011
 6066.00    0.62092   0.70077    0.011
 6067.00    0.59961   0.70286    0.011
 6068.00    0.59908   0.70396    0.012
 6069.00    0.61024   0.70408    0.012
 6070.00    0.62720   0.70333    0.011
 6071.00    0.64986   0.70156    0.011
 6072.00    0.67496   0.69922    0.012
 6073.00    0.67050   0.69657    0.012
 6074.00    0.65519   0.69345    0.011
 6075.00    0.61493   0.69018    0.011
 6076.00    0.56690   0.68711    0.012
 6077.00    0.54878   0.68442    0.011
 6078.00    0.53841   0.68196    0.011
 6079.00    0.55409   0.68004    0.011
 6080.00    0.57528   0.67887    0.011
 6081.00    0.60240   0.67803    0.011
 6082.00    0.63050   0.67716    0.011
 6083.00    0.62483   0.67657    0.011
 6084.00    0.61491   0.67646    0.011
 6085.00    0.62700   0.67631    0.011
 6086.00    0.64103   0.67636    0.011
 6087.00    0.68245   0.67669    0.011
 6088.00    0.72528   0.67727    0.011
 6089.00    0.74864   0.67763    0.011
 6090.00    0.77133   0.67775    0.011
 6091.00    0.77070   0.67803    0.011
 6092.00    0.76689   0.67815    0.011
 6093.00    0.69534   0.67779    0.011
 6094.00    0.62637   0.67689    0.011
 6095.00    0.58867   0.67527    0.011
 6096.00    0.55721   0.67319    0.011
 6097.00    0.57757   0.67184    0.011
 6098.00    0.59708   0.67062    0.011
 6099.00    0.61144   0.66995    0.011
 6100.00    0.62873   0.66969    0.012
 6101.00    0.66028   0.66991    0.012
 6102.00    0.68349   0.67088    0.012
 6103.00    0.67366   0.67227    0.012
 6104.00    0.65742   0.67460    0.012
 6105.00    0.62006   0.67687    0.012
 6106.00    0.58894   0.67878    0.012
 6107.00    0.57517   0.68029    0.011
 6108.00    0.55505   0.68116    0.011
 6109.00    0.51984   0.68139    0.011
 6110.00    0.48873   0.68122    0.011
 6111.00    0.46606   0.68032    0.011
 6112.00    0.46074   0.67863    0.011
 6113.00    0.48648   0.67653    0.011
 6114.00    0.52265   0.67400    0.011
 6115.00    0.57515   0.67099    0.011
 6116.00    0.62244   0.66839    0.011
 6117.00    0.66257   0.66651    0.011
 6118.00    0.68055   0.66493    0.011
 6119.00    0.67174   0.66382    0.011
 6120.00    0.65206   0.66312    0.011
 6121.00    0.62080   0.66312    0.011
 6122.00    0.60544   0.66337    0.011
 6123.00    0.60506   0.66417    0.011
 6124.00    0.63246   0.66529    0.011
 6125.00    0.68291   0.66541    0.011
 6126.00    0.71655   0.66495    0.011
 6127.00    0.73791   0.66364    0.011
 6128.00    0.74157   0.66133    0.011
 6129.00    0.73387   0.65839    0.011
 6130.00    0.73965   0.65493    0.011
 6131.00    0.75300   0.65210    0.011
 6132.00    0.74998   0.64978    0.011
 6133.00    0.73897   0.64804    0.011
 6134.00    0.72609   0.64700    0.012
 6135.00    0.71242   0.64684    0.012
 6136.00    0.70521   0.64832    0.012
 6137.00    0.70033   0.65056    0.012
 6138.00    0.68429   0.65385    0.012
 6139.00    0.66484   0.65764    0.011
 6140.00    0.62278   0.66075    0.011
 6141.00    0.57498   0.66295    0.012
 6142.00    0.55214   0.66443    0.011
 6143.00    0.53445   0.66572    0.011
 6144.00    0.54802   0.66644    0.011
 6145.00    0.56667   0.66623    0.011
 6146.00    0.61311   0.66556    0.011
 6147.00    0.66293   0.66425    0.011
 6148.00    0.67438   0.66235    0.011
 6149.00    0.68262   0.66032    0.011
 6150.00    0.64943   0.65772    0.011
 6151.00    0.61426   0.65464    0.011
 6152.00    0.60024   0.65079    0.011
 6153.00    0.58719   0.64623    0.011
 6154.00    0.61211   0.64075    0.011
 6155.00    0.63763   0.63497    0.011
 6156.00    0.67494   0.62990    0.011
 6157.00    0.70403   0.62529    0.012
 6158.00    0.63818   0.62150    0.012
 6159.00    0.57544   0.61851    0.012
 6160.00    0.53751   0.61668    0.012
 6161.00    0.51060   0.61566    0.012
 6162.00    0.55003   0.61552    0.012
 6163.00    0.59009   0.61688    0.012
 6164.00    0.63316   0.61925    0.012
 6165.00    0.66340   0.62212    0.012
 6166.00    0.64393   0.62471    0.011
 6167.00    0.62562   0.62766    0.011
 6168.00    0.61103   0.63073    0.011
 6169.00    0.60295   0.63352    0.011
 6170.00    0.61265   0.63645    0.011
 6171.00    0.61444   0.63989    0.011
 6172.00    0.59768   0.64322    0.011
 6173.00    0.57925   0.64568    0.011
 6174.00    0.55744   0.64802    0.011
 6175.00    0.54287   0.64999    0.011
 6176.00    0.54105   0.65134    0.011
 6177.00    0.54756   0.65202    0.010
 6178.00    0.56692   0.65224    0.011
 6179.00    0.57913   0.65168    0.011
 6180.00    0.58167   0.65018    0.011
 6181.00    0.59258   0.64829    0.011
 6182.00    0.61348   0.64585    0.011
 6183.00    0.63817   0.64318    0.011
 6184.00    0.66683   0.64029    0.011
 6185.00    0.66344   0.63797    0.011
 6186.00    0.63032   0.63635    0.012
 6187.00    0.60677   0.63533    0.012
 6188.00    0.59106   0.63531    0.012
 6189.00    0.60732   0.63597    0.012
 6190.00    0.64659   0.63731    0.012
 6191.00    0.67643   0.63877    0.012
 6192.00    0.70030   0.64053    0.011
 6193.00    0.78937   0.64293    0.011
 6194.00    0.91445   0.64502    0.011
 6195.00    1.13322   0.64682    0.011
 6196.00    1.39699   0.64841   -2.000
 6197.00    1.42321   0.64983   -2.000
 6198.00    1.35095   0.65100   -2.000
 6199.00    1.02969   0.65188   -2.000
 6200.00    0.62017   0.65251   -2.000
 6201.00    0.34548   0.65297   -2.000
 6202.00    0.11115   0.65292   -2.000
 6203.00    0.21737   0.65200   -2.000
 6204.00    0.40819   0.65014   -2.000
 6205.00    0.54439   0.64751   -2.000
 6206.00    0.66961   0.64417   -2.000
 6207.00    0.68136   0.64029   -2.000
 6208.00    0.67521   0.63624    0.011
 6209.00    0.64492   0.63215    0.011
 6210.00    0.61181   0.62828    0.011
 6211.00    0.59666   0.62485    0.011
 6212.00    0.58293   0.62208    0.011
 6213.00    0.59363   0.62000    0.011
 6214.00    0.60541   0.61873    0.011
 6215.00    0.60300   0.61833    0.011
 6216.00    0.60086   0.61858    0.011
 6217.00    0.61920   0.61915    0.023
 6218.00    0.63712   0.61991   -1.000
 6219.00    0.64744   0.62038   -1.000
 6220.00    0.65935   0.62057   -1.000
 6221.00    0.68888   0.62055   -1.000
 6222.00    0.72259   0.62008   -1.000
 6223.00    0.78864   0.61940   -1.000
 6224.00    0.84912   0.61823   -1.000
 6225.00    0.87701   0.61744   -1.000
 6226.00    0.89158   0.61676   -1.000
 6227.00    0.84443   0.61634   -1.000
 6228.00    0.78844   0.61631    0.103
 6229.00    0.69896   0.61638    0.018
 6230.00    0.61522   0.61663    0.011
 6231.00    0.54965   0.61670    0.011
 6232.00    0.50896   0.61725    0.011
 6233.00    0.53503   0.61704    0.011
 6234.00    0.56398   0.61637    0.011
 6235.00    0.59955   0.61536    0.010
 6236.00    0.62588   0.61363    0.010
 6237.00    0.63383   0.61184    0.011
 6238.00    0.63355   0.61013    0.011
 6239.00    0.61898   0.60889    0.011
 6240.00    0.58279   0.60799    0.011
 6241.00    0.51373   0.60761    0.011
 6242.00    0.45378   0.60766    0.011
 6243.00    0.40598   0.60726    0.011
 6244.00    0.41846   0.60711    0.011
 6245.00    0.50183   0.60676    0.011
 6246.00    0.58116   0.60595    0.011
 6247.00    0.65630   0.60475    0.011
 6248.00    0.69831   0.60327    0.011
 6249.00    0.71001   0.60141    0.011
 6250.00    0.68495   0.59945    0.011
 6251.00    0.63025   0.59816    0.011
 6252.00    0.56749   0.59699    0.011
 6253.00    0.49902   0.59706    0.011
 6254.00    0.45678   0.59804    0.011
 6255.00    0.43088   0.59992    0.011
 6256.00    0.46581   0.60233    0.011
 6257.00    0.53383   0.60523    0.011
 6258.00    0.62287   0.60864    0.011
 6259.00    0.72185   0.61188    0.011
 6260.00    0.73656   0.61532    0.012
 6261.00    0.71694   0.61808    0.013
 6262.00    0.66785   0.62047    0.013
 6263.00    0.60851   0.62255    0.014
 6264.00    0.58961   0.62416    0.013
 6265.00    0.58258   0.62525    0.013
 6266.00    0.58117   0.62629    0.012
 6267.00    0.58112   0.62734    0.012
 6268.00    0.57498   0.62801    0.011
 6269.00    0.56764   0.62841    0.011
 6270.00    0.60716   0.62867    0.011
 6271.00    0.65384   0.62861    0.011
 6272.00    0.64537   0.62850    0.011
 6273.00    0.63068   0.62830    0.011
 6274.00    0.62451   0.62797    0.011
 6275.00    0.61899   0.62786    0.011
 6276.00    0.60610   0.62780    0.011
 6277.00    0.59292   0.62817    0.011
 6278.00    0.55547   0.62877    0.011
 6279.00    0.51867   0.62982    0.011
 6280.00    0.51526   0.63098    0.000
 6281.00    0.51211   0.63221    0.000
 6282.00    0.51330   0.63354    0.000
 6283.00    0.51799   0.63448    0.000
 6284.00    0.55955   0.63512    0.000
 6285.00    0.59545   0.63512    0.000
 6286.00    0.58911   0.63458    0.000
 6287.00    0.58204   0.63347    0.000
 6288.00    0.57083   0.63181    0.000
 6289.00    0.56386   0.62979    0.000
 6290.00    0.57613   0.62750    0.000
 6291.00    0.58689   0.62498    0.000
 6292.00    0.59207   0.62256    0.000
 6293.00    0.58736   0.62031    0.000
 6294.00    0.55197   0.61853    0.000
 6295.00    0.52199   0.61729    0.000
 6296.00    0.50628   0.61633    0.000
 6297.00    0.49754   0.61603    0.000
 6298.00    0.50455   0.61652    0.000
 6299.00    0.51535   0.61755    0.000
 6300.00    0.53360   0.61889    0.000
 6301.00    0.54061   0.62023    0.000
 6302.00    0.52841   0.62156    0.000
 6303.00    0.51871   0.62281    0.000
 6304.00    0.51279   0.62366    0.000
 6305.00    0.52128   0.62375    0.000
 6306.00    0.54874   0.62300    0.000
 6307.00    0.56340   0.62192    0.000
 6308.00    0.56323   0.62022    0.000
 6309.00    0.56186   0.61800    0.000
 6310.00    0.55926   0.61575    0.000
 6311.00    0.56334   0.61371    0.000
 6312.00    0.57343   0.61214    0.000
 6313.00    0.57314   0.61118    0.000
 6314.00    0.56460   0.61088    0.000
 6315.00    0.56789   0.61131    0.000
 6316.00    0.57946   0.61255    0.000
 6317.00    0.57815   0.61462    0.000
 6318.00    0.56893   0.61675    0.000
 6319.00    0.55951   0.61936    0.000
 6320.00    0.54998   0.62222    0.000
 6321.00    0.54503   0.62461    0.010
 6322.00    0.54220   0.62670    0.010
 6323.00    0.54522   0.62816    0.010
 6324.00    0.55057   0.62922    0.011
 6325.00    0.53804   0.62946    0.011
 6326.00    0.51939   0.62898    0.011
 6327.00    0.51760   0.62798    0.011
 6328.00    0.52066   0.62648    0.011
 6329.00    0.54666   0.62495    0.011
 6330.00    0.57812   0.62295    0.012
 6331.00    0.58011   0.62111    0.011
 6332.00    0.57646   0.61952    0.011
 6333.00    0.56175   0.61807    0.011
 6334.00    0.54540   0.61703    0.011
 6335.00    0.52485   0.61604    0.011
 6336.00    0.50384   0.61570    0.011
 6337.00    0.52809   0.61577    0.011
 6338.00    0.55557   0.61621    0.010
 6339.00    0.59491   0.61669    0.010
 6340.00    0.63468   0.61739    0.010
 6341.00    0.63612   0.61831    0.010
 6342.00    0.63653   0.61910    0.011
 6343.00    0.60612   0.61992    0.011
 6344.00    0.57679   0.62056    0.010
 6345.00    0.56471   0.62115    0.010
 6346.00    0.55333   0.62134    0.010
 6347.00    0.54898   0.62087    0.010
 6348.00    0.54283   0.61982    0.010
 6349.00    0.52376   0.61813    0.010
 6350.00    0.50409   0.61570    0.010
 6351.00    0.48115   0.61282    0.010
 6352.00    0.46557   0.60963    0.010
 6353.00    0.48248   0.60631    0.010
 6354.00    0.49813   0.60316    0.011
 6355.00    0.50916   0.60041    0.011
 6356.00    0.52787   0.59849    0.011
 6357.00    0.56996   0.59743    0.011
 6358.00    0.60063   0.59713    0.011
 6359.00    0.60168   0.59782    0.011
 6360.00    0.58298   0.59959    0.011
 6361.00    0.52030   0.60214    0.011
 6362.00    0.47139   0.60524    0.011
 6363.00    0.44908   0.60880    0.011
 6364.00    0.44464   0.61259    0.011
 6365.00    0.47031   0.61625    0.011
 6366.00    0.48696   0.61968    0.011
 6367.00    0.49031   0.62259    0.011
 6368.00    0.48965   0.62512    0.011
 6369.00    0.48377   0.62696    0.011
 6370.00    0.48927   0.62822    0.011
 6371.00    0.50778   0.62904    0.010
 6372.00    0.52351   0.62944    0.010
 6373.00    0.53644   0.62948    0.010
 6374.00    0.53981   0.62915    0.010
 6375.00    0.53467   0.62870    0.010
 6376.00    0.53467   0.62824    0.010
 6377.00    0.53871   0.62786    0.010
 6378.00    0.51857   0.62752    0.010
 6379.00    0.48180   0.62729    0.011
 6380.00    0.47133   0.62723    0.011
 6381.00    0.47674   0.62706    0.011
 6382.00    0.49352   0.62675    0.011
 6383.00    0.51630   0.62631    0.011
 6384.00    0.51880   0.62555    0.011
 6385.00    0.51203   0.62457    0.011
 6386.00    0.50378   0.62342    0.011
 6387.00    0.49493   0.62205    0.011
 6388.00    0.52752   0.62052    0.011
 6389.00    0.57399   0.61889    0.011
 6390.00    0.56925   0.61767    0.011
 6391.00    0.55009   0.61660    0.011
 6392.00    0.51182   0.61580    0.011
 6393.00    0.46912   0.61524    0.011
 6394.00    0.47465   0.61506    0.011
 6395.00    0.48917   0.61548    0.011
 6396.00    0.48079   0.61581    0.011
 6397.00    0.46912   0.61632    0.011
 6398.00    0.44131   0.61676    0.011
 6399.00    0.41182   0.61720    0.011
 6400.00    0.44042   0.61724    0.011
 6401.00    0.47293   0.61749    0.011
 6402.00    0.53937   0.61769    0.011
 6403.00    0.60692   0.61734    0.011
 6404.00    0.60628   0.61681    0.011
 6405.00    0.60528   0.61618    0.010
 6406.00    0.59395   0.61546    0.011
 6407.00    0.58242   0.61483    0.011
 6408.00    0.56807   0.61423    0.011
 6409.00    0.55564   0.61390    0.011
 6410.00    0.56183   0.61373    0.011
 6411.00    0.56346   0.61340    0.011
 6412.00    0.53322   0.61333    0.011
 6413.00    0.51135   0.61342    0.011
 6414.00    0.53457   0.61365    0.011
 6415.00    0.55280   0.61399    0.011
 6416.00    0.54946   0.61471    0.011
 6417.00    0.54554   0.61555    0.011
 6418.00    0.53960   0.61656    0.011
 6419.00    0.52841   0.61766    0.011
 6420.00    0.50155   0.61858    0.011
 6421.00    0.47860   0.61952    0.011
 6422.00    0.46565   0.62015    0.010
 6423.00    0.46651   0.62058    0.010
 6424.00    0.49762   0.62036    0.010
 6425.00    0.52678   0.61978    0.010
 6426.00    0.55224   0.61903    0.010
 6427.00    0.56459   0.61823    0.011
 6428.00    0.55521   0.61751    0.011
 6429.00    0.52623   0.61692    0.011
 6430.00    0.46874   0.61661    0.011
 6431.00    0.43847   0.61653    0.011
 6432.00    0.44300   0.61702    0.011
 6433.00    0.48419   0.61776    0.011
 6434.00    0.56669   0.61868    0.011
 6435.00    0.58360   0.61971    0.011
 6436.00    0.53532   0.62073    0.011
 6437.00    0.47390   0.62162    0.011
 6438.00    0.40098   0.62222    0.011
 6439.00    0.37671   0.62234    0.011
 6440.00    0.39001   0.62226    0.011
 6441.00    0.40947   0.62158    0.011
 6442.00    0.43311   0.62014    0.011
 6443.00    0.44630   0.61817    0.011
 6444.00    0.45328   0.61593    0.011
 6445.00    0.45620   0.61371    0.011
 6446.00    0.45702   0.61175    0.011
 6447.00    0.42363   0.61029    0.011
 6448.00    0.37485   0.60928    0.011
 6449.00    0.37248   0.60885    0.011
 6450.00    0.38805   0.60887    0.010
 6451.00    0.37280   0.60973    0.011
 6452.00    0.34742   0.61070    0.011
 6453.00    0.34966   0.61165    0.011
 6454.00    0.35952   0.61239    0.010
 6455.00    0.40609   0.61289    0.011
 6456.00    0.46097   0.61313    0.011
 6457.00    0.49128   0.61347    0.011
 6458.00    0.51714   0.61370    0.011
 6459.00    0.51844   0.61393    0.011
 6460.00    0.51631   0.61419    0.011
 6461.00    0.47694   0.61448    0.011
 6462.00    0.43385   0.61486    0.011
 6463.00    0.42774   0.61523    0.011
 6464.00    0.42397   0.61612    0.011
 6465.00    0.42874   0.61663    0.011
 6466.00    0.43377   0.61715    0.011
 6467.00    0.44302   0.61736    0.011
 6468.00    0.45400   0.61750    0.011
 6469.00    0.51292   0.61735    0.011
 6470.00    0.56800   0.61711    0.011
 6471.00    0.56860   0.61676    0.011
 6472.00    0.56678   0.61613    0.011
 6473.00    0.54241   0.61555    0.011
 6474.00    0.52482   0.61461    0.011
 6475.00    0.55313   0.61354    0.011
 6476.00    0.57816   0.61233    0.011
 6477.00    0.58594   0.61122    0.011
 6478.00    0.57647   0.60997    0.011
 6479.00    0.49417   0.60869    0.010
 6480.00    0.42366   0.60733    0.010
 6481.00    0.39429   0.60563    0.011
 6482.00    0.38515   0.60352    0.011
 6483.00    0.43536   0.60094    0.011
 6484.00    0.48538   0.59773    0.011
 6485.00    0.53496   0.59372    0.011
 6486.00    0.55907   0.58892    0.011
 6487.00    0.52828   0.58366    0.011
 6488.00    0.50357   0.57818    0.011
 6489.00    0.49022   0.57304    0.011
 6490.00    0.50435   0.56850    0.011
 6491.00    0.56337   0.56522    0.011
 6492.00    0.59527   0.56339    0.011
 6493.00    0.58828   0.56319    0.011
 6494.00    0.57484   0.56457    0.011
 6495.00    0.55327   0.56740    0.011
 6496.00    0.56099   0.57175    0.011
 6497.00    0.60126   0.57663    0.011
 6498.00    0.61714   0.58209    0.010
 6499.00    0.60915   0.58724    0.011
 6500.00    0.56920   0.59209    0.011
 6501.00    0.50166   0.59640    0.011
 6502.00    0.49092   0.59985    0.011
 6503.00    0.52343   0.60258    0.010
 6504.00    0.56046   0.60446    0.010
 6505.00    0.60051   0.60568    0.010
 6506.00    0.59786   0.60622    0.011
 6507.00    0.57019   0.60629    0.011
 6508.00    0.54424   0.60583    0.011
 6509.00    0.51919   0.60519    0.011
 6510.00    0.52573   0.60437    0.011
 6511.00    0.54626   0.60360    0.011
 6512.00    0.56019   0.60281    0.011
 6513.00    0.57163   0.60226    0.011
 6514.00    0.59756   0.60195    0.011
 6515.00    0.62818   0.60187    0.011
 6516.00    0.60334   0.60205    0.011
 6517.00    0.56352   0.60241    0.011
 6518.00    0.49620   0.60289    0.011
 6519.00    0.42280   0.60323    0.011
 6520.00    0.41021   0.60365    0.011
 6521.00    0.40835   0.60378    0.011
 6522.00    0.39644   0.60374    0.011
 6523.00    0.38317   0.60349    0.011
 6524.00    0.39321   0.60321    0.011
 6525.00    0.40548   0.60288    0.010
 6526.00    0.41399   0.60256    0.010
 6527.00    0.42229   0.60230    0.010
 6528.00    0.43604   0.60225    0.000
 6529.00    0.44993   0.60234    0.000
 6530.00    0.46275   0.60248    0.000
 6531.00    0.47532   0.60261    0.000
 6532.00    0.48136   0.60263    0.000
 6533.00    0.48746   0.60253    0.000
 6534.00    0.49420   0.60221    0.000
 6535.00    0.50004   0.60155    0.000
 6536.00    0.49795   0.60049    0.000
 6537.00    0.49728   0.59895    0.000
 6538.00    0.50590   0.59705    0.000
 6539.00    0.51222   0.59489    0.000
 6540.00    0.50670   0.59249    0.000
 6541.00    0.49655   0.58993    0.000
 6542.00    0.46728   0.58723    0.000
 6543.00    0.44456   0.58456    0.000
 6544.00    0.44426   0.58176    0.000
 6545.00    0.45586   0.57886    0.000
 6546.00    0.50177   0.57559    0.000
 6547.00    0.54333   0.57198    0.000
 6548.00    0.57423   0.56789    0.000
 6549.00    0.59676   0.56304    0.000
 6550.00    0.60156   0.55743    0.000
 6551.00    0.58881   0.55097    0.000
 6552.00    0.54371   0.54383    0.000
 6553.00    0.51854   0.53624    0.000
 6554.00    0.52546   0.52839    0.000
 6555.00    0.53229   0.52089    0.000
 6556.00    0.53900   0.51413    0.000
 6557.00    0.55416   0.50883    0.000
 6558.00    0.57981   0.50528    0.000
 6559.00    0.65111   0.50382    0.000
 6560.00    0.77242   0.50466    0.000
 6561.00    0.85367   0.50754    0.000
 6562.00    0.89622   0.51218    0.000
 6563.00    0.90775   0.51803    0.000
 6564.00    0.89287   0.52523    0.000
 6565.00    0.85006   0.53253    0.000
 6566.00    0.78629   0.53933    0.000
 6567.00    0.70596   0.54549    0.000
 6568.00    0.61470   0.55090    0.000
 6569.00    0.54524   0.55555    0.000
 6570.00    0.48837   0.55972    0.000
 6571.00    0.45752   0.56341    0.000
 6572.00    0.43976   0.56677    0.000
 6573.00    0.43860   0.56969    0.000
 6574.00    0.44466   0.57246    0.000
 6575.00    0.47073   0.57483    0.000
 6576.00    0.50428   0.57705    0.000
 6577.00    0.54596   0.57888    0.000
 6578.00    0.59022   0.58034    0.000
 6579.00    0.58427   0.58140    0.000
 6580.00    0.56505   0.58206    0.000
 6581.00    0.59048   0.58235    0.000
 6582.00    0.62558   0.58229    0.000
 6583.00    0.63720   0.58189    0.000
 6584.00    0.64480   0.58107    0.000
 6585.00    0.62376   0.57996    0.000
 6586.00    0.59900   0.57866    0.000
 6587.00    0.55999   0.57730    0.000
 6588.00    0.51967   0.57617    0.000
 6589.00    0.53727   0.57520    0.000
 6590.00    0.55806   0.57471    0.000
 6591.00    0.58291   0.57462    0.000
 6592.00    0.60725   0.57499    0.000
 6593.00    0.57537   0.57572    0.000
 6594.00    0.54363   0.57682    0.000
 6595.00    0.51507   0.57810    0.000
 6596.00    0.48458   0.57918    0.000
 6597.00    0.42962   0.57997    0.000
 6598.00    0.37826   0.58040    0.000
 6599.00    0.35784   0.58048    0.000
 6600.00    0.34426   0.58031    0.000
 6601.00    0.37430   0.57991    0.000
 6602.00    0.40389   0.57946    0.000
 6603.00    0.43129   0.57904    0.000
 6604.00    0.45862   0.57894    0.000
 6605.00    0.48563   0.57909    0.000
 6606.00    0.50385   0.57973    0.000
 6607.00    0.49265   0.58068    0.000
 6608.00    0.47606   0.58194    0.000
 6609.00    0.44427   0.58335    0.011
 6610.00    0.43055   0.58484    0.011
 6611.00    0.46053   0.58633    0.011
 6612.00    0.49399   0.58747    0.011
 6613.00    0.53472   0.58833    0.012
 6614.00    0.55630   0.58874    0.012
 6615.00    0.54310   0.58884    0.012
 6616.00    0.53030   0.58850    0.012
 6617.00    0.51812   0.58774    0.012
 6618.00    0.49331   0.58669    0.012
 6619.00    0.45092   0.58536    0.011
 6620.00    0.43332   0.58391    0.011
 6621.00    0.44612   0.58225    0.011
 6622.00    0.46257   0.58063    0.011
 6623.00    0.48298   0.57888    0.011
 6624.00    0.49382   0.57728    0.011
 6625.00    0.49555   0.57567    0.011
 6626.00    0.48200   0.57436    0.011
 6627.00    0.45561   0.57316    0.011
 6628.00    0.42624   0.57219    0.011
 6629.00    0.39469   0.57152    0.011
 6630.00    0.38632   0.57110    0.011
 6631.00    0.39301   0.57102    0.011
 6632.00    0.39438   0.57114    0.011
 6633.00    0.39273   0.57148    0.011
 6634.00    0.40301   0.57188    0.011
 6635.00    0.41919   0.57243    0.012
 6636.00    0.45298   0.57290    0.012
 6637.00    0.49429   0.57330    0.012
 6638.00    0.53358   0.57359    0.012
 6639.00    0.57212   0.57383    0.012
 6640.00    0.53501   0.57403    0.012
 6641.00    0.47441   0.57432    0.012
 6642.00    0.41507   0.57461    0.012
 6643.00    0.35606   0.57490    0.011
 6644.00    0.37096   0.57520    0.011
 6645.00    0.40145   0.57559    0.011
 6646.00    0.42403   0.57584    0.011
 6647.00    0.44529   0.57600    0.011
 6648.00    0.49619   0.57595    0.011
 6649.00    0.55082   0.57580    0.011
 6650.00    0.55713   0.57535    0.011
 6651.00    0.55922   0.57471    0.011
 6652.00    0.51503   0.57380    0.011
 6653.00    0.46846   0.57269    0.011
 6654.00    0.49752   0.57137    0.011
 6655.00    0.52779   0.56992    0.011
 6656.00    0.54904   0.56845    0.011
 6657.00    0.56686   0.56697    0.012
 6658.00    0.51255   0.56575    0.012
 6659.00    0.46356   0.56471    0.012
 6660.00    0.47879   0.56408    0.012
 6661.00    0.48914   0.56380    0.012
 6662.00    0.45921   0.56395    0.012
 6663.00    0.43884   0.56436    0.012
 6664.00    0.47749   0.56503    0.012
 6665.00    0.51142   0.56584    0.012
 6666.00    0.52236   0.56650    0.012
 6667.00    0.52327   0.56698    0.011
 6668.00    0.48460   0.56712    0.011
 6669.00    0.44918   0.56696    0.011
 6670.00    0.42446   0.56646    0.011
 6671.00    0.40646   0.56575    0.011
 6672.00    0.40711   0.56490    0.011
 6673.00    0.40247   0.56415    0.011
 6674.00    0.38522   0.56359    0.011
 6675.00    0.36840   0.56335    0.011
 6676.00    0.35248   0.56349    0.011
 6677.00    0.36210   0.56394    0.011
 6678.00    0.41732   0.56473    0.012
 6679.00    0.45200   0.56576    0.012
 6680.00    0.45459   0.56697    0.012
 6681.00    0.45788   0.56800    0.012
 6682.00    0.46214   0.56891    0.012
 6683.00    0.46704   0.56955    0.012
 6684.00    0.47271   0.56988    0.012
 6685.00    0.47092   0.56993    0.012
 6686.00    0.46118   0.56960    0.012
 6687.00    0.42679   0.56907    0.012
 6688.00    0.36926   0.56824    0.012
 6689.00    0.38854   0.56735    0.012
 6690.00    0.47143   0.56631    0.012
 6691.00    0.54681   0.56534    0.012
 6692.00    0.61672   0.56440    0.012
 6693.00    0.58080   0.56361    0.012
 6694.00    0.47715   0.56298    0.012
 6695.00    0.43280   0.56247    0.011
 6696.00    0.42165   0.56213    0.000
 6697.00    0.45180   0.56184    0.000
 6698.00    0.50206   0.56170    0.000
 6699.00    0.49481   0.56145    0.000
 6700.00    0.46335   0.56122    0.000
 6701.00    0.43456   0.56081    0.000
 6702.00    0.40674   0.56026    0.000
 6703.00    0.42215   0.55953    0.000
 6704.00    0.45072   0.55858    0.000
 6705.00    0.47903   0.55749    0.000
 6706.00    0.50728   0.55619    0.000
 6707.00    0.48454   0.55477    0.000
 6708.00    0.45130   0.55323    0.000
 6709.00    0.42241   0.55175    0.000
 6710.00    0.39423   0.55036    0.000
 6711.00    0.37755   0.54924    0.000
 6712.00    0.36226   0.54846    0.000
 6713.00    0.41038   0.54812    0.000
 6714.00    0.46376   0.54815    0.000
 6715.00    0.50685   0.54870    0.000
 6716.00    0.54946   0.54947    0.000
 6717.00    0.55530   0.55063    0.000
 6718.00    0.55900   0.55182    0.000
 6719.00    0.47087   0.55323    0.000
 6720.00    0.38682   0.55444    0.000
 6721.00    0.38239   0.55561    0.000
 6722.00    0.38151   0.55654    0.000
 6723.00    0.42129   0.55738    0.000
 6724.00    0.45440   0.55798    0.000
 6725.00    0.43446   0.55840    0.000
 6726.00    0.41042   0.55862    0.000
 6727.00    0.36177   0.55864    0.000
 6728.00    0.34308   0.55850    0.000
 6729.00    0.46641   0.55811    0.000
 6730.00    0.56671   0.55759    0.000
 6731.00    0.57802   0.55684    0.000
 6732.00    0.57732   0.55601    0.000
 6733.00    0.53795   0.55504    0.000
 6734.00    0.48558   0.55405    0.000
 6735.00    0.39771   0.55304    0.000
 6736.00    0.32310   0.55206    0.000
 6737.00    0.27946   0.55112    0.000
 6738.00    0.23662   0.55020    0.000
 6739.00    0.19541   0.54940    0.000
 6740.00    0.19591   0.54864    0.000
 6741.00    0.26979   0.54805    0.000
 6742.00    0.33763   0.54746    0.000
 6743.00    0.39618   0.54708    0.000
 6744.00    0.45633   0.54679    0.000
 6745.00    0.51866   0.54679    0.000
 6746.00    0.55702   0.54693    0.000
 6747.00    0.56685   0.54740    0.000
 6748.00    0.54667   0.54811    0.000
 6749.00    0.49500   0.54905    0.000
 6750.00    0.49594   0.55025    0.000
 6751.00    0.54561   0.55152    0.000
 6752.00    0.59637   0.55293    0.000
 6753.00    0.64802   0.55416    0.014
 6754.00    0.63921   0.55534    0.015
 6755.00    0.58699   0.55620    0.015
 6756.00    0.58134   0.55675    0.015
 6757.00    0.60508   0.55696    0.015
 6758.00    0.60409   0.55678    0.015
 6759.00    0.58948   0.55632    0.015
 6760.00    0.57075   0.55558    0.015
 6761.00    0.55006   0.55476    0.015
 6762.00    0.57394   0.55387    0.015
 6763.00    0.61625   0.55314    0.015
 6764.00    0.62827   0.55262    0.015
 6765.00    0.62958   0.55237    0.015
 6766.00    0.58512   0.55247    0.015
 6767.00    0.52699   0.55284    0.014
 6768.00    0.61400   0.55353    0.014
 6769.00    0.73696   0.55434    0.014
 6770.00    0.70254   0.55525    0.014
 6771.00    0.63654   0.55597    0.014
 6772.00    0.52274   0.55654    0.014
 6773.00    0.40144   0.55673    0.013
 6774.00    0.37338   0.55659    0.014
 6775.00    0.35620   0.55602    0.014
 6776.00    0.33521   0.55511    0.014
 6777.00    0.31392   0.55393    0.014
 6778.00    0.35166   0.55260    0.014
 6779.00    0.39197   0.55130    0.015
 6780.00    0.38306   0.55009    0.015
 6781.00    0.37572   0.54910    0.015
 6782.00    0.46612   0.54836    0.015
 6783.00    0.54970   0.54789    0.015
 6784.00    0.50976   0.54767    0.015
 6785.00    0.47124   0.54764    0.014
 6786.00    0.44815   0.54773    0.015
 6787.00    0.42494   0.54788    0.014
 6788.00    0.40082   0.54804    0.014
 6789.00    0.37928   0.54821    0.014
 6790.00    0.37277   0.54832    0.014
 6791.00    0.36149   0.54851    0.014
 6792.00    0.32811   0.54864    0.014
 6793.00    0.31220   0.54888    0.014
 6794.00    0.36232   0.54905    0.015
 6795.00    0.42625   0.54934    0.015
 6796.00    0.53378   0.54952    0.014
 6797.00    0.59470   0.54973    0.014
 6798.00    0.53077   0.54981    0.015
 6799.00    0.51488   0.54984    0.015
 6800.00    0.60940   0.54974    0.015
 6801.00    0.67151   0.54959    0.016
 6802.00    0.66916   0.54935    0.016
 6803.00    0.64205   0.54907    0.016
 6804.00    0.57204   0.54878    0.015
 6805.00    0.54374   0.54851    0.015
 6806.00    0.57870   0.54830    0.015
 6807.00    0.55495   0.54814    0.015
 6808.00    0.45296   0.54808    0.014
 6809.00    0.44836   0.54811    0.014
 6810.00    0.55810   0.54823    0.014
 6811.00    0.61570   0.54847    0.015
 6812.00    0.61935   0.54878    0.015
 6813.00    0.60173   0.54917    0.015
 6814.00    0.56469   0.54958    0.015
 6815.00    0.51848   0.55002    0.016
 6816.00    0.46489   0.55042    0.016
 6817.00    0.49255   0.55079    0.015
 6818.00    0.57773   0.55103    0.015
 6819.00    0.57824   0.55118    0.015
 6820.00    0.52615   0.55118    0.015
 6821.00    0.54206   0.55108    0.015
 6822.00    0.59486   0.55086    0.015
 6823.00    0.53514   0.55056    0.015
 6824.00    0.42235   0.55017    0.015
 6825.00    0.47236   0.54972    0.015
 6826.00    0.58856   0.54919    0.016
 6827.00    0.60491   0.54856    0.016
 6828.00    0.58660   0.54779    0.015
 6829.00    0.52698   0.54685    0.015
 6830.00    0.45528   0.54575    0.016
 6831.00    0.39996   0.54440    0.016
 6832.00    0.34860   0.54296    0.015
 6833.00    0.43298   0.54135    0.015
 6834.00    0.54391   0.53985    0.014
 6835.00    0.57200   0.53840    0.015
 6836.00    0.58747   0.53732    0.015
 6837.00    0.60223   0.53652    0.015
 6838.00    0.61690   0.53624    0.015
 6839.00    0.61931   0.53629    0.016
 6840.00    0.62081   0.53679    0.016
 6841.00    0.59423   0.53750    0.016
 6842.00    0.56654   0.53838    0.015
 6843.00    0.50816   0.53921    0.015
 6844.00    0.45236   0.53989    0.015
 6845.00    0.50765   0.54029    0.015
 6846.00    0.55525   0.54035    0.016
 6847.00    0.47300   0.54005    0.016
 6848.00    0.39980   0.53943    0.015
 6849.00    0.42114   0.53856    0.015
 6850.00    0.44025   0.53754    0.016
 6851.00    0.44279   0.53647    0.016
 6852.00    0.46362   0.53546    0.015
 6853.00    0.58809   0.53458    0.016
 6854.00    0.69193   0.53389    0.016
 6855.00    0.70263   0.53341    0.016
 6856.00    0.70403   0.53314    0.015
 6857.00    0.67102   0.53305    0.015
 6858.00    0.63162   0.53309    0.015
 6859.00    0.57242   0.53319    0.015
 6860.00    0.50307   0.53329    0.015
 6861.00    0.40703   0.53337    0.015
 6862.00    0.36373   0.53339    0.015
 6863.00    0.43961   0.53337    0.015
 6864.00    0.50015   0.53330    0.015
 6865.00    0.53070   0.53327    0.015
 6866.00    0.55336   0.53322    0.016
 6867.00    0.56254   0.53325    0.016
 6868.00    0.47826   0.53333    0.016
 6869.00    0.25428   0.53351    0.016
 6870.00    0.21682   0.53373    0.016
 6871.00    0.42441   0.53400    0.016
 6872.00    0.49186   0.53429    0.016
 6873.00    0.39715   0.53453    0.016
 6874.00    0.35690   0.53480    0.015
 6875.00    0.37221   0.53501    0.015
 6876.00    0.37429   0.53530    0.015
 6877.00    0.36446   0.53559    0.015
 6878.00    0.32126   0.53603    0.015
 6879.00    0.25158   0.53657    0.015
 6880.00    0.31032   0.53729    0.015
 6881.00    0.45867   0.53814    0.015
 6882.00    0.51613   0.53912    0.015
 6883.00    0.51798   0.54018    0.015
 6884.00    0.51096   0.54123    0.015
 6885.00    0.49921   0.54223    0.015
 6886.00    0.43913   0.54310    0.015
 6887.00    0.35663   0.54382    0.015
 6888.00    0.36785   0.54433    0.015
 6889.00    0.41652   0.54468    0.015
 6890.00    0.38782   0.54487    0.015
 6891.00    0.33275   0.54496    0.015
 6892.00    0.35604   0.54497    0.016
 6893.00    0.40180   0.54499    0.016
 6894.00    0.33807   0.54498    0.016
 6895.00    0.24842   0.54506    0.015
 6896.00    0.36505   0.54512    0.016
 6897.00    0.52099   0.54531    0.016
 6898.00    0.47290   0.54540    0.016
 6899.00    0.39465   0.54560    0.015
 6900.00    0.37544   0.54561    0.015
 6901.00    0.36260   0.54568    0.015
 6902.00    0.42236   0.54547    0.015
 6903.00    0.48725   0.54525    0.015
 6904.00    0.47419   0.54474    0.015
 6905.00    0.45833   0.54418    0.015
 6906.00    0.35712   0.54340    0.015
 6907.00    0.25934   0.54261    0.014
 6908.00    0.29017   0.54176    0.015
 6909.00    0.32569   0.54098    0.015
 6910.00    0.43532   0.54029    0.015
 6911.00    0.53189   0.53972    0.015
 6912.00    0.49763   0.53933    0.015
 6913.00    0.46249   0.53903    0.015
 6914.00    0.42107   0.53886    0.016
 6915.00    0.37294   0.53871    0.016
 6916.00    0.28783   0.53854    0.016
 6917.00    0.22112   0.53836    0.016
 6918.00    0.23553   0.53806    0.015
 6919.00    0.26840   0.53776    0.015
 6920.00    0.36815   0.53736    0.015
 6921.00    0.43683   0.53703    0.015
 6922.00    0.41111   0.53670    0.015
 6923.00    0.39585   0.53647    0.015
 6924.00    0.40764   0.53635    0.015
 6925.00    0.41672   0.53632    0.015
 6926.00    0.41976   0.53643    0.015
 6927.00    0.43329   0.53656    0.015
 6928.00    0.46703   0.53684    0.015
 6929.00    0.48830   0.53707    0.015
 6930.00    0.48863   0.53737    0.015
 6931.00    0.50354   0.53759    0.015
 6932.00    0.53994   0.53777    0.015
 6933.00    0.55217   0.53782    0.016
 6934.00    0.53309   0.53776    0.016
 6935.00    0.48915   0.53753    0.016
 6936.00    0.41684   0.53716    0.016
 6937.00    0.41550   0.53663    0.016
 6938.00    0.48557   0.53603    0.016
 6939.00    0.49114   0.53533    0.016
 6940.00    0.43947   0.53468    0.016
 6941.00    0.47647   0.53400    0.016
 6942.00    0.58282   0.53348    0.016
 6943.00    0.57071   0.53300    0.016
 6944.00    0.47715   0.53271    0.016
 6945.00    0.46830   0.53248    0.015
 6946.00    0.51050   0.53244    0.015
 6947.00    0.51447   0.53249    0.015
 6948.00    0.49834   0.53271    0.015
 6949.00    0.45813   0.53305    0.015
 6950.00    0.40694   0.53353    0.015
 6951.00    0.39417   0.53416    0.015
 6952.00    0.39650   0.53485    0.015
 6953.00    0.38821   0.53567    0.015
 6954.00    0.37638   0.53647    0.015
 6955.00    0.38371   0.53732    0.015
 6956.00    0.39641   0.53807    0.016
 6957.00    0.42322   0.53880    0.016
 6958.00    0.45329   0.53937    0.016
 6959.00    0.37202   0.53984    0.016
 6960.00    0.27008   0.54014    0.016
 6961.00    0.30345   0.54027    0.016
 6962.00    0.35619   0.54021    0.016
 6963.00    0.45469   0.53989    0.016
 6964.00    0.55793   0.53933    0.016
 6965.00    0.52652   0.53846    0.016
 6966.00    0.48614   0.53730    0.016
 6967.00    0.45850   0.53584    0.016
 6968.00    0.43129   0.53414    0.015
 6969.00    0.44815   0.53227    0.015
 6970.00    0.46379   0.53036    0.015
 6971.00    0.44221   0.52856    0.015
 6972.00    0.41625   0.52702    0.015
 6973.00    0.32510   0.52590    0.015
 6974.00    0.26055   0.52529    0.015
 6975.00    0.45133   0.52526    0.015
 6976.00    0.60946   0.52581    0.016
 6977.00    0.54043   0.52684    0.016
 6978.00    0.48206   0.52825    0.016
 6979.00    0.48096   0.52987    0.016
 6980.00    0.49959   0.53156    0.016
 6981.00    0.60326   0.53316    0.017
 6982.00    0.64823   0.53458    0.017
 6983.00    0.48478   0.53572    0.016
 6984.00    0.38116   0.53659    0.016
 6985.00    0.45596   0.53716    0.016
 6986.00    0.52932   0.53748    0.016
 6987.00    0.59902   0.53751    0.016
 6988.00    0.61022   0.53734    0.016
 6989.00    0.49352   0.53692    0.016
 6990.00    0.39243   0.53634    0.016
 6991.00    0.32095   0.53554    0.015
 6992.00    0.29847   0.53464    0.015
 6993.00    0.35713   0.53358    0.015
 6994.00    0.32354   0.53248    0.015
 6995.00    0.15607   0.53134    0.015
 6996.00    0.13555   0.53027    0.015
 6997.00    0.30262   0.52928    0.015
 6998.00    0.35549   0.52844    0.016
 6999.00    0.27993   0.52774    0.016
 7000.00    0.32755   0.52719    0.016
 7001.00    0.49737   0.52680    0.016
 7002.00    0.53702   0.52649    0.016
 7003.00    0.46278   0.52625    0.017
 7004.00    0.45908   0.52601    0.017
 7005.00    0.50975   0.52574    0.017
 7006.00    0.55192   0.52538    0.017
 7007.00    0.58834   0.52495    0.017
 7008.00    0.57681   0.52445    0.016
 7009.00    0.53680   0.52393    0.016
 7010.00    0.51846   0.52343    0.016
 7011.00    0.51135   0.52302    0.016
 7012.00    0.43518   0.52272    0.016
 7013.00    0.32799   0.52257    0.016
 7014.00    0.31400   0.52258    0.016
 7015.00    0.33598   0.52269    0.016
 7016.00    0.37202   0.52296    0.016
 7017.00    0.41267   0.52324    0.015
 7018.00    0.35816   0.52361    0.015
 7019.00    0.27746   0.52396    0.016
 7020.00    0.34876   0.52440    0.016
 7021.00    0.45442   0.52482    0.016
 7022.00    0.43761   0.52534    0.016
 7023.00    0.39869   0.52588    0.016
 7024.00    0.38511   0.52649    0.016
 7025.00    0.37505   0.52709    0.016
 7026.00    0.29020   0.52768    0.016
 7027.00    0.19792   0.52827    0.016
 7028.00    0.20320   0.52884    0.016
 7029.00    0.21458   0.52942    0.017
 7030.00    0.44397   0.53004    0.017
 7031.00    0.67801   0.53075    0.017
 7032.00    0.50837   0.53159    0.017
 7033.00    0.34999   0.53258    0.017
 7034.00    0.50099   0.53374    0.017
 7035.00    0.63770   0.53503    0.017
 7036.00    0.57360   0.53638    0.017
 7037.00    0.50872   0.53773    0.017
 7038.00    0.43670   0.53904    0.016
 7039.00    0.37342   0.54009    0.016
 7040.00    0.36902   0.54084    0.016
 7041.00    0.34722   0.54114    0.016
 7042.00    0.23446   0.54100    0.016
 7043.00    0.18625   0.54029    0.016
 7044.00    0.40984   0.53911    0.017
 7045.00    0.56685   0.53741    0.017
 7046.00    0.49225   0.53531    0.017
 7047.00    0.42396   0.53283    0.017
 7048.00    0.37409   0.53016    0.017
 7049.00    0.33234   0.52735    0.017
 7050.00    0.31082   0.52461   -2.000
 7051.00    0.33878   0.52192   -2.000
 7052.00    0.47317   0.51953   -2.000
 7053.00    0.54035   0.51732   -2.000
 7054.00    0.48200   0.51545   -2.000
 7055.00    0.41632   0.51380   -2.000
 7056.00    0.33868   0.51242   -2.000
 7057.00    0.31088   0.51124   -2.000
 7058.00    0.35440   0.51024   -2.000
 7059.00    0.44391   0.50948   -2.000
 7060.00    0.59128   0.50887   -2.000
 7061.00    0.60223   0.50851   -2.000
 7062.00    0.46189   0.50832   -2.000
 7063.00    0.31898   0.50843   -2.000
 7064.00    0.17357   0.50871   -2.000
 7065.00    0.10488   0.50929   -2.000
 7066.00    0.10236   0.51002   -2.000
 7067.00    0.14146   0.51094   -2.000
 7068.00    0.21219   0.51191   -2.000
 7069.00    0.22532   0.51285   -2.000
 7070.00    0.19999   0.51363   -2.000
 7071.00    0.27818   0.51413   -2.000
 7072.00    0.41692   0.51429   -2.000
 7073.00    0.56577   0.51399   -2.000
 7074.00    0.71978   0.51323   -2.000
 7075.00    0.66569   0.51195   -2.000
 7076.00    0.51973   0.51024   -2.000
 7077.00   -0.50551   0.50807   -2.000
 7078.00   -1.86417   0.50560   -2.000
 7079.00   -1.17576   0.50289   -2.000
 7080.00    0.17182   0.50012   -2.000
 7081.00    0.44515   0.49735   -2.000
 7082.00    0.42907   0.49479   -2.000
 7083.00    0.39867   0.49244   -2.000
 7084.00    0.36510   0.49054   -2.000
 7085.00    0.40503   0.48894   -2.000
 7086.00    0.45788   0.48784   -2.000
 7087.00    0.43263   0.48706   -2.000
 7088.00    0.39692   0.48673   -2.000
 7089.00    0.39158   0.48669   -2.000
 7090.00    0.38913   0.48697   -2.000
 7091.00    0.35995   0.48751   -2.000
 7092.00    0.32920   0.48815   -2.000
 7093.00    0.38370   0.48904   -2.000
 7094.00    0.44048   0.48975   -2.000
 7095.00    0.52191   0.49070   -2.000
 7096.00    0.59788   0.49125   -2.000
 7097.00    0.53821   0.49200   -2.000
 7098.00    0.47682   0.49226   -2.000
 7099.00    0.39280   0.49262   -2.000
 7100.00    0.32031   0.49253   -2.000
 7101.00    0.35017   0.49246   -2.000
 7102.00    0.38569   0.49211   -2.000
 7103.00    0.45829   0.49177   -2.000
 7104.00    0.50915   0.49129   -2.000
 7105.00    0.44934   0.49086   -2.000
 7106.00    0.40852   0.49045   -2.000
 7107.00    0.44588   0.49011   -2.000
 7108.00    0.46325   0.48989   -2.000
 7109.00    0.41254   0.48969   -2.000
 7110.00    0.37688   0.48963   -2.000
 7111.00    0.38445   0.48953   -2.000
 7112.00    0.39782   0.48949   -2.000
 7113.00    0.42544   0.48933   -2.000
 7114.00    0.43296   0.48911   -2.000
 7115.00    0.39795   0.48875   -2.000
 7116.00    0.38705   0.48824   -2.000
 7117.00    0.42047   0.48763   -2.000
 7118.00    0.44505   0.48686   -2.000
 7119.00    0.45545   0.48603   -2.000
 7120.00    0.48116   0.48512   -2.000
 7121.00    0.52845   0.48422   -2.000
 7122.00    0.55580   0.48339   -2.000
 7123.00    0.55844   0.48261   -2.000
 7124.00    0.50503   0.48207   -2.000
 7125.00    0.39034   0.48169   -2.000
 7126.00    0.32215   0.48161   -2.000
 7127.00    0.29882   0.48177   -2.000
 7128.00    0.31818   0.48221   -2.000
 7129.00    0.37384   0.48284   -2.000
 7130.00    0.44230   0.48364   -2.000
 7131.00    0.52033   0.48452   -2.000
 7132.00    0.47578   0.48538   -2.000
 7133.00    0.35057   0.48618   -2.000
 7134.00    0.42821   0.48675   -2.000
 7135.00    0.62270   0.48720   -2.000
 7136.00    0.55316   0.48734   -2.000
 7137.00    0.35115   0.48733   -2.000
 7138.00    0.27130   0.48709   -2.000
 7139.00    0.24451   0.48676   -2.000
 7140.00    0.23319   0.48633   -2.000
 7141.00    0.22763   0.48594   -2.000
 7142.00    0.29711   0.48561   -2.000
 7143.00    0.39029   0.48543   -2.000
 7144.00    0.42345   0.48543   -2.000
 7145.00    0.44078   0.48567   -2.000
 7146.00    0.39741   0.48607   -2.000
 7147.00    0.34096   0.48669   -2.000
 7148.00    0.37922   0.48737   -2.000
 7149.00    0.43366   0.48812   -2.000
 7150.00    0.42939   0.48878   -2.000
 7151.00    0.41752   0.48933   -2.000
 7152.00    0.09177   0.48958   -2.000
 7153.00   -0.26248   0.48969   -2.000
 7154.00    0.10482   0.48946   -2.000
 7155.00    0.51160   0.48914   -2.000
 7156.00    0.51807   0.48860   -2.000
 7157.00    0.51656   0.48811   -2.000
 7158.00    0.55129   0.48763   -2.000
 7159.00    0.57645   0.48729   -2.000
 7160.00    0.38432   0.48721   -2.000
 7161.00    0.21078   0.48736   -2.000
 7162.00    0.27141   0.48783   -2.000
 7163.00    0.32999   0.48847   -2.000
 7164.00    0.37095   0.48933   -2.000
 7165.00    0.45612   0.49022   -2.000
 7166.00    0.82156   0.49115   -2.000
 7167.00    1.05757   0.49188   -2.000
 7168.00    0.65096   0.49239   -2.000
 7169.00    0.32492   0.49257   -2.000
 7170.00    0.32315   0.49246   -2.000
 7171.00    0.33050   0.49203   -2.000
 7172.00    0.36828   0.49136   -2.000
 7173.00    0.40007   0.49045   -2.000
 7174.00    0.41496   0.48939   -2.000
 7175.00    0.43547   0.48824   -2.000
 7176.00    0.46955   0.48706   -2.000
 7177.00    0.47773   0.48589   -2.000
 7178.00    0.43198   0.48476   -2.000
 7179.00    0.43437   0.48366   -2.000
 7180.00    0.52393   0.48263   -2.000
 7181.00    0.53139   0.48172   -2.000
 7182.00    0.40892   0.48094   -2.000
 7183.00    0.38261   0.48032   -2.000
 7184.00    0.48989   0.47984   -2.000
 7185.00    0.53149   0.47954   -2.000
 7186.00    0.49276   0.47942   -2.000
 7187.00    0.45114   0.47959   -2.000
 7188.00    0.40643   0.47987   -2.000
 7189.00    0.37176   0.48046   -2.000
 7190.00    0.34666   0.48103   -2.000
 7191.00    0.33374   0.48175   -2.000
 7192.00    0.33102   0.48237   -2.000
 7193.00    0.33004   0.48300   -2.000
 7194.00    0.33034   0.48348   -2.000
 7195.00    0.35349   0.48385   -2.000
 7196.00    0.39145   0.48404   -2.000
 7197.00    0.51273   0.48405   -2.000
 7198.00    0.68127   0.48390   -2.000
 7199.00    0.58885   0.48364   -2.000
 7200.00    0.36757   0.48331   -2.000
 7201.00    0.29346   0.48292   -2.000
 7202.00    0.28220   0.48263   -2.000
 7203.00    0.27734   0.48239   -2.000
 7204.00    0.27483   0.48237   -2.000
 7205.00    0.48788   0.48244   -2.000
 7206.00    0.76769   0.48271   -2.000
 7207.00    0.65559   0.48315   -2.000
 7208.00    0.44233   0.48371   -2.000
 7209.00    0.42543   0.48446   -2.000
 7210.00    0.44983   0.48514   -2.000
 7211.00    0.40625   0.48589   -2.000
 7212.00    0.35139   0.48654   -2.000
 7213.00    0.31837   0.48717   -2.000
 7214.00    0.28807   0.48778   -2.000
 7215.00    0.25823   0.48839   -2.000
 7216.00    0.22842   0.48904   -2.000
 7217.00    0.28368   0.48971   -2.000
 7218.00    0.34327   0.49044   -2.000
