###################################################################
## OUTPUT of StarlightChains_v04.for    [Cid@UFSC - 01/Apr/2007] ##
###################################################################

## Some input info
KUG0210-078._24_41.txt                   [arq_obs]
Base.CB07.vall.4m                        [arq_base]
Masks.EmLines.NEW.gm                     [arq_masks]
StCv04.C11.config                        [arq_config]
   66                                    [N_base]
    0                                    [N_YAV_components = # of components with extra extinction!]
    0                                    [i_FitPowerLaw (1/0 = Yes/No)]
-9.99                                    [alpha_PowerLaw]
CCM                                      [red_law_option]
 1.458241                                [q_norm = A(l_norm)/A(V)]

## (Re)Sampling Parameters
 3741.00                                 [l_ini (A)]
 7218.00                                 [l_fin (A)]
    1.00                                 [dl    (A)]     (OBS: dl_cushion =    50.00 A)

## Normalization info
 4020.00                                 [l_norm (A) - for base]
 4010.00                                 [llow_norm (A) - window for f_obs]
 4060.00                                 [lupp_norm (A) - window for f_obs]
7.557498E-18                             [fobs_norm (in input units)]

## S/N
 3691.00                                 [llow_SN (A) - window for S/N]
 7268.00                                 [lupp_SN (A) - window for S/N]
   2.959                                 [S/N in S/N window]
   3.990                                 [S/N in norm. window]
   0.006                                 [S/N_err in S/N window]
   0.009                                 [S/N_err in norm. window]
  1.0000                                 [fscale_chi2]

## etc...
    -2007291                             [idum_orig]
  2406                                   [NOl_eff]
  2400                                   [Nl_eff]
     6    NSIGMA                         [Ntot_cliped & clip_method]
  1004920                                [Nglobal_steps]
   7                                     [N_chains]
  34                                     [NEX0s_base = N_base in EX0s-fits]
 0   0   1        6   2.0   7.608E+02    [Clip-Bug, RC-Crash & Burn-In warning-flags, n_censored_weights, wei_nsig_threshold & wei_limit]
    18     17.361     16.908      0.453  [idt_all, wdt_TotTime, wdt_UsrTime & wdt_SysTime (sec)]

## Synthesis Results - Best model ##

 1.00675E-05                             [chi2/Nl_eff]
    40.02964                             [adev (%)]

   107.08208                             [sum-of-x (%)]
 1.17670E-17                             [Flux_tot (units of input spectrum!)]
 3.25541E-14                             [Mini_tot (???)]
 1.89312E-14                             [Mcor_tot (???)]

-275.64                                  [v0_min  (km/s)]
  70.52                                  [vd_min  (km/s)]
 0.2787                                  [AV_min  (mag)]
 0.0000                                  [YAV_min (mag)]

# j     x_j(%)      Mini_j(%)     Mcor_j(%)     age_j(yr)     Z_j      (L/M)_j    YAV?  Mstars   component_j        a/Fe...       SSP_chi2r SSP_adev(%)   SSP_AV   SSP_x(%)
  1      0.0000     0.0000E+00    0.0000E+00    1.000000E+06  0.00400  1.094E-02    0   1.0000   age020_m42            0.0000     1.0970E-05    44.9884   2.2364    92.1408
  2      0.0003     2.2690E-06    3.9013E-06    3.160000E+06  0.00400  4.007E-02    0   0.9999   age045_m42            0.0000     1.0368E-05    42.7842   1.4708    99.3328
  3      1.7489     2.3252E-02    3.7936E-02    5.010000E+06  0.00400  2.539E-02    0   0.9488   age055_m42            0.0000     1.0564E-05    43.6925   1.8107    96.4368
  4      0.0000     0.0000E+00    0.0000E+00    6.610000E+06  0.00400  2.620E-02    0   0.9220   age061_m42            0.0000     1.0321E-05    42.5118   1.4022    99.3767
  5      0.5371     1.3714E-02    2.0899E-02    1.000000E+07  0.00400  1.322E-02    0   0.8862   age070_m42            0.0000     1.0293E-05    42.2352   1.1899    99.6380
  6      0.0000     0.0000E+00    0.0000E+00    1.445000E+07  0.00400  7.883E-03    0   0.8571   age078_m42            0.0000     1.0433E-05    42.9558   1.5174    97.1608
  7      0.0000     0.0000E+00    0.0000E+00    2.512000E+07  0.00400  5.251E-03    0   0.8174   age090_m42            0.0000     1.0244E-05    42.0178   1.0724    99.8916
  8      0.0000     0.0000E+00    0.0000E+00    4.000000E+07  0.00400  3.649E-03    0   0.7851   age104_m42            0.0000     1.0177E-05    41.7317   0.8277   101.1390
  9      0.0000     0.0000E+00    0.0000E+00    5.500000E+07  0.00400  3.098E-03    0   0.7629   age110_m42            0.0000     1.0116E-05    41.3370   0.9423   102.1783
 10     10.3099     1.5620E+00    1.9358E+00    1.015200E+08  0.00400  2.228E-03    0   0.7207   age116_m42            0.0000     1.0110E-05    40.8991   0.9364   103.0260
 11      0.0000     0.0000E+00    0.0000E+00    2.861200E+08  0.00400  1.093E-03    0   0.6648   age125_m42            0.0000     1.0071E-05    39.7118   0.3813   105.4628
 12     33.9212     1.7357E+01    1.8997E+01    5.088000E+08  0.00400  6.597E-04    0   0.6365   age130_m42            0.0000     1.0118E-05    39.1655   0.3306   107.4686
 13     17.9144     2.8363E+01    2.8279E+01    1.434000E+09  0.00400  2.132E-04    0   0.5798   age139_m42            0.0000     1.0227E-05    39.3066  -0.6676   110.1721
 14      0.0000     0.0000E+00    0.0000E+00    4.250000E+09  0.00400  5.895E-05    0   0.5377   age158_m42            0.0000     1.0861E-05    40.5151  -1.0000   104.1505
 15      0.0000     0.0000E+00    0.0000E+00    7.500000E+09  0.00400  3.510E-05    0   0.5212   age171_m42            0.0000     1.1358E-05    40.4679  -1.0000    99.9912
 16      0.0000     0.0000E+00    0.0000E+00    1.300000E+10  0.00400  2.005E-05    0   0.5034   age193_m42            0.0000     1.2002E-05    41.2560  -1.0000    96.0829
 17      0.0000     0.0000E+00    0.0000E+00    1.800000E+10  0.00400  1.525E-05    0   0.4967   age213_m42            0.0000     1.2026E-05    41.4404  -1.0000    95.1765
 18      0.0000     0.0000E+00    0.0000E+00    1.000000E+06  0.00800  1.238E-02    0   1.0000   age020_m52            0.0000     1.0982E-05    44.9208   2.2350    92.2754
 19      0.0000     0.0000E+00    0.0000E+00    3.160000E+06  0.00800  3.074E-02    0   0.9966   age045_m52            0.0000     1.0914E-05    44.7848   2.1545    93.1930
 20      0.0000     0.0000E+00    0.0000E+00    5.010000E+06  0.00800  2.668E-02    0   0.9443   age055_m52            0.0000     1.0651E-05    44.0307   1.9024    95.3876
 21      0.8675     1.3709E-02    2.1634E-02    6.610000E+06  0.00800  2.136E-02    0   0.9177   age061_m52            0.0000     1.0478E-05    42.8731   0.6933   100.6678
 22      0.0000     0.0000E+00    0.0000E+00    1.000000E+07  0.00800  1.215E-02    0   0.8827   age070_m52            0.0000     1.0394E-05    42.5132   1.3940    98.7791
 23      0.3693     1.4300E-02    2.1029E-02    1.445000E+07  0.00800  8.717E-03    0   0.8552   age078_m52            0.0000     1.0392E-05    42.6822   1.4840    98.4729
 24      0.0000     0.0000E+00    0.0000E+00    2.512000E+07  0.00800  5.592E-03    0   0.8162   age090_m52            0.0000     1.0231E-05    41.7872   1.1346   101.0611
 25      0.0000     0.0000E+00    0.0000E+00    4.000000E+07  0.00800  3.896E-03    0   0.7841   age104_m52            0.0000     1.0152E-05    41.3358   1.0250   102.3947
 26      0.0000     0.0000E+00    0.0000E+00    1.015200E+08  0.00800  2.148E-03    0   0.7226   age116_m52            0.0000     1.0154E-05    40.9321   0.9240   103.2373
 27      0.0000     0.0000E+00    0.0000E+00    2.861200E+08  0.00800  9.925E-04    0   0.6683   age125_m52            0.0000     1.0166E-05    39.2424   0.3970   108.4346
 28      0.0000     0.0000E+00    0.0000E+00    9.047900E+08  0.00800  3.141E-04    0   0.6138   age135_m52            0.0000     1.0577E-05    38.8879  -0.4637   114.3602
 29      0.0000     0.0000E+00    0.0000E+00    1.434000E+09  0.00800  1.719E-04    0   0.5853   age139_m52            0.0000     1.0674E-05    39.5717  -1.0000   111.0207
 30      0.0000     0.0000E+00    0.0000E+00    2.500000E+09  0.00800  7.872E-05    0   0.5600   age150_m52            0.0000     1.1334E-05    39.8636  -1.0000   103.4116
 31      0.0000     0.0000E+00    0.0000E+00    4.250000E+09  0.00800  4.336E-05    0   0.5426   age158_m52            0.0000     1.1504E-05    40.1811  -1.0000   102.0716
 32      0.0000     0.0000E+00    0.0000E+00    6.250000E+09  0.00800  3.159E-05    0   0.5319   age166_m52            0.0000     1.2341E-05    40.9046  -1.0000    97.8943
 33      0.3842     9.5292E+00    8.3129E+00    1.300000E+10  0.00800  1.361E-05    0   0.5073   age193_m52            0.0000     1.5068E-05    45.0546  -1.0000    86.1392
 34      0.0000     0.0000E+00    0.0000E+00    1.800000E+10  0.00800  9.886E-06    0   0.4990   age213_m52            0.0000     1.6203E-05    45.7914  -1.0000    82.9231
 35      4.9756     1.0878E-01    1.8705E-01    1.000000E+06  0.02000  1.544E-02    0   1.0000   age020_m62            0.0000     1.1011E-05    44.9348   2.2313    92.4657
 36      0.0000     0.0000E+00    0.0000E+00    3.160000E+06  0.02000  3.762E-02    0   0.9858   age045_m62            0.0000     1.0983E-05    44.9836   2.1678    93.3434
 37      0.0000     0.0000E+00    0.0000E+00    5.010000E+06  0.02000  3.296E-02    0   0.9342   age055_m62            0.0000     1.0468E-05    43.2937   1.7576    97.9953
 38      0.0000     0.0000E+00    0.0000E+00    8.710000E+06  0.02000  1.154E-02    0   0.8861   age067_m62            0.0000     1.0785E-05    43.3545   0.9719    98.0250
 39      0.0000     0.0000E+00    0.0000E+00    1.445000E+07  0.02000  7.663E-03    0   0.8472   age078_m62            0.0000     1.0428E-05    42.4576   1.0738   100.0159
 40      0.0000     0.0000E+00    0.0000E+00    2.512000E+07  0.02000  4.532E-03    0   0.8099   age090_m62            0.0000     1.0354E-05    42.1402   1.0688    99.6328
 41      0.0000     0.0000E+00    0.0000E+00    5.500000E+07  0.02000  2.733E-03    0   0.7595   age110_m62            0.0000     1.0180E-05    41.5014   1.0112   101.5632
 42      0.1922     4.7383E-02    5.6913E-02    1.609000E+08  0.02000  1.369E-03    0   0.6985   age120_m62            0.0000     1.0132E-05    39.9749   0.7879   105.9652
 43      0.0000     0.0000E+00    0.0000E+00    2.861200E+08  0.02000  9.013E-04    0   0.6714   age125_m62            0.0000     1.0202E-05    38.7952   0.5005   110.0075
 44      0.0000     0.0000E+00    0.0000E+00    5.088000E+08  0.02000  5.028E-04    0   0.6449   age130_m62            0.0000     1.0463E-05    38.5361   0.0548   114.7134
 45      0.0000     0.0000E+00    0.0000E+00    9.047900E+08  0.02000  2.428E-04    0   0.6179   age135_m62            0.0000     1.0721E-05    39.6478  -0.5506   114.3794
 46      0.0000     1.0026E-05    1.0185E-05    1.434000E+09  0.02000  1.263E-04    0   0.5908   age139_m62            0.0000     1.0967E-05    40.3581  -0.9972   112.6779
 47      0.0000     0.0000E+00    0.0000E+00    2.500000E+09  0.02000  5.985E-05    0   0.5673   age150_m62            0.0000     1.1776E-05    39.9577  -1.0000   104.3793
 48      0.0000     0.0000E+00    0.0000E+00    4.250000E+09  0.02000  3.271E-05    0   0.5468   age158_m62            0.0000     1.3211E-05    41.3316  -1.0000    96.8289
 49      0.0000     0.0000E+00    0.0000E+00    1.000000E+10  0.02000  1.360E-05    0   0.5167   age181_m62            0.0000     1.5796E-05    43.9278  -1.0000    87.7290
 50      0.0000     0.0000E+00    0.0000E+00    1.800000E+10  0.02000  7.124E-06    0   0.5013   age213_m62            0.0000     1.7863E-05    45.4786  -1.0000    81.4253
 51      0.0000     0.0000E+00    0.0000E+00    1.000000E+06  0.05000  2.592E-02    0   0.9998   age020_m72            0.0000     1.1105E-05    44.9615   2.2299    92.3098
 52      0.0000     0.0000E+00    0.0000E+00    3.160000E+06  0.05000  4.845E-02    0   0.9577   age045_m72            0.0000     1.0758E-05    44.4137   2.0326    95.0041
 53      0.0000     0.0000E+00    0.0000E+00    5.010000E+06  0.05000  3.072E-02    0   0.9147   age055_m72            0.0000     1.0611E-05    43.1641   1.6261    97.0812
 54      0.0000     0.0000E+00    0.0000E+00    6.610000E+06  0.05000  1.455E-02    0   0.8877   age061_m72            0.0000     1.1099E-05    44.1414   1.0428    97.6101
 55      0.0000     0.0000E+00    0.0000E+00    1.000000E+07  0.05000  9.074E-03    0   0.8524   age070_m72            0.0000     1.0614E-05    43.3837   1.7923    96.9188
 56      0.0000     0.0000E+00    0.0000E+00    2.512000E+07  0.05000  4.250E-03    0   0.7902   age090_m72            0.0000     1.0315E-05    42.0426   1.4894    99.0019
 57      5.1831     5.6676E-01    7.4245E-01    4.000000E+07  0.05000  3.087E-03    0   0.7618   age104_m72            0.0000     1.0233E-05    41.4099   1.2638   100.5487
 58     19.2318     3.8187E+00    4.6597E+00    1.015200E+08  0.05000  1.700E-03    0   0.7096   age116_m72            0.0000     1.0111E-05    40.0312   0.9527   104.9044
 59      2.1446     9.8039E-01    1.1182E+00    2.861200E+08  0.05000  7.384E-04    0   0.6633   age125_m72            0.0000     1.0333E-05    38.4032   0.3290   112.5703
 60      7.0236     6.2080E+00    6.8023E+00    5.088000E+08  0.05000  3.819E-04    0   0.6372   age130_m72            0.0000     1.0586E-05    39.2231  -0.2139   115.7272
 61      0.0000     0.0000E+00    0.0000E+00    9.047900E+08  0.05000  1.676E-04    0   0.6110   age135_m72            0.0000     1.1119E-05    40.7636  -0.9625   114.9526
 62      1.0881     4.1562E+00    4.1982E+00    1.434000E+09  0.05000  8.837E-05    0   0.5874   age139_m72            0.0000     1.1867E-05    39.7291  -1.0000   105.9506
 63      0.0491     3.9165E-01    3.7701E-01    2.500000E+09  0.05000  4.233E-05    0   0.5598   age150_m72            0.0000     1.3468E-05    41.3193  -1.0000    97.6823
 64      1.1413     2.6846E+01    2.4232E+01    6.250000E+09  0.05000  1.435E-05    0   0.5249   age166_m72            0.0000     1.6576E-05    44.9958  -1.0000    84.8735
 65      0.0000     0.0000E+00    0.0000E+00    1.300000E+10  0.05000  6.513E-06    0   0.5036   age193_m72            0.0000     1.9500E-05    46.9632  -1.0000    77.8897
 66      0.0000     0.0000E+00    0.0000E+00    1.800000E+10  0.05000  4.527E-06    0   0.4945   age213_m72            0.0000     2.1335E-05    47.8389  -1.0000    73.1927


## Synthesis Results - Average & Chains ##

# j      x_j: min, <> & last-chain-values for 1 ...  7 chains
  1      0.0000      1.4968      2.5359      1.5034      0.0000      1.2151      0.0000      0.1714      1.0304
  2      0.0003      1.5668      0.0000      0.3390      1.3517      0.4551      4.4761      6.2216      1.7878
  3      1.7489      1.0593      1.8177      0.0000      1.4594      0.1054      0.5893      1.0458      1.6155
  4      0.0000      1.2441      1.6004      0.0000      0.6314      1.2632      0.5147      0.0000      0.0000
  5      0.5371      1.1464      0.5619      1.6308      0.0000      0.0118      7.5315      1.3434      2.0414
  6      0.0000      1.1384      0.0000      0.0000      1.8016      0.0735      0.0000      0.0000      1.8099
  7      0.0000      1.6012      0.0000      3.5909      1.4125      0.4241      0.0000      0.9879      0.7824
  8      0.0000      1.1493      0.0000      1.4781      2.3039      0.0085      0.0000      0.0000      2.0537
  9      0.0000      1.4666      5.2486      0.0000      1.0671      0.1673      6.3581      0.0000      0.0000
 10     10.3099      1.3939      0.0000      0.0260      0.5002      3.1519      0.5203      0.9477      3.2425
 11      0.0000      1.2245      1.4983      0.3597      0.6489      2.3661      0.0000      6.0413      0.8811
 12     33.9212      1.7001      1.6792      0.0000      2.2708      0.0000      3.1862      2.5202      1.2566
 13     17.9144      1.1101      0.0000      0.0430      2.4183      0.0000      1.3948      0.8819      0.0000
 14      0.0000      1.4283      1.5547      1.7693      0.6687      4.3901      5.2986      2.1133      4.9283
 15      0.0000      1.2364      0.0000      0.0000      2.4179      0.0839      0.0000      0.0000      0.1474
 16      0.0000      0.9665      0.5780      5.0569      0.1561      0.0450      0.0000      5.7553      1.1116
 17      0.0000      1.0738      0.0000      0.0000      0.9714      2.2099      0.0139      0.0000      4.7047
 18      0.0000      1.0528      3.7441      0.4346      1.1454     10.8192      0.0000      0.0000      0.7112
 19      0.0000      1.3092      1.7730      4.1592      0.9061      1.1312      0.0000      3.4176      1.0381
 20      0.0000      1.0436      3.5564      1.6663      3.0690     10.1041      0.1564      4.0839      4.6131
 21      0.8675      1.3367      0.0000      8.1853      1.3130      1.7282      1.5987      2.5993      0.1954
 22      0.0000      1.2553      0.0000      4.4805      1.0599      0.8371      0.0000      0.0000      0.0000
 23      0.3693      1.1183      0.0000      1.3964      0.0000      0.0000      0.6920      0.2832      0.0000
 24      0.0000      1.5221      0.8998      0.0000      0.0000      1.8269      0.0000      0.0000      0.2176
 25      0.0000      1.0360      2.4794      0.0000      0.6393      0.0000      0.0000      0.0000      0.0000
 26      0.0000      1.3135      1.6238      5.0807      3.7341      0.0225      3.6532      0.0000      0.8906
 27      0.0000      0.8674      0.5056      1.7628      0.0000      0.0000      0.0000      3.1062      0.0000
 28      0.0000      1.0593      0.0000      0.7386      0.0000      0.0000      3.5653      0.0000      1.3879
 29      0.0000      1.3088      0.2932      1.5562      0.8267      3.0829      0.0000      2.3671      0.2291
 30      0.0000      1.3229      3.7356      0.0000      0.0182      0.6115      0.8613      0.0000      0.0000
 31      0.0000      1.0821      0.0260      0.0000      1.1955      0.1465      0.0000      0.0947      0.4696
 32      0.0000      1.3880      0.0000      0.0122      2.1112      2.2366      0.4515      1.5685      0.1007
 33      0.3842      1.5559      0.4106      4.7507      0.0000      0.0000      2.0042      0.9395      1.1592
 34      0.0000      1.4232      0.0000      5.4395      0.0000      0.0000      6.9778      0.0000      1.2744
 35      4.9756      1.2758      1.1018      0.1657      2.3714      0.0000      3.2425      0.0000      0.9563
 36      0.0000      1.5534      0.2949      0.0000      0.2672      0.5861      0.0000      0.5161      1.7742
 37      0.0000      1.3979      3.6099      7.8557      0.9253      2.0090      0.6391      2.6626      2.0154
 38      0.0000      1.8296      0.0000      1.0711      3.0900      0.9140      3.9584      4.3512      2.1463
 39      0.0000      1.1913      0.0000      0.0000      0.2954      0.0000      0.0626      0.3109      1.0547
 40      0.0000      1.2779      5.3936      0.9579      0.0000      0.2736      0.0000      0.5185      0.3939
 41      0.0000      1.4004      0.0000      0.0000      0.9736      3.2893      0.5698      4.2384      0.0000
 42      0.1922      1.3745      4.9279      0.7206      5.0275      0.0000      1.3035      3.2091      3.2938
 43      0.0000      1.4540      4.4755      0.0000      0.0000      0.5830      0.0000      0.0000      0.4187
 44      0.0000      1.1236      0.0000      0.0000      0.4262      0.8073      0.3610      4.0689      0.9544
 45      0.0000      1.2819      0.2761      0.0000      0.5909      0.0000      5.9391      0.0000      0.0000
 46      0.0000      1.2758      0.0000      0.0000      1.1314      0.0000      4.1672      0.9209      0.0000
 47      0.0000      1.3115      0.4090      0.2779      6.1436      0.0322      0.1531      0.0000      1.7597
 48      0.0000      1.2534      0.0000      0.7911      0.1856      1.0527      0.0000      0.0000      0.0000
 49      0.0000      1.1437      0.2901      3.2084      0.2203      0.0000      0.0000      1.7192      0.2358
 50      0.0000      0.8777      0.0164      2.5072      2.0451      0.1042      0.0000      2.9781      0.0000
 51      0.0000      0.9143      4.0078      0.0000      0.0000      0.9552      0.0675      1.7464      2.3580
 52      0.0000      1.2746      2.0121      0.6548      0.9706      3.8785      0.2010      2.1493      0.3261
 53      0.0000      1.3626      4.0407      0.0000      0.3759      1.1549      0.4970      0.0000      1.2048
 54      0.0000      2.1552      1.1068      0.0367      9.7318      0.2749      2.2951      0.0035     13.5901
 55      0.0000      1.1571      0.0000      6.0942      0.0895      2.3190      3.2530      0.0000      0.0000
 56      0.0000      0.9594      0.3607      1.3636      2.2699      2.9034      0.0000      2.0670      0.0000
 57      5.1831      0.7705      0.0000      0.9485      0.0000      0.0000      1.0408      0.0000      0.6823
 58     19.2318      1.0770      0.0000      1.4662      1.2943      0.0000      1.8562      0.0000      0.0000
 59      2.1446      1.0855      0.7403      3.0134      2.0594      0.0000      1.3564      0.7567      0.0495
 60      7.0236      1.4832      0.0000      0.0000      0.1717      0.0000      3.2878      3.5147      0.0625
 61      0.0000      1.1729      0.5955      0.0000      0.6490      0.0000      0.0000      0.0000      4.6802
 62      1.0881      1.6766      0.0000      0.0000      0.1291      0.2781      1.7856      0.1269      0.0000
 63      0.0491      1.0499     10.9693      1.3587      0.0000      0.7608      1.7304      0.0000      0.0000
 64      1.1413      1.3511      4.2671      0.2883      0.2811     18.2613      1.5352      0.0000      0.5287
 65      0.0000      1.2087      0.0066      0.0968      6.1823      0.0725      0.0323      3.9681      4.6532
 66      0.0000      1.3197      3.0406      0.8716      3.1707      0.0000      1.8939      0.0000      2.7369

# j      m_j: min, <> & last-chain-values for 1 ...  7 chains
  1  0.0000E+00  1.8112E-02  3.1369E-02  1.2992E-02  0.0000E+00  1.2517E-02  0.0000E+00  1.8458E-03  8.7441E-03
  2  3.9013E-06  5.1757E-03  0.0000E+00  7.9965E-04  2.7894E-03  1.2797E-03  1.3089E-02  1.8293E-02  4.1415E-03
  3  3.7936E-02  5.2404E-03  9.1919E-03  0.0000E+00  4.5100E-03  4.4396E-04  2.5807E-03  4.6047E-03  5.6043E-03
  4  0.0000E+00  5.7955E-03  7.6214E-03  0.0000E+00  1.8375E-03  5.0096E-03  2.1223E-03  0.0000E+00  0.0000E+00
  5  2.0899E-02  1.0173E-02  5.0971E-03  1.0335E-02  0.0000E+00  8.8813E-05  5.9161E-02  1.0611E-02  1.2704E-02
  6  0.0000E+00  1.6385E-02  0.0000E+00  0.0000E+00  1.6199E-02  9.0081E-04  0.0000E+00  0.0000E+00  1.8268E-02
  7  0.0000E+00  3.2996E-02  0.0000E+00  5.2846E-02  1.8183E-02  7.4392E-03  0.0000E+00  1.8121E-02  1.1306E-02
  8  0.0000E+00  3.2734E-02  0.0000E+00  3.0067E-02  4.0992E-02  2.0729E-04  0.0000E+00  0.0000E+00  4.1019E-02
  9  0.0000E+00  4.7810E-02  1.7491E-01  0.0000E+00  2.1731E-02  4.6414E-03  1.8347E-01  0.0000E+00  0.0000E+00
 10  1.9358E+00  5.9686E-02  0.0000E+00  7.9613E-04  1.3380E-02  1.1490E-01  1.9721E-02  3.6123E-02  9.7370E-02
 11  0.0000E+00  9.8596E-02  1.2333E-01  2.0681E-02  3.2638E-02  1.6218E-01  0.0000E+00  4.3297E-01  4.9750E-02
 12  1.8997E+01  2.1714E-01  2.1924E-01  0.0000E+00  1.8118E-01  0.0000E+00  3.6023E-01  2.8651E-01  1.1256E-01
 13  2.8279E+01  3.9962E-01  0.0000E+00  1.1060E-02  5.4386E-01  0.0000E+00  4.4447E-01  2.8259E-01  0.0000E+00
 14  0.0000E+00  1.7246E+00  1.9190E+00  1.5257E+00  5.0443E-01  4.5126E+00  5.6633E+00  2.2713E+00  4.1731E+00
 15  0.0000E+00  2.4304E+00  0.0000E+00  0.0000E+00  2.9691E+00  1.4033E-01  0.0000E+00  0.0000E+00  2.0313E-01
 16  0.0000E+00  3.2124E+00  1.9640E+00  1.2003E+01  3.2412E-01  1.2718E-01  0.0000E+00  1.7026E+01  2.5909E+00
 17  0.0000E+00  4.6298E+00  0.0000E+00  0.0000E+00  2.6164E+00  8.1111E+00  5.2940E-02  0.0000E+00  1.4226E+01
 18  0.0000E+00  1.1257E-02  4.0927E-02  3.3186E-03  7.6508E-03  9.8484E-02  0.0000E+00  0.0000E+00  5.3329E-03
 19  0.0000E+00  5.6185E-03  7.7788E-03  1.2748E-02  2.4292E-03  4.1328E-03  0.0000E+00  1.3056E-02  3.1244E-03
 20  0.0000E+00  4.8895E-03  1.7034E-02  5.5758E-03  8.9828E-03  4.0301E-02  6.4848E-04  1.7032E-02  1.5157E-02
 21  2.1634E-02  7.6025E-03  0.0000E+00  3.3247E-02  4.6650E-03  8.3671E-03  8.0488E-03  1.3159E-02  7.7937E-04
 22  0.0000E+00  1.2073E-02  0.0000E+00  3.0774E-02  6.3678E-03  6.8531E-03  0.0000E+00  0.0000E+00  0.0000E+00
 23  2.1029E-02  1.4523E-02  0.0000E+00  1.2952E-02  0.0000E+00  0.0000E+00  7.9555E-03  3.2743E-03  0.0000E+00
 24  0.0000E+00  2.9408E-02  1.7773E-02  0.0000E+00  0.0000E+00  3.0049E-02  0.0000E+00  0.0000E+00  2.9488E-03
 25  0.0000E+00  2.7601E-02  6.7527E-02  0.0000E+00  1.0640E-02  0.0000E+00  0.0000E+00  0.0000E+00  0.0000E+00
 26  0.0000E+00  5.8495E-02  7.3923E-02  1.6159E-01  1.0388E-01  8.5168E-04  1.4401E-01  0.0000E+00  2.7812E-02
 27  0.0000E+00  7.7314E-02  4.6068E-02  1.1222E-01  0.0000E+00  0.0000E+00  0.0000E+00  2.4645E-01  0.0000E+00
 28  0.0000E+00  2.7402E-01  0.0000E+00  1.3645E-01  0.0000E+00  0.0000E+00  8.1641E-01  0.0000E+00  2.5178E-01
 29  0.0000E+00  5.8992E-01  1.3508E-01  5.0093E-01  2.3277E-01  1.1829E+00  0.0000E+00  9.4969E-01  7.2424E-02
 30  0.0000E+00  1.2458E+00  3.5962E+00  0.0000E+00  1.0729E-02  4.9019E-01  7.1796E-01  0.0000E+00  0.0000E+00
 31  0.0000E+00  1.7926E+00  4.4093E-02  0.0000E+00  1.2372E+00  2.0657E-01  0.0000E+00  1.3959E-01  5.4553E-01
 32  0.0000E+00  3.0937E+00  0.0000E+00  1.9393E-02  2.9397E+00  4.2438E+00  8.9075E-01  3.1119E+00  1.5746E-01
 33  8.3129E+00  7.6773E+00  2.0710E+00  1.6741E+01  0.0000E+00  0.0000E+00  8.7538E+00  4.1262E+00  4.0113E+00
 34  0.0000E+00  9.5093E+00  0.0000E+00  2.5958E+01  0.0000E+00  0.0000E+00  4.1272E+01  0.0000E+00  5.9717E+00
 35  1.8705E-01  1.0938E-02  9.6572E-03  1.0149E-03  1.2701E-02  0.0000E+00  2.4609E-02  0.0000E+00  5.7501E-03
 36  0.0000E+00  5.3886E-03  1.0458E-03  0.0000E+00  5.7909E-04  1.7309E-03  0.0000E+00  1.5935E-03  4.3159E-03
 37  0.0000E+00  5.2449E-03  1.3846E-02  2.1050E-02  2.1688E-03  6.4167E-03  2.1226E-03  8.8924E-03  5.3032E-03
 38  0.0000E+00  1.8597E-02  0.0000E+00  7.7752E-03  1.9621E-02  7.9093E-03  3.5616E-02  3.9368E-02  1.5300E-02
 39  0.0000E+00  1.7436E-02  0.0000E+00  0.0000E+00  2.7005E-03  0.0000E+00  8.1083E-04  4.0500E-03  1.0825E-02
 40  0.0000E+00  3.0231E-02  1.3044E-01  1.6184E-02  0.0000E+00  5.5100E-03  0.0000E+00  1.0918E-02  6.5352E-03
 41  0.0000E+00  5.1518E-02  0.0000E+00  0.0000E+00  2.2374E-02  1.0301E-01  1.8554E-02  1.3879E-01  0.0000E+00
 42  5.6913E-02  9.2835E-02  3.4026E-01  3.4762E-02  2.1213E-01  0.0000E+00  7.7935E-02  1.9293E-01  1.5602E-01
 43  0.0000E+00  1.4338E-01  4.5117E-01  0.0000E+00  0.0000E+00  4.8940E-02  0.0000E+00  0.0000E+00  2.8959E-02
 44  0.0000E+00  1.9078E-01  0.0000E+00  0.0000E+00  4.5206E-02  1.1669E-01  5.4262E-02  6.1494E-01  1.1364E-01
 45  0.0000E+00  4.3186E-01  9.5091E-02  0.0000E+00  1.2435E-01  0.0000E+00  1.7711E+00  0.0000E+00  0.0000E+00
 46  1.0185E-05  7.8999E-01  0.0000E+00  0.0000E+00  4.3768E-01  0.0000E+00  2.2842E+00  5.0758E-01  0.0000E+00
 47  0.0000E+00  1.6457E+00  5.2467E-01  2.4902E-01  4.8157E+00  3.4404E-02  1.7009E-01  0.0000E+00  1.5484E+00
 48  0.0000E+00  2.7736E+00  0.0000E+00  1.2502E+00  2.5657E-01  1.9832E+00  0.0000E+00  0.0000E+00  0.0000E+00
 49  0.0000E+00  5.7520E+00  1.4917E+00  1.1524E+01  6.9219E-01  0.0000E+00  0.0000E+00  7.6964E+00  8.3152E-01
 50  0.0000E+00  8.1761E+00  1.5620E-01  1.6680E+01  1.1901E+01  8.2637E-01  0.0000E+00  2.4693E+01  0.0000E+00
 51  0.0000E+00  4.6683E-03  2.0920E-02  0.0000E+00  0.0000E+00  4.1521E-03  3.0516E-04  7.9372E-03  8.4438E-03
 52  0.0000E+00  3.3351E-03  5.3824E-03  1.2237E-03  1.5866E-03  8.6395E-03  4.6563E-04  5.0059E-03  5.9846E-04
 53  0.0000E+00  5.3707E-03  1.6282E-02  0.0000E+00  9.2567E-04  3.8752E-03  1.7341E-03  0.0000E+00  3.3304E-03
 54  0.0000E+00  1.7406E-02  9.1383E-03  2.1148E-04  4.9100E-02  1.8900E-03  1.6408E-02  2.5098E-05  7.6973E-02
 55  0.0000E+00  1.4389E-02  0.0000E+00  5.4123E-02  6.9517E-04  2.4550E-02  3.5808E-02  0.0000E+00  0.0000E+00
 56  0.0000E+00  2.3614E-02  9.0745E-03  2.3968E-02  3.4901E-02  6.0834E-02  0.0000E+00  4.5283E-02  0.0000E+00
 57  7.4245E-01  2.5171E-02  0.0000E+00  2.2130E-02  0.0000E+00  0.0000E+00  3.0099E-02  0.0000E+00  1.5631E-02
 58  4.6597E+00  5.9509E-02  0.0000E+00  5.7862E-02  4.4679E-02  0.0000E+00  9.0791E-02  0.0000E+00  0.0000E+00
 59  1.1182E+00  1.2908E-01  8.9995E-02  2.5592E-01  1.5298E-01  0.0000E+00  1.4277E-01  8.0093E-02  4.1289E-03
 60  6.8023E+00  3.2761E-01  0.0000E+00  0.0000E+00  2.3693E-02  0.0000E+00  6.4281E-01  6.9100E-01  9.6783E-03
 61  0.0000E+00  5.6603E-01  2.9379E-01  0.0000E+00  1.9567E-01  0.0000E+00  0.0000E+00  0.0000E+00  1.5839E+00
 62  4.1982E+00  1.4752E+00  0.0000E+00  0.0000E+00  7.0970E-02  2.0831E-01  1.3908E+00  9.9419E-02  0.0000E+00
 63  3.7701E-01  1.8380E+00  1.9631E+01  1.6987E+00  0.0000E+00  1.1338E+00  2.6815E+00  0.0000E+00  0.0000E+00
 64  2.4232E+01  6.5422E+00  2.1123E+01  9.9686E-01  8.5040E-01  7.5275E+01  6.5801E+00  0.0000E+00  1.7954E+00
 65  0.0000E+00  1.2372E+01  6.9211E-02  7.0758E-01  3.9532E+01  6.3194E-01  2.9288E-01  3.6153E+01  3.3402E+01
 66  0.0000E+00  1.9083E+01  4.4947E+01  9.0011E+00  2.8641E+01  0.0000E+00  2.4242E+01  0.0000E+00  2.7754E+01

# AV, chi2 & Mass for <> & i_chain = 1 ...  7 solutions
AV       0.2787      0.1718      0.3236      0.1283      0.1120      0.0997      0.0616      0.3414      0.2507
chi2 1.0068E-05  1.2368E-05  1.1516E-05  1.1360E-05  1.1778E-05  1.1398E-05  1.1271E-05  1.1807E-05  1.1914E-05
Mass 1.8931E-14  7.1905E-14  8.6253E-14  9.4971E-14  1.0622E-13  7.6671E-14  7.0057E-14  1.0145E-13  1.1400E-13
-275.64                                  [v0_min (km/s) before EX0s...]
  70.52                                  [vd_min (km/s) before EX0s...]


## Synthetic spectrum (Best Model) ##l_obs f_obs f_syn wei
 3478    [Nl_obs]
 3741.00    1.18570   0.66728    0.000
 3742.00    0.98687   0.62888    0.000
 3743.00    0.10865   0.58341    0.000
 3744.00   -0.05026   0.52929    0.000
 3745.00    0.20993   0.47045    0.021
 3746.00    0.53149   0.43451    0.021
 3747.00    0.88422   0.44614    0.021
 3748.00    0.37385   0.49610    0.020
 3749.00   -0.51603   0.55821    0.000
 3750.00   -0.53787   0.61959    0.000
 3751.00   -0.23200   0.67565    0.000
 3752.00   -0.01467   0.71654    0.000
 3753.00    0.17429   0.73426    0.019
 3754.00    0.00541   0.73411    0.019
 3755.00   -0.25937   0.73368    0.000
 3756.00   -0.35453   0.74425    0.000
 3757.00   -0.41247   0.76089    0.000
 3758.00   -0.10590   0.77440    0.000
 3759.00    0.26430   0.77676    0.019
 3760.00    0.07746   0.76303    0.026
 3761.00   -0.18337   0.73654    0.000
 3762.00    0.04722   0.69870    0.028
 3763.00    0.32400   0.64912    0.019
 3764.00    0.30191   0.59555    0.018
 3765.00    0.26257   0.54256    0.018
 3766.00    0.11761   0.49308    0.018
 3767.00   -0.02807   0.46703    0.000
 3768.00    0.04194   0.48591    0.018
 3769.00    0.13782   0.54280    0.018
 3770.00    0.86211   0.61023    0.018
 3771.00    1.49161   0.66785    0.018
 3772.00    0.87913   0.71375    0.018
 3773.00    0.30009   0.75560    0.017
 3774.00    0.01460   0.79574    0.017
 3775.00   -0.17415   0.83103    0.000
 3776.00    0.26438   0.86022    0.017
 3777.00    0.67352   0.88208    0.017
 3778.00    0.93395   0.89683    0.017
 3779.00    1.10359   0.90862    0.017
 3780.00    0.90159   0.91800    0.017
 3781.00    0.76366   0.91621    0.017
 3782.00    0.84301   0.89723    0.017
 3783.00    0.95536   0.86945    0.017
 3784.00    1.16205   0.84433    0.018
 3785.00    1.21792   0.82395    0.018
 3786.00    0.90530   0.80466    0.018
 3787.00    0.69499   0.78391    0.018
 3788.00    0.70031   0.75784    0.018
 3789.00    0.64188   0.71768    0.018
 3790.00    0.46664   0.65968    0.017
 3791.00    0.22557   0.59409    0.017
 3792.00   -0.12089   0.53270    0.000
 3793.00   -0.09006   0.47898    0.000
 3794.00    0.47073   0.44324    0.017
 3795.00    0.89654   0.44580    0.017
 3796.00    1.15550   0.49252    0.017
 3797.00    1.25906   0.56318    0.017
 3798.00    1.19332   0.63363    0.018
 3799.00    1.01924   0.69616    0.018
 3800.00    0.74106   0.74885    0.018
 3801.00    0.41172   0.78704    0.018
 3802.00    0.03903   0.81233    0.018
 3803.00    0.21300   0.83385    0.018
 3804.00    0.79488   0.85950    0.018
 3805.00    1.23082   0.89039    0.018
 3806.00    1.57108   0.92087    0.018
 3807.00    1.45186   0.94000    0.018
 3808.00    1.06896   0.93984    0.018
 3809.00    0.85103   0.92559    0.017
 3810.00    0.71555   0.91165    0.017
 3811.00    0.47069   0.90785    0.017
 3812.00    0.17853   0.91380    0.017
 3813.00    0.44641   0.92230    0.017
 3814.00    0.92199   0.92116    0.017
 3815.00    0.69635   0.90232    0.017
 3816.00    0.25028   0.87863    0.016
 3817.00    0.08521   0.87266    0.017
 3818.00   -0.00614   0.88457    0.000
 3819.00    0.32636   0.89217    0.016
 3820.00    0.74968   0.87851    0.016
 3821.00    1.20415   0.84811    0.016
 3822.00    1.66392   0.81602    0.017
 3823.00    1.83240   0.78685    0.017
 3824.00    1.96351   0.75629    0.017
 3825.00    1.26666   0.72376    0.017
 3826.00    0.49548   0.68988    0.016
 3827.00    0.43008   0.64771    0.016
 3828.00    0.40262   0.59008    0.017
 3829.00    0.35886   0.52309    0.017
 3830.00    0.31192   0.46057    0.017
 3831.00    0.02312   0.41662    0.017
 3832.00   -0.21154   0.40616    0.000
 3833.00    0.75656   0.43304    0.017
 3834.00    1.62891   0.48500    0.018
 3835.00    1.31059   0.54522    0.018
 3836.00    1.04755   0.60173    0.017
 3837.00    1.25165   0.65414    0.018
 3838.00    1.39384   0.70872    0.018
 3839.00    1.14656   0.76413    0.018
 3840.00    0.97856   0.81119    0.018
 3841.00    1.20178   0.84470    0.017
 3842.00    1.30538   0.86917    0.017
 3843.00    0.93013   0.89085    0.017
 3844.00    0.72854   0.90952    0.017
 3845.00    1.10430   0.92190    0.018
 3846.00    1.29895   0.93090    0.018
 3847.00    0.98505   0.94356    0.000
 3848.00    0.87824   0.95891    0.000
 3849.00    1.26885   0.97026    0.000
 3850.00    1.43481   0.97358    0.000
 3851.00    1.13484   0.96942    0.000
 3852.00    0.86272   0.96326    0.000
 3853.00    0.64083   0.96156    0.000
 3854.00    0.55388   0.96283    0.000
 3855.00    0.67972   0.95944    0.000
 3856.00    0.70104   0.95449    0.000
 3857.00    0.57766   0.96067    0.000
 3858.00    0.48317   0.97735    0.000
 3859.00    0.42388   0.99197    0.000
 3860.00    0.56853   0.99838    0.000
 3861.00    0.93225   0.99685    0.000
 3862.00    1.09408   0.99119    0.000
 3863.00    1.06463   0.98778    0.000
 3864.00    1.01627   0.98804    0.000
 3865.00    0.95210   0.98640    0.000
 3866.00    0.95395   0.97640    0.000
 3867.00    1.00436   0.95738    0.000
 3868.00    0.94617   0.93660    0.000
 3869.00    0.81785   0.92327    0.000
 3870.00    1.00007   0.92081    0.000
 3871.00    1.35780   0.92438    0.000
 3872.00    1.32728   0.92219    0.000
 3873.00    1.10579   0.90321    0.000
 3874.00    0.90059   0.87033    0.000
 3875.00    0.70232   0.84041    0.000
 3876.00    0.46866   0.82284    0.000
 3877.00    0.22211   0.80648    0.000
 3878.00    0.51927   0.77746    0.000
 3879.00    0.98404   0.73886    0.000
 3880.00    0.93280   0.69843    0.000
 3881.00    0.74910   0.65032    0.016
 3882.00    0.86236   0.58816    0.016
 3883.00    1.03770   0.51940    0.016
 3884.00    0.77656   0.45868    0.016
 3885.00    0.44344   0.42469    0.016
 3886.00    0.20326   0.43536    0.016
 3887.00   -0.02540   0.48821    0.000
 3888.00    0.06488   0.55811    0.016
 3889.00    0.18246   0.62154    0.016
 3890.00    0.14857   0.67160    0.016
 3891.00    0.10713   0.71165    0.017
 3892.00    0.58162   0.74863    0.017
 3893.00    1.05076   0.78651    0.017
 3894.00    0.62895   0.81860    0.016
 3895.00    0.23102   0.83962    0.016
 3896.00    0.32150   0.85690    0.016
 3897.00    0.41617   0.87714    0.016
 3898.00    0.56040   0.89721    0.015
 3899.00    0.65496   0.91365    0.015
 3900.00    0.34491   0.92528    0.014
 3901.00    0.12356   0.92951    0.014
 3902.00    0.44394   0.93150    0.013
 3903.00    0.72504   0.94341    0.013
 3904.00    0.81708   0.96666    0.013
 3905.00    0.88581   0.99019    0.013
 3906.00    0.86330   1.00641    0.013
 3907.00    0.83843   1.01557    0.014
 3908.00    0.80582   1.01721    0.014
 3909.00    0.75669   1.01120    0.014
 3910.00    0.66199   1.00502    0.014
 3911.00    0.47995   1.00550    0.015
 3912.00    0.09167   1.00812    0.016
 3913.00   -0.28074   1.00724    0.000
 3914.00   -0.62077   1.00164    0.000
 3915.00   -0.73791   0.99124    0.000
 3916.00   -0.45915   0.97966    0.000
 3917.00   -0.19609   0.97501    0.000
 3918.00    0.04255   0.98009    0.020
 3919.00    0.12107   0.98695    0.019
 3920.00   -0.01889   0.98931    0.000
 3921.00   -0.07834   0.98550    0.000
 3922.00   -0.04110   0.97407    0.000
 3923.00    0.31887   0.95861    0.016
 3924.00    1.02064   0.94257    0.016
 3925.00    1.49620   0.92364    0.017
 3926.00    1.76046   0.90178    0.017
 3927.00    1.96149   0.87362    0.017
 3928.00    2.11045   0.83080    0.017
 3929.00    1.82488   0.78249    0.017
 3930.00    1.22431   0.75911    0.017
 3931.00    1.02496   0.77983    0.017
 3932.00    1.08094   0.83184    0.017
 3933.00    0.96870   0.88556    0.017
 3934.00    0.76284   0.92262    0.017
 3935.00    0.80590   0.94349    0.017
 3936.00    0.96947   0.95723    0.017
 3937.00    0.97584   0.96727    0.017
 3938.00    0.91648   0.96996    0.017
 3939.00    0.94783   0.96572    0.017
 3940.00    1.01161   0.96339    0.017
 3941.00    0.95492   0.96994    0.017
 3942.00    0.86182   0.97983    0.016
 3943.00    0.76763   0.98366    0.017
 3944.00    0.67317   0.98149    0.017
 3945.00    0.42366   0.97859    0.017
 3946.00    0.14252   0.97674    0.017
 3947.00    0.46780   0.97329    0.017
 3948.00    0.89018   0.96603    0.017
 3949.00    1.17927   0.95782    0.017
 3950.00    1.45244   0.95314    0.017
 3951.00    0.79146   0.94634    0.017
 3952.00    0.05441   0.92885    0.016
 3953.00    0.19161   0.90553    0.016
 3954.00    0.36899   0.88729    0.016
 3955.00    0.67573   0.87318    0.016
 3956.00    0.97901   0.84994    0.017
 3957.00    1.01544   0.81030    0.016
 3958.00    1.02453   0.76562    0.016
 3959.00    0.51555   0.72682    0.016
 3960.00    0.04916   0.68844    0.000
 3961.00    0.06281   0.64045    0.000
 3962.00    0.11567   0.57855    0.000
 3963.00    0.47678   0.50535    0.000
 3964.00    0.78975   0.43221    0.000
 3965.00    0.81701   0.37643    0.000
 3966.00    0.81241   0.35503    0.000
 3967.00    0.65813   0.37630    0.000
 3968.00    0.60384   0.43098    0.000
 3969.00    0.93275   0.49981    0.000
 3970.00    1.15578   0.56898    0.000
 3971.00    1.04040   0.63283    0.000
 3972.00    1.00113   0.68895    0.000
 3973.00    1.16797   0.73790    0.000
 3974.00    1.16656   0.78158    0.000
 3975.00    0.77449   0.81991    0.000
 3976.00    0.59699   0.85147    0.000
 3977.00    0.85049   0.87415    0.000
 3978.00    1.02154   0.88874    0.000
 3979.00    1.04840   0.90136    0.000
 3980.00    1.00263   0.91660    0.000
 3981.00    0.84568   0.93275    0.017
 3982.00    0.66118   0.94712    0.017
 3983.00    0.43961   0.96096    0.017
 3984.00    0.47616   0.97501    0.018
 3985.00    0.81838   0.98563    0.018
 3986.00    0.83087   0.99212    0.018
 3987.00    0.49906   0.99998    0.017
 3988.00    0.49709   1.01119    0.017
 3989.00    0.79893   1.02067    0.017
 3990.00    0.81847   1.02378    0.017
 3991.00    0.60881   1.02091    0.017
 3992.00    0.76453   1.01400    0.017
 3993.00    1.18131   1.00612    0.017
 3994.00    1.29063   1.00416    0.017
 3995.00    1.20718   1.01308    0.017
 3996.00    1.37630   1.02743    0.016
 3997.00    1.68383   1.03718    0.016
 3998.00    1.57051   1.03952    0.016
 3999.00    1.25671   1.03632    0.017
 4000.00    1.18218   1.02612    0.017
 4001.00    1.20599   1.01141    0.016
 4002.00    1.21981   1.00412    0.016
 4003.00    1.23012   1.01061    0.016
 4004.00    1.33390   1.02259    0.016
 4005.00    1.46538   1.03057    0.016
 4006.00    1.54676   1.03563    0.016
 4007.00    1.61584   1.04225    0.016
 4008.00    1.52094   1.04824    0.016
 4009.00    1.39345   1.05022    0.016
 4010.00    1.00000   1.05070    0.016
 4011.00    0.56523   1.05262    0.016
 4012.00    0.36665   1.05372    0.016
 4013.00    0.19524   1.05236    0.016
 4014.00    0.04245   1.05304    0.015
 4015.00   -0.10889   1.05872    0.000
 4016.00   -0.01189   1.06309    0.000
 4017.00    0.09558   1.05991    0.015
 4018.00    0.70735   1.05264    0.016
 4019.00    1.30688   1.04393    0.016
 4020.00    1.16799   1.02977    0.016
 4021.00    1.01703   1.01349    0.016
 4022.00    0.65317   1.00783    0.016
 4023.00    0.34905   1.01768    0.016
 4024.00    0.68776   1.03238    0.016
 4025.00    0.94822   1.03728    0.016
 4026.00    0.61473   1.02878    0.016
 4027.00    0.37093   1.01665    0.016
 4028.00    0.64448   1.01136    0.016
 4029.00    0.86673   1.01418    0.016
 4030.00    0.85384   1.02160    0.016
 4031.00    0.74579   1.03258    0.016
 4032.00    0.28084   1.04764    0.016
 4033.00    0.02170   1.06360    0.016
 4034.00    0.40779   1.07282    0.016
 4035.00    0.73945   1.07148    0.016
 4036.00    0.92627   1.06510    0.016
 4037.00    1.16359   1.06073    0.016
 4038.00    1.51621   1.05835    0.016
 4039.00    1.73327   1.05033    0.016
 4040.00    1.68235   1.02949    0.016
 4041.00    1.49362   1.00317    0.016
 4042.00    1.06747   0.99094    0.016
 4043.00    0.87328   1.00207    0.016
 4044.00    1.02903   1.02469    0.017
 4045.00    1.16458   1.04185    0.017
 4046.00    1.27333   1.04930    0.017
 4047.00    1.40124   1.05109    0.017
 4048.00    1.55151   1.04858    0.017
 4049.00    1.55960   1.04172    0.017
 4050.00    1.42130   1.03352    0.017
 4051.00    1.34329   1.02823    0.017
 4052.00    1.32003   1.02621    0.017
 4053.00    1.24236   1.02450    0.017
 4054.00    1.12113   1.02350    0.017
 4055.00    1.02786   1.02717    0.017
 4056.00    0.95429   1.03450    0.017
 4057.00    1.08405   1.03577    0.017
 4058.00    1.33941   1.02254    0.017
 4059.00    1.42177   1.00050    0.017
 4060.00    1.41077   0.98652    0.017
 4061.00    1.29648   0.98922    0.017
 4062.00    1.13377   0.99847    0.017
 4063.00    1.32620   1.00407    0.016
 4064.00    1.66213   1.01042    0.016
 4065.00    1.53550   1.01818    0.016
 4066.00    1.24939   1.01497    0.016
 4067.00    1.03927   0.99920    0.016
 4068.00    0.85121   0.98840    0.016
 4069.00    0.88533   0.99286    0.016
 4070.00    0.97282   1.00050    0.016
 4071.00    0.90109   0.99532    0.016
 4072.00    0.79852   0.97749    0.016
 4073.00    1.09466   0.95990    0.016
 4074.00    1.45090   0.95460    0.016
 4075.00    1.28272   0.96392    0.016
 4076.00    1.05654   0.97983    0.016
 4077.00    1.08007   0.99085    0.016
 4078.00    1.12188   0.99013    0.016
 4079.00    1.22215   0.97904    0.016
 4080.00    1.32465   0.96448    0.016
 4081.00    1.06495   0.95359    0.016
 4082.00    0.80682   0.95028    0.016
 4083.00    0.68312   0.95219    0.015
 4084.00    0.57676   0.95167    0.015
 4085.00    0.75598   0.94258    0.015
 4086.00    0.95265   0.92531    0.016
 4087.00    1.32873   0.90332    0.016
 4088.00    1.64309   0.87902    0.016
 4089.00    1.50448   0.85425    0.015
 4090.00    1.38208   0.82809    0.015
 4091.00    1.35069   0.79537    0.016
 4092.00    1.35476   0.75420    0.000
 4093.00    1.51749   0.70881    0.000
 4094.00    1.57135   0.66111    0.000
 4095.00    1.22540   0.60721    0.000
 4096.00    0.94822   0.54542    0.000
 4097.00    0.88256   0.48834    0.000
 4098.00    0.84791   0.46285    0.000
 4099.00    0.89434   0.48537    0.000
 4100.00    0.98669   0.54198    0.000
 4101.00    1.18220   0.60573    0.000
 4102.00    1.32704   0.66130    0.000
 4103.00    1.37328   0.70638    0.000
 4104.00    1.21168   0.74345    0.000
 4105.00    0.69739   0.77502    0.000
 4106.00    0.49543   0.80229    0.000
 4107.00    0.75774   0.82760    0.000
 4108.00    1.05679   0.85326    0.000
 4109.00    1.40383   0.87746    0.000
 4110.00    1.55515   0.89734    0.000
 4111.00    1.48117   0.91386    0.000
 4112.00    1.20381   0.92766    0.000
 4113.00    0.72000   0.93607    0.016
 4114.00    0.85578   0.93794    0.016
 4115.00    1.54629   0.93707    0.016
 4116.00    1.65781   0.93891    0.016
 4117.00    1.31251   0.94562    0.016
 4118.00    1.13673   0.95467    0.016
 4119.00    1.07857   0.96385    0.016
 4120.00    1.01694   0.97428    0.016
 4121.00    0.95320   0.98424    0.016
 4122.00    0.95515   0.98649    0.016
 4123.00    0.99201   0.97816    0.016
 4124.00    1.28232   0.96687    0.016
 4125.00    1.68950   0.96022    0.016
 4126.00    1.67368   0.95608    0.016
 4127.00    1.48990   0.95100    0.016
 4128.00    1.56076   0.94888    0.016
 4129.00    1.71781   0.95415    0.016
 4130.00    1.23671   0.96664    0.016
 4131.00    0.57404   0.98321    0.015
 4132.00    0.69626   0.99789    0.015
 4133.00    1.00275   1.00593    0.015
 4134.00    1.00797   1.00984    0.016
 4135.00    0.95631   1.01371    0.016
 4136.00    1.15873   1.01463    0.016
 4137.00    1.39825   1.00506    0.016
 4138.00    0.98694   0.98141    0.015
 4139.00    0.50647   0.95424    0.015
 4140.00    0.39669   0.94461    0.015
 4141.00    0.31255   0.95971    0.015
 4142.00    0.84125   0.98412    0.015
 4143.00    1.39108   1.00078    0.016
 4144.00    1.39644   1.00604    0.016
 4145.00    1.38379   1.00438    0.016
 4146.00    0.81211   1.00161    0.015
 4147.00    0.28927   1.00064    0.015
 4148.00    0.52177   0.99907    0.015
 4149.00    0.76746   0.99442    0.015
 4150.00    1.14327   0.98910    0.015
 4151.00    1.45274   0.98647    0.015
 4152.00    1.29131   0.98725    0.015
 4153.00    1.11930   0.99146    0.015
 4154.00    0.88957   0.99898    0.015
 4155.00    0.67156   1.00747    0.015
 4156.00    0.50479   1.01316    0.015
 4157.00    0.43301   1.01484    0.014
 4158.00    0.70291   1.01445    0.014
 4159.00    0.93372   1.01380    0.014
 4160.00    1.04654   1.01257    0.014
 4161.00    1.12161   1.00970    0.014
 4162.00    1.09973   1.00533    0.015
 4163.00    1.14761   1.00118    0.015
 4164.00    1.34956   0.99995    0.015
 4165.00    1.41317   1.00184    0.015
 4166.00    1.21178   1.00024    0.015
 4167.00    0.98367   0.98764    0.015
 4168.00    0.71092   0.96826    0.015
 4169.00    0.63076   0.95600    0.015
 4170.00    0.83270   0.95854    0.015
 4171.00    1.05346   0.97028    0.015
 4172.00    1.29846   0.97941    0.015
 4173.00    1.31608   0.97891    0.015
 4174.00    1.07569   0.97434    0.015
 4175.00    1.25937   0.97677    0.015
 4176.00    1.86749   0.98591    0.015
 4177.00    1.93157   0.99161    0.015
 4178.00    1.51542   0.99093    0.015
 4179.00    1.26491   0.99023    0.015
 4180.00    1.14322   0.99307    0.015
 4181.00    0.86604   0.99524    0.015
 4182.00    0.48255   0.99100    0.015
 4183.00    0.46762   0.98217    0.015
 4184.00    0.67362   0.97808    0.015
 4185.00    0.65918   0.98312    0.015
 4186.00    0.52944   0.99121    0.015
 4187.00    0.65562   0.99640    0.015
 4188.00    0.89788   1.00041    0.015
 4189.00    1.01814   1.00542    0.015
 4190.00    1.09080   1.00696    0.015
 4191.00    0.84683   1.00074    0.015
 4192.00    0.49770   0.98909    0.015
 4193.00    0.34571   0.97551    0.015
 4194.00    0.24866   0.96266    0.015
 4195.00    0.47565   0.95559    0.015
 4196.00    0.77699   0.95566    0.015
 4197.00    0.89948   0.95771    0.015
 4198.00    0.98910   0.95993    0.015
 4199.00    0.98257   0.96487    0.015
 4200.00    0.96245   0.97165    0.015
 4201.00    1.46809   0.97846    0.015
 4202.00    2.02734   0.98616    0.015
 4203.00    1.42213   0.99399    0.015
 4204.00    0.74105   0.99883    0.015
 4205.00    0.73896   0.99945    0.015
 4206.00    0.75846   0.99892    0.015
 4207.00    1.25100   1.00119    0.015
 4208.00    1.72132   1.00456    0.015
 4209.00    1.53889   1.00236    0.015
 4210.00    1.35594   0.99072    0.015
 4211.00    1.16553   0.97477    0.015
 4212.00    1.00389   0.96686    0.015
 4213.00    1.11447   0.97368    0.015
 4214.00    1.25303   0.98882    0.015
 4215.00    1.58396   1.00197    0.015
 4216.00    1.83786   1.00806    0.015
 4217.00    1.68240   1.00715    0.015
 4218.00    1.50572   0.99987    0.015
 4219.00    1.23841   0.98470    0.015
 4220.00    1.00491   0.95994    0.015
 4221.00    0.89052   0.92846    0.014
 4222.00    0.82615   0.90198    0.014
 4223.00    0.90987   0.89696    0.014
 4224.00    0.97297   0.91857    0.014
 4225.00    0.98399   0.95200    0.014
 4226.00    1.01821   0.97747    0.015
 4227.00    1.10286   0.98583    0.014
 4228.00    1.13912   0.97815    0.014
 4229.00    1.08416   0.96437    0.014
 4230.00    1.01127   0.95720    0.014
 4231.00    0.90885   0.95767    0.014
 4232.00    0.90741   0.95896    0.014
 4233.00    1.05175   0.96076    0.013
 4234.00    1.10190   0.96509    0.013
 4235.00    1.03250   0.97065    0.013
 4236.00    1.00032   0.97653    0.013
 4237.00    1.00981   0.98092    0.013
 4238.00    1.10173   0.98283    0.013
 4239.00    1.27502   0.98653    0.013
 4240.00    1.29002   0.99324    0.013
 4241.00    1.16728   0.99449    0.013
 4242.00    1.05643   0.98418    0.013
 4243.00    0.95470   0.96874    0.014
 4244.00    0.96377   0.95689    0.014
 4245.00    1.04751   0.94897    0.014
 4246.00    1.07023   0.94431    0.014
 4247.00    1.05690   0.94699    0.014
 4248.00    0.93811   0.95553    0.014
 4249.00    0.76501   0.96016    0.014
 4250.00    0.82738   0.95764    0.014
 4251.00    0.99479   0.95716    0.014
 4252.00    1.10415   0.96514    0.014
 4253.00    1.19124   0.97341    0.014
 4254.00    1.09829   0.97019    0.014
 4255.00    0.94667   0.95624    0.014
 4256.00    0.78455   0.94287    0.013
 4257.00    0.61957   0.94077    0.013
 4258.00    0.88617   0.95297    0.013
 4259.00    1.24950   0.97189    0.014
 4260.00    1.46082   0.98630    0.014
 4261.00    1.64495   0.99123    0.014
 4262.00    1.30971   0.98714    0.014
 4263.00    0.90342   0.97672    0.014
 4264.00    0.49955   0.96456    0.014
 4265.00    0.09592   0.95173    0.014
 4266.00    0.37716   0.93481    0.014
 4267.00    0.70028   0.91652    0.014
 4268.00    0.88306   0.90754    0.014
 4269.00    1.05981   0.91130    0.014
 4270.00    0.79657   0.92033    0.013
 4271.00    0.55767   0.93176    0.013
 4272.00    0.96192   0.94788    0.013
 4273.00    1.33147   0.96390    0.014
 4274.00    1.22399   0.97063    0.014
 4275.00    1.09664   0.96640    0.014
 4276.00    0.78874   0.95794    0.014
 4277.00    0.55178   0.95160    0.014
 4278.00    0.78735   0.94916    0.014
 4279.00    0.97804   0.94991    0.014
 4280.00    0.93636   0.95009    0.014
 4281.00    0.91590   0.94605    0.014
 4282.00    0.98399   0.93976   -2.000
 4283.00    1.02914   0.93305   -2.000
 4284.00    0.99509   0.92212   -2.000
 4285.00    0.97848   0.90623   -2.000
 4286.00    1.01255   0.89565   -2.000
 4287.00    1.03365   0.90109   -2.000
 4288.00    1.02255   0.91745   -2.000
 4289.00    0.90106   0.92887   -2.000
 4290.00    0.54356   0.92834   -2.000
 4291.00    0.27054   0.92196   -2.000
 4292.00    0.15438   0.91521   -2.000
 4293.00    0.19142   0.90559   -2.000
 4294.00    0.47693   0.88872   -2.000
 4295.00    0.56134   0.86723   -2.000
 4296.00    0.35966   0.85227   -2.000
 4297.00    0.39324   0.84991   -2.000
 4298.00    0.72127   0.85459    0.015
 4299.00    0.79663   0.86196    0.014
 4300.00    0.59325   0.87079    0.014
 4301.00    0.50576   0.87529    0.014
 4302.00    0.53103   0.87009    0.014
 4303.00    0.66122   0.85713    0.014
 4304.00    0.88142   0.84582    0.014
 4305.00    0.76075   0.84517    0.014
 4306.00    0.38248   0.85434    0.014
 4307.00    0.39086   0.86576    0.014
 4308.00    0.65601   0.87388    0.014
 4309.00    0.84506   0.87870    0.014
 4310.00    0.98985   0.88660    0.014
 4311.00    0.90104   0.90471    0.014
 4312.00    0.69384   0.92938    0.014
 4313.00    0.77188   0.94744    0.014
 4314.00    0.97509   0.95062    0.013
 4315.00    0.99136   0.94201    0.013
 4316.00    0.93721   0.92881    0.014
 4317.00    0.90834   0.91510    0.014
 4318.00    0.88754   0.89931    0.014
 4319.00    0.92523   0.87601    0.014
 4320.00    0.97856   0.84537    0.014
 4321.00    0.72800   0.81798    0.014
 4322.00    0.41095   0.80825    0.014
 4323.00    0.74309   0.81942    0.014
 4324.00    1.18818   0.83635    0.014
 4325.00    1.22016   0.84126    0.014
 4326.00    1.19751   0.83129    0.015
 4327.00    1.07988   0.81462    0.015
 4328.00    0.95338   0.79676    0.015
 4329.00    1.18636   0.77737    0.014
 4330.00    1.43991   0.75428    0.000
 4331.00    1.33059   0.72338    0.000
 4332.00    1.21323   0.67822    0.000
 4333.00    1.14203   0.61818    0.000
 4334.00    1.07509   0.55296    0.000
 4335.00    1.11084   0.49489    0.000
 4336.00    1.15014   0.45921    0.000
 4337.00    1.23564   0.46339    0.000
 4338.00    1.30150   0.50647    0.000
 4339.00    1.19572   0.56512    0.000
 4340.00    1.06535   0.62016    0.000
 4341.00    0.77607   0.66735    0.000
 4342.00    0.59265   0.70683    0.000
 4343.00    0.94328   0.74021    0.000
 4344.00    1.18414   0.76984    0.000
 4345.00    0.97696   0.79126    0.000
 4346.00    0.80066   0.79644    0.000
 4347.00    0.72883   0.78969    0.000
 4348.00    0.79517   0.78959    0.000
 4349.00    1.25582   0.80800    0.000
 4350.00    1.48984   0.83651    0.000
 4351.00    1.17134   0.86193    0.014
 4352.00    1.01204   0.88036    0.014
 4353.00    1.18759   0.89073    0.014
 4354.00    1.29763   0.89365    0.014
 4355.00    1.28791   0.89580    0.014
 4356.00    1.20670   0.90394    0.014
 4357.00    1.01129   0.91621    0.014
 4358.00    0.79008   0.92670    0.014
 4359.00    0.53267   0.93436    0.014
 4360.00    0.60935   0.94167    0.014
 4361.00    1.09821   0.94653    0.014
 4362.00    1.23719   0.94351    0.014
 4363.00    0.99564   0.93398    0.014
 4364.00    0.89870   0.92607    0.014
 4365.00    0.94049   0.92496    0.014
 4366.00    0.97210   0.92843    0.014
 4367.00    0.99510   0.93176    0.014
 4368.00    0.93991   0.93059    0.014
 4369.00    0.82649   0.92249    0.013
 4370.00    0.73934   0.91099    0.013
 4371.00    0.66938   0.90616    0.013
 4372.00    0.80246   0.91531    0.013
 4373.00    1.05181   0.93295    0.014
 4374.00    1.23209   0.94670    0.014
 4375.00    1.37790   0.95053    0.014
 4376.00    1.36034   0.94512    0.014
 4377.00    1.27228   0.92895    0.014
 4378.00    1.06686   0.89936    0.013
 4379.00    0.81802   0.86501    0.013
 4380.00    0.71183   0.84651    0.013
 4381.00    0.65037   0.85494    0.013
 4382.00    0.56298   0.87812    0.013
 4383.00    0.46882   0.89678    0.013
 4384.00    0.68938   0.90533    0.013
 4385.00    0.97716   0.90932    0.013
 4386.00    1.00682   0.91377    0.013
 4387.00    0.99284   0.92061    0.013
 4388.00    1.13149   0.92756    0.013
 4389.00    1.28965   0.92881    0.013
 4390.00    1.18434   0.92418    0.013
 4391.00    1.05553   0.92302    0.013
 4392.00    1.13123   0.93262    0.013
 4393.00    1.21781   0.94646    0.013
 4394.00    1.34852   0.95134    0.013
 4395.00    1.47765   0.94342    0.013
 4396.00    1.40884   0.93181    0.013
 4397.00    1.33075   0.92756    0.013
 4398.00    1.04892   0.92878    0.013
 4399.00    0.79920   0.92295    0.013
 4400.00    0.94618   0.90857    0.013
 4401.00    1.07320   0.90049    0.013
 4402.00    1.03234   0.90603    0.013
 4403.00    1.00271   0.91535    0.013
 4404.00    1.04352   0.92210    0.013
 4405.00    1.07093   0.93148    0.013
 4406.00    1.03240   0.94543    0.013
 4407.00    0.97160   0.95828    0.013
 4408.00    0.82191   0.96371    0.013
 4409.00    0.71794   0.95650    0.013
 4410.00    0.76562   0.93747    0.013
 4411.00    0.78703   0.91833    0.013
 4412.00    0.73487   0.91139    0.013
 4413.00    0.71621   0.91807    0.013
 4414.00    0.77786   0.93266    0.013
 4415.00    0.73532   0.94807    0.013
 4416.00    0.47716   0.95619    0.013
 4417.00    0.38338   0.95299    0.013
 4418.00    0.58548   0.94466    0.013
 4419.00    0.82578   0.94128    0.013
 4420.00    1.12619   0.94363    0.013
 4421.00    1.14631   0.94469    0.013
 4422.00    0.77908   0.94180    0.013
 4423.00    0.63273   0.93944    0.013
 4424.00    0.75503   0.94074    0.013
 4425.00    0.80506   0.94201    0.013
 4426.00    0.77758   0.94087    0.013
 4427.00    0.82868   0.94059    0.013
 4428.00    0.95408   0.93985    0.013
 4429.00    0.93039   0.93204    0.013
 4430.00    0.78237   0.91828    0.013
 4431.00    0.65739   0.90959    0.013
 4432.00    0.54931   0.91467    0.013
 4433.00    0.69026   0.93128    0.013
 4434.00    0.99177   0.94949    0.013
 4435.00    0.95333   0.95906    0.013
 4436.00    0.72315   0.95473    0.013
 4437.00    0.78056   0.93961    0.013
 4438.00    0.97914   0.92359    0.013
 4439.00    1.12792   0.91699    0.013
 4440.00    1.25557   0.92404    0.013
 4441.00    1.16626   0.93849    0.013
 4442.00    0.99810   0.94893    0.013
 4443.00    0.92963   0.95130    0.013
 4444.00    0.89180   0.94970    0.013
 4445.00    0.76149   0.94696    0.013
 4446.00    0.60750   0.94428    0.013
 4447.00    0.62167   0.94340    0.013
 4448.00    0.67088   0.94134    0.013
 4449.00    0.76978   0.93181    0.013
 4450.00    0.87684   0.91626    0.013
 4451.00    0.94102   0.90536    0.013
 4452.00    0.99991   0.90524    0.012
 4453.00    0.74360   0.91010    0.012
 4454.00    0.46047   0.91229    0.012
 4455.00    0.77704   0.91062    0.012
 4456.00    1.12320   0.90714    0.013
 4457.00    1.33899   0.90451    0.013
 4458.00    1.54695   0.90719    0.013
 4459.00    1.39406   0.91633    0.012
 4460.00    1.24577   0.92590    0.012
 4461.00    1.19060   0.92998    0.000
 4462.00    1.13819   0.92817    0.000
 4463.00    1.11824   0.92197    0.000
 4464.00    1.11302   0.91275    0.000
 4465.00    1.22725   0.90350    0.000
 4466.00    1.32475   0.89881    0.000
 4467.00    1.32039   0.90304    0.000
 4468.00    1.26292   0.91675    0.000
 4469.00    0.95068   0.93443    0.000
 4470.00    0.74290   0.94847    0.000
 4471.00    0.94311   0.95630    0.000
 4472.00    1.09865   0.96041    0.000
 4473.00    1.10898   0.96096    0.000
 4474.00    1.10146   0.95263    0.000
 4475.00    1.04484   0.93058    0.000
 4476.00    0.94507   0.90039    0.000
 4477.00    0.74361   0.88052    0.000
 4478.00    0.62530   0.88599    0.000
 4479.00    0.67635   0.91159    0.000
 4480.00    0.79509   0.93916    0.000
 4481.00    1.03383   0.95593    0.000
 4482.00    1.09658   0.95990    0.012
 4483.00    0.88640   0.95353    0.012
 4484.00    0.86262   0.94124    0.012
 4485.00    1.09269   0.93032    0.012
 4486.00    1.22162   0.92728    0.012
 4487.00    1.22927   0.93237    0.012
 4488.00    1.23210   0.93881    0.012
 4489.00    1.22983   0.93927    0.012
 4490.00    1.26388   0.93361    0.012
 4491.00    1.33179   0.92832    0.012
 4492.00    1.18783   0.92878    0.012
 4493.00    0.86968   0.93535    0.012
 4494.00    0.62116   0.94416    0.012
 4495.00    0.42303   0.94872    0.012
 4496.00    0.55155   0.94579    0.012
 4497.00    0.88756   0.94168    0.012
 4498.00    1.04038   0.94594    0.012
 4499.00    1.09144   0.95820    0.012
 4500.00    1.12264   0.96869    0.012
 4501.00    1.14425   0.97037    0.012
 4502.00    1.07467   0.96443    0.012
 4503.00    0.96705   0.95661    0.012
 4504.00    0.93752   0.95244    0.012
 4505.00    0.93586   0.95411    0.012
 4506.00    1.09644   0.95833    0.012
 4507.00    1.30594   0.95895    0.012
 4508.00    1.34137   0.95394    0.012
 4509.00    1.33321   0.94625    0.012
 4510.00    1.29664   0.93963    0.012
 4511.00    1.25430   0.93652    0.012
 4512.00    1.24112   0.93648    0.012
 4513.00    1.23259   0.93685    0.012
 4514.00    1.00390   0.93695    0.012
 4515.00    0.74904   0.93824    0.012
 4516.00    0.70113   0.93945    0.012
 4517.00    0.66997   0.93625    0.012
 4518.00    0.96523   0.92829    0.012
 4519.00    1.27533   0.92109    0.012
 4520.00    1.13447   0.91755    0.012
 4521.00    0.99031   0.91426    0.012
 4522.00    0.96090   0.90773    0.012
 4523.00    0.94143   0.89901    0.012
 4524.00    1.10862   0.89246    0.012
 4525.00    1.25102   0.89180    0.012
 4526.00    1.11551   0.89682    0.012
 4527.00    0.97686   0.90290    0.012
 4528.00    0.81356   0.90308    0.012
 4529.00    0.67647   0.89483    0.012
 4530.00    0.69433   0.88623    0.012
 4531.00    0.73721   0.88994    0.012
 4532.00    0.89725   0.90831    0.012
 4533.00    0.99595   0.92954    0.012
 4534.00    0.86022   0.94049    0.012
 4535.00    0.73637   0.93869    0.012
 4536.00    0.65044   0.93169    0.012
 4537.00    0.66284   0.92828    0.012
 4538.00    0.94095   0.92981    0.012
 4539.00    1.12736   0.93052    0.012
 4540.00    1.10129   0.92735    0.012
 4541.00    1.03059   0.92371    0.012
 4542.00    0.87043   0.92125    0.012
 4543.00    0.80360   0.91528    0.012
 4544.00    0.89972   0.90333    0.012
 4545.00    0.97153   0.89363    0.012
 4546.00    1.00617   0.89573    0.012
 4547.00    1.07651   0.90559    0.012
 4548.00    1.19476   0.91120    0.012
 4549.00    1.18172   0.90797    0.012
 4550.00    1.01347   0.90104    0.000
 4551.00    0.86686   0.89897    0.000
 4552.00    0.74281   0.90654    0.000
 4553.00    0.82670   0.91955    0.000
 4554.00    1.10177   0.93049    0.000
 4555.00    1.21523   0.93756    0.000
 4556.00    1.19771   0.94221    0.000
 4557.00    1.10965   0.94247    0.000
 4558.00    0.97126   0.93467    0.000
 4559.00    0.92641   0.92111    0.000
 4560.00    0.94008   0.91110    0.000
 4561.00    0.92051   0.91203    0.000
 4562.00    0.88275   0.92256    0.000
 4563.00    0.87546   0.93515    0.000
 4564.00    0.88265   0.94204    0.000
 4565.00    1.04765   0.93913    0.000
 4566.00    1.27736   0.92813    0.000
 4567.00    1.22225   0.91741    0.000
 4568.00    1.06732   0.91623    0.000
 4569.00    1.01068   0.92441    0.000
 4570.00    0.98309   0.93294    0.000
 4571.00    0.90606   0.93596    0.000
 4572.00    0.81692   0.93478    0.000
 4573.00    0.73981   0.93107    0.000
 4574.00    0.66509   0.92414    0.000
 4575.00    1.04373   0.91512    0.000
 4576.00    1.49255   0.90800    0.000
 4577.00    1.28835   0.90524    0.000
 4578.00    1.00942   0.90478    0.000
 4579.00    1.20305   0.90367    0.000
 4580.00    1.43297   0.90301    0.000
 4581.00    1.72346   0.90572    0.000
 4582.00    2.01647   0.91157    0.000
 4583.00    1.62457   0.91769    0.000
 4584.00    1.23726   0.92207    0.000
 4585.00    1.30245   0.92375    0.000
 4586.00    1.34486   0.92171    0.000
 4587.00    0.98891   0.91660    0.000
 4588.00    0.65789   0.91197    0.000
 4589.00    0.59355   0.91053    0.000
 4590.00    0.56048   0.91109    0.000
 4591.00    0.76365   0.91183    0.000
 4592.00    1.00672   0.91326    0.000
 4593.00    1.47917   0.91586    0.000
 4594.00    1.80058   0.91796    0.000
 4595.00    1.43186   0.91749    0.000
 4596.00    1.15645   0.91477    0.000
 4597.00    1.23008   0.91263    0.000
 4598.00    1.25275   0.91319    0.000
 4599.00    1.11607   0.91563    0.000
 4600.00    1.03456   0.91782    0.000
 4601.00    1.09951   0.91952    0.000
 4602.00    1.19231   0.92270    0.000
 4603.00    1.34859   0.92852    0.000
 4604.00    1.41267   0.93537    0.000
 4605.00    1.29486   0.93989    0.000
 4606.00    1.19608   0.93958    0.000
 4607.00    1.13003   0.93531    0.000
 4608.00    1.12284   0.93068    0.000
 4609.00    1.20431   0.92834    0.000
 4610.00    1.26286   0.92802    0.000
 4611.00    1.29112   0.92798    0.000
 4612.00    1.29905   0.92715    0.000
 4613.00    1.28331   0.92483    0.000
 4614.00    1.21800   0.92084    0.000
 4615.00    1.10175   0.91800    0.000
 4616.00    0.99990   0.91994    0.000
 4617.00    0.91111   0.92529    0.000
 4618.00    0.87258   0.92982    0.000
 4619.00    0.87422   0.93190    0.000
 4620.00    0.95606   0.93192    0.000
 4621.00    1.09428   0.93030    0.000
 4622.00    1.10956   0.92747    0.000
 4623.00    1.04903   0.92313    0.000
 4624.00    0.87409   0.91773    0.000
 4625.00    0.63752   0.91497    0.000
 4626.00    0.78542   0.91770    0.000
 4627.00    1.11315   0.92203    0.000
 4628.00    1.30319   0.92158    0.000
 4629.00    1.43772   0.91613    0.000
 4630.00    1.34922   0.91107    0.000
 4631.00    1.18400   0.90932    0.000
 4632.00    0.96865   0.90857    0.000
 4633.00    0.73878   0.90617    0.000
 4634.00    0.68793   0.90290    0.000
 4635.00    0.67997   0.90131    0.000
 4636.00    0.63148   0.90338    0.000
 4637.00    0.57517   0.90830    0.000
 4638.00    0.64179   0.91211    0.000
 4639.00    0.72687   0.91171    0.000
 4640.00    0.84556   0.90676    0.000
 4641.00    0.96795   0.89797    0.000
 4642.00    1.08358   0.88847    0.000
 4643.00    1.19871   0.88384    0.000
 4644.00    1.00578   0.88660    0.000
 4645.00    0.80120   0.89391    0.000
 4646.00    0.82226   0.90157    0.000
 4647.00    0.84737   0.90704    0.000
 4648.00    0.97983   0.90902    0.000
 4649.00    1.10366   0.90658    0.000
 4650.00    1.08659   0.90076    0.000
 4651.00    1.05510   0.89598    0.000
 4652.00    0.87590   0.89721    0.000
 4653.00    0.70817   0.90572    0.000
 4654.00    0.62428   0.91807    0.000
 4655.00    0.61288   0.92799    0.000
 4656.00    1.00671   0.93023    0.000
 4657.00    1.28355   0.92436    0.000
 4658.00    1.03842   0.91453    0.000
 4659.00    0.84865   0.90559    0.000
 4660.00    0.86161   0.89848    0.000
 4661.00    0.93447   0.88954    0.000
 4662.00    1.19107   0.87705    0.000
 4663.00    1.29944   0.86701    0.000
 4664.00    1.02126   0.86712    0.000
 4665.00    0.84117   0.87735    0.000
 4666.00    0.88090   0.89073    0.000
 4667.00    0.88025   0.90009    0.000
 4668.00    0.80117   0.90287    0.000
 4669.00    0.74348   0.90239    0.000
 4670.00    0.72199   0.90397    0.000
 4671.00    0.70857   0.90875    0.000
 4672.00    0.70711   0.91273    0.000
 4673.00    0.76008   0.91145    0.000
 4674.00    0.88403   0.90459    0.000
 4675.00    0.97593   0.89597    0.000
 4676.00    1.03102   0.88986    0.000
 4677.00    0.99034   0.88845    0.000
 4678.00    0.85263   0.89138    0.000
 4679.00    0.87882   0.89587    0.000
 4680.00    1.05150   0.89865    0.000
 4681.00    1.15181   0.89850    0.000
 4682.00    1.19513   0.89683    0.000
 4683.00    1.03345   0.89605    0.000
 4684.00    0.72978   0.89689    0.000
 4685.00    0.68708   0.89765    0.000
 4686.00    0.80287   0.89721    0.000
 4687.00    0.92300   0.89709    0.000
 4688.00    1.04544   0.89903    0.000
 4689.00    0.94084   0.90311    0.000
 4690.00    0.73178   0.90839    0.000
 4691.00    0.82756   0.91257    0.000
 4692.00    1.04412   0.91168    0.000
 4693.00    1.11490   0.90405    0.000
 4694.00    1.13646   0.89398    0.000
 4695.00    1.04733   0.88722    0.000
 4696.00    0.92679   0.88398    0.000
 4697.00    0.90950   0.88057    0.000
 4698.00    0.91639   0.87702    0.000
 4699.00    0.89488   0.87749    0.000
 4700.00    0.86803   0.88276    0.000
 4701.00    0.93321   0.88714    0.000
 4702.00    1.01178   0.88558    0.000
 4703.00    1.03161   0.88020    0.000
 4704.00    1.04522   0.87686    0.000
 4705.00    1.02852   0.87923    0.000
 4706.00    1.00973   0.88630    0.000
 4707.00    0.95538   0.89266    0.000
 4708.00    0.89982   0.89296    0.000
 4709.00    1.05465   0.88815    0.000
 4710.00    1.20566   0.88479    0.000
 4711.00    1.22228   0.88773    0.000
 4712.00    1.22331   0.89523    0.000
 4713.00    0.98533   0.90190    0.000
 4714.00    0.77507   0.90555    0.000
 4715.00    0.83661   0.90774    0.000
 4716.00    0.89141   0.90887    0.000
 4717.00    0.89857   0.90823    0.000
 4718.00    0.91209   0.90754    0.000
 4719.00    0.96024   0.90889    0.000
 4720.00    0.98181   0.91039    0.000
 4721.00    0.88755   0.90733    0.000
 4722.00    0.82757   0.89740    0.000
 4723.00    0.89054   0.88410    0.000
 4724.00    0.95443   0.87417    0.000
 4725.00    1.02104   0.87095    0.000
 4726.00    1.07952   0.87272    0.000
 4727.00    1.11715   0.87718    0.000
 4728.00    1.15188   0.88339    0.000
 4729.00    1.18024   0.88985    0.000
 4730.00    1.11813   0.89370    0.000
 4731.00    0.88309   0.89263    0.000
 4732.00    0.79476   0.88882    0.000
 4733.00    0.95117   0.88784    0.000
 4734.00    1.03651   0.89088    0.000
 4735.00    1.01792   0.89337    0.000
 4736.00    0.97107   0.89302    0.000
 4737.00    0.88791   0.89270    0.000
 4738.00    0.83229   0.89488    0.000
 4739.00    0.80788   0.89783    0.000
 4740.00    0.80407   0.89924    0.000
 4741.00    0.82082   0.90013    0.000
 4742.00    0.88773   0.90186    0.000
 4743.00    0.99882   0.90327    0.000
 4744.00    1.05103   0.90363    0.000
 4745.00    1.05752   0.90376    0.000
 4746.00    0.90346   0.90332    0.000
 4747.00    0.63981   0.90071    0.000
 4748.00    0.74705   0.89587    0.000
 4749.00    1.07619   0.89059    0.000
 4750.00    1.03070   0.88618    0.000
 4751.00    0.78967   0.88272    0.000
 4752.00    0.73315   0.88077    0.000
 4753.00    0.76016   0.88177    0.000
 4754.00    0.78636   0.88510    0.000
 4755.00    0.81224   0.88696    0.000
 4756.00    0.83021   0.88374    0.000
 4757.00    0.84556   0.87527    0.000
 4758.00    0.87380   0.86505    0.000
 4759.00    0.90564   0.85723    0.000
 4760.00    0.79296   0.85347    0.000
 4761.00    0.64723   0.85372    0.011
 4762.00    0.75184   0.85760    0.011
 4763.00    0.90229   0.86424    0.011
 4764.00    0.93406   0.87198    0.011
 4765.00    0.94911   0.87755    0.011
 4766.00    0.78704   0.87780    0.011
 4767.00    0.60701   0.87424    0.011
 4768.00    0.81626   0.87236    0.011
 4769.00    1.05068   0.87516    0.011
 4770.00    0.94710   0.88040    0.011
 4771.00    0.83364   0.88434    0.011
 4772.00    0.88652   0.88550    0.011
 4773.00    0.93891   0.88403    0.011
 4774.00    0.97717   0.88073    0.011
 4775.00    1.01133   0.87747    0.011
 4776.00    0.98619   0.87573    0.011
 4777.00    0.95200   0.87442    0.011
 4778.00    0.83257   0.87191    0.010
 4779.00    0.72508   0.86889    0.010
 4780.00    0.69935   0.86674    0.010
 4781.00    0.70092   0.86508    0.010
 4782.00    0.84706   0.86394    0.010
 4783.00    0.96101   0.86441    0.010
 4784.00    0.93788   0.86590    0.010
 4785.00    0.89386   0.86740    0.010
 4786.00    0.77645   0.86968    0.010
 4787.00    0.71106   0.87375    0.010
 4788.00    0.79938   0.87985    0.010
 4789.00    0.86196   0.88722    0.010
 4790.00    0.85973   0.89316    0.010
 4791.00    0.84998   0.89460    0.010
 4792.00    0.82391   0.89052    0.011
 4793.00    0.79086   0.88249    0.011
 4794.00    0.74468   0.87401    0.010
 4795.00    0.74744   0.86925    0.010
 4796.00    0.83064   0.87072    0.010
 4797.00    0.85788   0.87655    0.010
 4798.00    0.80449   0.88087    0.010
 4799.00    0.79600   0.87943    0.011
 4800.00    0.84442   0.87380    0.011
 4801.00    0.80387   0.86873    0.011
 4802.00    0.66395   0.86663    0.011
 4803.00    0.64136   0.86594    0.010
 4804.00    0.73436   0.86518    0.011
 4805.00    0.82701   0.86489    0.011
 4806.00    0.91935   0.86516    0.011
 4807.00    0.96507   0.86529    0.010
 4808.00    0.97510   0.86568    0.010
 4809.00    0.97697   0.86701    0.010
 4810.00    0.97335   0.86906    0.010
 4811.00    0.94497   0.87165    0.010
 4812.00    0.90200   0.87463    0.010
 4813.00    0.92557   0.87700    0.010
 4814.00    0.98333   0.87733    0.010
 4815.00    1.02551   0.87534    0.011
 4816.00    1.06074   0.87163    0.011
 4817.00    1.04658   0.86519    0.011
 4818.00    1.01353   0.85508    0.011
 4819.00    0.92539   0.84583    0.010
 4820.00    0.81935   0.84417    0.010
 4821.00    0.76934   0.84932    0.010
 4822.00    0.73459   0.85424    0.010
 4823.00    0.67780   0.85503    0.010
 4824.00    0.61609   0.85297    0.010
 4825.00    0.75305   0.85049    0.010
 4826.00    0.92542   0.84786    0.011
 4827.00    0.82488   0.84462    0.010
 4828.00    0.68715   0.84260    0.010
 4829.00    0.73721   0.84332    0.010
 4830.00    0.80551   0.84483    0.010
 4831.00    0.89811   0.84445    0.010
 4832.00    0.99219   0.84149    0.010
 4833.00    0.98368   0.83604    0.010
 4834.00    0.97208   0.82838    0.010
 4835.00    0.89282   0.82008    0.010
 4836.00    0.81719   0.81404    0.010
 4837.00    0.83607   0.81118    0.010
 4838.00    0.84509   0.80973    0.010
 4839.00    0.71941   0.80899    0.010
 4840.00    0.62358   0.80880    0.010
 4841.00    0.79760   0.80629    0.010
 4842.00    0.95572   0.79804    0.010
 4843.00    1.00827   0.78511    0.010
 4844.00    1.01360   0.77272    0.010
 4845.00    0.77530   0.76439    0.010
 4846.00    0.64985   0.75767    0.010
 4847.00    0.99419   0.74761    0.010
 4848.00    1.22009   0.73216    0.000
 4849.00    1.03814   0.71136    0.000
 4850.00    0.90409   0.68642    0.000
 4851.00    0.90894   0.66204    0.000
 4852.00    0.92885   0.64105    0.000
 4853.00    0.98602   0.61662    0.000
 4854.00    0.98639   0.57898    0.000
 4855.00    0.86557   0.52926    0.000
 4856.00    0.84011   0.48457    0.000
 4857.00    0.99136   0.46873    0.000
 4858.00    1.04120   0.49081    0.000
 4859.00    0.92687   0.53554    0.000
 4860.00    0.84520   0.58186    0.000
 4861.00    0.80989   0.62106    0.000
 4862.00    0.76735   0.65254    0.000
 4863.00    0.71575   0.67657    0.000
 4864.00    0.63445   0.69326    0.000
 4865.00    0.52045   0.70221    0.000
 4866.00    0.52602   0.70550    0.000
 4867.00    0.64772   0.71060    0.000
 4868.00    0.63417   0.72363    0.000
 4869.00    0.50478   0.74159    0.000
 4870.00    0.54465   0.75736    0.000
 4871.00    0.71219   0.76898    0.000
 4872.00    0.84089   0.77917    0.000
 4873.00    0.94384   0.78972    0.000
 4874.00    0.93512   0.79980    0.000
 4875.00    0.86160   0.80679    0.010
 4876.00    0.77807   0.80882    0.010
 4877.00    0.68948   0.80808    0.010
 4878.00    0.69086   0.80816    0.010
 4879.00    0.73163   0.80914    0.010
 4880.00    0.76644   0.80909    0.010
 4881.00    0.79901   0.80858    0.010
 4882.00    0.86108   0.80977    0.010
 4883.00    0.93256   0.81196    0.010
 4884.00    0.81790   0.81141    0.010
 4885.00    0.65361   0.80606    0.010
 4886.00    0.79415   0.80055    0.010
 4887.00    1.00120   0.80380    0.010
 4888.00    0.80617   0.81858    0.010
 4889.00    0.54144   0.83796    0.010
 4890.00    0.66039   0.85408    0.010
 4891.00    0.82988   0.86346    0.010
 4892.00    0.92127   0.86584    0.010
 4893.00    1.00540   0.86294    0.010
 4894.00    1.01859   0.85721    0.010
 4895.00    1.02775   0.85153    0.010
 4896.00    0.83562   0.84822    0.010
 4897.00    0.64224   0.84647    0.010
 4898.00    0.81322   0.84471    0.010
 4899.00    0.98270   0.84475    0.010
 4900.00    1.11645   0.84914    0.010
 4901.00    1.22894   0.85585    0.010
 4902.00    1.06667   0.85925    0.010
 4903.00    0.91424   0.85542    0.010
 4904.00    0.84741   0.84575    0.010
 4905.00    0.81446   0.83605    0.010
 4906.00    0.99947   0.83207    0.010
 4907.00    1.12405   0.83534    0.010
 4908.00    0.94473   0.84243    0.010
 4909.00    0.81891   0.84931    0.010
 4910.00    0.91084   0.85425    0.010
 4911.00    0.96981   0.85514    0.010
 4912.00    0.91756   0.84845    0.010
 4913.00    0.84744   0.83260    0.010
 4914.00    0.72646   0.81183    0.010
 4915.00    0.64736   0.79508    0.010
 4916.00    0.67017   0.78911    0.010
 4917.00    0.67002   0.79331    0.010
 4918.00    0.62168   0.80132    0.010
 4919.00    0.66078   0.80892    0.010
 4920.00    0.85941   0.81788    0.010
 4921.00    0.95582   0.83050    0.010
 4922.00    0.88923   0.84426    0.010
 4923.00    0.88076   0.85508    0.010
 4924.00    0.95364   0.86193    0.010
 4925.00    0.95433   0.86514    0.010
 4926.00    0.86611   0.86372    0.010
 4927.00    0.84624   0.85603    0.010
 4928.00    0.90059   0.84364    0.010
 4929.00    0.96805   0.83367    0.010
 4930.00    1.04806   0.83185    0.010
 4931.00    1.00100   0.83405    0.010
 4932.00    0.84666   0.83149    0.010
 4933.00    0.80933   0.82315    0.010
 4934.00    0.85901   0.81728    0.010
 4935.00    0.87323   0.82157    0.010
 4936.00    0.86429   0.83440    0.010
 4937.00    0.88927   0.84757    0.010
 4938.00    0.93364   0.85595    0.010
 4939.00    0.89593   0.85925    0.010
 4940.00    0.81736   0.85867    0.000
 4941.00    0.72744   0.85701    0.000
 4942.00    0.63264   0.85732    0.000
 4943.00    0.71768   0.85982    0.000
 4944.00    0.86912   0.86271    0.000
 4945.00    0.96497   0.86477    0.000
 4946.00    1.04343   0.86510    0.000
 4947.00    1.07674   0.86238    0.000
 4948.00    1.09826   0.85736    0.000
 4949.00    1.08697   0.85200    0.000
 4950.00    1.06869   0.84429    0.000
 4951.00    0.98959   0.82957    0.000
 4952.00    0.90023   0.81038    0.000
 4953.00    0.80678   0.80019    0.000
 4954.00    0.71280   0.80873    0.000
 4955.00    0.68651   0.82772    0.000
 4956.00    0.66623   0.84204    0.000
 4957.00    0.70070   0.84711    0.000
 4958.00    0.73805   0.84690    0.000
 4959.00    0.83889   0.84351    0.000
 4960.00    0.93949   0.83691    0.000
 4961.00    0.92615   0.82963    0.000
 4962.00    0.91269   0.82504    0.000
 4963.00    0.89646   0.82391    0.000
 4964.00    0.87598   0.82580    0.000
 4965.00    0.80321   0.83021    0.000
 4966.00    0.73548   0.83579    0.000
 4967.00    0.70986   0.84093    0.000
 4968.00    0.70556   0.84489    0.000
 4969.00    0.83436   0.84755    0.000
 4970.00    0.93377   0.84823    0.000
 4971.00    0.88902   0.84612    0.000
 4972.00    0.85597   0.84137    0.000
 4973.00    0.86947   0.83513    0.000
 4974.00    0.89152   0.82881    0.000
 4975.00    0.94182   0.82188    0.000
 4976.00    0.92812   0.81152    0.000
 4977.00    0.73551   0.79777    0.000
 4978.00    0.63671   0.78656    0.000
 4979.00    0.76226   0.78410    0.000
 4980.00    0.87163   0.79094    0.000
 4981.00    0.94759   0.80342    0.000
 4982.00    0.97279   0.81688    0.000
 4983.00    0.90678   0.82645    0.000
 4984.00    0.83585   0.82912    0.000
 4985.00    0.75719   0.82597    0.000
 4986.00    0.74580   0.82123    0.000
 4987.00    0.82721   0.81864    0.000
 4988.00    0.89153   0.81907    0.000
 4989.00    0.93510   0.82179    0.000
 4990.00    0.94112   0.82610    0.000
 4991.00    0.90693   0.83033    0.000
 4992.00    0.96734   0.83170    0.000
 4993.00    1.11707   0.82805    0.000
 4994.00    0.99695   0.81959    0.000
 4995.00    0.65220   0.80969    0.000
 4996.00    0.56103   0.80280    0.000
 4997.00    0.65569   0.80087    0.000
 4998.00    0.68052   0.80180    0.000
 4999.00    0.66041   0.80072    0.000
 5000.00    0.67394   0.79493    0.000
 5001.00    0.70640   0.78872    0.000
 5002.00    0.76264   0.78949    0.000
 5003.00    0.83052   0.79831    0.000
 5004.00    0.88586   0.80836    0.000
 5005.00    0.93588   0.81240    0.000
 5006.00    0.85049   0.80811    0.000
 5007.00    0.71601   0.79758    0.000
 5008.00    0.79280   0.78547    0.000
 5009.00    0.93441   0.77701    0.000
 5010.00    0.87171   0.77473    0.000
 5011.00    0.75686   0.77614    0.000
 5012.00    0.52433   0.77664    0.000
 5013.00    0.26735   0.77555    0.000
 5014.00    0.49013   0.77694    0.000
 5015.00    0.79144   0.78277    0.000
 5016.00    0.87216   0.78931    0.000
 5017.00    0.92581   0.79331    0.000
 5018.00    0.77181   0.79689    0.000
 5019.00    0.60026   0.80245    0.000
 5020.00    0.68682   0.80753    0.000
 5021.00    0.78600   0.80822    0.000
 5022.00    0.81329   0.80481    0.000
 5023.00    0.84045   0.80222    0.000
 5024.00    0.92741   0.80437    0.000
 5025.00    1.00748   0.81002    0.000
 5026.00    0.94924   0.81613    0.000
 5027.00    0.89126   0.82151    0.000
 5028.00    0.83633   0.82458    0.000
 5029.00    0.80778   0.82189    0.009
 5030.00    0.99218   0.81277    0.009
 5031.00    1.12891   0.80241    0.010
 5032.00    0.97660   0.79603    0.009
 5033.00    0.86509   0.79134    0.009
 5034.00    0.94863   0.78194    0.009
 5035.00    0.98221   0.76766    0.009
 5036.00    0.82115   0.75762    0.010
 5037.00    0.72206   0.76167    0.010
 5038.00    0.82395   0.77955    0.010
 5039.00    0.89134   0.80123    0.009
 5040.00    0.86401   0.81740    0.009
 5041.00    0.83558   0.82449    0.009
 5042.00    0.80452   0.82219    0.009
 5043.00    0.76916   0.81294    0.009
 5044.00    0.72504   0.80220    0.009
 5045.00    0.64067   0.79508    0.009
 5046.00    0.48508   0.79317    0.009
 5047.00    0.49170   0.79573    0.009
 5048.00    0.74942   0.80106    0.009
 5049.00    0.77666   0.80582    0.009
 5050.00    0.49054   0.80747    0.009
 5051.00    0.39278   0.80779    0.009
 5052.00    0.52048   0.81034    0.009
 5053.00    0.68478   0.81511    0.009
 5054.00    0.88770   0.81939    0.009
 5055.00    0.89095   0.82220    0.009
 5056.00    0.70833   0.82402    0.009
 5057.00    0.67746   0.82327    0.009
 5058.00    0.77113   0.81704    0.009
 5059.00    0.85110   0.80602    0.009
 5060.00    0.92118   0.79617    0.009
 5061.00    0.90003   0.79254    0.009
 5062.00    0.82102   0.79369    0.009
 5063.00    0.74250   0.79542    0.009
 5064.00    0.66423   0.79672    0.009
 5065.00    0.70720   0.79817    0.009
 5066.00    0.80862   0.79855    0.009
 5067.00    0.79860   0.79733    0.009
 5068.00    0.74218   0.79653    0.009
 5069.00    0.77230   0.79702    0.009
 5070.00    0.83324   0.79740    0.009
 5071.00    0.87993   0.79713    0.009
 5072.00    0.92233   0.79594    0.009
 5073.00    0.81178   0.79123    0.009
 5074.00    0.66303   0.78178    0.009
 5075.00    0.58903   0.77243    0.009
 5076.00    0.53018   0.76933    0.009
 5077.00    0.63996   0.77284    0.009
 5078.00    0.77653   0.77937    0.009
 5079.00    0.71097   0.78665    0.009
 5080.00    0.62149   0.79370    0.009
 5081.00    0.58165   0.79892    0.009
 5082.00    0.54580   0.80133    0.009
 5083.00    0.70722   0.80201    0.009
 5084.00    0.87751   0.80263    0.009
 5085.00    0.73900   0.80379    0.009
 5086.00    0.60050   0.80574    0.009
 5087.00    0.64431   0.80885    0.009
 5088.00    0.68781   0.81213    0.009
 5089.00    0.72557   0.81266    0.009
 5090.00    0.75753   0.80816    0.009
 5091.00    0.72495   0.79930    0.009
 5092.00    0.69042   0.78854    0.009
 5093.00    0.64061   0.77844    0.009
 5094.00    0.60800   0.77214    0.009
 5095.00    0.67672   0.77252    0.009
 5096.00    0.72245   0.77880    0.009
 5097.00    0.66082   0.78619    0.009
 5098.00    0.63175   0.79037    0.009
 5099.00    0.72673   0.79088    0.009
 5100.00    0.79335   0.78919    0.009
 5101.00    0.76981   0.78569    0.009
 5102.00    0.71325   0.78093    0.009
 5103.00    0.56771   0.77717    0.009
 5104.00    0.51984   0.77612    0.009
 5105.00    0.69783   0.77801    0.009
 5106.00    0.78320   0.78278    0.009
 5107.00    0.68330   0.78915    0.009
 5108.00    0.66368   0.79447    0.009
 5109.00    0.78397   0.79774    0.009
 5110.00    0.85842   0.80036    0.009
 5111.00    0.86295   0.80367    0.009
 5112.00    0.93029   0.80717    0.009
 5113.00    1.08177   0.80881    0.009
 5114.00    1.04075   0.80696    0.009
 5115.00    0.77255   0.80183    0.009
 5116.00    0.58029   0.79460    0.009
 5117.00    0.46705   0.78615    0.009
 5118.00    0.49721   0.77749    0.009
 5119.00    0.65899   0.77086    0.009
 5120.00    0.71739   0.76834    0.009
 5121.00    0.69216   0.76910    0.009
 5122.00    0.65829   0.77019    0.009
 5123.00    0.61827   0.77007    0.009
 5124.00    0.55936   0.76981    0.009
 5125.00    0.48867   0.77131    0.009
 5126.00    0.52737   0.77473    0.009
 5127.00    0.62579   0.77820    0.009
 5128.00    0.60240   0.78071    0.009
 5129.00    0.52122   0.78340    0.009
 5130.00    0.58108   0.78634    0.009
 5131.00    0.69867   0.78655    0.009
 5132.00    0.78362   0.78188    0.009
 5133.00    0.85715   0.77439    0.009
 5134.00    0.81408   0.76868    0.009
 5135.00    0.73664   0.76751    0.009
 5136.00    0.74967   0.76850    0.009
 5137.00    0.78478   0.76770    0.009
 5138.00    0.80200   0.76600    0.009
 5139.00    0.81568   0.76630    0.009
 5140.00    0.71096   0.76748    0.009
 5141.00    0.58798   0.76703    0.009
 5142.00    0.72481   0.76554    0.009
 5143.00    0.89124   0.76537    0.009
 5144.00    0.75628   0.76699    0.009
 5145.00    0.59832   0.76786    0.009
 5146.00    0.68388   0.76568    0.009
 5147.00    0.77946   0.76149    0.009
 5148.00    0.79245   0.75841    0.009
 5149.00    0.80334   0.75912    0.009
 5150.00    0.75463   0.76481    0.009
 5151.00    0.71175   0.77433    0.009
 5152.00    0.76982   0.78434    0.009
 5153.00    0.82356   0.79137    0.009
 5154.00    0.83135   0.79409    0.009
 5155.00    0.81375   0.79336    0.009
 5156.00    0.60514   0.79040    0.009
 5157.00    0.44292   0.78599    0.009
 5158.00    0.54641   0.78010    0.009
 5159.00    0.62495   0.76984    0.009
 5160.00    0.58982   0.75057    0.009
 5161.00    0.55983   0.72256    0.009
 5162.00    0.54902   0.69517    0.009
 5163.00    0.56413   0.68081    0.009
 5164.00    0.66014   0.68279    0.009
 5165.00    0.73675   0.69028    0.009
 5166.00    0.76198   0.68972    0.009
 5167.00    0.75751   0.68199    0.009
 5168.00    0.68552   0.68220    0.009
 5169.00    0.59709   0.69987    0.009
 5170.00    0.47627   0.72695    0.009
 5171.00    0.44854   0.74928    0.009
 5172.00    0.58057   0.76154    0.009
 5173.00    0.66356   0.76600    0.009
 5174.00    0.67286   0.76440    0.009
 5175.00    0.68191   0.75586    0.009
 5176.00    0.69064   0.73834    0.009
 5177.00    0.67392   0.71235    0.009
 5178.00    0.62760   0.68714    0.009
 5179.00    0.62173   0.67853    0.009
 5180.00    0.65735   0.69357    0.009
 5181.00    0.64192   0.72140    0.009
 5182.00    0.58029   0.74531    0.009
 5183.00    0.53160   0.75853    0.009
 5184.00    0.49323   0.76389    0.009
 5185.00    0.49188   0.76349    0.009
 5186.00    0.51651   0.75694    0.009
 5187.00    0.57291   0.74801    0.009
 5188.00    0.64887   0.74363    0.009
 5189.00    0.69386   0.74556    0.009
 5190.00    0.72221   0.75018    0.000
 5191.00    0.73935   0.75513    0.000
 5192.00    0.75127   0.76057    0.000
 5193.00    0.74418   0.76642    0.000
 5194.00    0.72944   0.77183    0.000
 5195.00    0.73963   0.77558    0.000
 5196.00    0.75838   0.77604    0.000
 5197.00    0.63364   0.77189    0.000
 5198.00    0.46743   0.76286    0.000
 5199.00    0.51761   0.75027    0.000
 5200.00    0.61946   0.73757    0.000
 5201.00    0.64655   0.72849    0.000
 5202.00    0.65926   0.72388    0.000
 5203.00    0.61135   0.72282    0.000
 5204.00    0.55439   0.72612    0.000
 5205.00    0.59715   0.73523    0.000
 5206.00    0.65083   0.74889    0.000
 5207.00    0.63372   0.76309    0.000
 5208.00    0.61150   0.77296    0.000
 5209.00    0.56718   0.77512    0.000
 5210.00    0.52203   0.77058    0.000
 5211.00    0.52813   0.76525    0.009
 5212.00    0.53650   0.76533    0.009
 5213.00    0.61867   0.77182    0.009
 5214.00    0.69972   0.78092    0.009
 5215.00    0.76257   0.78871    0.009
 5216.00    0.81406   0.79271    0.009
 5217.00    0.74982   0.79083    0.009
 5218.00    0.69530   0.78180    0.009
 5219.00    0.71152   0.76626    0.009
 5220.00    0.71479   0.74708    0.009
 5221.00    0.64584   0.73052    0.009
 5222.00    0.58458   0.72482    0.009
 5223.00    0.55751   0.73352    0.009
 5224.00    0.54373   0.75064    0.009
 5225.00    0.57848   0.76582    0.009
 5226.00    0.61772   0.77209    0.009
 5227.00    0.67071   0.76856    0.009
 5228.00    0.67491   0.76037    0.009
 5229.00    0.55211   0.75572    0.009
 5230.00    0.48009   0.75944    0.009
 5231.00    0.52164   0.76943    0.009
 5232.00    0.52946   0.77973    0.009
 5233.00    0.47190   0.78614    0.009
 5234.00    0.45643   0.78848    0.009
 5235.00    0.51214   0.78870    0.009
 5236.00    0.55721   0.78846    0.009
 5237.00    0.58654   0.78833    0.009
 5238.00    0.59005   0.78866    0.009
 5239.00    0.55995   0.78908    0.009
 5240.00    0.60785   0.78687    0.009
 5241.00    0.74523   0.77958    0.009
 5242.00    0.90143   0.76998    0.009
 5243.00    1.07669   0.76342    0.009
 5244.00    1.05515   0.76069    0.009
 5245.00    0.85805   0.75935    0.009
 5246.00    0.72289   0.75940    0.009
 5247.00    0.63642   0.76174    0.009
 5248.00    0.69212   0.76447    0.009
 5249.00    0.84611   0.76569    0.009
 5250.00    0.79313   0.76740    0.009
 5251.00    0.61467   0.77289    0.009
 5252.00    0.60123   0.78162    0.009
 5253.00    0.67512   0.78880    0.009
 5254.00    0.66890   0.78962    0.009
 5255.00    0.62591   0.78242    0.009
 5256.00    0.62808   0.76866    0.009
 5257.00    0.64812   0.75126    0.009
 5258.00    0.62193   0.73358    0.009
 5259.00    0.58016   0.71922    0.009
 5260.00    0.58222   0.71161    0.009
 5261.00    0.59668   0.71212    0.009
 5262.00    0.59248   0.71625    0.009
 5263.00    0.58392   0.71516    0.009
 5264.00    0.50981   0.70696    0.009
 5265.00    0.42341   0.70228    0.009
 5266.00    0.43180   0.71081    0.009
 5267.00    0.45393   0.72791    0.009
 5268.00    0.58931   0.74171    0.009
 5269.00    0.73661   0.74717    0.009
 5270.00    0.68305   0.74878    0.009
 5271.00    0.61581   0.75383    0.009
 5272.00    0.41475   0.76456    0.009
 5273.00    0.20920   0.77572    0.009
 5274.00    0.37815   0.78053    0.009
 5275.00    0.54573   0.77730    0.009
 5276.00    0.65610   0.76925    0.009
 5277.00    0.75423   0.76063    0.009
 5278.00    0.66612   0.75533    0.009
 5279.00    0.58563   0.75728    0.009
 5280.00    0.57954   0.76744    0.009
 5281.00    0.57688   0.78067    0.009
 5282.00    0.59832   0.78987    0.009
 5283.00    0.59759   0.79311    0.009
 5284.00    0.47663   0.79347    0.009
 5285.00    0.41390   0.79355    0.009
 5286.00    0.60429   0.79316    0.009
 5287.00    0.74846   0.79162    0.009
 5288.00    0.72729   0.78929    0.009
 5289.00    0.72548   0.78566    0.009
 5290.00    0.78185   0.77838    0.009
 5291.00    0.80983   0.76643    0.009
 5292.00    0.76522   0.75361    0.009
 5293.00    0.71329   0.74658    0.009
 5294.00    0.64526   0.74811    0.009
 5295.00    0.61661   0.75428    0.009
 5296.00    0.66308   0.76021    0.009
 5297.00    0.69464   0.76587    0.009
 5298.00    0.70136   0.77347    0.009
 5299.00    0.67510   0.78189    0.009
 5300.00    0.60069   0.78709    0.009
 5301.00    0.56797   0.78684    0.009
 5302.00    0.58877   0.78355    0.009
 5303.00    0.66873   0.78184    0.009
 5304.00    0.81560   0.78366    0.009
 5305.00    0.80935   0.78661    0.009
 5306.00    0.65039   0.78735    0.009
 5307.00    0.54679   0.78517    0.009
 5308.00    0.49190   0.78135    0.009
 5309.00    0.49590   0.77630    0.009
 5310.00    0.54554   0.76981    0.009
 5311.00    0.65102   0.76396    0.009
 5312.00    0.79454   0.76260    0.008
 5313.00    0.84387   0.76638    0.008
 5314.00    0.83696   0.77133    0.009
 5315.00    0.77434   0.77352    0.008
 5316.00    0.68268   0.77200    0.008
 5317.00    0.76649   0.76721    0.008
 5318.00    0.92955   0.76029    0.008
 5319.00    0.84261   0.75362    0.009
 5320.00    0.65854   0.74793    0.009
 5321.00    0.61046   0.73928    0.009
 5322.00    0.60735   0.72491    0.008
 5323.00    0.62959   0.71195    0.008
 5324.00    0.65885   0.71243    0.008
 5325.00    0.64897   0.72809    0.008
 5326.00    0.63015   0.74742    0.009
 5327.00    0.57512   0.75950    0.009
 5328.00    0.51348   0.76426    0.009
 5329.00    0.57317   0.76722    0.009
 5330.00    0.64988   0.77006    0.009
 5331.00    0.58613   0.77072    0.009
 5332.00    0.50822   0.76808    0.009
 5333.00    0.52095   0.76237    0.009
 5334.00    0.53950   0.75415    0.009
 5335.00    0.62391   0.74654    0.009
 5336.00    0.70986   0.74489    0.009
 5337.00    0.62755   0.75040    0.009
 5338.00    0.55145   0.75774    0.008
 5339.00    0.65294   0.76132    0.009
 5340.00    0.74162   0.76078    0.009
 5341.00    0.64655   0.75915    0.009
 5342.00    0.57053   0.75816    0.009
 5343.00    0.67290   0.75777    0.009
 5344.00    0.76356   0.75901    0.009
 5345.00    0.77438   0.76354    0.009
 5346.00    0.77621   0.77031    0.009
 5347.00    0.73052   0.77618    0.008
 5348.00    0.68540   0.78021    0.008
 5349.00    0.64268   0.78391    0.008
 5350.00    0.60975   0.78763    0.009
 5351.00    0.61110   0.79013    0.009
 5352.00    0.61387   0.79098    0.009
 5353.00    0.62083   0.79063    0.009
 5354.00    0.62245   0.78872    0.009
 5355.00    0.61068   0.78397    0.009
 5356.00    0.64592   0.77660    0.009
 5357.00    0.78292   0.76928    0.008
 5358.00    0.87172   0.76432    0.008
 5359.00    0.87002   0.76127    0.008
 5360.00    0.85492   0.75866    0.008
 5361.00    0.81787   0.75617    0.008
 5362.00    0.81658   0.75355    0.008
 5363.00    0.86673   0.74904    0.008
 5364.00    0.83084   0.74095    0.008
 5365.00    0.68612   0.73133    0.008
 5366.00    0.59061   0.72661    0.008
 5367.00    0.54999   0.73226    0.008
 5368.00    0.57421   0.74680   -2.000
 5369.00    0.66218   0.76285   -2.000
 5370.00    0.66334   0.77362   -2.000
 5371.00    0.58921   0.77733   -2.000
 5372.00    0.54981   0.77664   -2.000
 5373.00    0.53693   0.77461   -2.000
 5374.00    0.56033   0.77196   -2.000
 5375.00    0.60807   0.76833   -2.000
 5376.00    0.63679   0.76424   -2.000
 5377.00    0.65432   0.76098   -2.000
 5378.00    0.62657   0.75991   -2.000
 5379.00    0.57561   0.76164   -2.000
 5380.00    0.56882   0.76492   -2.000
 5381.00    0.58166   0.76724   -2.000
 5382.00    0.56438   0.76712   -2.000
 5383.00    0.53559   0.76469    0.009
 5384.00    0.49394   0.76075    0.009
 5385.00    0.44812   0.75640    0.009
 5386.00    0.50787   0.75254    0.008
 5387.00    0.59630   0.74942    0.008
 5388.00    0.60418   0.74685    0.008
 5389.00    0.59412   0.74393    0.008
 5390.00    0.58381   0.73920    0.008
 5391.00    0.57346   0.73316    0.008
 5392.00    0.47666   0.73008    0.008
 5393.00    0.36812   0.73365    0.008
 5394.00    0.44921   0.74160    0.008
 5395.00    0.54862   0.74830    0.008
 5396.00    0.60432   0.75062    0.008
 5397.00    0.65739   0.74757    0.009
 5398.00    0.58378   0.73861    0.008
 5399.00    0.50776   0.72617    0.008
 5400.00    0.58035   0.71667    0.008
 5401.00    0.65093   0.71542    0.008
 5402.00    0.66959   0.72089    0.008
 5403.00    0.68011   0.72623    0.008
 5404.00    0.58028   0.72750    0.008
 5405.00    0.49619   0.72790    0.008
 5406.00    0.55367   0.73225    0.008
 5407.00    0.59267   0.74007    0.008
 5408.00    0.50947   0.74687    0.008
 5409.00    0.45947   0.75069    0.008
 5410.00    0.58023   0.75387    0.008
 5411.00    0.69818   0.75834    0.008
 5412.00    0.80447   0.76245    0.008
 5413.00    0.86778   0.76360    0.008
 5414.00    0.78347   0.76168    0.008
 5415.00    0.70274   0.75889    0.008
 5416.00    0.63232   0.75678    0.008
 5417.00    0.60125   0.75452    0.008
 5418.00    0.66733   0.75115    0.008
 5419.00    0.69811   0.74890    0.008
 5420.00    0.65377   0.75093    0.008
 5421.00    0.65808   0.75555    0.008
 5422.00    0.75240   0.75617    0.008
 5423.00    0.76011   0.74877    0.008
 5424.00    0.62789   0.73793    0.008
 5425.00    0.56488   0.73195    0.008
 5426.00    0.59999   0.73235    0.008
 5427.00    0.58812   0.73323    0.008
 5428.00    0.51766   0.73067    0.008
 5429.00    0.48781   0.72733    0.008
 5430.00    0.50259   0.72790    0.008
 5431.00    0.49239   0.73411    0.008
 5432.00    0.45799   0.74425    0.008
 5433.00    0.49725   0.75509    0.008
 5434.00    0.59948   0.76373    0.008
 5435.00    0.66184   0.76900    0.008
 5436.00    0.69419   0.77122    0.008
 5437.00    0.66066   0.77058    0.008
 5438.00    0.58354   0.76605    0.008
 5439.00    0.58401   0.75612    0.008
 5440.00    0.62945   0.74180    0.008
 5441.00    0.62609   0.72872    0.008
 5442.00    0.59811   0.72404    0.008
 5443.00    0.63275   0.72958    0.008
 5444.00    0.69475   0.73971    0.008
 5445.00    0.70520   0.74748    0.008
 5446.00    0.69633   0.75002    0.008
 5447.00    0.58446   0.74744    0.008
 5448.00    0.43981   0.74021    0.008
 5449.00    0.53548   0.72991    0.008
 5450.00    0.69504   0.72167    0.008
 5451.00    0.68095   0.72160    0.008
 5452.00    0.62908   0.73005    0.008
 5453.00    0.62048   0.74051    0.008
 5454.00    0.61936   0.74622    0.008
 5455.00    0.58976   0.74531    0.008
 5456.00    0.55643   0.73997    0.008
 5457.00    0.70202   0.73389    0.008
 5458.00    0.86414   0.73072    0.008
 5459.00    0.72851   0.73207    0.008
 5460.00    0.57614   0.73606    0.008
 5461.00    0.64351   0.73972    0.008
 5462.00    0.71451   0.74221    0.008
 5463.00    0.65189   0.74385    0.008
 5464.00    0.59168   0.74408    0.008
 5465.00    0.58775   0.74260    0.008
 5466.00    0.58759   0.74006    0.008
 5467.00    0.63582   0.73666    0.008
 5468.00    0.68817   0.73210    0.008
 5469.00    0.77620   0.72616    0.008
 5470.00    0.84982   0.71893    0.008
 5471.00    0.83108   0.71262    0.008
 5472.00    0.79544   0.71178    0.008
 5473.00    0.67506   0.71770    0.008
 5474.00    0.60092   0.72506    0.008
 5475.00    0.71444   0.72801    0.008
 5476.00    0.75324   0.72715    0.008
 5477.00    0.54054   0.72761    0.008
 5478.00    0.40136   0.73222   -2.000
 5479.00    0.47099   0.73875   -2.000
 5480.00    0.49493   0.74264   -2.000
 5481.00    0.40793   0.74153   -2.000
 5482.00    0.32018   0.73792   -2.000
 5483.00    0.23082   0.73658   -2.000
 5484.00    0.13354   0.73895   -2.000
 5485.00    0.02181   0.74211   -2.000
 5486.00   -0.18049   0.74330   -2.000
 5487.00   -0.52699   0.74251   -2.000
 5488.00   -0.64584   0.74111   -2.000
 5489.00   -0.44669   0.74005   -2.000
 5490.00   -0.09526   0.73888   -2.000
 5491.00    0.44336   0.73663   -2.000
 5492.00    0.88435   0.73450   -2.000
 5493.00    1.21953   0.73478   -2.000
 5494.00    1.56964   0.73633   -2.000
 5495.00    1.93403   0.73541   -2.000
 5496.00    1.66368   0.73166   -2.000
 5497.00    0.85835   0.72864   -2.000
 5498.00    0.56713   0.72819   -2.000
 5499.00    0.65749   0.72802   -2.000
 5500.00    0.69215   0.72568   -2.000
 5501.00    0.69050   0.72270   -2.000
 5502.00    0.67205   0.72265   -1.000
 5503.00    0.64401   0.72578   -1.000
 5504.00    0.63565   0.72830    0.023
 5505.00    0.63708   0.72710    0.009
 5506.00    0.67248   0.72259    0.008
 5507.00    0.72249   0.71762    0.008
 5508.00    0.68758   0.71520    0.008
 5509.00    0.62138   0.71679    0.008
 5510.00    0.57790   0.72171    0.008
 5511.00    0.54151   0.72819    0.008
 5512.00    0.58032   0.73487    0.008
 5513.00    0.63871   0.74060    0.008
 5514.00    0.65618   0.74404    0.008
 5515.00    0.66497   0.74484    0.008
 5516.00    0.71277   0.74420    0.008
 5517.00    0.76712   0.74329    0.008
 5518.00    0.78990   0.74183    0.008
 5519.00    0.80868   0.73858    0.008
 5520.00    0.78373   0.73277    0.008
 5521.00    0.75492   0.72490    0.008
 5522.00    0.74606   0.71731    0.008
 5523.00    0.73824   0.71403    0.008
 5524.00    0.66204   0.71739    0.008
 5525.00    0.58483   0.72478    0.008
 5526.00    0.52838   0.73090    0.008
 5527.00    0.47788   0.73273    0.008
 5528.00    0.55537   0.73094    0.008
 5529.00    0.62648   0.72806    0.008
 5530.00    0.61982   0.72655    0.008
 5531.00    0.62076   0.72757    0.008
 5532.00    0.68491   0.73045    0.008
 5533.00    0.73514   0.73404    0.008
 5534.00    0.69868   0.73774    0.008
 5535.00    0.67431   0.74055    0.008
 5536.00    0.70906   0.74098    0.008
 5537.00    0.72291   0.73866    0.008
 5538.00    0.65382   0.73521    0.008
 5539.00    0.59812   0.73268    0.008
 5540.00    0.58663   0.73208    0.008
 5541.00    0.60584   0.73345    0.009
 5542.00    0.71070   0.73641    0.022
 5543.00    0.79459   0.74001   -1.000
 5544.00    0.82845   0.74303   -1.000
 5545.00    0.84277   0.74437   -1.000
 5546.00    0.81680   0.74329   -1.000
 5547.00    0.77512   0.73987    0.043
 5548.00    0.70527   0.73552    0.011
 5549.00    0.69604   0.73234    0.008
 5550.00    0.78187   0.73129    0.008
 5551.00    0.80553   0.73152    0.008
 5552.00    0.74360   0.73187    0.008
 5553.00    0.66890   0.73203    0.008
 5554.00    0.57872   0.73196    0.008
 5555.00    0.54168   0.73102    0.008
 5556.00    0.56144   0.72867    0.008
 5557.00    0.61246   0.72549    0.008
 5558.00    0.69295   0.72278    0.008
 5559.00    0.73798   0.72113    0.008
 5560.00    0.75356   0.72010    0.008
 5561.00    0.72766   0.71925    0.008
 5562.00    0.67142   0.71852    0.008
 5563.00    0.67152   0.71792    0.008
 5564.00    0.70780   0.71767    0.008
 5565.00    0.78913   0.71795    0.008
 5566.00    0.89576   0.71794    0.008
 5567.00    0.82816   0.71709    0.008
 5568.00    0.67537   0.71677    0.008
 5569.00    0.66320   0.71839    0.008
 5570.00    0.71046   0.72123    0.008
 5571.00    0.65475   0.72391    0.008
 5572.00    0.56180   0.72606    0.008
 5573.00    0.63240   0.72773    0.008
 5574.00    0.75306   0.72861    0.008
 5575.00    0.74663   0.72824    0.008
 5576.00    0.70784   0.72672    0.008
 5577.00    0.68956   0.72485    0.008
 5578.00    0.67553   0.72272    0.008
 5579.00    0.64974   0.71873    0.008
 5580.00    0.62203   0.71130    0.008
 5581.00    0.59791   0.70144    0.008
 5582.00    0.57423   0.69276    0.008
 5583.00    0.60930   0.68886    0.008
 5584.00    0.64931   0.69086    0.008
 5585.00    0.58093   0.69682    0.008
 5586.00    0.50731   0.70298    0.008
 5587.00    0.65462   0.70649    0.008
 5588.00    0.80086   0.70779    0.008
 5589.00    0.68744   0.70967    0.008
 5590.00    0.57333   0.71326    0.008
 5591.00    0.44549   0.71584    0.008
 5592.00    0.33206   0.71423    0.008
 5593.00    0.38583   0.70920    0.008
 5594.00    0.44666   0.70405    0.008
 5595.00    0.56417   0.70046    0.008
 5596.00    0.67991   0.69857    0.008
 5597.00    0.78504   0.69944    0.008
 5598.00    0.83710   0.70464    0.008
 5599.00    0.63617   0.71355    0.008
 5600.00    0.50936   0.72296    0.008
 5601.00    0.67044   0.72970    0.008
 5602.00    0.77114   0.73285    0.008
 5603.00    0.67649   0.73341    0.008
 5604.00    0.60885   0.73295    0.008
 5605.00    0.61518   0.73259    0.008
 5606.00    0.61792   0.73208    0.008
 5607.00    0.61225   0.72928    0.008
 5608.00    0.64873   0.72163    0.008
 5609.00    0.77074   0.70999    0.008
 5610.00    0.81935   0.69999    0.008
 5611.00    0.73835   0.69726    0.008
 5612.00    0.70764   0.70138    0.008
 5613.00    0.75463   0.70726    0.008
 5614.00    0.72880   0.71150    0.008
 5615.00    0.60413   0.71427    0.008
 5616.00    0.54508   0.71583    0.008
 5617.00    0.56442   0.71473    0.008
 5618.00    0.60853   0.71036    0.008
 5619.00    0.67873   0.70548    0.008
 5620.00    0.76303   0.70408    0.008
 5621.00    0.86042   0.70715    0.008
 5622.00    0.79782   0.71234    0.008
 5623.00    0.60415   0.71716    0.008
 5624.00    0.51615   0.72064    0.007
 5625.00    0.50432   0.72263    0.007
 5626.00    0.58961   0.72323    0.007
 5627.00    0.73634   0.72263    0.007
 5628.00    0.73560   0.72108    0.007
 5629.00    0.65326   0.71866    0.007
 5630.00    0.59011   0.71545    0.007
 5631.00    0.53619   0.71201    0.007
 5632.00    0.55086   0.70943    0.007
 5633.00    0.59402   0.70830    0.008
 5634.00    0.63053   0.70789    0.007
 5635.00    0.66468   0.70720    0.007
 5636.00    0.59501   0.70652    0.007
 5637.00    0.49419   0.70678    0.007
 5638.00    0.46712   0.70802    0.007
 5639.00    0.45841   0.70960    0.007
 5640.00    0.45806   0.71117    0.007
 5641.00    0.45940   0.71266    0.007
 5642.00    0.59286   0.71381    0.007
 5643.00    0.74723   0.71433    0.007
 5644.00    0.65264   0.71453    0.007
 5645.00    0.52875   0.71535    0.007
 5646.00    0.47067   0.71705    0.007
 5647.00    0.41784   0.71836    0.007
 5648.00    0.59247   0.71771    0.007
 5649.00    0.77722   0.71504    0.007
 5650.00    0.72890   0.71106    0.007
 5651.00    0.68030   0.70545    0.007
 5652.00    0.74700   0.69823    0.007
 5653.00    0.80681   0.69245    0.007
 5654.00    0.73957   0.69159    0.007
 5655.00    0.66784   0.69459    0.007
 5656.00    0.54635   0.69736    0.007
 5657.00    0.44688   0.69869    0.008
 5658.00    0.51816   0.70081    0.007
 5659.00    0.58126   0.70461    0.007
 5660.00    0.59635   0.70794    0.007
 5661.00    0.60629   0.70879    0.007
 5662.00    0.59233   0.70771    0.007
 5663.00    0.59767   0.70667    0.007
 5664.00    0.67645   0.70706    0.007
 5665.00    0.71273   0.70916    0.007
 5666.00    0.61416   0.71254    0.007
 5667.00    0.57046   0.71603    0.007
 5668.00    0.67439   0.71819    0.007
 5669.00    0.73437   0.71862    0.007
 5670.00    0.69296   0.71826    0.007
 5671.00    0.64658   0.71804    0.008
 5672.00    0.59029   0.71768    0.008
 5673.00    0.57009   0.71655    0.007
 5674.00    0.61263   0.71461    0.007
 5675.00    0.63230   0.71192    0.007
 5676.00    0.61713   0.70855    0.008
 5677.00    0.62734   0.70539    0.008
 5678.00    0.67149   0.70389    0.008
 5679.00    0.68817   0.70388    0.008
 5680.00    0.67249   0.70349    0.008
 5681.00    0.69498   0.70165    0.008
 5682.00    0.75713   0.69972    0.008
 5683.00    0.77117   0.70004    0.008
 5684.00    0.74114   0.70342    0.007
 5685.00    0.64376   0.70854    0.007
 5686.00    0.49200   0.71327    0.007
 5687.00    0.42783   0.71615    0.007
 5688.00    0.42590   0.71685    0.007
 5689.00    0.44760   0.71610    0.007
 5690.00    0.48403   0.71475    0.007
 5691.00    0.54532   0.71285    0.007
 5692.00    0.62017   0.70999    0.007
 5693.00    0.64169   0.70642    0.007
 5694.00    0.63796   0.70284    0.007
 5695.00    0.61415   0.69979    0.007
 5696.00    0.58214   0.69797    0.007
 5697.00    0.59825   0.69808    0.007
 5698.00    0.63115   0.69946    0.007
 5699.00    0.62196   0.69997    0.007
 5700.00    0.60040   0.69793    0.008
 5701.00    0.62436   0.69342    0.007
 5702.00    0.65942   0.68787    0.007
 5703.00    0.66685   0.68303    0.007
 5704.00    0.66883   0.68046    0.007
 5705.00    0.55464   0.68097    0.007
 5706.00    0.42260   0.68458    0.007
 5707.00    0.48519   0.69069    0.007
 5708.00    0.56985   0.69789    0.007
 5709.00    0.59631   0.70407    0.007
 5710.00    0.61837   0.70783    0.007
 5711.00    0.61583   0.70941    0.007
 5712.00    0.61230   0.71008    0.007
 5713.00    0.68106   0.71102    0.007
 5714.00    0.74774   0.71269    0.007
 5715.00    0.70579   0.71483    0.007
 5716.00    0.66161   0.71691    0.007
 5717.00    0.57894   0.71824    0.007
 5718.00    0.50468   0.71812    0.007
 5719.00    0.51928   0.71614    0.007
 5720.00    0.54453   0.71264    0.007
 5721.00    0.64951   0.70894    0.007
 5722.00    0.73200   0.70682    0.007
 5723.00    0.68608   0.70677    0.007
 5724.00    0.63441   0.70738    0.007
 5725.00    0.55661   0.70728    0.007
 5726.00    0.49524   0.70705    0.007
 5727.00    0.49499   0.70826    0.007
 5728.00    0.52286   0.71097    0.007
 5729.00    0.63823   0.71355    0.007
 5730.00    0.71931   0.71452    0.007
 5731.00    0.70978   0.71377    0.007
 5732.00    0.69255   0.71226    0.007
 5733.00    0.65782   0.71094    0.007
 5734.00    0.60350   0.71012    0.007
 5735.00    0.51067   0.70966    0.007
 5736.00    0.46760   0.70939    0.007
 5737.00    0.50976   0.70948    0.007
 5738.00    0.56522   0.71021    0.007
 5739.00    0.64063   0.71133    0.007
 5740.00    0.68155   0.71167    0.000
 5741.00    0.67698   0.71026    0.000
 5742.00    0.67298   0.70796    0.000
 5743.00    0.66963   0.70698    0.000
 5744.00    0.67077   0.70802    0.000
 5745.00    0.67653   0.70888    0.000
 5746.00    0.69719   0.70685    0.000
 5747.00    0.73130   0.70208    0.000
 5748.00    0.71234   0.69775    0.000
 5749.00    0.65115   0.69721    0.000
 5750.00    0.61724   0.70092    0.000
 5751.00    0.60242   0.70634    0.000
 5752.00    0.60736   0.71021    0.000
 5753.00    0.62445   0.71074    0.000
 5754.00    0.66631   0.70781    0.000
 5755.00    0.72147   0.70256    0.000
 5756.00    0.73513   0.69718    0.000
 5757.00    0.72948   0.69441    0.000
 5758.00    0.69832   0.69591    0.000
 5759.00    0.65693   0.70063    0.000
 5760.00    0.60129   0.70574    0.000
 5761.00    0.54078   0.70905    0.000
 5762.00    0.54348   0.71020    0.000
 5763.00    0.56439   0.70993    0.000
 5764.00    0.58361   0.70899    0.000
 5765.00    0.60242   0.70772    0.000
 5766.00    0.57644   0.70621    0.000
 5767.00    0.54187   0.70468    0.000
 5768.00    0.51857   0.70346    0.000
 5769.00    0.49696   0.70291    0.000
 5770.00    0.52140   0.70317    0.000
 5771.00    0.55086   0.70377    0.000
 5772.00    0.54634   0.70338    0.000
 5773.00    0.53939   0.70050    0.000
 5774.00    0.51728   0.69474    0.000
 5775.00    0.49461   0.68768    0.000
 5776.00    0.59447   0.68205    0.000
 5777.00    0.69218   0.67934    0.000
 5778.00    0.69484   0.67884    0.000
 5779.00    0.69788   0.67957    0.000
 5780.00    0.70690   0.68190    0.000
 5781.00    0.71834   0.68620    0.000
 5782.00    0.75416   0.69120    0.000
 5783.00    0.76672   0.69476    0.000
 5784.00    0.61074   0.69582    0.000
 5785.00    0.48375   0.69532    0.000
 5786.00    0.51771   0.69534    0.000
 5787.00    0.55591   0.69718    0.000
 5788.00    0.61292   0.70033    0.000
 5789.00    0.65310   0.70301    0.000
 5790.00    0.63198   0.70356    0.000
 5791.00    0.61522   0.70184   -2.000
 5792.00    0.61178   0.69981   -2.000
 5793.00    0.61060   0.70000   -2.000
 5794.00    0.61529   0.70301   -2.000
 5795.00    0.60949   0.70712   -2.000
 5796.00    0.58028   0.70994   -2.000
 5797.00    0.57462   0.71003   -2.000
 5798.00    0.61449   0.70756   -2.000
 5799.00    0.60596   0.70408   -2.000
 5800.00    0.51576   0.70158   -2.000
 5801.00    0.50075   0.70104   -2.000
 5802.00    0.59689   0.70202   -2.000
 5803.00    0.69060   0.70354   -2.000
 5804.00    0.78116   0.70494   -2.000
 5805.00    0.81282   0.70576   -2.000
 5806.00    0.77704   0.70553   -2.000
 5807.00    0.73066   0.70398   -2.000
 5808.00    0.67356   0.70133   -2.000
 5809.00    0.64393   0.69834   -2.000
 5810.00    0.63875   0.69635   -2.000
 5811.00    0.62160   0.69671    0.000
 5812.00    0.59504   0.69954    0.000
 5813.00    0.60158   0.70339    0.000
 5814.00    0.63095   0.70644    0.000
 5815.00    0.65913   0.70769    0.000
 5816.00    0.68660   0.70724    0.000
 5817.00    0.68201   0.70592    0.000
 5818.00    0.66051   0.70482    0.000
 5819.00    0.65241   0.70464    0.000
 5820.00    0.65047   0.70527    0.000
 5821.00    0.68806   0.70613    0.000
 5822.00    0.74125   0.70679    0.000
 5823.00    0.77183   0.70711    0.000
 5824.00    0.79482   0.70708    0.000
 5825.00    0.75658   0.70681    0.000
 5826.00    0.70106   0.70633    0.000
 5827.00    0.64962   0.70549    0.000
 5828.00    0.59913   0.70437    0.000
 5829.00    0.64838   0.70343    0.000
 5830.00    0.71627   0.70299    0.000
 5831.00    0.70992   0.70275    0.000
 5832.00    0.69285   0.70242    0.000
 5833.00    0.68692   0.70243    0.000
 5834.00    0.68216   0.70349    0.000
 5835.00    0.66707   0.70537    0.000
 5836.00    0.65129   0.70690    0.000
 5837.00    0.58674   0.70702    0.000
 5838.00    0.52058   0.70551    0.000
 5839.00    0.47950   0.70285    0.000
 5840.00    0.44150   0.69978    0.000
 5841.00    0.50006   0.69720    0.000
 5842.00    0.55905   0.69575    0.000
 5843.00    0.62451   0.69524    0.000
 5844.00    0.67922   0.69462    0.000
 5845.00    0.62961   0.69279    0.000
 5846.00    0.57820   0.68942    0.000
 5847.00    0.51416   0.68552    0.000
 5848.00    0.47074   0.68267    0.000
 5849.00    0.53870   0.68096    0.000
 5850.00    0.60215   0.67866    0.000
 5851.00    0.64606   0.67490    0.000
 5852.00    0.66169   0.67165    0.000
 5853.00    0.57639   0.67167    0.000
 5854.00    0.51582   0.67512    0.000
 5855.00    0.52937   0.67943    0.000
 5856.00    0.54240   0.68234    0.000
 5857.00    0.55409   0.68376    0.000
 5858.00    0.57598   0.68456    0.000
 5859.00    0.62026   0.68477    0.000
 5860.00    0.64225   0.68415    0.000
 5861.00    0.62182   0.68353    0.000
 5862.00    0.58922   0.68441    0.000
 5863.00    0.53642   0.68704    0.000
 5864.00    0.47666   0.69001    0.000
 5865.00    0.40679   0.69156    0.000
 5866.00    0.39076   0.69102    0.000
 5867.00    0.44373   0.68887    0.000
 5868.00    0.49309   0.68590    0.000
 5869.00    0.53837   0.68274    0.000
 5870.00    0.57430   0.68010    0.000
 5871.00    0.60093   0.67864    0.000
 5872.00    0.60766   0.67817    0.000
 5873.00    0.59694   0.67767    0.000
 5874.00    0.56867   0.67663    0.000
 5875.00    0.52683   0.67561    0.000
 5876.00    0.48737   0.67503    0.000
 5877.00    0.44953   0.67438    0.000
 5878.00    0.45128   0.67318    0.000
 5879.00    0.47661   0.67130    0.000
 5880.00    0.48358   0.66736    0.000
 5881.00    0.48101   0.65772    0.000
 5882.00    0.51447   0.63887    0.000
 5883.00    0.56418   0.61312    0.000
 5884.00    0.56405   0.59131    0.000
 5885.00    0.54460   0.58499    0.000
 5886.00    0.55587   0.59416    0.000
 5887.00    0.57727   0.60744    0.000
 5888.00    0.58621   0.61273    0.000
 5889.00    0.59170   0.60699    0.000
 5890.00    0.60691   0.59869    0.000
 5891.00    0.62433   0.59935    0.000
 5892.00    0.61875   0.61149    0.000
 5893.00    0.60899   0.62852    0.000
 5894.00    0.58949   0.64361    0.000
 5895.00    0.56862   0.65436    0.000
 5896.00    0.53425   0.66133    0.000
 5897.00    0.49852   0.66569    0.000
 5898.00    0.50012   0.66831    0.000
 5899.00    0.50409   0.66964    0.000
 5900.00    0.57363   0.67037    0.000
 5901.00    0.64493   0.67130    0.007
 5902.00    0.66108   0.67262    0.007
 5903.00    0.67640   0.67371    0.007
 5904.00    0.66881   0.67428    0.007
 5905.00    0.66117   0.67434    0.007
 5906.00    0.65302   0.67309    0.007
 5907.00    0.65159   0.66985    0.007
 5908.00    0.71284   0.66557    0.007
 5909.00    0.77057   0.66265    0.007
 5910.00    0.80450   0.66248    0.007
 5911.00    0.81535   0.66468    0.007
 5912.00    0.70478   0.66769    0.007
 5913.00    0.61219   0.67009    0.007
 5914.00    0.59578   0.67138    0.007
 5915.00    0.59201   0.67157    0.007
 5916.00    0.63244   0.67135    0.007
 5917.00    0.66505   0.67165    0.007
 5918.00    0.67467   0.67267    0.007
 5919.00    0.66058   0.67381    0.007
 5920.00    0.58707   0.67437    0.007
 5921.00    0.53121   0.67378    0.007
 5922.00    0.51348   0.67199    0.007
 5923.00    0.52705   0.66967    0.007
 5924.00    0.59928   0.66821    0.007
 5925.00    0.65037   0.66882    0.007
 5926.00    0.66684   0.67077    0.007
 5927.00    0.67956   0.67191    0.007
 5928.00    0.68692   0.67130    0.007
 5929.00    0.66604   0.67038    0.007
 5930.00    0.60949   0.67096    0.007
 5931.00    0.59834   0.67293    0.007
 5932.00    0.63772   0.67477    0.007
 5933.00    0.64333   0.67509    0.007
 5934.00    0.61582   0.67346    0.007
 5935.00    0.60159   0.67071    0.007
 5936.00    0.59888   0.66866    0.007
 5937.00    0.57743   0.66852    0.007
 5938.00    0.54169   0.66987    0.007
 5939.00    0.56753   0.67162    0.007
 5940.00    0.63465   0.67257    0.007
 5941.00    0.64459   0.67164    0.007
 5942.00    0.62096   0.66886    0.007
 5943.00    0.58953   0.66595    0.007
 5944.00    0.55412   0.66476    0.006
 5945.00    0.55041   0.66503    0.006
 5946.00    0.56074   0.66510    0.006
 5947.00    0.60074   0.66468    0.007
 5948.00    0.65204   0.66479    0.007
 5949.00    0.65685   0.66515    0.007
 5950.00    0.64662   0.66447    0.007
 5951.00    0.63197   0.66310    0.007
 5952.00    0.61613   0.66292    0.007
 5953.00    0.61778   0.66491    0.007
 5954.00    0.62332   0.66839    0.007
 5955.00    0.63300   0.67193    0.007
 5956.00    0.64343   0.67445    0.007
 5957.00    0.67148   0.67547    0.007
 5958.00    0.70192   0.67493    0.007
 5959.00    0.66690   0.67336    0.007
 5960.00    0.62560   0.67195    0.007
 5961.00    0.55979   0.67181    0.007
 5962.00    0.49253   0.67294    0.007
 5963.00    0.50811   0.67454    0.007
 5964.00    0.52586   0.67600    0.007
 5965.00    0.55146   0.67698    0.007
 5966.00    0.57593   0.67712    0.007
 5967.00    0.57188   0.67609    0.007
 5968.00    0.56769   0.67373    0.007
 5969.00    0.56159   0.67018    0.007
 5970.00    0.55585   0.66616    0.007
 5971.00    0.55337   0.66279    0.007
 5972.00    0.55360   0.66121    0.006
 5973.00    0.57163   0.66204    0.007
 5974.00    0.59686   0.66463    0.007
 5975.00    0.65897   0.66694    0.007
 5976.00    0.70271   0.66689    0.007
 5977.00    0.67036   0.66410    0.007
 5978.00    0.63560   0.66035    0.006
 5979.00    0.59257   0.65826    0.006
 5980.00    0.56108   0.65892    0.006
 5981.00    0.56293   0.66127    0.006
 5982.00    0.56928   0.66383    0.006
 5983.00    0.58673   0.66594    0.007
 5984.00    0.59947   0.66725    0.007
 5985.00    0.60218   0.66778    0.006
 5986.00    0.61924   0.66840    0.006
 5987.00    0.66278   0.66996    0.006
 5988.00    0.68603   0.67183    0.006
 5989.00    0.67654   0.67234    0.006
 5990.00    0.69247   0.67062    0.006
 5991.00    0.74434   0.66757    0.007
 5992.00    0.79462   0.66494    0.007
 5993.00    0.84292   0.66397    0.007
 5994.00    0.82471   0.66432    0.007
 5995.00    0.73352   0.66458    0.007
 5996.00    0.66231   0.66384    0.007
 5997.00    0.61043   0.66267    0.007
 5998.00    0.62084   0.66210    0.007
 5999.00    0.68438   0.66186    0.007
 6000.00    0.74247   0.66050    0.007
 6001.00    0.79646   0.65768    0.007
 6002.00    0.81108   0.65522    0.007
 6003.00    0.79970   0.65540    0.007
 6004.00    0.75518   0.65832    0.007
 6005.00    0.69149   0.66137    0.007
 6006.00    0.66126   0.66208    0.007
 6007.00    0.64788   0.66073    0.006
 6008.00    0.65063   0.65942    0.006
 6009.00    0.66041   0.65924    0.007
 6010.00    0.65073   0.65945    0.007
 6011.00    0.63378   0.65926    0.007
 6012.00    0.61238   0.65876    0.007
 6013.00    0.58956   0.65786    0.007
 6014.00    0.61603   0.65630    0.007
 6015.00    0.65556   0.65481    0.007
 6016.00    0.63277   0.65443    0.007
 6017.00    0.59647   0.65532    0.007
 6018.00    0.57695   0.65702    0.007
 6019.00    0.56032   0.65914    0.007
 6020.00    0.56756   0.66136    0.007
 6021.00    0.57792   0.66326    0.007
 6022.00    0.59697   0.66500    0.007
 6023.00    0.61682   0.66688    0.007
 6024.00    0.67791   0.66847    0.007
 6025.00    0.74131   0.66948    0.007
 6026.00    0.72651   0.67028    0.007
 6027.00    0.71037   0.67123    0.007
 6028.00    0.73173   0.67214    0.007
 6029.00    0.75082   0.67259    0.007
 6030.00    0.71711   0.67246    0.006
 6031.00    0.68748   0.67173    0.006
 6032.00    0.70989   0.67049    0.007
 6033.00    0.72969   0.66896    0.007
 6034.00    0.72699   0.66755    0.007
 6035.00    0.72346   0.66676    0.006
 6036.00    0.71465   0.66701    0.006
 6037.00    0.70858   0.66826    0.006
 6038.00    0.71621   0.66992    0.006
 6039.00    0.71648   0.67125    0.006
 6040.00    0.68693   0.67198    0.006
 6041.00    0.66546   0.67232    0.006
 6042.00    0.67116   0.67259    0.006
 6043.00    0.69078   0.67289    0.006
 6044.00    0.74983   0.67319    0.006
 6045.00    0.79253   0.67324    0.006
 6046.00    0.79560   0.67239    0.006
 6047.00    0.78745   0.67036    0.006
 6048.00    0.75587   0.66765    0.006
 6049.00    0.73639   0.66504    0.006
 6050.00    0.73888   0.66320    0.007
 6051.00    0.74282   0.66269    0.007
 6052.00    0.74904   0.66363    0.007
 6053.00    0.76018   0.66528    0.007
 6054.00    0.77818   0.66651    0.007
 6055.00    0.78648   0.66645    0.007
 6056.00    0.78285   0.66475    0.007
 6057.00    0.77601   0.66140    0.007
 6058.00    0.76569   0.65705    0.007
 6059.00    0.78192   0.65343    0.007
 6060.00    0.82349   0.65285    0.007
 6061.00    0.79481   0.65635    0.007
 6062.00    0.70703   0.66199    0.007
 6063.00    0.63367   0.66686    0.007
 6064.00    0.57101   0.66991    0.007
 6065.00    0.54825   0.67164    0.006
 6066.00    0.55143   0.67265    0.006
 6067.00    0.55970   0.67309    0.006
 6068.00    0.57086   0.67283    0.006
 6069.00    0.58455   0.67175    0.006
 6070.00    0.59948   0.66960    0.006
 6071.00    0.65854   0.66635    0.006
 6072.00    0.73653   0.66275    0.006
 6073.00    0.75452   0.65982    0.006
 6074.00    0.75046   0.65793    0.006
 6075.00    0.71645   0.65654    0.006
 6076.00    0.67313   0.65522    0.006
 6077.00    0.69092   0.65451    0.006
 6078.00    0.72457   0.65496    0.006
 6079.00    0.76182   0.65619    0.006
 6080.00    0.79984   0.65764    0.006
 6081.00    0.82317   0.65899    0.006
 6082.00    0.84405   0.65952    0.006
 6083.00    0.80842   0.65862    0.006
 6084.00    0.76568   0.65662    0.006
 6085.00    0.69453   0.65489    0.006
 6086.00    0.62090   0.65466    0.007
 6087.00    0.63193   0.65612    0.007
 6088.00    0.64734   0.65857    0.007
 6089.00    0.67945   0.66104    0.007
 6090.00    0.71117   0.66253    0.006
 6091.00    0.69228   0.66269    0.006
 6092.00    0.67356   0.66223    0.006
 6093.00    0.65829   0.66134    0.006
 6094.00    0.64342   0.65865    0.006
 6095.00    0.63346   0.65280    0.006
 6096.00    0.63001   0.64504    0.006
 6097.00    0.68060   0.63961    0.006
 6098.00    0.72598   0.64031    0.006
 6099.00    0.73901   0.64611    0.006
 6100.00    0.73574   0.65225    0.006
 6101.00    0.65313   0.65568    0.006
 6102.00    0.58244   0.65697    0.006
 6103.00    0.55903   0.65784    0.006
 6104.00    0.54630   0.65885    0.006
 6105.00    0.56875   0.65954    0.006
 6106.00    0.59212   0.66000    0.006
 6107.00    0.61804   0.66092    0.006
 6108.00    0.64643   0.66208    0.006
 6109.00    0.68071   0.66244    0.006
 6110.00    0.71116   0.66164    0.006
 6111.00    0.73370   0.66023    0.006
 6112.00    0.74667   0.65840    0.006
 6113.00    0.74247   0.65515    0.006
 6114.00    0.73748   0.64941    0.007
 6115.00    0.73123   0.64236    0.007
 6116.00    0.68358   0.63728    0.007
 6117.00    0.57902   0.63694    0.006
 6118.00    0.54134   0.64109    0.006
 6119.00    0.58457   0.64626    0.006
 6120.00    0.62885   0.64931    0.006
 6121.00    0.67424   0.65024    0.006
 6122.00    0.68463   0.65085    0.006
 6123.00    0.66211   0.65239    0.006
 6124.00    0.64638   0.65487    0.006
 6125.00    0.63629   0.65724    0.006
 6126.00    0.63169   0.65809    0.006
 6127.00    0.63109   0.65627    0.006
 6128.00    0.63331   0.65088    0.006
 6129.00    0.63735   0.64179    0.006
 6130.00    0.68925   0.63127    0.006
 6131.00    0.76799   0.62416    0.006
 6132.00    0.77725   0.62447    0.006
 6133.00    0.75260   0.63125    0.006
 6134.00    0.70360   0.63892    0.006
 6135.00    0.64433   0.64313    0.007
 6136.00    0.64214   0.64482    0.007
 6137.00    0.66056   0.64752    0.007
 6138.00    0.66623   0.65214    0.007
 6139.00    0.66803   0.65630    0.007
 6140.00    0.58051   0.65765    0.007
 6141.00    0.47033   0.65591    0.006
 6142.00    0.47067   0.65233    0.006
 6143.00    0.49383   0.64859    0.006
 6144.00    0.57386   0.64630    0.006
 6145.00    0.66314   0.64620    0.007
 6146.00    0.67338   0.64748    0.007
 6147.00    0.67401   0.64843    0.006
 6148.00    0.67089   0.64785    0.006
 6149.00    0.66745   0.64598    0.006
 6150.00    0.73371   0.64405    0.006
 6151.00    0.80331   0.64260    0.006
 6152.00    0.78955   0.64041    0.006
 6153.00    0.77425   0.63530    0.006
 6154.00    0.74028   0.62599    0.006
 6155.00    0.70636   0.61389    0.006
 6156.00    0.67332   0.60344    0.006
 6157.00    0.64220   0.59946    0.006
 6158.00    0.63321   0.60304    0.006
 6159.00    0.62441   0.61081    0.006
 6160.00    0.61713   0.61792    0.006
 6161.00    0.60706   0.62099    0.006
 6162.00    0.58017   0.61952    0.006
 6163.00    0.55789   0.61577    0.006
 6164.00    0.55756   0.61362    0.006
 6165.00    0.56070   0.61577    0.006
 6166.00    0.57730   0.62114    0.006
 6167.00    0.59597   0.62621    0.006
 6168.00    0.62134   0.62896    0.006
 6169.00    0.64975   0.63003    0.006
 6170.00    0.68650   0.63073    0.006
 6171.00    0.71032   0.63173    0.006
 6172.00    0.70388   0.63306    0.006
 6173.00    0.70274   0.63445    0.006
 6174.00    0.71235   0.63565    0.006
 6175.00    0.70455   0.63672    0.006
 6176.00    0.66605   0.63773    0.006
 6177.00    0.64386   0.63825    0.006
 6178.00    0.64684   0.63764    0.006
 6179.00    0.67355   0.63566    0.006
 6180.00    0.73242   0.63265    0.006
 6181.00    0.74154   0.62921    0.006
 6182.00    0.69132   0.62574    0.006
 6183.00    0.62231   0.62187    0.006
 6184.00    0.53354   0.61740    0.006
 6185.00    0.50918   0.61372    0.006
 6186.00    0.54457   0.61335    0.006
 6187.00    0.55902   0.61739    0.006
 6188.00    0.55636   0.62386    0.006
 6189.00    0.59216   0.62946    0.006
 6190.00    0.65566   0.63237    0.006
 6191.00    0.68711   0.63247    0.006
 6192.00    0.69831   0.63031    0.006
 6193.00    0.67054   0.62715    0.006
 6194.00    0.62124   0.62508    0.006
 6195.00    0.48702   0.62563    0.007
 6196.00    0.31202   0.62848   -2.000
 6197.00   -0.00022   0.63178   -2.000
 6198.00   -0.36936   0.63400   -2.000
 6199.00   -0.48807   0.63504   -2.000
 6200.00   -0.51802   0.63560   -2.000
 6201.00   -0.17486   0.63608   -2.000
 6202.00    0.27994   0.63625   -2.000
 6203.00    0.67216   0.63561   -2.000
 6204.00    1.04884   0.63370   -2.000
 6205.00    1.06338   0.63017   -2.000
 6206.00    1.00500   0.62488   -2.000
 6207.00    0.84044   0.61855   -2.000
 6208.00    0.65913   0.61287    0.007
 6209.00    0.59400   0.60977    0.007
 6210.00    0.54249   0.60995    0.007
 6211.00    0.56424   0.61199    0.006
 6212.00    0.59180   0.61366    0.006
 6213.00    0.59242   0.61386    0.006
 6214.00    0.59185   0.61339    0.006
 6215.00    0.59386   0.61373    0.006
 6216.00    0.59552   0.61522    0.006
 6217.00    0.57924   0.61685    0.006
 6218.00    0.56573   0.61773    0.006
 6219.00    0.60288   0.61797    0.006
 6220.00    0.63924   0.61795    0.006
 6221.00    0.66695   0.61728    0.006
 6222.00    0.68918   0.61480    0.006
 6223.00    0.66900   0.61003    0.006
 6224.00    0.64708   0.60452    0.006
 6225.00    0.61496   0.60111    0.006
 6226.00    0.58407   0.60194    0.006
 6227.00    0.55883   0.60683    0.007
 6228.00    0.54111   0.61328    0.007
 6229.00    0.55195   0.61836    0.007
 6230.00    0.56248   0.62033    0.007
 6231.00    0.57209   0.61900    0.006
 6232.00    0.59773   0.61560    0.006
 6233.00    0.66642   0.61192    0.006
 6234.00    0.69906   0.60926    0.006
 6235.00    0.64870   0.60757    0.006
 6236.00    0.60341   0.60614    0.006
 6237.00    0.56825   0.60467    0.006
 6238.00    0.53990   0.60335    0.006
 6239.00    0.52339   0.60289    0.006
 6240.00    0.50782   0.60407    0.006
 6241.00    0.49369   0.60703    0.006
 6242.00    0.49077   0.61110    0.006
 6243.00    0.50279   0.61454    0.006
 6244.00    0.51431   0.61514    0.006
 6245.00    0.52523   0.61212    0.006
 6246.00    0.55805   0.60709    0.006
 6247.00    0.61359   0.60262    0.006
 6248.00    0.67197   0.60014    0.006
 6249.00    0.73296   0.59907    0.006
 6250.00    0.72632   0.59782    0.006
 6251.00    0.66517   0.59599    0.006
 6252.00    0.59297   0.59510    0.006
 6253.00    0.51292   0.59675    0.006
 6254.00    0.48702   0.60094    0.006
 6255.00    0.49482   0.60647    0.006
 6256.00    0.52586   0.61167    0.007
 6257.00    0.56954   0.61506    0.007
 6258.00    0.51070   0.61620    0.007
 6259.00    0.40342   0.61585    0.007
 6260.00    0.29475   0.61537    0.007
 6261.00    0.18552   0.61553    0.008
 6262.00    0.19490   0.61589    0.008
 6263.00    0.24556   0.61590    0.008
 6264.00    0.39911   0.61601    0.008
 6265.00    0.58285   0.61694    0.008
 6266.00    0.72544   0.61854    0.007
 6267.00    0.85802   0.61989    0.007
 6268.00    0.82073   0.62039    0.007
 6269.00    0.75010   0.62021    0.006
 6270.00    0.67347   0.61969    0.006
 6271.00    0.59592   0.61864    0.006
 6272.00    0.60109   0.61667    0.006
 6273.00    0.61558   0.61402    0.006
 6274.00    0.64907   0.61179    0.006
 6275.00    0.68398   0.61120    0.006
 6276.00    0.63126   0.61263    0.006
 6277.00    0.57501   0.61522    0.006
 6278.00    0.58915   0.61775    0.006
 6279.00    0.60317   0.61987    0.006
 6280.00    0.59142   0.62196    0.000
 6281.00    0.58059   0.62419    0.000
 6282.00    0.58533   0.62598    0.000
 6283.00    0.59318   0.62627    0.000
 6284.00    0.63381   0.62478    0.000
 6285.00    0.66904   0.62231    0.000
 6286.00    0.66394   0.62013    0.000
 6287.00    0.66223   0.61906    0.000
 6288.00    0.67981   0.61853    0.000
 6289.00    0.68757   0.61721    0.000
 6290.00    0.65091   0.61473    0.000
 6291.00    0.61982   0.61206    0.000
 6292.00    0.60941   0.61045    0.000
 6293.00    0.59771   0.60977    0.000
 6294.00    0.58203   0.60894    0.000
 6295.00    0.57762   0.60782    0.000
 6296.00    0.60293   0.60750    0.000
 6297.00    0.62707   0.60896    0.000
 6298.00    0.64860   0.61190    0.000
 6299.00    0.64861   0.61542    0.000
 6300.00    0.60642   0.61906    0.000
 6301.00    0.57015   0.62239    0.000
 6302.00    0.54398   0.62456    0.000
 6303.00    0.54461   0.62482    0.000
 6304.00    0.58534   0.62318    0.000
 6305.00    0.62655   0.62077    0.000
 6306.00    0.66837   0.61877    0.000
 6307.00    0.68919   0.61706    0.000
 6308.00    0.68564   0.61508    0.000
 6309.00    0.67107   0.61286    0.000
 6310.00    0.64522   0.61060    0.000
 6311.00    0.63673   0.60856    0.000
 6312.00    0.64390   0.60766    0.000
 6313.00    0.65155   0.60863    0.000
 6314.00    0.65958   0.61114    0.000
 6315.00    0.64728   0.61421    0.000
 6316.00    0.62077   0.61691    0.000
 6317.00    0.58313   0.61912    0.000
 6318.00    0.53868   0.62104    0.000
 6319.00    0.54317   0.62252    0.000
 6320.00    0.57385   0.62322    0.000
 6321.00    0.62673   0.62342    0.006
 6322.00    0.68993   0.62350    0.006
 6323.00    0.73294   0.62349    0.006
 6324.00    0.76787   0.62358    0.006
 6325.00    0.75273   0.62394    0.006
 6326.00    0.72048   0.62413    0.006
 6327.00    0.70607   0.62292    0.006
 6328.00    0.69678   0.61916    0.006
 6329.00    0.69126   0.61381    0.006
 6330.00    0.68663   0.60965    0.006
 6331.00    0.69225   0.60875    0.006
 6332.00    0.69983   0.61101    0.006
 6333.00    0.70570   0.61489    0.006
 6334.00    0.71131   0.61845    0.006
 6335.00    0.69543   0.62019    0.006
 6336.00    0.67723   0.61939    0.006
 6337.00    0.74056   0.61634    0.006
 6338.00    0.80970   0.61260    0.006
 6339.00    0.74817   0.60966    0.006
 6340.00    0.68188   0.60840    0.006
 6341.00    0.64194   0.60927    0.006
 6342.00    0.60404   0.61211    0.006
 6343.00    0.63403   0.61599    0.006
 6344.00    0.66150   0.61947    0.006
 6345.00    0.64853   0.62135    0.006
 6346.00    0.63495   0.62099    0.006
 6347.00    0.61529   0.61859    0.006
 6348.00    0.60644   0.61523    0.006
 6349.00    0.67564   0.61227    0.006
 6350.00    0.73648   0.61004    0.006
 6351.00    0.75108   0.60781    0.006
 6352.00    0.75263   0.60513    0.006
 6353.00    0.69646   0.60238    0.006
 6354.00    0.65034   0.60008    0.006
 6355.00    0.64071   0.59841    0.006
 6356.00    0.62777   0.59769    0.006
 6357.00    0.60479   0.59848    0.006
 6358.00    0.57803   0.60103    0.006
 6359.00    0.54150   0.60482    0.006
 6360.00    0.52112   0.60902    0.006
 6361.00    0.53670   0.61272    0.006
 6362.00    0.56734   0.61492    0.006
 6363.00    0.62706   0.61513    0.007
 6364.00    0.66925   0.61416    0.007
 6365.00    0.68189   0.61387    0.007
 6366.00    0.67753   0.61538    0.006
 6367.00    0.64809   0.61819    0.006
 6368.00    0.64159   0.62080    0.006
 6369.00    0.66485   0.62213    0.006
 6370.00    0.67284   0.62189    0.006
 6371.00    0.66337   0.62016    0.006
 6372.00    0.64299   0.61738    0.006
 6373.00    0.61161   0.61460    0.006
 6374.00    0.61887   0.61296    0.006
 6375.00    0.66050   0.61291    0.006
 6376.00    0.68371   0.61384    0.006
 6377.00    0.69251   0.61470    0.006
 6378.00    0.66201   0.61515    0.006
 6379.00    0.60443   0.61549    0.006
 6380.00    0.58288   0.61600    0.006
 6381.00    0.58310   0.61656    0.006
 6382.00    0.62398   0.61677    0.006
 6383.00    0.68629   0.61643    0.006
 6384.00    0.71004   0.61523    0.006
 6385.00    0.71616   0.61261    0.006
 6386.00    0.71396   0.60867    0.006
 6387.00    0.70848   0.60533    0.006
 6388.00    0.70521   0.60501    0.006
 6389.00    0.70268   0.60804    0.006
 6390.00    0.66407   0.61213    0.006
 6391.00    0.61531   0.61407    0.006
 6392.00    0.60055   0.61207    0.006
 6393.00    0.59369   0.60753    0.006
 6394.00    0.65331   0.60445    0.006
 6395.00    0.72531   0.60587    0.006
 6396.00    0.75154   0.61107    0.006
 6397.00    0.77119   0.61679    0.006
 6398.00    0.74960   0.62007    0.006
 6399.00    0.72372   0.61999    0.006
 6400.00    0.65201   0.61753    0.006
 6401.00    0.57723   0.61449    0.006
 6402.00    0.59593   0.61260    0.006
 6403.00    0.61768   0.61212    0.006
 6404.00    0.65122   0.61176    0.006
 6405.00    0.68272   0.61087    0.006
 6406.00    0.65022   0.61029    0.006
 6407.00    0.61938   0.61090    0.006
 6408.00    0.61345   0.61255    0.006
 6409.00    0.61191   0.61426    0.006
 6410.00    0.65279   0.61518    0.006
 6411.00    0.69339   0.61481    0.006
 6412.00    0.73208   0.61286    0.006
 6413.00    0.75864   0.60958    0.006
 6414.00    0.71989   0.60651    0.006
 6415.00    0.67765   0.60598    0.006
 6416.00    0.62034   0.60891    0.006
 6417.00    0.57531   0.61376    0.006
 6418.00    0.57394   0.61814    0.006
 6419.00    0.59423   0.62092    0.006
 6420.00    0.67922   0.62223    0.006
 6421.00    0.74549   0.62223    0.006
 6422.00    0.76411   0.62032    0.006
 6423.00    0.78029   0.61618    0.006
 6424.00    0.79113   0.61101    0.006
 6425.00    0.77652   0.60754    0.006
 6426.00    0.71355   0.60760    0.006
 6427.00    0.67231   0.61061    0.006
 6428.00    0.66708   0.61445    0.006
 6429.00    0.67591   0.61679    0.006
 6430.00    0.70515   0.61623    0.006
 6431.00    0.72376   0.61270    0.006
 6432.00    0.72878   0.60807    0.006
 6433.00    0.74865   0.60581    0.006
 6434.00    0.78527   0.60806    0.006
 6435.00    0.79550   0.61356    0.006
 6436.00    0.77953   0.61931    0.006
 6437.00    0.77200   0.62323    0.006
 6438.00    0.77187   0.62500    0.006
 6439.00    0.78733   0.62509    0.006
 6440.00    0.81483   0.62328    0.006
 6441.00    0.81219   0.61868    0.006
 6442.00    0.78910   0.61114    0.006
 6443.00    0.76349   0.60294    0.006
 6444.00    0.73638   0.59826    0.006
 6445.00    0.70837   0.59943    0.006
 6446.00    0.67988   0.60437    0.006
 6447.00    0.67174   0.60887    0.006
 6448.00    0.67275   0.61026    0.006
 6449.00    0.65893   0.60919    0.006
 6450.00    0.63937   0.60859    0.006
 6451.00    0.65513   0.61041    0.006
 6452.00    0.68251   0.61376    0.006
 6453.00    0.70632   0.61586    0.006
 6454.00    0.72914   0.61431    0.006
 6455.00    0.70963   0.60897    0.006
 6456.00    0.68052   0.60276    0.006
 6457.00    0.66686   0.60004    0.006
 6458.00    0.65600   0.60251    0.006
 6459.00    0.65035   0.60814    0.006
 6460.00    0.64543   0.61381    0.007
 6461.00    0.61077   0.61722    0.007
 6462.00    0.57314   0.61762    0.006
 6463.00    0.54362   0.61566    0.006
 6464.00    0.51460   0.61269    0.006
 6465.00    0.52432   0.61012    0.006
 6466.00    0.53529   0.60883    0.006
 6467.00    0.58783   0.60853    0.006
 6468.00    0.63891   0.60828    0.006
 6469.00    0.64975   0.60809    0.006
 6470.00    0.66002   0.60875    0.006
 6471.00    0.66210   0.61013    0.006
 6472.00    0.66565   0.61093    0.006
 6473.00    0.68284   0.60992    0.006
 6474.00    0.69279   0.60666    0.006
 6475.00    0.65381   0.60205    0.006
 6476.00    0.62139   0.59825    0.006
 6477.00    0.62335   0.59717    0.006
 6478.00    0.62671   0.59891    0.006
 6479.00    0.63607   0.60195    0.006
 6480.00    0.64577   0.60461    0.006
 6481.00    0.65665   0.60604    0.006
 6482.00    0.67370   0.60599    0.006
 6483.00    0.70885   0.60435    0.006
 6484.00    0.74272   0.60098    0.006
 6485.00    0.77339   0.59559    0.006
 6486.00    0.79136   0.58779    0.006
 6487.00    0.78194   0.57779    0.006
 6488.00    0.76919   0.56768    0.006
 6489.00    0.75021   0.56095    0.006
 6490.00    0.72141   0.55953    0.006
 6491.00    0.67654   0.56289    0.006
 6492.00    0.64867   0.56909    0.006
 6493.00    0.64515   0.57611    0.006
 6494.00    0.63216   0.58318    0.006
 6495.00    0.60723   0.58962    0.006
 6496.00    0.61223   0.59483    0.006
 6497.00    0.65048   0.59867    0.006
 6498.00    0.66954   0.60127    0.006
 6499.00    0.66979   0.60289    0.006
 6500.00    0.64498   0.60356    0.006
 6501.00    0.59853   0.60326    0.006
 6502.00    0.60001   0.60249    0.006
 6503.00    0.63798   0.60204    0.006
 6504.00    0.65204   0.60223    0.006
 6505.00    0.65009   0.60259    0.006
 6506.00    0.63793   0.60240    0.006
 6507.00    0.61978   0.60120    0.006
 6508.00    0.66146   0.59889    0.006
 6509.00    0.73370   0.59574    0.006
 6510.00    0.78168   0.59266    0.006
 6511.00    0.81892   0.59063    0.006
 6512.00    0.79988   0.59027    0.006
 6513.00    0.75945   0.59185    0.006
 6514.00    0.74017   0.59485    0.006
 6515.00    0.72772   0.59792    0.006
 6516.00    0.73270   0.59988    0.006
 6517.00    0.74239   0.60039    0.006
 6518.00    0.74375   0.59978    0.006
 6519.00    0.74326   0.59849    0.006
 6520.00    0.74337   0.59696    0.006
 6521.00    0.74358   0.59590    0.006
 6522.00    0.75376   0.59583    0.006
 6523.00    0.76529   0.59626    0.006
 6524.00    0.80260   0.59613    0.006
 6525.00    0.84238   0.59491    0.006
 6526.00    0.81242   0.59315    0.006
 6527.00    0.77834   0.59195    0.006
 6528.00    0.73130   0.59193    0.000
 6529.00    0.68435   0.59265    0.000
 6530.00    0.69750   0.59329    0.000
 6531.00    0.71184   0.59350    0.000
 6532.00    0.75615   0.59350    0.000
 6533.00    0.79543   0.59340    0.000
 6534.00    0.76753   0.59271    0.000
 6535.00    0.74468   0.59072    0.000
 6536.00    0.76669   0.58722    0.000
 6537.00    0.79358   0.58247    0.000
 6538.00    0.85239   0.57687    0.000
 6539.00    0.89414   0.57123    0.000
 6540.00    0.84875   0.56688    0.000
 6541.00    0.80767   0.56486    0.000
 6542.00    0.78445   0.56448    0.000
 6543.00    0.77605   0.56384    0.000
 6544.00    0.81830   0.56154    0.000
 6545.00    0.85048   0.55734    0.000
 6546.00    0.85366   0.55157    0.000
 6547.00    0.85728   0.54460    0.000
 6548.00    0.86202   0.53703    0.000
 6549.00    0.85526   0.52975    0.000
 6550.00    0.82414   0.52307    0.000
 6551.00    0.78181   0.51613    0.000
 6552.00    0.71882   0.50646    0.000
 6553.00    0.68425   0.49072    0.000
 6554.00    0.69542   0.46698    0.000
 6555.00    0.73287   0.43818    0.000
 6556.00    0.80741   0.41406    0.000
 6557.00    0.87458   0.40721    0.000
 6558.00    0.93257   0.42201    0.000
 6559.00    0.97413   0.44989    0.000
 6560.00    0.99767   0.47816    0.000
 6561.00    0.99851   0.49954    0.000
 6562.00    0.97741   0.51328    0.000
 6563.00    0.98462   0.52201    0.000
 6564.00    1.01593   0.52825    0.000
 6565.00    0.98736   0.53282    0.000
 6566.00    0.91386   0.53590    0.000
 6567.00    0.84171   0.53838    0.000
 6568.00    0.77047   0.54178    0.000
 6569.00    0.73345   0.54717    0.000
 6570.00    0.71619   0.55417    0.000
 6571.00    0.66865   0.56107    0.000
 6572.00    0.60589   0.56617    0.000
 6573.00    0.56234   0.56889    0.000
 6574.00    0.52715   0.56999    0.000
 6575.00    0.53649   0.57088    0.000
 6576.00    0.56246   0.57249    0.000
 6577.00    0.59614   0.57458    0.000
 6578.00    0.63227   0.57644    0.000
 6579.00    0.66462   0.57786    0.000
 6580.00    0.69598   0.57926    0.000
 6581.00    0.74709   0.58109    0.000
 6582.00    0.80248   0.58306    0.000
 6583.00    0.83077   0.58389    0.000
 6584.00    0.85442   0.58230    0.000
 6585.00    0.84869   0.57795    0.000
 6586.00    0.83915   0.57252    0.000
 6587.00    0.80222   0.56912    0.000
 6588.00    0.76279   0.56982    0.000
 6589.00    0.74685   0.57369    0.000
 6590.00    0.73220   0.57777    0.000
 6591.00    0.71791   0.58027    0.000
 6592.00    0.70362   0.58164    0.000
 6593.00    0.68819   0.58322    0.000
 6594.00    0.67534   0.58550    0.000
 6595.00    0.72158   0.58767    0.000
 6596.00    0.76230   0.58860    0.000
 6597.00    0.73290   0.58807    0.000
 6598.00    0.70691   0.58651    0.000
 6599.00    0.71021   0.58456    0.000
 6600.00    0.71505   0.58257    0.000
 6601.00    0.72977   0.58071    0.000
 6602.00    0.74129   0.57962    0.000
 6603.00    0.73692   0.58010    0.000
 6604.00    0.73573   0.58234    0.000
 6605.00    0.74737   0.58528    0.000
 6606.00    0.75190   0.58737    0.000
 6607.00    0.73264   0.58823    0.000
 6608.00    0.71050   0.58859    0.000
 6609.00    0.68021   0.58919    0.006
 6610.00    0.65883   0.58991    0.006
 6611.00    0.65898   0.59043    0.006
 6612.00    0.65624   0.59075    0.006
 6613.00    0.64746   0.59105    0.006
 6614.00    0.65396   0.59117    0.006
 6615.00    0.68818   0.59060    0.006
 6616.00    0.69934   0.58894    0.006
 6617.00    0.67390   0.58628    0.006
 6618.00    0.64723   0.58358    0.006
 6619.00    0.61885   0.58198    0.006
 6620.00    0.62721   0.58191    0.006
 6621.00    0.68058   0.58277    0.006
 6622.00    0.69896   0.58351    0.006
 6623.00    0.67958   0.58342    0.006
 6624.00    0.65955   0.58229    0.006
 6625.00    0.63889   0.58019    0.006
 6626.00    0.66497   0.57773    0.006
 6627.00    0.73031   0.57594    0.006
 6628.00    0.78023   0.57586    0.006
 6629.00    0.81874   0.57766    0.006
 6630.00    0.79518   0.58031    0.006
 6631.00    0.73130   0.58248    0.006
 6632.00    0.63622   0.58358    0.006
 6633.00    0.52340   0.58384    0.006
 6634.00    0.52311   0.58342    0.006
 6635.00    0.57850   0.58226    0.006
 6636.00    0.68760   0.58037    0.006
 6637.00    0.81968   0.57844    0.006
 6638.00    0.83106   0.57773    0.006
 6639.00    0.79818   0.57864    0.006
 6640.00    0.80536   0.58028    0.006
 6641.00    0.82499   0.58157    0.006
 6642.00    0.80123   0.58220    0.006
 6643.00    0.76624   0.58221    0.006
 6644.00    0.72174   0.58170    0.006
 6645.00    0.67522   0.58083    0.006
 6646.00    0.66275   0.57988    0.006
 6647.00    0.65594   0.57930    0.006
 6648.00    0.66912   0.57917    0.006
 6649.00    0.68481   0.57929    0.006
 6650.00    0.75008   0.57937    0.006
 6651.00    0.81968   0.57925    0.007
 6652.00    0.82738   0.57877    0.007
 6653.00    0.83191   0.57769    0.007
 6654.00    0.79013   0.57578    0.007
 6655.00    0.74806   0.57311    0.007
 6656.00    0.74405   0.57043    0.006
 6657.00    0.74212   0.56869    0.006
 6658.00    0.78413   0.56852    0.006
 6659.00    0.81958   0.56969    0.006
 6660.00    0.77592   0.57132    0.006
 6661.00    0.72957   0.57304    0.006
 6662.00    0.66096   0.57495    0.006
 6663.00    0.60549   0.57708    0.006
 6664.00    0.63111   0.57901    0.006
 6665.00    0.66200   0.58027    0.006
 6666.00    0.71847   0.58065    0.006
 6667.00    0.75859   0.58017    0.006
 6668.00    0.73415   0.57853    0.006
 6669.00    0.71087   0.57510    0.006
 6670.00    0.69139   0.57006    0.006
 6671.00    0.68708   0.56509    0.006
 6672.00    0.72487   0.56254    0.006
 6673.00    0.76096   0.56347    0.006
 6674.00    0.79300   0.56663    0.006
 6675.00    0.80297   0.56985    0.007
 6676.00    0.76766   0.57205    0.006
 6677.00    0.74877   0.57331    0.006
 6678.00    0.75922   0.57399    0.007
 6679.00    0.75090   0.57427    0.007
 6680.00    0.71324   0.57423    0.007
 6681.00    0.67429   0.57416    0.007
 6682.00    0.63358   0.57433    0.006
 6683.00    0.64306   0.57470    0.006
 6684.00    0.71315   0.57497    0.006
 6685.00    0.77448   0.57482    0.006
 6686.00    0.82647   0.57415    0.006
 6687.00    0.81304   0.57299    0.006
 6688.00    0.73818   0.57138    0.006
 6689.00    0.66977   0.56961    0.006
 6690.00    0.60670   0.56830    0.006
 6691.00    0.60532   0.56814    0.006
 6692.00    0.64891   0.56933    0.006
 6693.00    0.68371   0.57122    0.006
 6694.00    0.71291   0.57280    0.006
 6695.00    0.72981   0.57329    0.006
 6696.00    0.73982   0.57260    0.000
 6697.00    0.79332   0.57139    0.000
 6698.00    0.86800   0.57046    0.000
 6699.00    0.85577   0.57031    0.000
 6700.00    0.80698   0.57085    0.000
 6701.00    0.76957   0.57152    0.000
 6702.00    0.73625   0.57180    0.000
 6703.00    0.78716   0.57161    0.000
 6704.00    0.86371   0.57109    0.000
 6705.00    0.84685   0.57032    0.000
 6706.00    0.80634   0.56905    0.000
 6707.00    0.74450   0.56682    0.000
 6708.00    0.67828   0.56346    0.000
 6709.00    0.66651   0.55936    0.000
 6710.00    0.66355   0.55559    0.000
 6711.00    0.70262   0.55352    0.000
 6712.00    0.74678   0.55389    0.000
 6713.00    0.76180   0.55610    0.000
 6714.00    0.77441   0.55875    0.000
 6715.00    0.74881   0.56088    0.000
 6716.00    0.72139   0.56242    0.000
 6717.00    0.71363   0.56352    0.000
 6718.00    0.70628   0.56408    0.000
 6719.00    0.70688   0.56411    0.000
 6720.00    0.70301   0.56412    0.000
 6721.00    0.61193   0.56457    0.000
 6722.00    0.53193   0.56550    0.000
 6723.00    0.57892   0.56650    0.000
 6724.00    0.62084   0.56715    0.000
 6725.00    0.62240   0.56720    0.000
 6726.00    0.62929   0.56673    0.000
 6727.00    0.66817   0.56605    0.000
 6728.00    0.72068   0.56553    0.000
 6729.00    0.83777   0.56524    0.000
 6730.00    0.92529   0.56484    0.000
 6731.00    0.89855   0.56407    0.000
 6732.00    0.85274   0.56303    0.000
 6733.00    0.74554   0.56219    0.000
 6734.00    0.65571   0.56172    0.000
 6735.00    0.61328   0.56131    0.000
 6736.00    0.61082   0.56086    0.000
 6737.00    0.70175   0.56062    0.000
 6738.00    0.77548   0.56072    0.000
 6739.00    0.81446   0.56087    0.000
 6740.00    0.81410   0.56050    0.000
 6741.00    0.74452   0.55947    0.000
 6742.00    0.71847   0.55814    0.000
 6743.00    0.75946   0.55708    0.000
 6744.00    0.76264   0.55657    0.000
 6745.00    0.71472   0.55661    0.000
 6746.00    0.69771   0.55710    0.000
 6747.00    0.71750   0.55800    0.000
 6748.00    0.70499   0.55937    0.000
 6749.00    0.65857   0.56118    0.000
 6750.00    0.59720   0.56311    0.000
 6751.00    0.52197   0.56488    0.000
 6752.00    0.50865   0.56622    0.000
 6753.00    0.54587   0.56690    0.007
 6754.00    0.54693   0.56694    0.007
 6755.00    0.52200   0.56655    0.007
 6756.00    0.50706   0.56605    0.007
 6757.00    0.49841   0.56546    0.007
 6758.00    0.52795   0.56454    0.007
 6759.00    0.57853   0.56301    0.007
 6760.00    0.62179   0.56112    0.007
 6761.00    0.66155   0.55955    0.007
 6762.00    0.75418   0.55881    0.008
 6763.00    0.86868   0.55878    0.008
 6764.00    0.91913   0.55913    0.008
 6765.00    0.94693   0.55994    0.008
 6766.00    0.82964   0.56149    0.008
 6767.00    0.66905   0.56373    0.008
 6768.00    0.70932   0.56600    0.008
 6769.00    0.79936   0.56765    0.008
 6770.00    0.83506   0.56851    0.008
 6771.00    0.85986   0.56880    0.008
 6772.00    0.84124   0.56861    0.007
 6773.00    0.81580   0.56777    0.007
 6774.00    0.81915   0.56595    0.007
 6775.00    0.82584   0.56307    0.007
 6776.00    0.66049   0.55955    0.007
 6777.00    0.48157   0.55627    0.007
 6778.00    0.54812   0.55418    0.007
 6779.00    0.62535   0.55378    0.007
 6780.00    0.73288   0.55488    0.007
 6781.00    0.83816   0.55665    0.007
 6782.00    0.82387   0.55819    0.007
 6783.00    0.80494   0.55895    0.007
 6784.00    0.70222   0.55892    0.007
 6785.00    0.60511   0.55838    0.007
 6786.00    0.56953   0.55766    0.007
 6787.00    0.53790   0.55712    0.007
 6788.00    0.53667   0.55700    0.007
 6789.00    0.53322   0.55736    0.008
 6790.00    0.51680   0.55799    0.008
 6791.00    0.49694   0.55867    0.008
 6792.00    0.46114   0.55940    0.007
 6793.00    0.44922   0.56026    0.007
 6794.00    0.52761   0.56114    0.007
 6795.00    0.60428   0.56174    0.007
 6796.00    0.67549   0.56180    0.007
 6797.00    0.70739   0.56135    0.007
 6798.00    0.63402   0.56063    0.007
 6799.00    0.58605   0.55986    0.007
 6800.00    0.59643   0.55928    0.007
 6801.00    0.61196   0.55899    0.007
 6802.00    0.63774   0.55889    0.007
 6803.00    0.63449   0.55890    0.007
 6804.00    0.58095   0.55886    0.007
 6805.00    0.54871   0.55869    0.007
 6806.00    0.54877   0.55830    0.007
 6807.00    0.52766   0.55764    0.007
 6808.00    0.47832   0.55703    0.007
 6809.00    0.44364   0.55699    0.007
 6810.00    0.42616   0.55754    0.007
 6811.00    0.43847   0.55817    0.007
 6812.00    0.48160   0.55833    0.008
 6813.00    0.58707   0.55813    0.008
 6814.00    0.74945   0.55823    0.008
 6815.00    0.78470   0.55909    0.008
 6816.00    0.71765   0.56038    0.008
 6817.00    0.70628   0.56145    0.008
 6818.00    0.73432   0.56168    0.008
 6819.00    0.69292   0.56090    0.007
 6820.00    0.60840   0.55929    0.007
 6821.00    0.59335   0.55751    0.007
 6822.00    0.61601   0.55643    0.007
 6823.00    0.66048   0.55656    0.007
 6824.00    0.71524   0.55758    0.007
 6825.00    0.68790   0.55867    0.007
 6826.00    0.62718   0.55936    0.007
 6827.00    0.58083   0.55975    0.007
 6828.00    0.53948   0.56002    0.007
 6829.00    0.57109   0.56000    0.007
 6830.00    0.62405   0.55919    0.007
 6831.00    0.61328   0.55732    0.008
 6832.00    0.58707   0.55455    0.008
 6833.00    0.58460   0.55138    0.008
 6834.00    0.58677   0.54848    0.008
 6835.00    0.50652   0.54683    0.008
 6836.00    0.41370   0.54712    0.008
 6837.00    0.42721   0.54936    0.008
 6838.00    0.45266   0.55246    0.008
 6839.00    0.56995   0.55509    0.008
 6840.00    0.69410   0.55657    0.008
 6841.00    0.70012   0.55709    0.008
 6842.00    0.70145   0.55716    0.008
 6843.00    0.67141   0.55711    0.007
 6844.00    0.64511   0.55690    0.007
 6845.00    0.77667   0.55635    0.007
 6846.00    0.89806   0.55520    0.007
 6847.00    0.84773   0.55330    0.007
 6848.00    0.79651   0.55107    0.007
 6849.00    0.73605   0.54935    0.007
 6850.00    0.68235   0.54870    0.007
 6851.00    0.67875   0.54896    0.007
 6852.00    0.67204   0.54933    0.007
 6853.00    0.64767   0.54917    0.007
 6854.00    0.64326   0.54875    0.007
 6855.00    0.72891   0.54890    0.008
 6856.00    0.76597   0.55022    0.008
 6857.00    0.62311   0.55227    0.008
 6858.00    0.55247   0.55385    0.007
 6859.00    0.70553   0.55407    0.008
 6860.00    0.77283   0.55307    0.008
 6861.00    0.61445   0.55158    0.008
 6862.00    0.50160   0.55049    0.008
 6863.00    0.49162   0.55005    0.007
 6864.00    0.47816   0.54990    0.007
 6865.00    0.45791   0.54979    0.007
 6866.00    0.48630   0.54979    0.007
 6867.00    0.59768   0.55024    0.008
 6868.00    0.65359   0.55132    0.008
 6869.00    0.62658   0.55287    0.008
 6870.00    0.61857   0.55458    0.007
 6871.00    0.63551   0.55605    0.007
 6872.00    0.65244   0.55673    0.007
 6873.00    0.66936   0.55619    0.007
 6874.00    0.66675   0.55447    0.007
 6875.00    0.64421   0.55222    0.007
 6876.00    0.61610   0.55056    0.007
 6877.00    0.58298   0.55005    0.007
 6878.00    0.55523   0.55060    0.007
 6879.00    0.53173   0.55159    0.008
 6880.00    0.56269   0.55275    0.008
 6881.00    0.63164   0.55423    0.008
 6882.00    0.69314   0.55604    0.008
 6883.00    0.75008   0.55788    0.008
 6884.00    0.79234   0.55927    0.008
 6885.00    0.82674   0.55974    0.008
 6886.00    0.79433   0.55931    0.008
 6887.00    0.73094   0.55834    0.007
 6888.00    0.71568   0.55738    0.007
 6889.00    0.71965   0.55683    0.007
 6890.00    0.73567   0.55666    0.007
 6891.00    0.75580   0.55670    0.007
 6892.00    0.71222   0.55666    0.007
 6893.00    0.65038   0.55635    0.007
 6894.00    0.67714   0.55608    0.008
 6895.00    0.72489   0.55628    0.008
 6896.00    0.65723   0.55687    0.008
 6897.00    0.56759   0.55747    0.008
 6898.00    0.56453   0.55785    0.008
 6899.00    0.57426   0.55838    0.008
 6900.00    0.60103   0.55941    0.008
 6901.00    0.62964   0.56047    0.008
 6902.00    0.67438   0.56102    0.008
 6903.00    0.72026   0.56075    0.008
 6904.00    0.64297   0.55975    0.008
 6905.00    0.56126   0.55822    0.008
 6906.00    0.65494   0.55618    0.008
 6907.00    0.74460   0.55397    0.008
 6908.00    0.67511   0.55233    0.008
 6909.00    0.60742   0.55172    0.008
 6910.00    0.56827   0.55214    0.008
 6911.00    0.53459   0.55328    0.007
 6912.00    0.55569   0.55467    0.008
 6913.00    0.56360   0.55609    0.008
 6914.00    0.47670   0.55713    0.008
 6915.00    0.42053   0.55725    0.008
 6916.00    0.53379   0.55617    0.008
 6917.00    0.63278   0.55419    0.008
 6918.00    0.66885   0.55244    0.008
 6919.00    0.71791   0.55192    0.008
 6920.00    0.81405   0.55302    0.008
 6921.00    0.85247   0.55494    0.008
 6922.00    0.71553   0.55656    0.008
 6923.00    0.62490   0.55719    0.008
 6924.00    0.65399   0.55675    0.008
 6925.00    0.69527   0.55575    0.008
 6926.00    0.76363   0.55484    0.008
 6927.00    0.79541   0.55465    0.008
 6928.00    0.75667   0.55512    0.008
 6929.00    0.74977   0.55572    0.008
 6930.00    0.79638   0.55611    0.008
 6931.00    0.74896   0.55632    0.008
 6932.00    0.56302   0.55668    0.008
 6933.00    0.47459   0.55722    0.008
 6934.00    0.51241   0.55753    0.008
 6935.00    0.58085   0.55706    0.008
 6936.00    0.68422   0.55558    0.008
 6937.00    0.67637   0.55355    0.008
 6938.00    0.55663   0.55204    0.008
 6939.00    0.57105   0.55214    0.008
 6940.00    0.70454   0.55395    0.008
 6941.00    0.72448   0.55646    0.008
 6942.00    0.65563   0.55828    0.008
 6943.00    0.61537   0.55862    0.008
 6944.00    0.59476   0.55763    0.008
 6945.00    0.61987   0.55618    0.008
 6946.00    0.67253   0.55500    0.009
 6947.00    0.61854   0.55446    0.008
 6948.00    0.50843   0.55456    0.008
 6949.00    0.49444   0.55515    0.008
 6950.00    0.52431   0.55597    0.008
 6951.00    0.59319   0.55678    0.008
 6952.00    0.67738   0.55744    0.008
 6953.00    0.69768   0.55803    0.008
 6954.00    0.69661   0.55867    0.008
 6955.00    0.71216   0.55932    0.008
 6956.00    0.73237   0.55983    0.008
 6957.00    0.56498   0.56001    0.008
 6958.00    0.35418   0.55983    0.008
 6959.00    0.36381   0.55957    0.008
 6960.00    0.41437   0.55959    0.008
 6961.00    0.58227   0.56000    0.008
 6962.00    0.76698   0.56047    0.008
 6963.00    0.76894   0.56060    0.008
 6964.00    0.75198   0.56029    0.008
 6965.00    0.59599   0.55985    0.008
 6966.00    0.43074   0.55935    0.008
 6967.00    0.40529   0.55836    0.008
 6968.00    0.38440   0.55622    0.008
 6969.00    0.64865   0.55267    0.009
 6970.00    0.89983   0.54822    0.009
 6971.00    0.74999   0.54417    0.008
 6972.00    0.61142   0.54229    0.008
 6973.00    0.64057   0.54367    0.008
 6974.00    0.66561   0.54778    0.008
 6975.00    0.65127   0.55287    0.008
 6976.00    0.62958   0.55722    0.008
 6977.00    0.55682   0.56000    0.008
 6978.00    0.49905   0.56123    0.008
 6979.00    0.52170   0.56130    0.008
 6980.00    0.53902   0.56050    0.008
 6981.00    0.53338   0.55910    0.008
 6982.00    0.51845   0.55760    0.008
 6983.00    0.47048   0.55676    0.008
 6984.00    0.47845   0.55699    0.008
 6985.00    0.65325   0.55794    0.008
 6986.00    0.75551   0.55880    0.008
 6987.00    0.67350   0.55910    0.008
 6988.00    0.62597   0.55905    0.008
 6989.00    0.65383   0.55892    0.009
 6990.00    0.63767   0.55858    0.009
 6991.00    0.53800   0.55758    0.008
 6992.00    0.51614   0.55593    0.008
 6993.00    0.62309   0.55431    0.008
 6994.00    0.69139   0.55349    0.008
 6995.00    0.70359   0.55343    0.008
 6996.00    0.65699   0.55338    0.008
 6997.00    0.53534   0.55274    0.008
 6998.00    0.46784   0.55184    0.008
 6999.00    0.46123   0.55144    0.008
 7000.00    0.51815   0.55204    0.008
 7001.00    0.63811   0.55336    0.008
 7002.00    0.63312   0.55474    0.008
 7003.00    0.51882   0.55563    0.008
 7004.00    0.55012   0.55586    0.008
 7005.00    0.69367   0.55557    0.008
 7006.00    0.69901   0.55473    0.009
 7007.00    0.61072   0.55296    0.009
 7008.00    0.58730   0.55015    0.009
 7009.00    0.60239   0.54727    0.008
 7010.00    0.61684   0.54614    0.008
 7011.00    0.63096   0.54786    0.008
 7012.00    0.61912   0.55158    0.008
 7013.00    0.59562   0.55526    0.008
 7014.00    0.61637   0.55714    0.008
 7015.00    0.65419   0.55677    0.008
 7016.00    0.66582   0.55490    0.008
 7017.00    0.66886   0.55292    0.008
 7018.00    0.69568   0.55203    0.008
 7019.00    0.72905   0.55257    0.008
 7020.00    0.65345   0.55407    0.008
 7021.00    0.55323   0.55590    0.008
 7022.00    0.60977   0.55763    0.008
 7023.00    0.69464   0.55900    0.008
 7024.00    0.57346   0.55973    0.008
 7025.00    0.42374   0.55972    0.008
 7026.00    0.47696   0.55922    0.008
 7027.00    0.55033   0.55866    0.008
 7028.00    0.56759   0.55819    0.009
 7029.00    0.58132   0.55744    0.009
 7030.00    0.52802   0.55612    0.009
 7031.00    0.47318   0.55484    0.009
 7032.00    0.51617   0.55512    0.009
 7033.00    0.55911   0.55796    0.009
 7034.00    0.60076   0.56260    0.009
 7035.00    0.63619   0.56704    0.009
 7036.00    0.58443   0.56957    0.008
 7037.00    0.54675   0.56998    0.008
 7038.00    0.63891   0.56934    0.008
 7039.00    0.71740   0.56888    0.008
 7040.00    0.70378   0.56908    0.008
 7041.00    0.67969   0.56943    0.008
 7042.00    0.60087   0.56906    0.008
 7043.00    0.54094   0.56752    0.008
 7044.00    0.56055   0.56473    0.008
 7045.00    0.56549   0.56073    0.008
 7046.00    0.51943   0.55590    0.008
 7047.00    0.52276   0.55119    0.008
 7048.00    0.67064   0.54773    0.008
 7049.00    0.73402   0.54605    0.009
 7050.00    0.58643   0.54560   -2.000
 7051.00    0.52758   0.54516   -2.000
 7052.00    0.65961   0.54389   -2.000
 7053.00    0.69851   0.54201   -2.000
 7054.00    0.56350   0.54049   -2.000
 7055.00    0.53899   0.54012   -2.000
 7056.00    0.69470   0.54086   -2.000
 7057.00    0.75835   0.54192   -2.000
 7058.00    0.69031   0.54237   -2.000
 7059.00    0.68857   0.54171   -2.000
 7060.00    0.77028   0.54019   -2.000
 7061.00    0.70592   0.53876   -2.000
 7062.00    0.47958   0.53852   -2.000
 7063.00    0.38410   0.53994   -2.000
 7064.00    0.41660   0.54254   -2.000
 7065.00    0.52065   0.54530   -2.000
 7066.00    0.68642   0.54736   -2.000
 7067.00    0.73820   0.54842   -2.000
 7068.00    0.70339   0.54863   -2.000
 7069.00    0.60318   0.54834   -2.000
 7070.00    0.45929   0.54798   -2.000
 7071.00    0.36940   0.54785   -2.000
 7072.00    0.31109   0.54791   -2.000
 7073.00    0.50321   0.54782   -2.000
 7074.00    0.82300   0.54692   -2.000
 7075.00    0.73261   0.54460   -2.000
 7076.00    0.46112   0.54071   -2.000
 7077.00    0.57555   0.53597   -2.000
 7078.00    0.83633   0.53156   -2.000
 7079.00    0.77472   0.52818   -2.000
 7080.00    0.60929   0.52559   -2.000
 7081.00    0.63131   0.52315   -2.000
 7082.00    0.70383   0.52068   -2.000
 7083.00    0.80518   0.51860   -2.000
 7084.00    0.91289   0.51739   -2.000
 7085.00    0.75102   0.51706   -2.000
 7086.00    0.54176   0.51726   -2.000
 7087.00    0.49754   0.51760   -2.000
 7088.00    0.47543   0.51804   -2.000
 7089.00    0.53209   0.51873   -2.000
 7090.00    0.59624   0.51998   -2.000
 7091.00    0.55227   0.52204   -2.000
 7092.00    0.50195   0.52467   -2.000
 7093.00    0.55115   0.52715   -2.000
 7094.00    0.60157   0.52866   -2.000
 7095.00    0.48372   0.52911   -2.000
 7096.00    0.37078   0.52915   -2.000
 7097.00    0.37955   0.52944   -2.000
 7098.00    0.39613   0.53003   -2.000
 7099.00    0.51637   0.53048   -2.000
 7100.00    0.60604   0.53047   -2.000
 7101.00    0.42480   0.53002   -2.000
 7102.00    0.26937   0.52923   -2.000
 7103.00    0.28249   0.52820   -2.000
 7104.00    0.31385   0.52724   -2.000
 7105.00    0.43808   0.52690   -2.000
 7106.00    0.55890   0.52754   -2.000
 7107.00    0.66563   0.52900   -2.000
 7108.00    0.71418   0.53077   -2.000
 7109.00    0.56439   0.53237   -2.000
 7110.00    0.44050   0.53349   -2.000
 7111.00    0.39107   0.53402   -2.000
 7112.00    0.37176   0.53392   -2.000
 7113.00    0.42638   0.53332   -2.000
 7114.00    0.48921   0.53242   -2.000
 7115.00    0.56941   0.53150   -2.000
 7116.00    0.61415   0.53059   -2.000
 7117.00    0.59370   0.52936   -2.000
 7118.00    0.57830   0.52734   -2.000
 7119.00    0.57098   0.52456   -2.000
 7120.00    0.59420   0.52166   -2.000
 7121.00    0.66047   0.51922   -2.000
 7122.00    0.56750   0.51728   -2.000
 7123.00    0.27700   0.51575   -2.000
 7124.00    0.24389   0.51498   -2.000
 7125.00    0.49219   0.51553   -2.000
 7126.00    0.48778   0.51751   -2.000
 7127.00    0.23966   0.52020   -2.000
 7128.00    0.21708   0.52266   -2.000
 7129.00    0.38627   0.52436   -2.000
 7130.00    0.46535   0.52509   -2.000
 7131.00    0.47694   0.52511   -2.000
 7132.00    0.43536   0.52479   -2.000
 7133.00    0.35881   0.52468   -2.000
 7134.00    0.53890   0.52506   -2.000
 7135.00    0.86682   0.52579   -2.000
 7136.00    0.82615   0.52637   -2.000
 7137.00    0.60053   0.52635   -2.000
 7138.00    0.61456   0.52546   -2.000
 7139.00    0.73265   0.52361   -2.000
 7140.00    0.63359   0.52112   -2.000
 7141.00    0.45364   0.51904   -2.000
 7142.00    0.36217   0.51856   -2.000
 7143.00    0.29864   0.52030   -2.000
 7144.00    0.37731   0.52366   -2.000
 7145.00    0.49349   0.52740   -2.000
 7146.00    0.31605   0.53049   -2.000
 7147.00    0.07532   0.53255   -2.000
 7148.00    0.34342   0.53383   -2.000
 7149.00    0.69848   0.53474   -2.000
 7150.00    0.81790   0.53529   -2.000
 7151.00    0.90682   0.53520   -2.000
 7152.00    0.76488   0.53433   -2.000
 7153.00    0.60197   0.53296   -2.000
 7154.00    0.18472   0.53144   -2.000
 7155.00   -0.24644   0.52928   -2.000
 7156.00    0.19557   0.52615   -2.000
 7157.00    0.64753   0.52236   -2.000
 7158.00    0.33812   0.51962   -2.000
 7159.00    0.03199   0.51927   -2.000
 7160.00   -0.19988   0.52124   -2.000
 7161.00   -0.42190   0.52410   -2.000
 7162.00   -0.51999   0.52648   -2.000
 7163.00   -0.52872   0.52807   -2.000
 7164.00    0.22496   0.52927   -2.000
 7165.00    0.90108   0.53034   -2.000
 7166.00    1.08562   0.53103   -2.000
 7167.00    1.16020   0.53096   -2.000
 7168.00    0.68878   0.53008   -2.000
 7169.00    0.35233   0.52897   -2.000
 7170.00    0.55911   0.52810   -2.000
 7171.00    0.75496   0.52735   -2.000
 7172.00    0.91430   0.52616   -2.000
 7173.00    0.99075   0.52445   -2.000
 7174.00    0.83339   0.52310   -2.000
 7175.00    0.70659   0.52321   -2.000
 7176.00    0.65353   0.52476   -2.000
 7177.00    0.54072   0.52651   -2.000
 7178.00    0.30351   0.52679   -2.000
 7179.00    0.25251   0.52495   -2.000
 7180.00    0.53867   0.52183   -2.000
 7181.00    0.64251   0.51904   -2.000
 7182.00    0.45774   0.51802   -2.000
 7183.00    0.46659   0.51904   -2.000
 7184.00    0.74443   0.52111   -2.000
 7185.00    0.78287   0.52312   -2.000
 7186.00    0.52856   0.52443   -2.000
 7187.00    0.31341   0.52518   -2.000
 7188.00    0.14047   0.52553   -2.000
 7189.00    0.23442   0.52541   -2.000
 7190.00    0.58213   0.52495   -2.000
 7191.00    0.71349   0.52442   -2.000
 7192.00    0.66347   0.52420   -2.000
 7193.00    0.66174   0.52401   -2.000
 7194.00    0.69564   0.52363   -2.000
 7195.00    0.67310   0.52337   -2.000
 7196.00    0.61396   0.52364   -2.000
 7197.00    0.54659   0.52412   -2.000
 7198.00    0.47455   0.52366   -2.000
 7199.00    0.18492   0.52140   -2.000
 7200.00   -0.21218   0.51823   -2.000
 7201.00   -0.20776   0.51604   -2.000
 7202.00   -0.03189   0.51630   -2.000
 7203.00    0.19977   0.51888   -2.000
 7204.00    0.45185   0.52212   -2.000
 7205.00    0.62991   0.52461   -2.000
 7206.00    0.78505   0.52567   -2.000
 7207.00    0.62733   0.52572   -2.000
 7208.00    0.38887   0.52571   -2.000
 7209.00    0.47995   0.52628   -2.000
 7210.00    0.64035   0.52757   -2.000
 7211.00    0.63926   0.52901   -2.000
 7212.00    0.61135   0.53006   -2.000
 7213.00    0.52673   0.53036   -2.000
 7214.00    0.43503   0.53007   -2.000
 7215.00    0.39149   0.52967   -2.000
 7216.00    0.35213   0.52969   -2.000
 7217.00    0.23155   0.53050   -2.000
 7218.00    0.10684   0.53206   -2.000
