###################################################################
## OUTPUT of StarlightChains_v04.for    [Cid@UFSC - 01/Apr/2007] ##
###################################################################

## Some input info
KUG0210-078._54_28.txt                   [arq_obs]
Base.CB07.vall.4m                        [arq_base]
Masks.EmLines.NEW.gm                     [arq_masks]
StCv04.C11.config                        [arq_config]
   66                                    [N_base]
    0                                    [N_YAV_components = # of components with extra extinction!]
    0                                    [i_FitPowerLaw (1/0 = Yes/No)]
-9.99                                    [alpha_PowerLaw]
CCM                                      [red_law_option]
 1.458241                                [q_norm = A(l_norm)/A(V)]

## (Re)Sampling Parameters
 3741.00                                 [l_ini (A)]
 7218.00                                 [l_fin (A)]
    1.00                                 [dl    (A)]     (OBS: dl_cushion =    50.00 A)

## Normalization info
 4020.00                                 [l_norm (A) - for base]
 4010.00                                 [llow_norm (A) - window for f_obs]
 4060.00                                 [lupp_norm (A) - window for f_obs]
7.283993E-18                             [fobs_norm (in input units)]

## S/N
 3691.00                                 [llow_SN (A) - window for S/N]
 7268.00                                 [lupp_SN (A) - window for S/N]
   2.407                                 [S/N in S/N window]
   3.134                                 [S/N in norm. window]
   0.006                                 [S/N_err in S/N window]
   0.008                                 [S/N_err in norm. window]
  1.0000                                 [fscale_chi2]

## etc...
    -2008004                             [idum_orig]
  2423                                   [NOl_eff]
  2404                                   [Nl_eff]
    19    NSIGMA                         [Ntot_cliped & clip_method]
  1441510                                [Nglobal_steps]
   7                                     [N_chains]
  31                                     [NEX0s_base = N_base in EX0s-fits]
 0   1   1       20   2.0   1.357E+03    [Clip-Bug, RC-Crash & Burn-In warning-flags, n_censored_weights, wei_nsig_threshold & wei_limit]
    46     45.326     44.339      0.987  [idt_all, wdt_TotTime, wdt_UsrTime & wdt_SysTime (sec)]

## Synthesis Results - Best model ##

 2.08541E-05                             [chi2/Nl_eff]
    52.85888                             [adev (%)]

   126.42679                             [sum-of-x (%)]
 3.40618E-18                             [Flux_tot (units of input spectrum!)]
 4.21327E-15                             [Mini_tot (???)]
 2.58990E-15                             [Mcor_tot (???)]

   0.00                                  [v0_min  (km/s)]
  15.17                                  [vd_min  (km/s)]
-0.7405                                  [AV_min  (mag)]
 0.0000                                  [YAV_min (mag)]

# j     x_j(%)      Mini_j(%)     Mcor_j(%)     age_j(yr)     Z_j      (L/M)_j    YAV?  Mstars   component_j        a/Fe...       SSP_chi2r SSP_adev(%)   SSP_AV   SSP_x(%)
  1      0.0000     0.0000E+00    0.0000E+00    1.000000E+06  0.00400  1.094E-02    0   1.0000   age020_m42            0.0000     1.9058E-05    44.2806   1.4863   108.9243
  2      0.0000     0.0000E+00    0.0000E+00    3.160000E+06  0.00400  4.007E-02    0   0.9999   age045_m42            0.0000     2.0564E-05    46.1503   0.6495   115.7043
  3      0.0000     0.0000E+00    0.0000E+00    5.010000E+06  0.00400  2.539E-02    0   0.9488   age055_m42            0.0000     1.9925E-05    45.4065   1.0163   112.4797
  4      1.9255     4.6996E-02    7.0490E-02    6.610000E+06  0.00400  2.620E-02    0   0.9220   age061_m42            0.0000     2.0710E-05    46.1455   0.5865   115.4143
  5      0.0000     0.0000E+00    0.0000E+00    1.000000E+07  0.00400  1.322E-02    0   0.8862   age070_m42            0.0000     2.0081E-05    44.8624   0.4229   116.5777
  6      0.0000     0.0000E+00    0.0000E+00    1.445000E+07  0.00400  7.883E-03    0   0.8571   age078_m42            0.0000     1.9720E-05    44.7174   0.7633   114.2059
  7      3.5185     4.2847E-01    5.6976E-01    2.512000E+07  0.00400  5.251E-03    0   0.8174   age090_m42            0.0000     2.0217E-05    44.9061   0.3009   116.6157
  8      8.8386     1.5489E+00    1.9783E+00    4.000000E+07  0.00400  3.649E-03    0   0.7851   age104_m42            0.0000     2.0515E-05    45.8253  -0.0001   118.0576
  9      0.8448     1.7437E-01    2.1641E-01    5.500000E+07  0.00400  3.098E-03    0   0.7629   age110_m42            0.0000     2.1277E-05    46.0458   0.1383   118.4265
 10      0.3315     9.5131E-02    1.1154E-01    1.015200E+08  0.00400  2.228E-03    0   0.7207   age116_m42            0.0000     2.2029E-05    46.6968   0.1145   118.6259
 11      0.0000     0.0000E+00    0.0000E+00    2.861200E+08  0.00400  1.093E-03    0   0.6648   age125_m42            0.0000     2.2656E-05    46.7209  -0.4721   120.0732
 12      8.5372     8.2751E+00    8.5686E+00    5.088000E+08  0.00400  6.597E-04    0   0.6365   age130_m42            0.0000     2.3716E-05    47.1996  -0.5512   121.6372
 13      7.7143     2.3138E+01    2.1824E+01    1.434000E+09  0.00400  2.132E-04    0   0.5798   age139_m42            0.0000     2.4343E-05    37.5026  -1.0000   114.8870
 14      0.0000     0.0000E+00    0.0000E+00    4.250000E+09  0.00400  5.895E-05    0   0.5377   age158_m42            0.0000     2.5151E-05    32.3354  -1.0000   103.0738
 15      0.0000     0.0000E+00    0.0000E+00    7.500000E+09  0.00400  3.510E-05    0   0.5212   age171_m42            0.0000     2.6517E-05    33.4251  -1.0000    99.7877
 16      0.0518     1.6524E+00    1.3532E+00    1.300000E+10  0.00400  2.005E-05    0   0.5034   age193_m42            0.0000     2.7755E-05    36.1549  -1.0000    97.4756
 17      0.0000     0.0000E+00    0.0000E+00    1.800000E+10  0.00400  1.525E-05    0   0.4967   age213_m42            0.0000     2.7853E-05    36.3962  -1.0000    96.3124
 18      0.0000     0.0000E+00    0.0000E+00    1.000000E+06  0.00800  1.238E-02    0   1.0000   age020_m52            0.0000     1.9049E-05    44.2867   1.4826   109.3589
 19      0.0000     0.0000E+00    0.0000E+00    3.160000E+06  0.00800  3.074E-02    0   0.9966   age045_m52            0.0000     1.9143E-05    44.3664   1.4005   110.3888
 20      0.6719     1.6104E-02    2.4739E-02    5.010000E+06  0.00800  2.668E-02    0   0.9443   age055_m52            0.0000     1.9518E-05    44.8871   1.1318   112.3769
 21     21.6471     6.4805E-01    9.6749E-01    6.610000E+06  0.00800  2.136E-02    0   0.9177   age061_m52            0.0000     1.9317E-05    43.3991  -0.1027   118.1285
 22      0.0000     0.0000E+00    0.0000E+00    1.000000E+07  0.00800  1.215E-02    0   0.8827   age070_m52            0.0000     1.9614E-05    44.3542   0.6501   116.7837
 23      2.6075     1.9128E-01    2.6611E-01    1.445000E+07  0.00800  8.717E-03    0   0.8552   age078_m52            0.0000     1.9786E-05    44.6435   0.7280   115.8597
 24      0.0000     0.0000E+00    0.0000E+00    2.512000E+07  0.00800  5.592E-03    0   0.8162   age090_m52            0.0000     2.0306E-05    45.0127   0.3624   117.9448
 25      0.0000     0.0000E+00    0.0000E+00    4.000000E+07  0.00800  3.896E-03    0   0.7841   age104_m52            0.0000     2.0912E-05    45.5547   0.2235   118.3764
 26      5.2973     1.5770E+00    1.8538E+00    1.015200E+08  0.00800  2.148E-03    0   0.7226   age116_m52            0.0000     2.1696E-05    46.1150   0.0896   118.3468
 27      0.0000     0.0000E+00    0.0000E+00    2.861200E+08  0.00800  9.925E-04    0   0.6683   age125_m52            0.0000     2.3676E-05    47.2345  -0.4801   122.7904
 28      0.0000     0.0000E+00    0.0000E+00    9.047900E+08  0.00800  3.141E-04    0   0.6138   age135_m52            0.0000     2.5366E-05    39.2729  -1.0000   121.0313
 29      0.0000     0.0000E+00    0.0000E+00    1.434000E+09  0.00800  1.719E-04    0   0.5853   age139_m52            0.0000     2.6061E-05    33.1549  -1.0000   108.3981
 30      0.0000     0.0000E+00    0.0000E+00    2.500000E+09  0.00800  7.872E-05    0   0.5600   age150_m52            0.0000     2.7823E-05    32.6038  -1.0000   101.1247
 31      0.0000     0.0000E+00    0.0000E+00    4.250000E+09  0.00800  4.336E-05    0   0.5426   age158_m52            0.0000     2.7871E-05    32.1286  -1.0000    99.5420
 32      0.8425     1.7054E+01    1.4757E+01    6.250000E+09  0.00800  3.159E-05    0   0.5319   age166_m52            0.0000     3.0174E-05    34.2946  -1.0000    96.1724
 33      0.0000     0.0000E+00    0.0000E+00    1.300000E+10  0.00800  1.361E-05    0   0.5073   age193_m52            0.0000     3.5461E-05    46.4708  -1.0000    89.5760
 34      0.0000     0.0000E+00    0.0000E+00    1.800000E+10  0.00800  9.886E-06    0   0.4990   age213_m52            0.0000     3.7853E-05    49.5333  -1.0000    87.4974
 35      0.0000     0.0000E+00    0.0000E+00    1.000000E+06  0.02000  1.544E-02    0   1.0000   age020_m62            0.0000     1.8988E-05    44.1443   1.4894   110.0119
 36      0.0000     0.0000E+00    0.0000E+00    3.160000E+06  0.02000  3.762E-02    0   0.9858   age045_m62            0.0000     1.8950E-05    44.1496   1.4361   111.9245
 37      0.0000     0.0000E+00    0.0000E+00    5.010000E+06  0.02000  3.296E-02    0   0.9342   age055_m62            0.0000     2.0058E-05    45.5741   0.9725   115.1875
 38     20.8250     1.1540E+00    1.6634E+00    8.710000E+06  0.02000  1.154E-02    0   0.8861   age067_m62            0.0000     1.8666E-05    44.2117   0.2995   117.8655
 39      6.9147     5.7701E-01    7.9526E-01    1.445000E+07  0.02000  7.663E-03    0   0.8472   age078_m62            0.0000     1.9350E-05    44.0601   0.3407   118.1928
 40      5.3522     7.5518E-01    9.9500E-01    2.512000E+07  0.02000  4.532E-03    0   0.8099   age090_m62            0.0000     1.9658E-05    44.5505   0.3290   116.6950
 41      0.0000     0.0000E+00    0.0000E+00    5.500000E+07  0.02000  2.733E-03    0   0.7595   age110_m62            0.0000     2.0754E-05    45.5174   0.2114   116.9749
 42      0.1741     8.1298E-02    9.2381E-02    1.609000E+08  0.02000  1.369E-03    0   0.6985   age120_m62            0.0000     2.2742E-05    46.8929  -0.0442   120.7978
 43      0.0000     0.0000E+00    0.0000E+00    2.861200E+08  0.02000  9.013E-04    0   0.6714   age125_m62            0.0000     2.4408E-05    47.5065  -0.3518   124.5446
 44      0.0115     1.4689E-02    1.5410E-02    5.088000E+08  0.02000  5.028E-04    0   0.6449   age130_m62            0.0000     2.5916E-05    48.4447  -0.8983   128.9887
 45      8.4665     2.2298E+01    2.2414E+01    9.047900E+08  0.02000  2.428E-04    0   0.6179   age135_m62            0.0000     2.5845E-05    37.3907  -1.0000   117.0538
 46      0.0072     3.6425E-02    3.5009E-02    1.434000E+09  0.02000  1.263E-04    0   0.5908   age139_m62            0.0000     2.7146E-05    31.0646  -1.0000   106.3467
 47      0.0974     1.0403E+00    9.6011E-01    2.500000E+09  0.02000  5.985E-05    0   0.5673   age150_m62            0.0000     2.9398E-05    30.5016  -1.0000    99.6679
 48      0.0000     0.0000E+00    0.0000E+00    4.250000E+09  0.02000  3.271E-05    0   0.5468   age158_m62            0.0000     3.2915E-05    34.3223  -1.0000    93.8373
 49      0.0000     0.0000E+00    0.0000E+00    1.000000E+10  0.02000  1.360E-05    0   0.5167   age181_m62            0.0000     3.8296E-05    41.4108  -1.0000    87.3929
 50      0.0000     0.0000E+00    0.0000E+00    1.800000E+10  0.02000  7.124E-06    0   0.5013   age213_m62            0.0000     4.2227E-05    47.0931  -1.0000    83.4029
 51      0.0000     0.0000E+00    0.0000E+00    1.000000E+06  0.05000  2.592E-02    0   0.9998   age020_m72            0.0000     1.8961E-05    43.9490   1.4908   109.7700
 52      0.0000     0.0000E+00    0.0000E+00    3.160000E+06  0.05000  4.845E-02    0   0.9577   age045_m72            0.0000     1.9385E-05    44.8007   1.2794   112.5695
 53      0.0000     0.0000E+00    0.0000E+00    5.010000E+06  0.05000  3.072E-02    0   0.9147   age055_m72            0.0000     1.9173E-05    44.3255   0.8994   115.7186
 54      0.3437     1.5104E-02    2.1812E-02    6.610000E+06  0.05000  1.455E-02    0   0.8877   age061_m72            0.0000     1.8676E-05    47.2233   0.4205   120.3312
 55      0.0000     0.0000E+00    0.0000E+00    1.000000E+07  0.05000  9.074E-03    0   0.8524   age070_m72            0.0000     1.9307E-05    45.3787   1.0756   115.7582
 56      5.3959     8.1187E-01    1.0437E+00    2.512000E+07  0.05000  4.250E-03    0   0.7902   age090_m72            0.0000     2.0173E-05    45.6194   0.7280   115.7923
 57      0.5726     1.1861E-01    1.4699E-01    4.000000E+07  0.05000  3.087E-03    0   0.7618   age104_m72            0.0000     2.0608E-05    45.9242   0.4932   116.8508
 58      0.6915     2.6009E-01    3.0025E-01    1.015200E+08  0.05000  1.700E-03    0   0.7096   age116_m72            0.0000     2.2390E-05    46.5707   0.1422   119.6859
 59      8.2860     7.1757E+00    7.7430E+00    2.861200E+08  0.05000  7.384E-04    0   0.6633   age125_m72            0.0000     2.5738E-05    49.0961  -0.6111   124.8581
 60      6.4599     1.0816E+01    1.1212E+01    5.088000E+08  0.05000  3.819E-04    0   0.6372   age130_m72            0.0000     2.6358E-05    44.7397  -1.0000   122.2081
 61      0.0000     0.0000E+00    0.0000E+00    9.047900E+08  0.05000  1.676E-04    0   0.6110   age135_m72            0.0000     2.8486E-05    32.0615  -1.0000   106.3850
 62      0.0000     0.0000E+00    0.0000E+00    1.434000E+09  0.05000  8.837E-05    0   0.5874   age139_m72            0.0000     3.0661E-05    29.7493  -1.0000    98.8408
 63      0.0000     0.0000E+00    0.0000E+00    2.500000E+09  0.05000  4.233E-05    0   0.5598   age150_m72            0.0000     3.4188E-05    32.8844  -1.0000    92.5940
 64      0.0000     0.0000E+00    0.0000E+00    6.250000E+09  0.05000  1.435E-05    0   0.5249   age166_m72            0.0000     4.0097E-05    42.8040  -1.0000    84.2358
 65      0.0000     0.0000E+00    0.0000E+00    1.300000E+10  0.05000  6.513E-06    0   0.5036   age193_m72            0.0000     4.5260E-05    50.8496  -1.0000    80.7849
 66      0.0000     0.0000E+00    0.0000E+00    1.800000E+10  0.05000  4.527E-06    0   0.4945   age213_m72            0.0000     4.8513E-05    55.8261  -1.0000    78.1136


## Synthesis Results - Average & Chains ##

# j      x_j: min, <> & last-chain-values for 1 ...  7 chains
  1      0.0000      0.5209      0.0000      0.6595      0.0000      0.0000      0.0000      2.6044      0.0000
  2      0.0000      1.2311      0.3661      0.5481      0.0000      0.0000      0.0000      2.4100      0.0000
  3      0.0000      0.9130      0.0000      1.7784      0.0000      0.0000      1.2627      0.0000      1.2664
  4      1.9255      1.1029      0.0000      0.0000      2.7549      0.0000      0.2320      0.5584      0.0000
  5      0.0000      1.8076      0.0000      0.0000      0.0603      0.0000      0.0000      0.7217      1.5065
  6      0.0000      1.0389      0.3111      2.7435      0.0000      0.0000      0.0000      2.9005      0.0452
  7      3.5185      1.8543      8.1966      4.8389      8.4621      1.7242      0.0000      1.8461      0.9256
  8      8.8386      2.1586      0.4540     11.1662      3.2640      4.8992      9.5328      0.0000      2.5534
  9      0.8448      2.0788      5.9455      0.0000     10.9623      8.0952      1.3078      0.0000      1.5667
 10      0.3315      1.2971      0.0000      0.0000      2.1401      3.9446      2.5313      0.0000      3.0719
 11      0.0000      3.0695      2.5163      0.8310      0.3889      2.0652      2.1649      2.0853      3.7831
 12      8.5372      3.9014      4.3442     14.9138      8.8584     25.4925     17.0871      6.3413     21.0964
 13      7.7143      2.0525      4.3528      2.5103      3.6453      0.0000      0.0000      0.0000      2.5919
 14      0.0000      0.3814      0.0000      0.0000      0.2709      2.2913      0.0000      0.0000      0.0000
 15      0.0000      0.6065      0.0000      0.0000      0.0471      0.2523      0.4244      0.0000      0.0000
 16      0.0518      3.0138      2.1213      1.7953      2.9668      2.8166      2.6659      3.0387      1.2076
 17      0.0000      0.3471      0.8031      0.0000      0.0000      0.0000      0.0000      0.5644      0.0000
 18      0.0000      0.6763      0.0000      0.3566      0.0000      1.0071      0.0000      1.3550      3.6637
 19      0.0000      0.9537      1.3283      0.0000      0.0000      2.7484      0.0000      0.6275      0.0592
 20      0.6719      1.0543      0.7316      0.0000      1.8917      0.0000      3.3812      0.0000      1.4959
 21     21.6471      2.4907      0.8477      1.8089      2.7737      2.2474      0.7598      0.0000      0.0000
 22      0.0000      0.7056      5.6927      0.0000      0.2823      0.4908      0.0000      0.8140      0.8869
 23      2.6075      0.8918      0.1626      3.2132      1.5761      0.0000      0.5002      1.2345      1.6175
 24      0.0000      1.3762      1.1883      0.0000      0.0000      5.6324      0.0000      0.0000      0.0117
 25      0.0000      1.4851      1.2462      0.0000      0.0000      0.8199      1.4392      4.8231      1.8877
 26      5.2973      1.9102      0.0000      0.0000      3.0235      3.3304      6.0773      0.0000      2.1884
 27      0.0000      3.1421      8.7683      6.2710      5.0576      4.0628      3.4743      2.1564      5.0058
 28      0.0000      2.3098      1.9076      6.5143      0.0000      0.0000      1.0870      0.0000      6.0794
 29      0.0000      0.8853      1.0611      0.0000      0.2877      0.0000      0.0000      0.0000      1.7339
 30      0.0000      0.2852      0.0000      0.0000      0.0000      0.0000      0.0929      0.0000      0.0000
 31      0.0000      0.1822      0.0000      0.0000      0.0000      0.0000      0.0000      0.0000      0.0000
 32      0.8425      0.9810      1.3238      2.0549      2.4801      0.0000      1.4159      0.7814      1.5111
 33      0.0000      0.2941      0.0000      0.7272      0.0000      0.0000      0.2384      0.0000      0.0000
 34      0.0000      0.9825      0.0000      0.9530      0.0000      0.0000      0.5809      2.0285      0.6898
 35      0.0000      0.8013      0.0000      0.0000      2.3117      0.0000      0.9461      0.0000      0.0000
 36      0.0000      0.5333      0.5441      0.8142      1.0087      0.0052      0.0000      0.0000      0.0000
 37      0.0000      0.6319      1.5380      0.0000      0.3881      0.0000      0.4083      0.0000      0.0000
 38     20.8250      1.9019      2.1774      4.7686      4.8894      3.3745      6.1184      2.4136      0.0000
 39      6.9147      2.2414      1.4226      0.0000      1.6518      0.0000      1.0394      2.0965      0.0000
 40      5.3522      1.8240      0.4337      0.0000      1.0376      3.7224      0.0000      3.1084      3.6642
 41      0.0000      1.5836      1.5122      0.0000      0.0000      1.8067      0.0000      0.4938      0.0000
 42      0.1741      1.9212      6.1928      2.1695      3.7025      1.0813      7.3321      0.0000      4.4392
 43      0.0000      1.6564      0.0000      0.0000      0.0000      5.1324      6.9224      7.0274     10.2101
 44      0.0115      3.8834     14.0707      5.5956      2.9225      7.0329      0.0000      1.4524      3.5423
 45      8.4665      1.3258      0.0000      0.0000      3.2779      1.0000      3.6391      2.4754      4.1182
 46      0.0072      1.2643      2.5037      1.0403      1.8865      1.2069      1.5693      0.8367      1.3391
 47      0.0974      0.6504      0.0000      3.5267      0.7256      2.2086      1.4400      0.0139      0.0000
 48      0.0000      0.2941      0.0000      0.0000      0.0000      0.0000      0.0000      0.4372      0.0000
 49      0.0000      0.3118      0.0000      0.0000      0.0000      0.0000      0.0000      0.9525      0.0000
 50      0.0000      0.1666      0.0000      0.0000      0.0000      0.0000      0.0000      0.0000      0.0000
 51      0.0000      0.8993      0.0000      1.9024      0.0000      0.3118      0.0000      0.0000      0.0000
 52      0.0000      0.6412      2.9525      0.7522      0.0000      0.0141      0.0000      0.0000      0.0000
 53      0.0000      0.7945      0.8141      0.2239      0.0000      0.0000      0.7005      0.9768      0.0000
 54      0.3437     16.4884      8.7771     21.1011      9.6048     10.6650     10.1323     17.3227      7.4640
 55      0.0000      2.8211      3.3020      0.4996      0.0000      2.9410      1.8849      2.1151      0.0000
 56      5.3959      8.8924      0.7882      0.0000      9.3312      0.0000      7.6321     12.2829     11.2357
 57      0.5726     14.9454      6.1820     14.6525      6.7808      1.5690      6.7710     14.9101      6.7134
 58      0.6915      1.3836      3.5048      0.0000      7.0816      2.1668      2.3364      0.0000      0.0000
 59      8.2860      2.8223      3.0160      0.0824      2.7408      0.0000      7.1201      8.0400      0.0000
 60      6.4599      2.4971     10.5879      2.6884      1.9965      4.6419      0.9020      7.4602      4.8582
 61      0.0000      0.5656      0.0000      0.6698      0.2714      3.0918      1.0278      0.0000      0.0000
 62      0.0000      0.3074      0.0000      0.0000      0.0594      0.0000      0.0000      0.5493      0.0000
 63      0.0000      0.1300      0.0322      0.0000      0.0000      0.0000      0.0000      0.0000      0.8595
 64      0.0000      0.1341      0.4067      0.0000      0.0000      0.0000      0.0000      0.2739      0.0000
 65      0.0000      0.0430      0.0000      0.0000      0.0000      0.0000      0.0000      0.0000      0.0000
 66      0.0000      3.5503      1.3675      1.6969      3.1199      2.0668      1.9536      3.7183      1.1283

# j      m_j: min, <> & last-chain-values for 1 ...  7 chains
  1  0.0000E+00  7.0696E-03  0.0000E+00  1.3641E-02  0.0000E+00  0.0000E+00  0.0000E+00  3.2606E-02  0.0000E+00
  2  0.0000E+00  4.5617E-03  2.5428E-03  3.0947E-03  0.0000E+00  0.0000E+00  0.0000E+00  8.2370E-03  0.0000E+00
  3  0.0000E+00  5.0659E-03  0.0000E+00  1.5038E-02  0.0000E+00  0.0000E+00  1.0879E-02  0.0000E+00  1.4602E-02
  4  7.0490E-02  5.7628E-03  0.0000E+00  0.0000E+00  1.8124E-02  0.0000E+00  1.8821E-03  2.6913E-03  0.0000E+00
  5  0.0000E+00  1.7992E-02  0.0000E+00  0.0000E+00  7.5618E-04  0.0000E+00  0.0000E+00  6.6262E-03  3.1161E-02
  6  0.0000E+00  1.6772E-02  9.4153E-03  6.7498E-02  0.0000E+00  0.0000E+00  0.0000E+00  4.3194E-02  1.5171E-03
  7  5.6976E-01  4.2860E-02  3.5515E-01  1.7044E-01  2.4625E-01  6.3613E-02  0.0000E+00  3.9360E-02  4.4458E-02
  8  1.9783E+00  6.8961E-02  2.7192E-02  5.4362E-01  1.3128E-01  2.4983E-01  4.7288E-01  0.0000E+00  1.6951E-01
  9  2.1641E-01  7.6012E-02  4.0753E-01  0.0000E+00  5.0465E-01  4.7249E-01  7.4251E-02  0.0000E+00  1.1904E-01
 10  1.1154E-01  6.2301E-02  0.0000E+00  0.0000E+00  1.2941E-01  3.0243E-01  1.8878E-01  0.0000E+00  3.0660E-01
 11  0.0000E+00  2.7722E-01  4.2600E-01  1.1437E-01  4.4222E-02  2.9772E-01  3.0359E-01  1.7372E-01  7.0997E-01
 12  8.5686E+00  5.5892E-01  1.1667E+00  3.2560E+00  1.5978E+00  5.8296E+00  3.8010E+00  8.3800E-01  6.2804E+00
 13  2.1824E+01  8.2879E-01  3.2949E+00  1.5447E+00  1.8532E+00  0.0000E+00  0.0000E+00  0.0000E+00  2.1749E+00
 14  0.0000E+00  5.1660E-01  0.0000E+00  0.0000E+00  4.6199E-01  4.9535E+00  0.0000E+00  0.0000E+00  0.0000E+00
 15  0.0000E+00  1.3372E+00  0.0000E+00  0.0000E+00  1.3063E-01  8.8792E-01  1.4530E+00  0.0000E+00  0.0000E+00
 16  1.3532E+00  1.1236E+01  1.4825E+01  1.0199E+01  1.3925E+01  1.6761E+01  1.5432E+01  1.0450E+01  9.3551E+00
 17  0.0000E+00  1.6787E+00  7.2810E+00  0.0000E+00  0.0000E+00  0.0000E+00  0.0000E+00  2.5178E+00  0.0000E+00
 18  0.0000E+00  8.1109E-03  0.0000E+00  6.5186E-03  0.0000E+00  1.9280E-02  0.0000E+00  1.4991E-02  9.1310E-02
 19  0.0000E+00  4.5908E-03  1.1987E-02  0.0000E+00  0.0000E+00  2.1119E-02  0.0000E+00  2.7863E-03  5.9219E-04
 20  2.4739E-02  5.5409E-03  7.2074E-03  0.0000E+00  1.2517E-02  0.0000E+00  2.7592E-02  0.0000E+00  1.6336E-02
 21  9.6749E-01  1.5889E-02  1.0137E-02  1.7585E-02  2.2277E-02  2.2885E-02  7.5261E-03  0.0000E+00  0.0000E+00
 22  0.0000E+00  7.6118E-03  1.1512E-01  0.0000E+00  3.8342E-03  8.4510E-03  0.0000E+00  8.1000E-03  1.9882E-02
 23  2.6611E-01  1.2991E-02  4.4393E-03  7.1331E-02  2.8906E-02  0.0000E+00  1.1313E-02  1.6589E-02  4.8963E-02
 24  0.0000E+00  2.9826E-02  4.8275E-02  0.0000E+00  0.0000E+00  1.9485E-01  0.0000E+00  0.0000E+00  5.2883E-04
 25  0.0000E+00  4.4379E-02  6.9809E-02  0.0000E+00  0.0000E+00  3.9109E-02  6.6781E-02  1.3295E-01  1.1722E-01
 26  1.8538E+00  9.5414E-02  0.0000E+00  0.0000E+00  1.9014E-01  2.6554E-01  4.7136E-01  0.0000E+00  2.2715E-01
 27  0.0000E+00  3.1415E-01  1.6434E+00  9.5546E-01  6.3663E-01  6.4840E-01  5.3937E-01  1.9887E-01  1.0400E+00
 28  0.0000E+00  6.7021E-01  1.0376E+00  2.8805E+00  0.0000E+00  0.0000E+00  4.8975E-01  0.0000E+00  3.6656E+00
 29  0.0000E+00  4.4759E-01  1.0056E+00  0.0000E+00  1.8313E-01  0.0000E+00  0.0000E+00  0.0000E+00  1.8216E+00
 30  0.0000E+00  3.0123E-01  0.0000E+00  0.0000E+00  0.0000E+00  0.0000E+00  1.5244E-01  0.0000E+00  0.0000E+00
 31  0.0000E+00  3.3854E-01  0.0000E+00  0.0000E+00  0.0000E+00  0.0000E+00  0.0000E+00  0.0000E+00  0.0000E+00
 32  1.4757E+01  2.4526E+00  6.2041E+00  7.8292E+00  7.8063E+00  0.0000E+00  5.4967E+00  1.8020E+00  7.8506E+00
 33  0.0000E+00  1.6278E+00  0.0000E+00  6.1330E+00  0.0000E+00  0.0000E+00  2.0490E+00  0.0000E+00  0.0000E+00
 34  0.0000E+00  7.3636E+00  0.0000E+00  1.0884E+01  0.0000E+00  0.0000E+00  6.7606E+00  1.4024E+01  1.0743E+01
 35  0.0000E+00  7.7062E-03  0.0000E+00  0.0000E+00  2.7989E-02  0.0000E+00  1.4127E-02  0.0000E+00  0.0000E+00
 36  0.0000E+00  2.0751E-03  3.9688E-03  4.8275E-03  4.9415E-03  3.2003E-05  0.0000E+00  0.0000E+00  0.0000E+00
 37  0.0000E+00  2.6593E-03  1.2133E-02  0.0000E+00  2.0563E-03  0.0000E+00  2.6684E-03  0.0000E+00  0.0000E+00
 38  1.6634E+00  2.1684E-02  4.6537E-02  8.2852E-02  7.0184E-02  6.1413E-02  1.0832E-01  2.5384E-02  0.0000E+00
 39  7.9526E-01  3.6795E-02  4.3776E-02  0.0000E+00  3.4140E-02  0.0000E+00  2.6494E-02  3.1746E-02  0.0000E+00
 40  9.9500E-01  4.8400E-02  2.1571E-02  0.0000E+00  3.4663E-02  1.5767E-01  0.0000E+00  7.6083E-02  2.0204E-01
 41  0.0000E+00  6.5344E-02  1.1697E-01  0.0000E+00  0.0000E+00  1.1900E-01  0.0000E+00  1.8795E-02  0.0000E+00
 42  9.2381E-02  1.4555E-01  8.7950E-01  2.5047E-01  3.5315E-01  1.3076E-01  8.6253E-01  0.0000E+00  6.9886E-01
 43  0.0000E+00  1.8321E-01  0.0000E+00  0.0000E+00  0.0000E+00  9.0616E-01  1.1889E+00  7.1700E-01  2.3468E+00
 44  1.5410E-02  7.3959E-01  5.0233E+00  1.6240E+00  7.0073E-01  2.1380E+00  0.0000E+00  2.5515E-01  1.4019E+00
 45  2.2414E+01  5.0099E-01  0.0000E+00  0.0000E+00  1.5594E+00  6.0321E-01  2.1353E+00  8.6283E-01  3.2337E+00
 46  3.5009E-02  8.7816E-01  3.2599E+00  1.1011E+00  1.6497E+00  1.3381E+00  1.6925E+00  5.3604E-01  1.9327E+00
 47  9.6011E-01  9.1539E-01  0.0000E+00  7.5640E+00  1.2858E+00  4.9618E+00  3.1469E+00  1.8017E-02  0.0000E+00
 48  0.0000E+00  7.3003E-01  0.0000E+00  0.0000E+00  0.0000E+00  0.0000E+00  0.0000E+00  1.0010E+00  0.0000E+00
 49  0.0000E+00  1.7587E+00  0.0000E+00  0.0000E+00  0.0000E+00  0.0000E+00  0.0000E+00  4.9567E+00  0.0000E+00
 50  0.0000E+00  1.7405E+00  0.0000E+00  0.0000E+00  0.0000E+00  0.0000E+00  0.0000E+00  0.0000E+00  0.0000E+00
 51  0.0000E+00  5.1509E-03  0.0000E+00  1.6605E-02  0.0000E+00  2.8507E-03  0.0000E+00  0.0000E+00  0.0000E+00
 52  0.0000E+00  1.8820E-03  1.6244E-02  3.3644E-03  0.0000E+00  6.6230E-05  0.0000E+00  0.0000E+00  0.0000E+00
 53  0.0000E+00  3.5126E-03  6.7473E-03  1.5088E-03  0.0000E+00  0.0000E+00  4.8092E-03  3.9836E-03  0.0000E+00
 54  2.1812E-02  1.4937E-01  1.4905E-01  2.9130E-01  1.0955E-01  1.5422E-01  1.4253E-01  1.4475E-01  1.4051E-01
 55  0.0000E+00  3.9349E-02  8.6337E-02  1.0620E-02  0.0000E+00  6.5482E-02  4.0824E-02  2.7214E-02  0.0000E+00
 56  1.0437E+00  2.4550E-01  4.0793E-02  0.0000E+00  3.2433E-01  0.0000E+00  3.2717E-01  3.1280E-01  6.4458E-01
 57  1.4699E-01  5.4763E-01  4.2464E-01  8.1819E-01  3.1282E-01  9.1768E-02  3.8525E-01  5.0396E-01  5.1118E-01
 58  3.0025E-01  8.5751E-02  4.0720E-01  0.0000E+00  5.5259E-01  2.1437E-01  2.2485E-01  0.0000E+00  0.0000E+00
 59  7.7430E+00  3.7644E-01  7.5411E-01  1.6758E-02  4.6026E-01  0.0000E+00  1.4747E+00  9.8920E-01  0.0000E+00
 60  1.1212E+01  6.1865E-01  4.9172E+00  1.0150E+00  6.2273E-01  1.8357E+00  3.4697E-01  1.7049E+00  2.5011E+00
 61  0.0000E+00  3.0615E-01  0.0000E+00  5.5249E-01  1.8496E-01  2.6715E+00  8.6387E-01  0.0000E+00  0.0000E+00
 62  0.0000E+00  3.0340E-01  0.0000E+00  0.0000E+00  7.3853E-02  0.0000E+00  0.0000E+00  5.0012E-01  0.0000E+00
 63  0.0000E+00  2.5524E-01  1.1869E-01  0.0000E+00  0.0000E+00  0.0000E+00  0.0000E+00  0.0000E+00  3.5072E+00
 64  0.0000E+00  7.2849E-01  4.1407E+00  0.0000E+00  0.0000E+00  0.0000E+00  0.0000E+00  1.3724E+00  0.0000E+00
 65  0.0000E+00  4.9344E-01  0.0000E+00  0.0000E+00  0.0000E+00  0.0000E+00  0.0000E+00  0.0000E+00  0.0000E+00
 66  0.0000E+00  5.7583E+01  4.1578E+01  4.1942E+01  6.3709E+01  5.3510E+01  4.9200E+01  5.5630E+01  3.8030E+01

# AV, chi2 & Mass for <> & i_chain = 1 ...  7 solutions
AV      -0.7405     -0.8402     -0.7655     -0.8241     -0.8247     -0.8675     -0.8048     -0.8239     -0.8153
chi2 2.0854E-05  2.8710E-05  2.1597E-05  2.1094E-05  2.0865E-05  2.1827E-05  2.2699E-05  2.0897E-05  2.1610E-05
Mass 2.5899E-15  1.5871E-14  9.3596E-15  1.0643E-14  1.2872E-14  9.5843E-15  1.0719E-14  1.7586E-14  7.8977E-15
   0.00                                  [v0_min (km/s) before EX0s...]
  15.17                                  [vd_min (km/s) before EX0s...]


## Synthetic spectrum (Best Model) ##l_obs f_obs f_syn wei
 3478    [Nl_obs]
 3741.00    1.70954   1.11800    0.000
 3742.00    1.89727   1.11088    0.000
 3743.00    2.19135   1.08868    0.000
 3744.00    2.20329   1.06267    0.000
 3745.00    2.05083   1.02071    0.023
 3746.00    2.13973   0.96603    0.023
 3747.00    2.35120   0.90711    0.022
 3748.00    2.20466   0.82196    0.023
 3749.00    1.90069   0.73036    0.023
 3750.00    1.04652   0.69923    0.023
 3751.00   -0.01536   0.75570    0.000
 3752.00   -0.51108   0.85165    0.000
 3753.00   -0.82535   0.94003    0.000
 3754.00    0.24786   1.01761    0.021
 3755.00    1.69290   1.07797    0.022
 3756.00    2.22674   1.10865    0.022
 3757.00    2.56059   1.10693    0.022
 3758.00    2.07411   1.09569    0.021
 3759.00    1.44442   1.10160    0.021
 3760.00    1.06575   1.12161    0.021
 3761.00    0.72042   1.13724    0.021
 3762.00    0.48886   1.14191    0.021
 3763.00    0.26798   1.13172    0.021
 3764.00    0.33507   1.10986    0.021
 3765.00    0.41876   1.08194    0.020
 3766.00    0.24743   1.02961    0.020
 3767.00    0.07924   0.95935    0.020
 3768.00    1.02595   0.88941    0.021
 3769.00    1.91641   0.80971    0.021
 3770.00    1.44070   0.73452    0.020
 3771.00    1.00601   0.72746    0.020
 3772.00    1.10869   0.80276    0.020
 3773.00    1.22975   0.90026    0.019
 3774.00    1.51220   0.97814    0.019
 3775.00    1.67483   1.03723    0.020
 3776.00    1.06055   1.08733    0.019
 3777.00    0.56403   1.13282    0.018
 3778.00    0.66353   1.16803    0.019
 3779.00    0.85427   1.20091    0.019
 3780.00    1.41849   1.23390    0.019
 3781.00    1.62958   1.25347    0.020
 3782.00    0.64293   1.26007    0.020
 3783.00   -0.12289   1.26528    0.000
 3784.00   -0.25712   1.26673    0.000
 3785.00   -0.02052   1.24973    0.000
 3786.00    1.12213   1.21968    0.020
 3787.00    1.81910   1.19579    0.020
 3788.00    1.57675   1.17896    0.020
 3789.00    1.46984   1.16105    0.020
 3790.00    1.61102   1.13918    0.020
 3791.00    1.90177   1.11516    0.020
 3792.00    2.43192   1.08262    0.021
 3793.00    2.14817   1.02882    0.021
 3794.00    0.72118   0.95320    0.021
 3795.00   -0.01011   0.87174    0.000
 3796.00    0.11848   0.78549    0.020
 3797.00    0.18551   0.69882    0.019
 3798.00    0.18546   0.66037    0.020
 3799.00    0.49337   0.71017    0.020
 3800.00    1.09722   0.81532    0.020
 3801.00    1.37498   0.91639    0.021
 3802.00    1.37644   0.99608    0.021
 3803.00    1.29504   1.06446    0.021
 3804.00    1.15181   1.11317    0.020
 3805.00    1.22897   1.13190    0.020
 3806.00    1.45060   1.13461    0.020
 3807.00    1.98081   1.15570    0.020
 3808.00    2.68810   1.19947    0.021
 3809.00    2.85700   1.24154    0.020
 3810.00    2.75680   1.27078    0.020
 3811.00    2.12609   1.28129    0.020
 3812.00    1.26598   1.26909    0.019
 3813.00    1.37518   1.24394    0.020
 3814.00    1.84385   1.22616    0.020
 3815.00    1.85358   1.22064    0.020
 3816.00    1.71903   1.22368    0.020
 3817.00    1.05923   1.22613    0.019
 3818.00    0.26163   1.19291    0.018
 3819.00    0.42480   1.11626    0.018
 3820.00    0.79381   1.07956    0.018
 3821.00    1.26121   1.12683    0.019
 3822.00    1.74531   1.18820    0.019
 3823.00    1.39744   1.20535    0.019
 3824.00    0.94283   1.17857    0.018
 3825.00    0.82032   1.14466    0.019
 3826.00    0.72762   1.12282    0.019
 3827.00    0.97185   1.10133    0.020
 3828.00    1.23420   1.07262    0.020
 3829.00    1.09938   1.03853    0.020
 3830.00    0.95813   1.00023    0.020
 3831.00    0.94572   0.94342    0.020
 3832.00    0.94785   0.86018    0.021
 3833.00    1.27303   0.76895    0.020
 3834.00    1.56172   0.68184    0.020
 3835.00    1.39665   0.62590    0.020
 3836.00    1.24780   0.64342    0.020
 3837.00    1.23610   0.71424    0.021
 3838.00    1.16805   0.79295    0.021
 3839.00    0.74548   0.86911    0.020
 3840.00    0.39942   0.93620    0.020
 3841.00    0.43092   0.99792    0.020
 3842.00    0.61063   1.05940    0.020
 3843.00    1.38370   1.11116    0.020
 3844.00    1.97723   1.14679    0.020
 3845.00    1.97384   1.16949    0.020
 3846.00    1.82987   1.18834    0.020
 3847.00    1.29112   1.20936    0.000
 3848.00    1.13685   1.22503    0.000
 3849.00    1.90606   1.22490    0.000
 3850.00    2.47068   1.22281    0.000
 3851.00    2.61102   1.24019    0.000
 3852.00    2.59141   1.26284    0.000
 3853.00    2.28333   1.27009    0.000
 3854.00    1.79573   1.26274    0.000
 3855.00    1.02503   1.24832    0.000
 3856.00    0.58199   1.23734    0.000
 3857.00    0.59255   1.24784    0.000
 3858.00    0.81686   1.25646    0.000
 3859.00    1.30161   1.24394    0.000
 3860.00    1.58067   1.23680    0.000
 3861.00    1.63875   1.25388    0.000
 3862.00    1.68168   1.27081    0.000
 3863.00    1.71026   1.27502    0.000
 3864.00    1.43879   1.27449    0.000
 3865.00    0.91666   1.26875    0.000
 3866.00    0.53268   1.25633    0.000
 3867.00    0.25030   1.24262    0.000
 3868.00    0.08888   1.24717    0.000
 3869.00    0.00560   1.26213    0.000
 3870.00    0.35167   1.25048    0.000
 3871.00    0.94040   1.21021    0.000
 3872.00    1.09925   1.17666    0.000
 3873.00    1.04664   1.18129    0.000
 3874.00    0.84342   1.20500    0.000
 3875.00    0.57616   1.21299    0.000
 3876.00    0.75692   1.19680    0.000
 3877.00    1.10089   1.16551    0.000
 3878.00    1.26084   1.13102    0.000
 3879.00    1.36406   1.11729    0.000
 3880.00    1.11920   1.11802    0.000
 3881.00    0.78498   1.09606    0.019
 3882.00    1.04729   1.05057    0.019
 3883.00    1.43430   1.01269    0.020
 3884.00    1.05235   0.97872    0.019
 3885.00    0.54360   0.91628    0.019
 3886.00    0.68742   0.82817    0.019
 3887.00    0.91204   0.73726    0.019
 3888.00    0.57683   0.65217    0.019
 3889.00    0.19370   0.61155    0.019
 3890.00    0.18213   0.66020    0.019
 3891.00    0.18909   0.76219    0.019
 3892.00    0.96221   0.85774    0.019
 3893.00    1.73753   0.92792    0.019
 3894.00    1.84413   0.97829    0.019
 3895.00    1.92356   1.01645    0.018
 3896.00    1.44752   1.05496    0.018
 3897.00    0.98979   1.09452    0.017
 3898.00    0.74861   1.11459    0.017
 3899.00    0.57695   1.12130    0.017
 3900.00    0.97162   1.14084    0.017
 3901.00    1.28337   1.17323    0.016
 3902.00    1.08862   1.19299    0.016
 3903.00    0.86876   1.19843    0.016
 3904.00    0.52803   1.20435    0.016
 3905.00    0.32208   1.20040    0.015
 3906.00    0.64401   1.19679    0.015
 3907.00    0.93299   1.21709    0.016
 3908.00    1.11458   1.24823    0.016
 3909.00    1.19654   1.26932    0.016
 3910.00    1.00375   1.27712    0.017
 3911.00    0.89156   1.27774    0.017
 3912.00    0.96970   1.27304    0.017
 3913.00    1.02516   1.26445    0.018
 3914.00    1.03432   1.26065    0.018
 3915.00    0.75259   1.26587    0.018
 3916.00   -0.04582   1.26420    0.000
 3917.00   -0.02203   1.25581    0.000
 3918.00    1.27929   1.23802    0.019
 3919.00    2.09427   1.21157    0.020
 3920.00    2.24567   1.19387    0.020
 3921.00    1.98735   1.20119    0.020
 3922.00    1.23687   1.22519    0.019
 3923.00    0.59170   1.23590    0.019
 3924.00    0.05806   1.23267    0.019
 3925.00    0.10746   1.21601    0.019
 3926.00    0.70153   1.18380    0.019
 3927.00    0.91413   1.16444    0.019
 3928.00    0.81255   1.15861    0.019
 3929.00    0.48865   1.14480    0.019
 3930.00    0.00357   1.12560    0.019
 3931.00    0.26192   1.09561    0.019
 3932.00    0.99339   1.04123    0.019
 3933.00    1.00228   0.97882    0.019
 3934.00    0.60904   0.96382    0.019
 3935.00    0.78664   1.01100    0.019
 3936.00    1.24057   1.07758    0.019
 3937.00    1.02626   1.12909    0.019
 3938.00    0.53258   1.16153    0.019
 3939.00    0.38165   1.18421    0.019
 3940.00    0.35332   1.20303    0.018
 3941.00    0.88318   1.21008    0.018
 3942.00    1.58175   1.20655    0.018
 3943.00    1.45238   1.19600    0.018
 3944.00    1.11506   1.18670    0.018
 3945.00    0.89420   1.19765    0.018
 3946.00    0.69709   1.21898    0.018
 3947.00    1.04646   1.22144    0.018
 3948.00    1.48335   1.21047    0.018
 3949.00    1.30442   1.20702    0.018
 3950.00    1.05196   1.21267    0.018
 3951.00    0.95081   1.21184    0.018
 3952.00    0.86199   1.19834    0.018
 3953.00    0.84579   1.18696    0.018
 3954.00    0.83294   1.18727    0.018
 3955.00    1.14406   1.17968    0.018
 3956.00    1.45845   1.15616    0.018
 3957.00    1.72756   1.13784    0.018
 3958.00    1.97790   1.13482    0.018
 3959.00    1.87250   1.13080    0.018
 3960.00    1.74997   1.10249    0.000
 3961.00    1.43432   1.04797    0.000
 3962.00    1.15007   0.99921    0.000
 3963.00    1.11262   0.96086    0.000
 3964.00    1.04047   0.90835    0.000
 3965.00    0.76243   0.84906    0.000
 3966.00    0.63899   0.78806    0.000
 3967.00    1.24147   0.70791    0.000
 3968.00    1.61798   0.61509    0.000
 3969.00    1.12855   0.53901    0.000
 3970.00    0.82582   0.51783    0.000
 3971.00    1.11983   0.57195    0.000
 3972.00    1.36753   0.66370    0.000
 3973.00    1.48985   0.75041    0.000
 3974.00    1.49039   0.82925    0.000
 3975.00    1.20817   0.90088    0.000
 3976.00    0.89153   0.95608    0.000
 3977.00    0.50573   0.99991    0.000
 3978.00    0.57646   1.04148    0.000
 3979.00    1.44576   1.07857    0.000
 3980.00    1.95538   1.10737    0.000
 3981.00    1.91436   1.12018    0.018
 3982.00    1.84346   1.12015    0.018
 3983.00    1.73238   1.12641    0.018
 3984.00    1.58488   1.14584    0.018
 3985.00    1.39424   1.16656    0.018
 3986.00    1.43373   1.17897    0.018
 3987.00    1.71351   1.19116    0.018
 3988.00    1.50375   1.20701    0.017
 3989.00    0.84308   1.21238    0.017
 3990.00    0.45772   1.21029    0.017
 3991.00    0.29587   1.21741    0.017
 3992.00    0.67247   1.23107    0.017
 3993.00    1.43378   1.23799    0.017
 3994.00    1.74154   1.22961    0.017
 3995.00    1.76492   1.21749    0.017
 3996.00    1.56598   1.21080    0.017
 3997.00    1.24521   1.20474    0.017
 3998.00    1.02826   1.20581    0.017
 3999.00    0.86077   1.22488    0.016
 4000.00    0.75380   1.24449    0.017
 4001.00    0.67171   1.24804    0.017
 4002.00    0.75347   1.24552    0.017
 4003.00    0.89277   1.24357    0.017
 4004.00    1.25947   1.22610    0.017
 4005.00    1.69355   1.19530    0.017
 4006.00    1.81832   1.18600    0.017
 4007.00    1.86711   1.19918    0.017
 4008.00    1.94698   1.20003    0.017
 4009.00    2.03303   1.18790    0.017
 4010.00    1.55995   1.19592    0.017
 4011.00    1.00000   1.22106    0.017
 4012.00    1.30095   1.23494    0.018
 4013.00    1.70088   1.23989    0.018
 4014.00    1.24936   1.24421    0.017
 4015.00    0.73201   1.25048    0.017
 4016.00    1.18254   1.25219    0.017
 4017.00    1.67383   1.24512    0.018
 4018.00    1.03822   1.24536    0.018
 4019.00    0.42513   1.25824    0.017
 4020.00    1.24929   1.26271    0.018
 4021.00    2.01284   1.25001    0.018
 4022.00    1.70748   1.23485    0.018
 4023.00    1.45750   1.21573    0.018
 4024.00    1.80337   1.17615    0.018
 4025.00    2.08194   1.12498    0.018
 4026.00    1.84967   1.10332    0.018
 4027.00    1.54206   1.13957    0.017
 4028.00    0.79986   1.19335    0.017
 4029.00    0.22313   1.21337    0.017
 4030.00    0.40471   1.19977    0.017
 4031.00    0.63740   1.18381    0.017
 4032.00    1.06177   1.18228    0.017
 4033.00    1.28712   1.18708    0.017
 4034.00    0.88853   1.19514    0.016
 4035.00    0.59784   1.20877    0.016
 4036.00    0.59419   1.23209    0.016
 4037.00    0.57233   1.25702    0.016
 4038.00    0.50892   1.26680    0.016
 4039.00    0.52238   1.25937    0.017
 4040.00    0.68782   1.24412    0.017
 4041.00    0.84063   1.23392    0.017
 4042.00    0.97165   1.23689    0.017
 4043.00    0.87450   1.23321    0.017
 4044.00    0.43314   1.20180    0.017
 4045.00    0.16513   1.16267    0.017
 4046.00    0.12691   1.15615    0.016
 4047.00    0.41132   1.18966    0.016
 4048.00    1.07239   1.22095    0.017
 4049.00    1.25804   1.23019    0.017
 4050.00    0.95424   1.23445    0.016
 4051.00    0.76399   1.23622    0.016
 4052.00    0.67687   1.22693    0.016
 4053.00    0.71220   1.21173    0.016
 4054.00    0.84552   1.19865    0.016
 4055.00    1.02087   1.19455    0.016
 4056.00    1.22581   1.19637    0.016
 4057.00    1.38166   1.19132    0.016
 4058.00    1.50718   1.18600    0.016
 4059.00    1.35644   1.19374    0.016
 4060.00    1.05663   1.20675    0.016
 4061.00    0.88558   1.20720    0.017
 4062.00    0.77487   1.18459    0.017
 4063.00    0.96471   1.15177    0.017
 4064.00    1.27596   1.14497    0.017
 4065.00    1.53153   1.16831    0.017
 4066.00    1.76790   1.17988    0.017
 4067.00    1.63535   1.17264    0.017
 4068.00    1.39568   1.17609    0.017
 4069.00    1.09063   1.18481    0.017
 4070.00    0.76988   1.17193    0.017
 4071.00    1.03077   1.14261    0.017
 4072.00    1.40436   1.13171    0.017
 4073.00    1.48431   1.15397    0.017
 4074.00    1.52002   1.16769    0.018
 4075.00    1.57872   1.14529    0.017
 4076.00    1.63998   1.11059    0.017
 4077.00    1.26392   1.09007    0.017
 4078.00    0.85584   1.09412    0.016
 4079.00    0.50688   1.11936    0.017
 4080.00    0.16017   1.14961    0.017
 4081.00    0.35383   1.16677    0.017
 4082.00    0.55661   1.16169    0.017
 4083.00    0.99043   1.14154    0.017
 4084.00    1.41968   1.12013    0.017
 4085.00    1.77379   1.10855    0.017
 4086.00    2.06423   1.11052    0.017
 4087.00    1.69955   1.11713    0.017
 4088.00    1.39107   1.11480    0.017
 4089.00    1.49512   1.10322    0.017
 4090.00    1.51179   1.09298    0.017
 4091.00    1.03836   1.08000    0.017
 4092.00    0.57191   1.05692    0.000
 4093.00    0.13674   1.03472    0.000
 4094.00   -0.09263   1.01363    0.000
 4095.00    0.43386   0.97374    0.000
 4096.00    0.98827   0.92046    0.000
 4097.00    1.62856   0.87230    0.000
 4098.00    1.92389   0.82736    0.000
 4099.00    1.31759   0.77029    0.000
 4100.00    0.81557   0.68740    0.000
 4101.00    0.54773   0.59914    0.000
 4102.00    0.48924   0.57465    0.000
 4103.00    0.83813   0.63619    0.000
 4104.00    1.10167   0.72484    0.000
 4105.00    1.22037   0.80132    0.000
 4106.00    1.31006   0.86377    0.000
 4107.00    1.35664   0.90983    0.000
 4108.00    1.43952   0.94235    0.000
 4109.00    1.56981   0.96580    0.000
 4110.00    1.40903   0.98312    0.000
 4111.00    0.91323   1.00097    0.000
 4112.00    0.70591   1.02495    0.000
 4113.00    0.79145   1.05026    0.015
 4114.00    1.04513   1.06908    0.014
 4115.00    1.44936   1.08040    0.014
 4116.00    1.45308   1.09030    0.014
 4117.00    1.14082   1.09589    0.014
 4118.00    1.17532   1.08515    0.014
 4119.00    1.45045   1.06550    0.014
 4120.00    1.57748   1.05442    0.014
 4121.00    1.61441   1.06039    0.014
 4122.00    1.50069   1.08068    0.015
 4123.00    1.30694   1.10225    0.015
 4124.00    1.39601   1.12088    0.023
 4125.00    1.61548   1.13464    0.104
 4126.00    1.71770   1.13192   -1.000
 4127.00    1.77337   1.11138   -1.000
 4128.00    1.33880   1.09238   -1.000
 4129.00    0.73831   1.09235   -1.000
 4130.00    0.58523   1.09151   -1.000
 4131.00    0.55945   1.07980   -1.000
 4132.00    1.03914   1.07237    0.037
 4133.00    1.63749   1.08017    0.016
 4134.00    1.62728   1.09835    0.015
 4135.00    1.50220   1.12160    0.015
 4136.00    1.12478   1.13893    0.015
 4137.00    0.71052   1.14063    0.015
 4138.00    1.03192   1.14249    0.015
 4139.00    1.43149   1.14966    0.016
 4140.00    0.84166   1.15048    0.016
 4141.00    0.18339   1.13498    0.015
 4142.00    0.25275   1.08759    0.015
 4143.00    0.34721   1.02287    0.015
 4144.00    0.70157   1.00735    0.015
 4145.00    1.05142   1.05656    0.016
 4146.00    1.23563   1.10588    0.016
 4147.00    1.40099   1.12646    0.015
 4148.00    1.27484   1.12945    0.015
 4149.00    1.15110   1.12081    0.015
 4150.00    1.05117   1.11340    0.015
 4151.00    0.98125   1.11693    0.016
 4152.00    1.12428   1.11594    0.015
 4153.00    1.19981   1.10531    0.015
 4154.00    0.90686   1.09805    0.015
 4155.00    0.62060   1.09893    0.015
 4156.00    0.36364   1.10072    0.015
 4157.00    0.17314   1.10506    0.015
 4158.00    0.22171   1.11771    0.015
 4159.00    0.41198   1.12965    0.015
 4160.00    1.02984   1.13191    0.015
 4161.00    1.37201   1.12740    0.015
 4162.00    1.00622   1.12626    0.015
 4163.00    0.66581   1.12908    0.014
 4164.00    0.38147   1.12922    0.015
 4165.00    0.30848   1.12724    0.015
 4166.00    0.64034   1.12174    0.015
 4167.00    0.91072   1.11089    0.015
 4168.00    1.07836   1.10282    0.014
 4169.00    1.00882   1.10701    0.014
 4170.00    0.59184   1.11101    0.014
 4171.00    0.36344   1.09491    0.014
 4172.00    0.37792   1.06528    0.014
 4173.00    0.53943   1.05155    0.014
 4174.00    0.86779   1.06245    0.014
 4175.00    0.90606   1.08033    0.014
 4176.00    0.65399   1.08792    0.014
 4177.00    0.60895   1.08030    0.014
 4178.00    0.74665   1.07096    0.014
 4179.00    0.92415   1.07897    0.014
 4180.00    1.13259   1.09695    0.014
 4181.00    0.92608   1.10046    0.014
 4182.00    0.43579   1.09234    0.014
 4183.00    0.45022   1.09113    0.014
 4184.00    0.76718   1.09600    0.014
 4185.00    0.92890   1.10076    0.014
 4186.00    1.00943   1.09426    0.014
 4187.00    1.13497   1.07595    0.014
 4188.00    1.28092   1.07157    0.014
 4189.00    1.22257   1.08370    0.014
 4190.00    1.08450   1.09256    0.014
 4191.00    0.92177   1.09382    0.014
 4192.00    0.75085   1.10064    0.014
 4193.00    0.68015   1.11573    0.014
 4194.00    0.63739   1.11758    0.014
 4195.00    0.75185   1.09944    0.014
 4196.00    0.90238   1.08089    0.014
 4197.00    1.03708   1.06853    0.014
 4198.00    1.16888   1.05334    0.014
 4199.00    1.00397   1.04826    0.014
 4200.00    0.79710   1.05803    0.014
 4201.00    0.99225   1.06031    0.014
 4202.00    1.22838   1.05668    0.014
 4203.00    0.80219   1.06308    0.014
 4204.00    0.33286   1.07097    0.014
 4205.00    0.46808   1.07497    0.014
 4206.00    0.62161   1.08401    0.014
 4207.00    0.60284   1.09445    0.014
 4208.00    0.59722   1.09932    0.014
 4209.00    0.97821   1.09546    0.014
 4210.00    1.33721   1.08900    0.015
 4211.00    1.37606   1.09178    0.014
 4212.00    1.35123   1.09936    0.014
 4213.00    0.72428   1.09851    0.014
 4214.00    0.22955   1.08267    0.014
 4215.00    0.64374   1.05443    0.014
 4216.00    0.99817   1.04419    0.014
 4217.00    1.03496   1.06495    0.014
 4218.00    1.06028   1.08855    0.014
 4219.00    1.03666   1.09814    0.014
 4220.00    0.95353   1.09993    0.014
 4221.00    0.66070   1.09881    0.014
 4222.00    0.53245   1.08811    0.014
 4223.00    0.89158   1.07046    0.014
 4224.00    1.07368   1.04661    0.014
 4225.00    0.80901   1.01343    0.014
 4226.00    0.67311   0.97835    0.014
 4227.00    0.81703   0.97043    0.014
 4228.00    0.87225   1.00803    0.014
 4229.00    0.76020   1.05546    0.014
 4230.00    0.64865   1.07957    0.013
 4231.00    0.53793   1.08414    0.013
 4232.00    0.53109   1.06814    0.013
 4233.00    0.67421   1.04315    0.013
 4234.00    0.79178   1.03956    0.013
 4235.00    0.87689   1.04567    0.013
 4236.00    1.04142   1.03961    0.013
 4237.00    1.29479   1.03908    0.013
 4238.00    1.41743   1.04538    0.013
 4239.00    1.41107   1.04771    0.013
 4240.00    1.27264   1.05331    0.013
 4241.00    1.01930   1.06131    0.013
 4242.00    1.02789   1.06204    0.013
 4243.00    1.23729   1.06619    0.014
 4244.00    1.26320   1.07995    0.014
 4245.00    1.16545   1.08236    0.014
 4246.00    1.18815   1.06326    0.014
 4247.00    1.28198   1.04295    0.014
 4248.00    1.24653   1.03822    0.014
 4249.00    1.14451   1.03552    0.014
 4250.00    1.00068   1.02383    0.014
 4251.00    0.83819   1.02399    0.014
 4252.00    0.72077   1.03754    0.014
 4253.00    0.62063   1.03535    0.014
 4254.00    0.37423   1.02054    0.013
 4255.00    0.08018   1.02241    0.013
 4256.00    0.34051   1.04306    0.013
 4257.00    0.75218   1.05808    0.014
 4258.00    0.96986   1.04946    0.014
 4259.00    1.14407   1.02754    0.014
 4260.00    0.79925   1.00849    0.013
 4261.00    0.36159   1.00641    0.013
 4262.00    0.49968   1.02811    0.014
 4263.00    0.71654   1.05502    0.014
 4264.00    0.68948   1.06819    0.014
 4265.00    0.63858   1.06779    0.013
 4266.00    0.57809   1.04911    0.013
 4267.00    0.51701   1.02053    0.013
 4268.00    0.46521   1.01423    0.013
 4269.00    0.41573   1.02203    0.013
 4270.00    0.77150   1.01076    0.013
 4271.00    1.10441   0.98226    0.013
 4272.00    0.83290   0.96973    0.013
 4273.00    0.59893   0.98153    0.013
 4274.00    0.88100   0.98725    0.013
 4275.00    1.14305   0.98708    0.013
 4276.00    1.22315   1.00210    0.013
 4277.00    1.25316   1.02526    0.013
 4278.00    0.94941   1.03955    0.013
 4279.00    0.74516   1.03801    0.013
 4280.00    1.05593   1.02573    0.013
 4281.00    1.32618   1.01616    0.013
 4282.00    1.42732   1.01034   -2.000
 4283.00    1.49027   1.00873   -2.000
 4284.00    1.42135   1.00953   -2.000
 4285.00    1.36203   1.00454   -2.000
 4286.00    1.33055   1.00166   -2.000
 4287.00    1.23806   1.00280   -2.000
 4288.00    0.99422   0.99123   -2.000
 4289.00    0.85774   0.96323   -2.000
 4290.00    0.95079   0.94469   -2.000
 4291.00    1.01224   0.95920   -2.000
 4292.00    1.01502   0.99058   -2.000
 4293.00    0.96599   1.00447   -2.000
 4294.00    0.83294   0.99257   -2.000
 4295.00    0.75115   0.98254   -2.000
 4296.00    0.74226   0.98230   -2.000
 4297.00    0.73960   0.97756   -2.000
 4298.00    0.74472   0.96082    0.013
 4299.00    0.65677   0.93123    0.013
 4300.00    0.46615   0.91252    0.013
 4301.00    0.52467   0.91740    0.013
 4302.00    0.82560   0.92025    0.013
 4303.00    0.85421   0.91872    0.013
 4304.00    0.64918   0.92908    0.013
 4305.00    0.80349   0.93890    0.013
 4306.00    1.22936   0.93590    0.013
 4307.00    0.98039   0.91956    0.013
 4308.00    0.28328   0.90102    0.013
 4309.00    0.20414   0.90177    0.013
 4310.00    0.48437   0.92076    0.013
 4311.00    0.59775   0.93976    0.013
 4312.00    0.62656   0.94673    0.013
 4313.00    0.54665   0.94267    0.013
 4314.00    0.41901   0.93917    0.013
 4315.00    0.63801   0.95397    0.013
 4316.00    0.98757   0.98499    0.013
 4317.00    1.07747   1.00474    0.013
 4318.00    1.08435   1.00352    0.013
 4319.00    0.95835   0.99223    0.013
 4320.00    0.79683   0.97971    0.013
 4321.00    0.83443   0.97175    0.013
 4322.00    0.91561   0.96774    0.013
 4323.00    0.83299   0.95033    0.013
 4324.00    0.72188   0.91383    0.013
 4325.00    0.83369   0.87402    0.014
 4326.00    0.97497   0.86083    0.014
 4327.00    0.82886   0.88709    0.013
 4328.00    0.65589   0.91989    0.013
 4329.00    0.85878   0.92677    0.013
 4330.00    1.08316   0.90983    0.000
 4331.00    1.10320   0.89032    0.000
 4332.00    1.11662   0.87638    0.000
 4333.00    0.91420   0.86124    0.000
 4334.00    0.73275   0.84387    0.000
 4335.00    1.05494   0.82241    0.000
 4336.00    1.35566   0.78005    0.000
 4337.00    1.37689   0.71029    0.000
 4338.00    1.36340   0.63607    0.000
 4339.00    1.04664   0.56579    0.000
 4340.00    0.77042   0.50819    0.000
 4341.00    0.75600   0.51451    0.000
 4342.00    0.74033   0.58735    0.000
 4343.00    0.71839   0.66146    0.000
 4344.00    0.74756   0.71177    0.000
 4345.00    0.98537   0.75545    0.000
 4346.00    1.11681   0.79180    0.000
 4347.00    0.88839   0.81762    0.000
 4348.00    0.82021   0.84481    0.000
 4349.00    1.20926   0.87028    0.000
 4350.00    1.37651   0.87249    0.000
 4351.00    1.00300   0.84896    0.013
 4352.00    0.69403   0.83767    0.013
 4353.00    0.52079   0.86371    0.013
 4354.00    0.56638   0.89865    0.013
 4355.00    1.01203   0.92032    0.013
 4356.00    1.20712   0.93782    0.013
 4357.00    1.00188   0.94941    0.013
 4358.00    0.94074   0.94546    0.013
 4359.00    1.08160   0.93693    0.013
 4360.00    1.10325   0.94264    0.017
 4361.00    0.97780   0.95869    0.050
 4362.00    0.94514   0.97020   -1.000
 4363.00    1.01338   0.97500   -1.000
 4364.00    0.97407   0.98238   -1.000
 4365.00    0.83158   0.99011   -1.000
 4366.00    0.83445   0.98143   -1.000
 4367.00    0.96029   0.96030 1356.876
 4368.00    0.95206   0.94899    0.043
 4369.00    0.84397   0.95292    0.016
 4370.00    0.88429   0.95922    0.013
 4371.00    1.02172   0.96367    0.013
 4372.00    0.98446   0.96475    0.013
 4373.00    0.84716   0.95492    0.013
 4374.00    0.95197   0.93331    0.013
 4375.00    1.17756   0.92103    0.013
 4376.00    1.38399   0.93586    0.013
 4377.00    1.58216   0.96417    0.013
 4378.00    1.36790   0.98061    0.013
 4379.00    1.00105   0.97978    0.013
 4380.00    0.88558   0.97384    0.013
 4381.00    0.84895   0.96554    0.013
 4382.00    0.65957   0.93760    0.013
 4383.00    0.43022   0.88800    0.013
 4384.00    0.48998   0.85650    0.012
 4385.00    0.61151   0.86908    0.012
 4386.00    0.92820   0.89601    0.012
 4387.00    1.27790   0.89578    0.012
 4388.00    1.04525   0.88785    0.012
 4389.00    0.73820   0.90343    0.012
 4390.00    0.90049   0.92251    0.012
 4391.00    1.10467   0.93424    0.012
 4392.00    0.99412   0.95003    0.012
 4393.00    0.86681   0.95674    0.012
 4394.00    0.71209   0.94342    0.012
 4395.00    0.55958   0.93003    0.012
 4396.00    0.63051   0.94349    0.012
 4397.00    0.70160   0.97028    0.012
 4398.00    0.77615   0.97752    0.012
 4399.00    0.84128   0.96176    0.012
 4400.00    0.79015   0.93980    0.012
 4401.00    0.73150   0.93680    0.012
 4402.00    0.60960   0.95381    0.012
 4403.00    0.50772   0.95378    0.012
 4404.00    0.53127   0.92417    0.012
 4405.00    0.53845   0.90670    0.012
 4406.00    0.46516   0.92169    0.012
 4407.00    0.42886   0.93486    0.012
 4408.00    0.54025   0.93163    0.012
 4409.00    0.60332   0.93678    0.012
 4410.00    0.50619   0.95442    0.012
 4411.00    0.48739   0.96742    0.012
 4412.00    0.68802   0.97559    0.012
 4413.00    0.85900   0.97222    0.012
 4414.00    0.95893   0.94123    0.012
 4415.00    1.01896   0.90612    0.012
 4416.00    0.99644   0.89916    0.012
 4417.00    1.06844   0.91222    0.012
 4418.00    1.31058   0.93309    0.012
 4419.00    1.32688   0.95790    0.012
 4420.00    0.98769   0.97135    0.012
 4421.00    0.74408   0.96485    0.012
 4422.00    0.63256   0.94665    0.012
 4423.00    0.71386   0.93983    0.012
 4424.00    1.02967   0.94798    0.012
 4425.00    1.18049   0.95262    0.012
 4426.00    1.15437   0.94730    0.012
 4427.00    1.19161   0.94163    0.012
 4428.00    1.28876   0.94525    0.012
 4429.00    1.28766   0.94742    0.012
 4430.00    1.20465   0.93727    0.012
 4431.00    1.17101   0.93455    0.012
 4432.00    1.17363   0.94221    0.012
 4433.00    1.00149   0.93664    0.012
 4434.00    0.71668   0.91664    0.012
 4435.00    0.81288   0.90120    0.012
 4436.00    1.12398   0.90468    0.012
 4437.00    0.96048   0.92368    0.012
 4438.00    0.56399   0.94744    0.012
 4439.00    0.49242   0.96516    0.012
 4440.00    0.55872   0.96289    0.012
 4441.00    0.79641   0.94074    0.012
 4442.00    1.09638   0.91410    0.012
 4443.00    1.09936   0.89901    0.012
 4444.00    1.01101   0.90852    0.012
 4445.00    0.88153   0.93579    0.012
 4446.00    0.74152   0.95053    0.012
 4447.00    0.84856   0.94541    0.012
 4448.00    1.00710   0.94330    0.012
 4449.00    1.19574   0.94518    0.012
 4450.00    1.38933   0.93870    0.012
 4451.00    1.11161   0.93540    0.012
 4452.00    0.77579   0.93860    0.012
 4453.00    0.65177   0.93258    0.012
 4454.00    0.54576   0.91127    0.012
 4455.00    1.00081   0.89116    0.012
 4456.00    1.48355   0.89273    0.012
 4457.00    1.50291   0.90429    0.012
 4458.00    1.51407   0.90649    0.012
 4459.00    1.47369   0.90266    0.012
 4460.00    1.42824   0.90000    0.012
 4461.00    1.28004   0.89338    0.000
 4462.00    1.11445   0.89111    0.000
 4463.00    0.74442   0.90634    0.000
 4464.00    0.43391   0.92001    0.000
 4465.00    0.60614   0.91854    0.000
 4466.00    0.76128   0.91264    0.000
 4467.00    0.81241   0.90635    0.000
 4468.00    0.88137   0.89351    0.000
 4469.00    1.03579   0.87470    0.000
 4470.00    1.17068   0.85210    0.000
 4471.00    1.22927   0.83404    0.000
 4472.00    1.24615   0.84785    0.000
 4473.00    1.12745   0.89186    0.000
 4474.00    1.03865   0.92561    0.000
 4475.00    1.03212   0.93437    0.000
 4476.00    1.01902   0.93771    0.000
 4477.00    0.99042   0.94670    0.000
 4478.00    1.04193   0.94798    0.000
 4479.00    1.25658   0.92650    0.000
 4480.00    1.42269   0.88191    0.000
 4481.00    1.50273   0.84491    0.000
 4482.00    1.35451   0.85250    0.012
 4483.00    0.85229   0.89333    0.012
 4484.00    0.65775   0.92704    0.012
 4485.00    0.88227   0.94324    0.012
 4486.00    0.87502   0.94744    0.012
 4487.00    0.58986   0.93977    0.012
 4488.00    0.57198   0.91914    0.012
 4489.00    0.83667   0.89934    0.012
 4490.00    1.00358   0.89524    0.012
 4491.00    1.07929   0.90672    0.012
 4492.00    0.99691   0.92164    0.012
 4493.00    0.78458   0.92401    0.012
 4494.00    0.73927   0.91055    0.012
 4495.00    0.81483   0.89949    0.012
 4496.00    0.92691   0.90083    0.012
 4497.00    1.06218   0.91078    0.012
 4498.00    1.09235   0.92414    0.012
 4499.00    1.06416   0.93191    0.012
 4500.00    0.94546   0.92508    0.012
 4501.00    0.78303   0.91106    0.012
 4502.00    1.04104   0.91471    0.012
 4503.00    1.47444   0.93744    0.012
 4504.00    1.27339   0.95363    0.012
 4505.00    0.84591   0.95353    0.012
 4506.00    0.81927   0.94408    0.012
 4507.00    0.91350   0.93127    0.012
 4508.00    0.84669   0.92281    0.012
 4509.00    0.73956   0.92570    0.012
 4510.00    0.99804   0.93485    0.012
 4511.00    1.33085   0.93654    0.011
 4512.00    1.36319   0.92663    0.012
 4513.00    1.34759   0.91531    0.012
 4514.00    1.13505   0.90571    0.012
 4515.00    0.89910   0.90112    0.011
 4516.00    0.92824   0.90605    0.012
 4517.00    0.97883   0.90943    0.012
 4518.00    1.07803   0.90687    0.012
 4519.00    1.17945   0.90802    0.012
 4520.00    1.21007   0.91340    0.012
 4521.00    1.23618   0.91545    0.012
 4522.00    1.07701   0.90396    0.011
 4523.00    0.92801   0.89048    0.011
 4524.00    0.96976   0.88916    0.011
 4525.00    0.97984   0.88724    0.012
 4526.00    0.63507   0.87851    0.011
 4527.00    0.37032   0.86691    0.011
 4528.00    0.73183   0.85379    0.011
 4529.00    1.05684   0.84776    0.012
 4530.00    1.16601   0.85480    0.012
 4531.00    1.24396   0.86768    0.012
 4532.00    1.17574   0.87707    0.011
 4533.00    1.12669   0.86886    0.011
 4534.00    1.15095   0.85003    0.011
 4535.00    1.15511   0.84624    0.012
 4536.00    1.09522   0.86760    0.012
 4537.00    1.06908   0.89929    0.012
 4538.00    1.13416   0.91379    0.011
 4539.00    1.09898   0.90648    0.011
 4540.00    0.83149   0.89095    0.012
 4541.00    0.65761   0.88170    0.012
 4542.00    0.67140   0.88779    0.012
 4543.00    0.68207   0.89711    0.012
 4544.00    0.68728   0.89266    0.011
 4545.00    0.70150   0.88327    0.011
 4546.00    0.72945   0.88346    0.011
 4547.00    0.71531   0.88540    0.011
 4548.00    0.64466   0.87314    0.011
 4549.00    0.63998   0.85061    0.011
 4550.00    0.71328   0.84838    0.000
 4551.00    0.92082   0.86621    0.000
 4552.00    1.26828   0.86940    0.000
 4553.00    1.33641   0.85974    0.000
 4554.00    1.14774   0.85176    0.000
 4555.00    1.00576   0.84782    0.000
 4556.00    0.90163   0.85776    0.000
 4557.00    0.82923   0.87871    0.000
 4558.00    0.77946   0.89023    0.000
 4559.00    0.72920   0.89263    0.000
 4560.00    0.67864   0.89643    0.000
 4561.00    0.82985   0.90048    0.000
 4562.00    1.09142   0.89727    0.000
 4563.00    0.96519   0.88058    0.000
 4564.00    0.65462   0.86292    0.000
 4565.00    0.59978   0.86027    0.000
 4566.00    0.64982   0.87089    0.000
 4567.00    0.77360   0.88456    0.000
 4568.00    0.92322   0.89317    0.000
 4569.00    0.92101   0.89570    0.000
 4570.00    0.87394   0.88814    0.000
 4571.00    0.86904   0.86785    0.000
 4572.00    0.87447   0.85937    0.000
 4573.00    0.82943   0.87482    0.000
 4574.00    0.77438   0.88612    0.000
 4575.00    0.99044   0.88346    0.000
 4576.00    1.24846   0.88235    0.000
 4577.00    1.10995   0.88421    0.000
 4578.00    0.92606   0.88027    0.000
 4579.00    0.83619   0.86734    0.000
 4580.00    0.75354   0.85431    0.000
 4581.00    1.02151   0.85057    0.000
 4582.00    1.30408   0.85268    0.000
 4583.00    1.12089   0.85039    0.000
 4584.00    0.93416   0.84766    0.000
 4585.00    0.76938   0.85173    0.000
 4586.00    0.62794   0.85728    0.000
 4587.00    0.89460   0.86296    0.000
 4588.00    1.12912   0.86949    0.000
 4589.00    1.01974   0.87347    0.000
 4590.00    0.92236   0.86924    0.000
 4591.00    0.91576   0.85808    0.000
 4592.00    0.89999   0.85074    0.000
 4593.00    0.83161   0.85287    0.000
 4594.00    0.80649   0.85617    0.000
 4595.00    0.97910   0.85251    0.000
 4596.00    1.11943   0.84984    0.000
 4597.00    1.13900   0.85428    0.000
 4598.00    1.13449   0.86085    0.000
 4599.00    1.05467   0.86319    0.000
 4600.00    1.01309   0.85618    0.000
 4601.00    1.07304   0.84806    0.000
 4602.00    1.12818   0.84951    0.000
 4603.00    1.17237   0.85497    0.000
 4604.00    1.13042   0.85763    0.000
 4605.00    0.91854   0.85535    0.000
 4606.00    0.76602   0.85499    0.000
 4607.00    0.71559   0.86167    0.000
 4608.00    0.73605   0.87295    0.000
 4609.00    0.86326   0.88058    0.000
 4610.00    0.93008   0.87906    0.000
 4611.00    0.91697   0.87192    0.000
 4612.00    0.85622   0.86550    0.000
 4613.00    0.73996   0.86094    0.000
 4614.00    0.83536   0.86209    0.000
 4615.00    1.14829   0.86648    0.000
 4616.00    1.15584   0.86481    0.000
 4617.00    0.88658   0.86271    0.000
 4618.00    0.75750   0.85619    0.000
 4619.00    0.74041   0.84502    0.000
 4620.00    0.60401   0.84694    0.000
 4621.00    0.38375   0.85916    0.000
 4622.00    0.44806   0.86502    0.000
 4623.00    0.68784   0.86695    0.000
 4624.00    0.82394   0.86729    0.000
 4625.00    0.90421   0.86261    0.000
 4626.00    1.02654   0.85812    0.000
 4627.00    1.16854   0.85879    0.000
 4628.00    1.10391   0.85497    0.000
 4629.00    0.95598   0.84409    0.000
 4630.00    0.89803   0.84296    0.000
 4631.00    0.87103   0.85479    0.000
 4632.00    0.89148   0.85923    0.000
 4633.00    0.92568   0.84897    0.000
 4634.00    1.07457   0.83927    0.000
 4635.00    1.25093   0.83978    0.000
 4636.00    1.19695   0.84302    0.000
 4637.00    1.09848   0.83841    0.000
 4638.00    0.98921   0.82961    0.000
 4639.00    0.87832   0.82495    0.000
 4640.00    0.73412   0.82487    0.000
 4641.00    0.58625   0.83050    0.000
 4642.00    0.99710   0.83718    0.000
 4643.00    1.44858   0.83925    0.000
 4644.00    1.20784   0.83838    0.000
 4645.00    0.94094   0.83094    0.000
 4646.00    0.96823   0.81276    0.000
 4647.00    0.98997   0.79750    0.000
 4648.00    0.75067   0.79560    0.000
 4649.00    0.53471   0.80293    0.000
 4650.00    0.70028   0.81282    0.000
 4651.00    0.83215   0.82249    0.000
 4652.00    0.61910   0.83192    0.000
 4653.00    0.45705   0.83636    0.000
 4654.00    0.66765   0.82789    0.000
 4655.00    0.83413   0.81739    0.000
 4656.00    0.75387   0.81526    0.000
 4657.00    0.71000   0.82247    0.000
 4658.00    0.82851   0.83951    0.000
 4659.00    0.93534   0.85600    0.000
 4660.00    0.99937   0.85976    0.000
 4661.00    1.01123   0.84854    0.000
 4662.00    0.86297   0.83366    0.000
 4663.00    0.81407   0.82432    0.000
 4664.00    1.02426   0.82277    0.000
 4665.00    1.13738   0.82043    0.000
 4666.00    1.03297   0.80367    0.000
 4667.00    0.98418   0.78113    0.000
 4668.00    1.04341   0.77618    0.000
 4669.00    1.12243   0.78990    0.000
 4670.00    1.23495   0.80834    0.000
 4671.00    1.21776   0.82254    0.000
 4672.00    1.00810   0.82553    0.000
 4673.00    0.91480   0.81968    0.000
 4674.00    0.97329   0.81691    0.000
 4675.00    0.95396   0.82092    0.000
 4676.00    0.84523   0.82798    0.000
 4677.00    0.82878   0.82958    0.000
 4678.00    0.90583   0.82225    0.000
 4679.00    0.96205   0.81295    0.000
 4680.00    0.99966   0.80767    0.000
 4681.00    0.97100   0.80499    0.000
 4682.00    0.89014   0.80687    0.000
 4683.00    0.84276   0.81414    0.000
 4684.00    0.81858   0.81823    0.000
 4685.00    0.90174   0.81575    0.000
 4686.00    1.05010   0.81294    0.000
 4687.00    0.97458   0.81222    0.000
 4688.00    0.78037   0.81310    0.000
 4689.00    0.88759   0.81468    0.000
 4690.00    1.13351   0.81296    0.000
 4691.00    1.13844   0.80851    0.000
 4692.00    1.04789   0.80886    0.000
 4693.00    1.09752   0.81307    0.000
 4694.00    1.19447   0.81747    0.000
 4695.00    1.12273   0.82319    0.000
 4696.00    1.00311   0.82664    0.000
 4697.00    0.86490   0.81968    0.000
 4698.00    0.72235   0.80155    0.000
 4699.00    0.76120   0.78933    0.000
 4700.00    0.83418   0.79171    0.000
 4701.00    0.88654   0.79456    0.000
 4702.00    0.93591   0.78777    0.000
 4703.00    0.95412   0.78145    0.000
 4704.00    0.96903   0.78641    0.000
 4705.00    0.84239   0.79583    0.000
 4706.00    0.70602   0.79700    0.000
 4707.00    0.70971   0.79058    0.000
 4708.00    0.71817   0.78404    0.000
 4709.00    0.77966   0.78249    0.000
 4710.00    0.84098   0.78945    0.000
 4711.00    0.89431   0.80047    0.000
 4712.00    0.94895   0.79507    0.000
 4713.00    1.02355   0.77823    0.000
 4714.00    1.09070   0.77201    0.000
 4715.00    1.08479   0.78236    0.000
 4716.00    1.06830   0.79687    0.000
 4717.00    0.97700   0.80801    0.000
 4718.00    0.89750   0.81256    0.000
 4719.00    0.88218   0.81621    0.000
 4720.00    0.88189   0.81931    0.000
 4721.00    0.94709   0.81724    0.000
 4722.00    0.99924   0.81142    0.000
 4723.00    1.00460   0.81012    0.000
 4724.00    1.02513   0.81569    0.000
 4725.00    1.09134   0.81961    0.000
 4726.00    1.07007   0.81226    0.000
 4727.00    0.82464   0.79328    0.000
 4728.00    0.69780   0.77721    0.000
 4729.00    0.83240   0.77407    0.000
 4730.00    0.90865   0.77578    0.000
 4731.00    0.87335   0.77746    0.000
 4732.00    0.82633   0.78384    0.000
 4733.00    0.75976   0.79147    0.000
 4734.00    0.77696   0.79622    0.000
 4735.00    0.91663   0.79769    0.000
 4736.00    1.01116   0.78984    0.000
 4737.00    1.04766   0.78384    0.000
 4738.00    0.92607   0.79169    0.000
 4739.00    0.62538   0.79847    0.000
 4740.00    0.59635   0.79486    0.000
 4741.00    0.83873   0.78948    0.000
 4742.00    1.01690   0.79075    0.000
 4743.00    1.13850   0.79660    0.000
 4744.00    0.99322   0.79750    0.000
 4745.00    0.64076   0.79477    0.000
 4746.00    0.60161   0.79735    0.000
 4747.00    0.77634   0.80053    0.000
 4748.00    0.92559   0.79880    0.000
 4749.00    1.05958   0.79783    0.000
 4750.00    0.98731   0.79934    0.000
 4751.00    0.80737   0.79755    0.000
 4752.00    0.75886   0.79122    0.000
 4753.00    0.76984   0.78538    0.000
 4754.00    0.85803   0.78108    0.000
 4755.00    0.97627   0.77858    0.000
 4756.00    0.88755   0.77697    0.000
 4757.00    0.73024   0.77758    0.000
 4758.00    0.65237   0.78122    0.000
 4759.00    0.59659   0.78550    0.000
 4760.00    0.64634   0.78676    0.000
 4761.00    0.72024   0.77945    0.009
 4762.00    0.90809   0.76582    0.009
 4763.00    1.11681   0.75773    0.009
 4764.00    1.00057   0.75466    0.009
 4765.00    0.83857   0.75142    0.010
 4766.00    0.72553   0.75143    0.009
 4767.00    0.61747   0.75727    0.009
 4768.00    0.70540   0.76604    0.010
 4769.00    0.80600   0.77510    0.010
 4770.00    0.79017   0.77807    0.010
 4771.00    0.77089   0.77079    0.009
 4772.00    0.78299   0.76423    0.009
 4773.00    0.79607   0.76801    0.009
 4774.00    0.83766   0.77742    0.009
 4775.00    0.87884   0.78164    0.009
 4776.00    0.91408   0.78001    0.009
 4777.00    0.94281   0.78043    0.010
 4778.00    0.91023   0.77961    0.010
 4779.00    0.87376   0.77365    0.009
 4780.00    0.81071   0.76949    0.009
 4781.00    0.78035   0.76984    0.009
 4782.00    0.92314   0.76718    0.009
 4783.00    1.04347   0.76023    0.009
 4784.00    1.06817   0.75945    0.009
 4785.00    1.04651   0.76156    0.009
 4786.00    0.86188   0.75626    0.009
 4787.00    0.71670   0.75338    0.009
 4788.00    0.68807   0.75599    0.009
 4789.00    0.66223   0.75529    0.009
 4790.00    0.64343   0.75591    0.009
 4791.00    0.68928   0.75971    0.009
 4792.00    0.87528   0.76345    0.009
 4793.00    0.97303   0.77077    0.009
 4794.00    0.90468   0.78031    0.009
 4795.00    0.85519   0.78446    0.009
 4796.00    0.83668   0.78083    0.009
 4797.00    0.82664   0.77282    0.009
 4798.00    0.82881   0.76287    0.009
 4799.00    0.76245   0.75402    0.009
 4800.00    0.60926   0.75216    0.009
 4801.00    0.57062   0.75951    0.009
 4802.00    0.65992   0.76836    0.009
 4803.00    0.69149   0.76978    0.009
 4804.00    0.66620   0.76258    0.009
 4805.00    0.69764   0.75352    0.009
 4806.00    0.77838   0.75141    0.009
 4807.00    0.90819   0.75195    0.009
 4808.00    1.07556   0.75053    0.009
 4809.00    1.11778   0.75134    0.009
 4810.00    1.07582   0.75421    0.009
 4811.00    1.06119   0.75471    0.009
 4812.00    1.06267   0.75256    0.009
 4813.00    0.99720   0.75163    0.009
 4814.00    0.89733   0.75271    0.009
 4815.00    0.95128   0.75458    0.009
 4816.00    1.07372   0.75734    0.009
 4817.00    1.17448   0.76135    0.009
 4818.00    1.26694   0.76313    0.009
 4819.00    1.26635   0.76143    0.009
 4820.00    1.23550   0.75896    0.009
 4821.00    1.12797   0.75753    0.009
 4822.00    0.99956   0.75005    0.009
 4823.00    0.94345   0.73193    0.009
 4824.00    0.90349   0.72259    0.010
 4825.00    0.89892   0.73240    0.010
 4826.00    0.90067   0.74427    0.010
 4827.00    0.86343   0.74563    0.010
 4828.00    0.82088   0.73855    0.010
 4829.00    0.79804   0.73327    0.010
 4830.00    0.77711   0.73457    0.010
 4831.00    0.85802   0.73257    0.010
 4832.00    0.94510   0.72610    0.010
 4833.00    0.96431   0.72752    0.010
 4834.00    0.98129   0.73366    0.010
 4835.00    0.91964   0.73449    0.010
 4836.00    0.85845   0.73131    0.010
 4837.00    0.80907   0.72930    0.010
 4838.00    0.76466   0.72511    0.010
 4839.00    0.78818   0.71558    0.010
 4840.00    0.80842   0.70818    0.010
 4841.00    0.79907   0.70849    0.009
 4842.00    0.79996   0.70878    0.009
 4843.00    0.86881   0.70387    0.009
 4844.00    0.93822   0.70284    0.010
 4845.00    1.01054   0.70754    0.010
 4846.00    1.09315   0.70710    0.010
 4847.00    1.21856   0.69604    0.010
 4848.00    1.26001   0.67983    0.000
 4849.00    1.01236   0.67176    0.000
 4850.00    0.84467   0.67325    0.000
 4851.00    0.90891   0.67050    0.000
 4852.00    0.93237   0.66055    0.000
 4853.00    0.85490   0.64846    0.000
 4854.00    0.79141   0.62754    0.000
 4855.00    0.75776   0.59924    0.000
 4856.00    0.75069   0.58130    0.000
 4857.00    0.79288   0.57300    0.000
 4858.00    0.91245   0.55286    0.000
 4859.00    1.15728   0.51033    0.000
 4860.00    1.25225   0.44877    0.000
 4861.00    1.13438   0.40069    0.000
 4862.00    1.04316   0.41177    0.000
 4863.00    0.98525   0.46741    0.000
 4864.00    0.90523   0.51568    0.000
 4865.00    0.80088   0.54900    0.000
 4866.00    0.80030   0.57761    0.000
 4867.00    0.90051   0.59905    0.000
 4868.00    0.97898   0.61444    0.000
 4869.00    1.03882   0.62666    0.000
 4870.00    0.96309   0.62731    0.000
 4871.00    0.78510   0.61743    0.000
 4872.00    0.75251   0.61970    0.000
 4873.00    0.81631   0.63949    0.000
 4874.00    0.95531   0.65690    0.000
 4875.00    1.13798   0.66370    0.010
 4876.00    1.09396   0.66860    0.010
 4877.00    0.93528   0.67595    0.010
 4878.00    0.84147   0.68398    0.009
 4879.00    0.77606   0.69554    0.010
 4880.00    0.78746   0.70112    0.009
 4881.00    0.82774   0.69438    0.009
 4882.00    0.85306   0.68947    0.009
 4883.00    0.87362   0.69177    0.009
 4884.00    0.95207   0.69105    0.010
 4885.00    1.04596   0.68453    0.010
 4886.00    1.05192   0.68108    0.010
 4887.00    1.03869   0.68516    0.010
 4888.00    0.94019   0.69078    0.010
 4889.00    0.82691   0.68966    0.009
 4890.00    0.78426   0.67748    0.009
 4891.00    0.75092   0.66604    0.009
 4892.00    0.85883   0.67763    0.009
 4893.00    0.97987   0.70286    0.009
 4894.00    1.00178   0.72107    0.010
 4895.00    1.01808   0.73149    0.010
 4896.00    1.01721   0.73490    0.010
 4897.00    1.01456   0.73373    0.010
 4898.00    0.86015   0.72975    0.010
 4899.00    0.71233   0.71951    0.010
 4900.00    0.72110   0.71014    0.010
 4901.00    0.73284   0.71158    0.010
 4902.00    0.78312   0.71314    0.009
 4903.00    0.82412   0.70781    0.009
 4904.00    0.78444   0.70709    0.009
 4905.00    0.75257   0.71685    0.009
 4906.00    0.77096   0.72598    0.009
 4907.00    0.79611   0.72509    0.009
 4908.00    0.85525   0.71620    0.009
 4909.00    0.85705   0.70376    0.009
 4910.00    0.62543   0.69276    0.009
 4911.00    0.47930   0.69192    0.009
 4912.00    0.62172   0.70098    0.009
 4913.00    0.75184   0.70912    0.009
 4914.00    0.84695   0.71463    0.009
 4915.00    0.88099   0.72101    0.010
 4916.00    0.76649   0.72178    0.009
 4917.00    0.63285   0.71015    0.009
 4918.00    0.45907   0.68640    0.009
 4919.00    0.43976   0.66001    0.009
 4920.00    0.70227   0.63986    0.009
 4921.00    0.83756   0.63012    0.009
 4922.00    0.76997   0.63929    0.009
 4923.00    0.71618   0.65413    0.009
 4924.00    0.68168   0.66419    0.009
 4925.00    0.69423   0.67600    0.009
 4926.00    0.76472   0.69646    0.009
 4927.00    0.71643   0.71059    0.009
 4928.00    0.53920   0.71660    0.009
 4929.00    0.50155   0.72196    0.009
 4930.00    0.59755   0.72377    0.009
 4931.00    0.65145   0.72122    0.009
 4932.00    0.66978   0.71177    0.009
 4933.00    0.74251   0.69279    0.009
 4934.00    0.85567   0.68270    0.009
 4935.00    0.90974   0.69217    0.009
 4936.00    0.92521   0.70011    0.009
 4937.00    0.89903   0.69115    0.009
 4938.00    0.84904   0.67475    0.009
 4939.00    0.87357   0.66893    0.009
 4940.00    0.93521   0.68120    0.000
 4941.00    0.85763   0.69872    0.000
 4942.00    0.72011   0.70536    0.000
 4943.00    0.72496   0.70874    0.000
 4944.00    0.78238   0.71228    0.000
 4945.00    0.89395   0.70911    0.000
 4946.00    1.02246   0.70485    0.000
 4947.00    0.91828   0.70737    0.000
 4948.00    0.75339   0.71209    0.000
 4949.00    0.87853   0.71393    0.000
 4950.00    1.06545   0.71499    0.000
 4951.00    1.14771   0.71603    0.000
 4952.00    1.21235   0.71190    0.000
 4953.00    1.08800   0.70550    0.000
 4954.00    0.93961   0.70307    0.000
 4955.00    0.92000   0.69902    0.000
 4956.00    0.91181   0.68160    0.000
 4957.00    0.84586   0.65263    0.000
 4958.00    0.77685   0.64617    0.000
 4959.00    0.84643   0.67297    0.000
 4960.00    0.91751   0.69740    0.000
 4961.00    0.89837   0.70228    0.000
 4962.00    0.88012   0.70017    0.000
 4963.00    0.88142   0.70015    0.000
 4964.00    0.88621   0.69647    0.000
 4965.00    0.93393   0.68554    0.000
 4966.00    0.96962   0.67778    0.000
 4967.00    0.90457   0.67716    0.000
 4968.00    0.83572   0.67741    0.000
 4969.00    0.74318   0.67904    0.000
 4970.00    0.67544   0.68194    0.000
 4971.00    0.72929   0.68638    0.000
 4972.00    0.78747   0.69178    0.000
 4973.00    0.86289   0.69541    0.000
 4974.00    0.93697   0.69841    0.000
 4975.00    1.00658   0.69876    0.000
 4976.00    1.03031   0.69553    0.000
 4977.00    0.92580   0.69010    0.000
 4978.00    0.79017   0.68184    0.000
 4979.00    0.58013   0.67603    0.000
 4980.00    0.49669   0.67306    0.000
 4981.00    0.67478   0.66253    0.000
 4982.00    0.84969   0.64389    0.000
 4983.00    1.01892   0.63291    0.000
 4984.00    1.03108   0.63735    0.000
 4985.00    0.79646   0.64860    0.000
 4986.00    0.69189   0.66193    0.000
 4987.00    0.76673   0.67576    0.000
 4988.00    0.79556   0.68148    0.000
 4989.00    0.76852   0.67780    0.000
 4990.00    0.85410   0.67044    0.000
 4991.00    1.06022   0.66522    0.000
 4992.00    1.04782   0.66767    0.000
 4993.00    0.82910   0.66938    0.000
 4994.00    0.71325   0.66857    0.000
 4995.00    0.68301   0.67338    0.000
 4996.00    0.68804   0.67825    0.000
 4997.00    0.71890   0.67818    0.000
 4998.00    0.78911   0.67359    0.000
 4999.00    0.88464   0.66232    0.000
 5000.00    0.90774   0.64913    0.000
 5001.00    0.89007   0.64192    0.000
 5002.00    0.87127   0.64299    0.000
 5003.00    0.85192   0.65013    0.000
 5004.00    0.85311   0.65024    0.000
 5005.00    0.86301   0.63838    0.000
 5006.00    0.84903   0.62774    0.000
 5007.00    0.82639   0.63420    0.000
 5008.00    0.76808   0.65163    0.000
 5009.00    0.69882   0.66183    0.000
 5010.00    0.74462   0.66036    0.000
 5011.00    0.81980   0.65278    0.000
 5012.00    0.72033   0.64044    0.000
 5013.00    0.58457   0.62758    0.000
 5014.00    0.58935   0.61751    0.000
 5015.00    0.61714   0.61266    0.000
 5016.00    0.76371   0.61874    0.000
 5017.00    0.92485   0.62396    0.000
 5018.00    0.80382   0.62294    0.000
 5019.00    0.65895   0.62715    0.000
 5020.00    0.63274   0.63894    0.000
 5021.00    0.61233   0.64318    0.000
 5022.00    0.49542   0.63927    0.000
 5023.00    0.38154   0.64181    0.000
 5024.00    0.54358   0.65094    0.000
 5025.00    0.69807   0.65561    0.000
 5026.00    0.70095   0.65289    0.000
 5027.00    0.70287   0.64405    0.000
 5028.00    0.69350   0.64155    0.000
 5029.00    0.68203   0.65014    0.009
 5030.00    0.65362   0.65639    0.009
 5031.00    0.65857   0.65841    0.009
 5032.00    0.86579   0.66350    0.009
 5033.00    1.01906   0.66973    0.009
 5034.00    0.91429   0.66657    0.009
 5035.00    0.80486   0.65049    0.009
 5036.00    0.67731   0.63724    0.009
 5037.00    0.59764   0.63967    0.009
 5038.00    0.67329   0.64159    0.009
 5039.00    0.73077   0.62969    0.009
 5040.00    0.73842   0.60725    0.009
 5041.00    0.71761   0.59270    0.009
 5042.00    0.62988   0.60577    0.009
 5043.00    0.56003   0.63448    0.009
 5044.00    0.52649   0.65222    0.009
 5045.00    0.53857   0.66153    0.009
 5046.00    0.63134   0.66469    0.009
 5047.00    0.68054   0.65480    0.009
 5048.00    0.66230   0.63884    0.009
 5049.00    0.65177   0.63013    0.009
 5050.00    0.65171   0.63071    0.009
 5051.00    0.64458   0.63136    0.009
 5052.00    0.62897   0.63414    0.009
 5053.00    0.65847   0.64256    0.009
 5054.00    0.73559   0.65010    0.009
 5055.00    0.70477   0.64764    0.009
 5056.00    0.57346   0.64358    0.009
 5057.00    0.62226   0.64714    0.009
 5058.00    0.81887   0.65578    0.009
 5059.00    0.87349   0.65832    0.009
 5060.00    0.82555   0.65947    0.009
 5061.00    0.82961   0.66281    0.009
 5062.00    0.86665   0.66350    0.009
 5063.00    0.73916   0.65519    0.009
 5064.00    0.52046   0.63765    0.009
 5065.00    0.65930   0.62572    0.009
 5066.00    0.97053   0.62950    0.009
 5067.00    0.85858   0.63455    0.009
 5068.00    0.57047   0.63279    0.009
 5069.00    0.63307   0.63378    0.009
 5070.00    0.82055   0.63969    0.009
 5071.00    0.86089   0.63839    0.009
 5072.00    0.85698   0.63031    0.009
 5073.00    0.78334   0.63005    0.009
 5074.00    0.69228   0.63468    0.009
 5075.00    0.71905   0.63387    0.009
 5076.00    0.76971   0.63300    0.009
 5077.00    0.75351   0.63554    0.009
 5078.00    0.72668   0.63062    0.009
 5079.00    0.73550   0.61214    0.009
 5080.00    0.74855   0.60031    0.009
 5081.00    0.86780   0.60602    0.009
 5082.00    0.99560   0.61503    0.009
 5083.00    0.88286   0.61803    0.008
 5084.00    0.75931   0.62219    0.008
 5085.00    0.75625   0.62982    0.008
 5086.00    0.75317   0.63375    0.008
 5087.00    0.67813   0.63263    0.008
 5088.00    0.60583   0.63254    0.008
 5089.00    0.58456   0.63520    0.008
 5090.00    0.57606   0.63578    0.008
 5091.00    0.70977   0.63572    0.008
 5092.00    0.82488   0.63947    0.008
 5093.00    0.79505   0.64475    0.008
 5094.00    0.75395   0.64514    0.008
 5095.00    0.64644   0.63895    0.008
 5096.00    0.57536   0.62945    0.008
 5097.00    0.67428   0.61910    0.008
 5098.00    0.72966   0.60821    0.008
 5099.00    0.61905   0.60141    0.008
 5100.00    0.52678   0.60664    0.008
 5101.00    0.49283   0.61922    0.008
 5102.00    0.49612   0.62689    0.008
 5103.00    0.59982   0.62669    0.008
 5104.00    0.67095   0.62355    0.008
 5105.00    0.66681   0.62214    0.008
 5106.00    0.69297   0.61892    0.008
 5107.00    0.77975   0.61188    0.008
 5108.00    0.78622   0.60904    0.008
 5109.00    0.65274   0.60983    0.008
 5110.00    0.56625   0.60936    0.008
 5111.00    0.55141   0.61436    0.008
 5112.00    0.56708   0.62218    0.008
 5113.00    0.62363   0.62481    0.009
 5114.00    0.69644   0.62603    0.009
 5115.00    0.78847   0.62788    0.009
 5116.00    0.85349   0.63087    0.009
 5117.00    0.89042   0.63582    0.009
 5118.00    0.85898   0.63769    0.009
 5119.00    0.76478   0.63410    0.009
 5120.00    0.68142   0.62743    0.009
 5121.00    0.60683   0.61957    0.009
 5122.00    0.56111   0.61140    0.009
 5123.00    0.53593   0.60147    0.008
 5124.00    0.58264   0.59490    0.008
 5125.00    0.67424   0.59638    0.009
 5126.00    0.66391   0.59923    0.009
 5127.00    0.59794   0.59872    0.009
 5128.00    0.68836   0.59731    0.009
 5129.00    0.85298   0.59719    0.009
 5130.00    0.76940   0.60012    0.009
 5131.00    0.58426   0.60630    0.009
 5132.00    0.67194   0.60900    0.009
 5133.00    0.85502   0.60775    0.009
 5134.00    0.83372   0.61069    0.009
 5135.00    0.75216   0.61838    0.009
 5136.00    0.79234   0.61716    0.009
 5137.00    0.86227   0.60777    0.009
 5138.00    0.91752   0.59862    0.009
 5139.00    0.96987   0.59207    0.009
 5140.00    0.81079   0.59670    0.009
 5141.00    0.61912   0.60309    0.009
 5142.00    0.63016   0.59545    0.009
 5143.00    0.66429   0.59032    0.009
 5144.00    0.70810   0.59659    0.009
 5145.00    0.75265   0.59863    0.009
 5146.00    0.70883   0.59421    0.009
 5147.00    0.66138   0.59142    0.009
 5148.00    0.75569   0.59260    0.009
 5149.00    0.84554   0.59786    0.009
 5150.00    0.69834   0.59817    0.009
 5151.00    0.56727   0.59258    0.009
 5152.00    0.71544   0.58851    0.009
 5153.00    0.84786   0.58646    0.009
 5154.00    0.81274   0.58602    0.009
 5155.00    0.77227   0.59101    0.009
 5156.00    0.69161   0.60092    0.009
 5157.00    0.63337   0.61056    0.009
 5158.00    0.70361   0.61602    0.009
 5159.00    0.76612   0.61516    0.009
 5160.00    0.79343   0.61432    0.009
 5161.00    0.80885   0.61211    0.009
 5162.00    0.77985   0.60553    0.009
 5163.00    0.76580   0.60176    0.008
 5164.00    0.79837   0.59806    0.008
 5165.00    0.79847   0.58215    0.008
 5166.00    0.71260   0.55379    0.008
 5167.00    0.61997   0.52529    0.008
 5168.00    0.51197   0.51545    0.008
 5169.00    0.46820   0.53092    0.008
 5170.00    0.55090   0.55140    0.008
 5171.00    0.62645   0.54705    0.008
 5172.00    0.68972   0.52249    0.008
 5173.00    0.69521   0.51856    0.008
 5174.00    0.61384   0.54761    0.008
 5175.00    0.56217   0.57791    0.008
 5176.00    0.54972   0.58921    0.008
 5177.00    0.56227   0.59229    0.008
 5178.00    0.60390   0.59510    0.008
 5179.00    0.60821   0.59389    0.008
 5180.00    0.57423   0.58841    0.008
 5181.00    0.59458   0.57770    0.008
 5182.00    0.66408   0.55307    0.008
 5183.00    0.66857   0.51987    0.008
 5184.00    0.62121   0.51186    0.008
 5185.00    0.67898   0.54014    0.008
 5186.00    0.81052   0.57283    0.008
 5187.00    0.86617   0.58711    0.008
 5188.00    0.87512   0.58708    0.008
 5189.00    0.85453   0.58896    0.008
 5190.00    0.81807   0.59267    0.000
 5191.00    0.74027   0.58070    0.000
 5192.00    0.64317   0.56333    0.000
 5193.00    0.69361   0.56348    0.000
 5194.00    0.80341   0.57299    0.000
 5195.00    0.89772   0.57531    0.000
 5196.00    0.98671   0.57693    0.000
 5197.00    0.88840   0.58225    0.000
 5198.00    0.73597   0.58767    0.000
 5199.00    0.69502   0.59354    0.000
 5200.00    0.68069   0.59613    0.000
 5201.00    0.64599   0.59414    0.000
 5202.00    0.60737   0.58990    0.000
 5203.00    0.54947   0.58459    0.000
 5204.00    0.48868   0.57167    0.000
 5205.00    0.51684   0.55537    0.000
 5206.00    0.55473   0.54925    0.000
 5207.00    0.68357   0.55091    0.000
 5208.00    0.81899   0.54853    0.000
 5209.00    0.87954   0.55000    0.000
 5210.00    0.93730   0.56078    0.000
 5211.00    0.85026   0.57374    0.009
 5212.00    0.76757   0.58648    0.009
 5213.00    0.86753   0.59578    0.009
 5214.00    0.96420   0.59594    0.009
 5215.00    1.00760   0.58556    0.009
 5216.00    1.02971   0.57599    0.009
 5217.00    0.83511   0.57782    0.009
 5218.00    0.66636   0.58801    0.009
 5219.00    0.68576   0.59750    0.009
 5220.00    0.71493   0.60250    0.009
 5221.00    0.79855   0.60533    0.009
 5222.00    0.86745   0.60368    0.009
 5223.00    0.87085   0.59538    0.009
 5224.00    0.87071   0.58162    0.009
 5225.00    0.85767   0.56330    0.009
 5226.00    0.84819   0.54301    0.009
 5227.00    0.84962   0.53589    0.009
 5228.00    0.83360   0.55381    0.009
 5229.00    0.77220   0.57801    0.009
 5230.00    0.68695   0.59037    0.009
 5231.00    0.54834   0.59375    0.009
 5232.00    0.51746   0.58554    0.009
 5233.00    0.69540   0.57104    0.008
 5234.00    0.84530   0.56575    0.008
 5235.00    0.94779   0.57207    0.008
 5236.00    0.98748   0.58462    0.008
 5237.00    0.93416   0.59457    0.008
 5238.00    0.86882   0.59798    0.008
 5239.00    0.78785   0.59763    0.008
 5240.00    0.78854   0.59691    0.008
 5241.00    0.88289   0.59746    0.008
 5242.00    0.96280   0.59605    0.008
 5243.00    1.02810   0.59442    0.008
 5244.00    0.98885   0.59844    0.008
 5245.00    0.85633   0.60101    0.008
 5246.00    0.86001   0.58995    0.008
 5247.00    0.97076   0.57500    0.008
 5248.00    0.97626   0.57317    0.008
 5249.00    0.90899   0.57562    0.008
 5250.00    0.77107   0.57063    0.008
 5251.00    0.59033   0.56923    0.008
 5252.00    0.58576   0.57612    0.008
 5253.00    0.67442   0.58100    0.008
 5254.00    0.77024   0.57749    0.008
 5255.00    0.86933   0.57301    0.008
 5256.00    0.96338   0.57975    0.008
 5257.00    1.05544   0.59293    0.008
 5258.00    1.00850   0.60103    0.008
 5259.00    0.91475   0.60040    0.008
 5260.00    0.95981   0.59223    0.009
 5261.00    1.04416   0.57902    0.009
 5262.00    0.91260   0.56298    0.009
 5263.00    0.73064   0.54707    0.009
 5264.00    0.70363   0.53452    0.009
 5265.00    0.70567   0.52675    0.009
 5266.00    0.68297   0.52879    0.009
 5267.00    0.65669   0.54283    0.009
 5268.00    0.87160   0.54615    0.009
 5269.00    1.11189   0.52512    0.009
 5270.00    1.09381   0.51283    0.009
 5271.00    1.05811   0.53171    0.009
 5272.00    0.89014   0.55558    0.009
 5273.00    0.71772   0.56326    0.009
 5274.00    0.73405   0.56105    0.009
 5275.00    0.75212   0.55503    0.009
 5276.00    0.81904   0.55754    0.009
 5277.00    0.87675   0.57481    0.009
 5278.00    0.79425   0.58961    0.009
 5279.00    0.71567   0.59033    0.009
 5280.00    0.67531   0.58234    0.009
 5281.00    0.64929   0.57307    0.009
 5282.00    0.72426   0.56565    0.009
 5283.00    0.79968   0.55859    0.009
 5284.00    0.87754   0.55841    0.009
 5285.00    0.93563   0.57334    0.009
 5286.00    0.90777   0.59123    0.009
 5287.00    0.90781   0.59746    0.009
 5288.00    1.00765   0.59463    0.009
 5289.00    1.04409   0.59300    0.009
 5290.00    0.89011   0.59520    0.009
 5291.00    0.80165   0.59599    0.009
 5292.00    0.88074   0.59271    0.009
 5293.00    0.95044   0.58864    0.009
 5294.00    0.99951   0.58777    0.009
 5295.00    1.00197   0.58427    0.009
 5296.00    0.91551   0.57160    0.009
 5297.00    0.78489   0.55359    0.009
 5298.00    0.58073   0.54550    0.009
 5299.00    0.47680   0.55457    0.008
 5300.00    0.51914   0.56608    0.008
 5301.00    0.62214   0.56741    0.008
 5302.00    0.80297   0.56718    0.008
 5303.00    0.92856   0.57457    0.008
 5304.00    0.99167   0.58571    0.008
 5305.00    0.96746   0.59117    0.008
 5306.00    0.85614   0.58779    0.008
 5307.00    0.75748   0.58159    0.008
 5308.00    0.66996   0.58096    0.008
 5309.00    0.60460   0.58619    0.008
 5310.00    0.55643   0.59021    0.008
 5311.00    0.59416   0.58946    0.008
 5312.00    0.69042   0.58622    0.008
 5313.00    0.71199   0.58267    0.008
 5314.00    0.68894   0.58045    0.008
 5315.00    0.71563   0.57563    0.008
 5316.00    0.76824   0.56643    0.008
 5317.00    0.79343   0.56347    0.008
 5318.00    0.80624   0.57036    0.008
 5319.00    0.78309   0.57615    0.008
 5320.00    0.74597   0.57603    0.008
 5321.00    0.76594   0.57491    0.008
 5322.00    0.80478   0.57252    0.008
 5323.00    0.77954   0.56490    0.008
 5324.00    0.73654   0.55539    0.008
 5325.00    0.71373   0.55476    0.008
 5326.00    0.69552   0.55471    0.008
 5327.00    0.66246   0.53670    0.008
 5328.00    0.62669   0.51135    0.008
 5329.00    0.70099   0.51235    0.008
 5330.00    0.79073   0.53813    0.009
 5331.00    0.78596   0.55981    0.008
 5332.00    0.77165   0.56469    0.008
 5333.00    0.74782   0.56394    0.008
 5334.00    0.72338   0.56846    0.009
 5335.00    0.78871   0.57330    0.009
 5336.00    0.85697   0.57186    0.009
 5337.00    1.02852   0.56794    0.009
 5338.00    1.18332   0.56531    0.009
 5339.00    0.85917   0.55737    0.008
 5340.00    0.57068   0.54445    0.008
 5341.00    0.79369   0.54224    0.009
 5342.00    0.99168   0.55404    0.009
 5343.00    0.95544   0.56460    0.009
 5344.00    0.93676   0.56686    0.009
 5345.00    1.03784   0.56132    0.009
 5346.00    1.09274   0.55720    0.009
 5347.00    0.90387   0.55846    0.009
 5348.00    0.77315   0.55699    0.009
 5349.00    0.88934   0.55291    0.009
 5350.00    0.95829   0.55668    0.009
 5351.00    0.86165   0.56698    0.008
 5352.00    0.80436   0.57309    0.008
 5353.00    0.86306   0.57352    0.008
 5354.00    0.89723   0.57674    0.008
 5355.00    0.86978   0.58223    0.008
 5356.00    0.85120   0.58445    0.008
 5357.00    0.85180   0.58434    0.008
 5358.00    0.85468   0.58425    0.008
 5359.00    0.86183   0.58382    0.008
 5360.00    0.83048   0.58069    0.008
 5361.00    0.73601   0.57272    0.008
 5362.00    0.76361   0.56400    0.008
 5363.00    0.96678   0.56037    0.008
 5364.00    1.04423   0.55876    0.008
 5365.00    0.96265   0.55605    0.008
 5366.00    0.88570   0.55533    0.008
 5367.00    0.81391   0.55592    0.008
 5368.00    0.82942   0.55456   -2.000
 5369.00    0.93076   0.54680   -2.000
 5370.00    1.04987   0.53216   -2.000
 5371.00    1.18438   0.52261   -2.000
 5372.00    1.21437   0.53035   -2.000
 5373.00    1.16450   0.54974   -2.000
 5374.00    1.05250   0.56496   -2.000
 5375.00    0.89880   0.57141   -2.000
 5376.00    0.88910   0.57064   -2.000
 5377.00    0.96411   0.56757   -2.000
 5378.00    0.84866   0.56781   -2.000
 5379.00    0.63553   0.56749   -2.000
 5380.00    0.61645   0.56332   -2.000
 5381.00    0.68358   0.55899   -2.000
 5382.00    0.80028   0.55613   -2.000
 5383.00    0.93590   0.55362    0.008
 5384.00    0.95694   0.55553    0.008
 5385.00    0.94081   0.56115    0.008
 5386.00    0.89490   0.56351    0.008
 5387.00    0.84092   0.56251    0.008
 5388.00    0.80850   0.55983    0.008
 5389.00    0.78089   0.55473    0.008
 5390.00    0.65616   0.54884    0.008
 5391.00    0.51417   0.54608    0.008
 5392.00    0.65628   0.54500    0.008
 5393.00    0.83693   0.54386    0.008
 5394.00    0.78130   0.54360    0.008
 5395.00    0.70284   0.54193    0.008
 5396.00    0.84381   0.53249    0.008
 5397.00    0.99799   0.52273    0.008
 5398.00    0.85310   0.52879    0.008
 5399.00    0.70107   0.54174    0.008
 5400.00    0.65650   0.54579    0.008
 5401.00    0.61695   0.54586    0.008
 5402.00    0.70714   0.54722    0.008
 5403.00    0.79049   0.54089    0.008
 5404.00    0.78135   0.52552    0.008
 5405.00    0.78396   0.51217    0.008
 5406.00    0.89226   0.51203    0.008
 5407.00    0.96764   0.52361    0.008
 5408.00    0.82544   0.53191    0.008
 5409.00    0.71409   0.52803    0.008
 5410.00    0.76141   0.52231    0.008
 5411.00    0.82276   0.52861    0.008
 5412.00    0.94232   0.54148    0.008
 5413.00    1.02184   0.54818    0.008
 5414.00    0.96376   0.54650    0.008
 5415.00    0.91328   0.54544    0.008
 5416.00    0.88474   0.55102    0.008
 5417.00    0.88022   0.55702    0.008
 5418.00    0.93499   0.55676    0.008
 5419.00    0.94187   0.55234    0.008
 5420.00    0.84675   0.54761    0.008
 5421.00    0.76821   0.54727    0.008
 5422.00    0.72034   0.54974    0.008
 5423.00    0.71923   0.54533    0.008
 5424.00    0.79367   0.53677    0.008
 5425.00    0.83912   0.53831    0.008
 5426.00    0.84347   0.54908    0.008
 5427.00    0.83175   0.55575    0.008
 5428.00    0.80001   0.54672    0.008
 5429.00    0.77757   0.52676    0.008
 5430.00    0.76535   0.52029    0.008
 5431.00    0.81362   0.53015    0.008
 5432.00    0.92052   0.53367    0.008
 5433.00    0.94084   0.52716    0.008
 5434.00    0.88713   0.52092    0.008
 5435.00    0.87930   0.52050    0.008
 5436.00    0.90602   0.52656    0.008
 5437.00    0.93751   0.53646    0.008
 5438.00    0.97216   0.54729    0.008
 5439.00    0.95314   0.55473    0.008
 5440.00    0.90304   0.55759    0.008
 5441.00    0.91021   0.55793    0.008
 5442.00    0.94630   0.55784    0.008
 5443.00    0.86964   0.55671    0.008
 5444.00    0.74371   0.54984    0.008
 5445.00    0.77695   0.53505    0.008
 5446.00    0.86988   0.51739    0.008
 5447.00    0.84827   0.51117    0.008
 5448.00    0.79021   0.52278    0.008
 5449.00    0.73446   0.53730    0.008
 5450.00    0.67932   0.54383    0.008
 5451.00    0.70669   0.54416    0.008
 5452.00    0.75202   0.54179    0.008
 5453.00    0.66680   0.53637    0.008
 5454.00    0.55903   0.52494    0.008
 5455.00    0.70605   0.51113    0.008
 5456.00    0.88648   0.51086    0.009
 5457.00    0.78228   0.52553    0.008
 5458.00    0.65178   0.53954    0.008
 5459.00    0.71787   0.54365    0.008
 5460.00    0.79500   0.54036    0.008
 5461.00    0.84214   0.53435    0.008
 5462.00    0.88767   0.52652    0.008
 5463.00    0.83550   0.52048    0.008
 5464.00    0.78650   0.52388    0.008
 5465.00    0.81171   0.53097    0.008
 5466.00    0.83653   0.53212    0.008
 5467.00    0.85635   0.53273    0.008
 5468.00    0.85829   0.53624    0.008
 5469.00    0.70550   0.53645    0.008
 5470.00    0.57803   0.53266    0.008
 5471.00    0.61281   0.53079    0.008
 5472.00    0.66102   0.52913    0.008
 5473.00    0.77657   0.52402    0.008
 5474.00    0.86006   0.52100    0.008
 5475.00    0.81343   0.51761    0.008
 5476.00    0.77078   0.50608    0.008
 5477.00    0.74152   0.50036    0.008
 5478.00    0.72910   0.51179   -2.000
 5479.00    0.76455   0.52476   -2.000
 5480.00    0.77420   0.52451   -2.000
 5481.00    0.72121   0.51631   -2.000
 5482.00    0.74930   0.51471   -2.000
 5483.00    0.94723   0.52142   -2.000
 5484.00    1.34345   0.53015   -2.000
 5485.00    2.10079   0.53603   -2.000
 5486.00    2.91337   0.53342   -2.000
 5487.00    3.81389   0.52455   -2.000
 5488.00    4.16768   0.52093   -2.000
 5489.00    3.75771   0.52495   -2.000
 5490.00    2.93116   0.52798   -2.000
 5491.00    1.59250   0.52948   -2.000
 5492.00    0.51790   0.53046   -2.000
 5493.00   -0.27051   0.52772   -2.000
 5494.00   -0.47975   0.52626   -2.000
 5495.00   -0.13535   0.52832   -2.000
 5496.00    0.24464   0.52633   -2.000
 5497.00    0.65464   0.52024   -2.000
 5498.00    0.81272   0.52130   -2.000
 5499.00    0.78384   0.52918   -2.000
 5500.00    0.77366   0.52924   -2.000
 5501.00    0.77568   0.52049   -2.000
 5502.00    0.76082   0.51504    0.008
 5503.00    0.73635   0.51688    0.008
 5504.00    0.73054   0.52040    0.008
 5505.00    0.73400   0.51801    0.008
 5506.00    0.77305   0.51063    0.008
 5507.00    0.82739   0.50993    0.008
 5508.00    0.82267   0.51734    0.008
 5509.00    0.79619   0.52104    0.008
 5510.00    0.81664   0.51939    0.008
 5511.00    0.85173   0.51461    0.008
 5512.00    0.83903   0.50807    0.008
 5513.00    0.81389   0.50479    0.008
 5514.00    0.85531   0.50682    0.008
 5515.00    0.91086   0.51143    0.008
 5516.00    0.86445   0.51613    0.008
 5517.00    0.80092   0.52093    0.008
 5518.00    0.83779   0.52726    0.008
 5519.00    0.88738   0.53091    0.008
 5520.00    0.80866   0.52993    0.008
 5521.00    0.71862   0.52772    0.008
 5522.00    0.68111   0.52696    0.008
 5523.00    0.64634   0.52720    0.008
 5524.00    0.68741   0.52602    0.008
 5525.00    0.72974   0.52168    0.008
 5526.00    0.76024   0.51528    0.008
 5527.00    0.79249   0.50626    0.008
 5528.00    0.86225   0.49912    0.008
 5529.00    0.92623   0.50333    0.008
 5530.00    0.91972   0.51462    0.008
 5531.00    0.90465   0.52112    0.008
 5532.00    0.81834   0.52091    0.008
 5533.00    0.73841   0.51805    0.008
 5534.00    0.69813   0.51366    0.008
 5535.00    0.67830   0.51039    0.008
 5536.00    0.75840   0.51284    0.008
 5537.00    0.83171   0.51711    0.008
 5538.00    0.87799   0.51864    0.008
 5539.00    0.88641   0.52115    0.008
 5540.00    0.76987   0.52527    0.008
 5541.00    0.69289   0.52669    0.008
 5542.00    0.72623   0.52292    0.008
 5543.00    0.76837   0.51714    0.008
 5544.00    0.83151   0.51487    0.008
 5545.00    0.84559   0.51536    0.008
 5546.00    0.75851   0.51559    0.008
 5547.00    0.69087   0.51829    0.008
 5548.00    0.65808   0.52323    0.008
 5549.00    0.65952   0.52620    0.008
 5550.00    0.71465   0.52689    0.008
 5551.00    0.76289   0.52642    0.008
 5552.00    0.80163   0.52366    0.008
 5553.00    0.79625   0.51874    0.008
 5554.00    0.73737   0.51476    0.008
 5555.00    0.73235   0.51474    0.008
 5556.00    0.78486   0.51658    0.008
 5557.00    0.87504   0.51620    0.008
 5558.00    1.00071   0.51546    0.008
 5559.00    0.94937   0.51639    0.008
 5560.00    0.75094   0.51662    0.008
 5561.00    0.71607   0.51486    0.008
 5562.00    0.80083   0.51106    0.008
 5563.00    0.79121   0.50772    0.008
 5564.00    0.72096   0.50727    0.008
 5565.00    0.76400   0.50621    0.008
 5566.00    0.87070   0.50396    0.008
 5567.00    0.86487   0.50427    0.008
 5568.00    0.80403   0.50488    0.007
 5569.00    0.80600   0.50309    0.007
 5570.00    0.83450   0.50424    0.007
 5571.00    0.82269   0.50771    0.007
 5572.00    0.79630   0.50428    0.007
 5573.00    0.75362   0.50028    0.007
 5574.00    0.70596   0.50501    0.007
 5575.00    0.69308   0.50925    0.007
 5576.00    0.68906   0.50870    0.008
 5577.00    0.70580   0.50948    0.008
 5578.00    0.72684   0.51038    0.008
 5579.00    0.80045   0.51085    0.008
 5580.00    0.88264   0.51227    0.007
 5581.00    0.92725   0.51091    0.008
 5582.00    0.96727   0.50788    0.008
 5583.00    0.82472   0.50765    0.008
 5584.00    0.66683   0.50731    0.007
 5585.00    0.69981   0.50231    0.007
 5586.00    0.74203   0.49195    0.007
 5587.00    0.76034   0.48108    0.007
 5588.00    0.77700   0.47609    0.008
 5589.00    0.71608   0.47774    0.008
 5590.00    0.66217   0.48456    0.008
 5591.00    0.74744   0.49197    0.008
 5592.00    0.82890   0.49472    0.008
 5593.00    0.86600   0.49325    0.008
 5594.00    0.89810   0.49148    0.008
 5595.00    0.89003   0.49622    0.008
 5596.00    0.88397   0.50484    0.008
 5597.00    0.88997   0.50402    0.008
 5598.00    0.89387   0.49488    0.008
 5599.00    0.88779   0.49012    0.008
 5600.00    0.87036   0.48959    0.008
 5601.00    0.80887   0.48651    0.008
 5602.00    0.76140   0.48289    0.008
 5603.00    0.75930   0.48488    0.008
 5604.00    0.75248   0.49483    0.008
 5605.00    0.73275   0.50512    0.008
 5606.00    0.71611   0.51097    0.008
 5607.00    0.70673   0.51279    0.008
 5608.00    0.74221   0.51249    0.008
 5609.00    0.86868   0.51128    0.008
 5610.00    0.88995   0.51046    0.008
 5611.00    0.72546   0.51164    0.008
 5612.00    0.65564   0.51322    0.008
 5613.00    0.73213   0.51052    0.007
 5614.00    0.73366   0.49779    0.007
 5615.00    0.63349   0.48063    0.007
 5616.00    0.57897   0.47697    0.007
 5617.00    0.57900   0.48712    0.007
 5618.00    0.62762   0.49460    0.007
 5619.00    0.72743   0.49494    0.007
 5620.00    0.82587   0.49500    0.007
 5621.00    0.92304   0.49849    0.007
 5622.00    0.90302   0.50136    0.007
 5623.00    0.78699   0.49666    0.007
 5624.00    0.70813   0.48612    0.007
 5625.00    0.65606   0.48169    0.007
 5626.00    0.66881   0.48733    0.007
 5627.00    0.72257   0.49390    0.007
 5628.00    0.75236   0.49733    0.007
 5629.00    0.76888   0.50093    0.007
 5630.00    0.77026   0.50372    0.007
 5631.00    0.76435   0.50447    0.007
 5632.00    0.82868   0.50356    0.007
 5633.00    0.92219   0.50138    0.007
 5634.00    0.86678   0.49911    0.007
 5635.00    0.75847   0.49651    0.007
 5636.00    0.76397   0.49275    0.007
 5637.00    0.80360   0.48917    0.007
 5638.00    0.84989   0.48882    0.008
 5639.00    0.89784   0.49034    0.008
 5640.00    0.93576   0.48926    0.007
 5641.00    0.97167   0.48612    0.007
 5642.00    0.92804   0.48722    0.007
 5643.00    0.87182   0.49012    0.007
 5644.00    0.78332   0.49109    0.007
 5645.00    0.69103   0.49177    0.007
 5646.00    0.79213   0.49267    0.007
 5647.00    0.90867   0.49372    0.007
 5648.00    0.82988   0.49390    0.007
 5649.00    0.74238   0.49264    0.007
 5650.00    0.72111   0.49219    0.007
 5651.00    0.70317   0.49468    0.007
 5652.00    0.81059   0.49820    0.007
 5653.00    0.91410   0.49818    0.007
 5654.00    0.94561   0.49326    0.007
 5655.00    0.97794   0.48925    0.007
 5656.00    1.01945   0.48931    0.007
 5657.00    1.04161   0.48337    0.007
 5658.00    0.91371   0.47046    0.007
 5659.00    0.80581   0.46791    0.007
 5660.00    0.81530   0.47792    0.007
 5661.00    0.83662   0.48238    0.007
 5662.00    0.91298   0.47822    0.007
 5663.00    0.96721   0.47743    0.007
 5664.00    0.93734   0.48381    0.007
 5665.00    0.91067   0.48943    0.007
 5666.00    0.89413   0.48905    0.007
 5667.00    0.88136   0.48511    0.007
 5668.00    0.87876   0.48320    0.007
 5669.00    0.89127   0.48436    0.007
 5670.00    0.93865   0.48614    0.007
 5671.00    0.96638   0.48814    0.007
 5672.00    0.95489   0.49209    0.007
 5673.00    0.94379   0.49617    0.007
 5674.00    0.93340   0.49628    0.007
 5675.00    0.90833   0.49340    0.007
 5676.00    0.86094   0.49309    0.007
 5677.00    0.87266   0.49486    0.007
 5678.00    0.96344   0.49332    0.007
 5679.00    1.01720   0.48987    0.007
 5680.00    1.02735   0.48887    0.007
 5681.00    0.98125   0.48752    0.007
 5682.00    0.87672   0.48237    0.007
 5683.00    0.80478   0.47899    0.007
 5684.00    0.76269   0.48146    0.007
 5685.00    0.73355   0.48399    0.007
 5686.00    0.71488   0.48200    0.007
 5687.00    0.69532   0.47754    0.007
 5688.00    0.67515   0.47600    0.007
 5689.00    0.67425   0.47896    0.007
 5690.00    0.68537   0.48414    0.007
 5691.00    0.69406   0.48842    0.007
 5692.00    0.70142   0.49178    0.007
 5693.00    0.81237   0.49277    0.007
 5694.00    0.97237   0.49079    0.007
 5695.00    1.01390   0.48837    0.007
 5696.00    1.00705   0.48762    0.007
 5697.00    0.94597   0.48600    0.007
 5698.00    0.86597   0.48229    0.007
 5699.00    0.81596   0.48025    0.007
 5700.00    0.77478   0.47823    0.007
 5701.00    0.79788   0.47416    0.007
 5702.00    0.83664   0.47250    0.007
 5703.00    0.84583   0.47576    0.007
 5704.00    0.84920   0.47969    0.007
 5705.00    0.80161   0.47880    0.007
 5706.00    0.74619   0.47368    0.007
 5707.00    0.76574   0.46854    0.007
 5708.00    0.79378   0.46350    0.007
 5709.00    0.86707   0.45956    0.007
 5710.00    0.94378   0.46044    0.007
 5711.00    0.87683   0.46242    0.007
 5712.00    0.80404   0.46504    0.007
 5713.00    0.70121   0.47302    0.007
 5714.00    0.60043   0.48014    0.007
 5715.00    0.59437   0.48262    0.007
 5716.00    0.59404   0.48364    0.007
 5717.00    0.69205   0.48350    0.007
 5718.00    0.78039   0.48326    0.007
 5719.00    0.76646   0.48504    0.007
 5720.00    0.75341   0.48692    0.007
 5721.00    0.74703   0.48826    0.007
 5722.00    0.73893   0.48985    0.007
 5723.00    0.72100   0.49056    0.007
 5724.00    0.72072   0.48990    0.007
 5725.00    0.80059   0.48827    0.007
 5726.00    0.85867   0.48362    0.007
 5727.00    0.83566   0.47864    0.007
 5728.00    0.81532   0.47931    0.007
 5729.00    0.80331   0.48344    0.007
 5730.00    0.80645   0.48346    0.007
 5731.00    0.84964   0.47902    0.007
 5732.00    0.87882   0.47772    0.007
 5733.00    0.87618   0.48162    0.007
 5734.00    0.87909   0.48551    0.007
 5735.00    0.89294   0.48680    0.007
 5736.00    0.89115   0.48565    0.007
 5737.00    0.86258   0.48367    0.007
 5738.00    0.82033   0.48194    0.007
 5739.00    0.75758   0.48065    0.007
 5740.00    0.72802   0.48033    0.000
 5741.00    0.74223   0.48047    0.000
 5742.00    0.77564   0.48026    0.000
 5743.00    0.83135   0.47960    0.000
 5744.00    0.85566   0.48163    0.000
 5745.00    0.84780   0.48507    0.000
 5746.00    0.87176   0.48535    0.000
 5747.00    0.92447   0.48008    0.000
 5748.00    0.97032   0.47469    0.000
 5749.00    1.01070   0.47657    0.000
 5750.00    0.99719   0.48188    0.000
 5751.00    0.94594   0.48238    0.000
 5752.00    0.89828   0.47612    0.000
 5753.00    0.85282   0.46789    0.000
 5754.00    0.77825   0.46472    0.000
 5755.00    0.68806   0.46985    0.000
 5756.00    0.69352   0.47819    0.000
 5757.00    0.74352   0.48319    0.000
 5758.00    0.79668   0.48431    0.000
 5759.00    0.85110   0.48160    0.000
 5760.00    0.86378   0.47617    0.000
 5761.00    0.86217   0.46968    0.000
 5762.00    0.85375   0.46423    0.000
 5763.00    0.84336   0.46430    0.000
 5764.00    0.85521   0.47170    0.000
 5765.00    0.87235   0.47886    0.000
 5766.00    0.85955   0.48152    0.000
 5767.00    0.84101   0.48204    0.000
 5768.00    0.81893   0.48150    0.000
 5769.00    0.79632   0.48029    0.000
 5770.00    0.80225   0.47912    0.000
 5771.00    0.81129   0.47758    0.000
 5772.00    0.81506   0.47544    0.000
 5773.00    0.81845   0.47453    0.000
 5774.00    0.84588   0.47353    0.000
 5775.00    0.87420   0.47281    0.000
 5776.00    0.89731   0.47427    0.000
 5777.00    0.91889   0.47589    0.000
 5778.00    0.88617   0.47551    0.000
 5779.00    0.85147   0.47181    0.000
 5780.00    0.78512   0.46356    0.000
 5781.00    0.72480   0.45465    0.000
 5782.00    0.72562   0.45243    0.000
 5783.00    0.72901   0.45498    0.000
 5784.00    0.75106   0.45477    0.000
 5785.00    0.77063   0.45273    0.000
 5786.00    0.77647   0.45578    0.000
 5787.00    0.77385   0.46270    0.000
 5788.00    0.73368   0.46735    0.000
 5789.00    0.72688   0.46913    0.000
 5790.00    0.84167   0.46684    0.000
 5791.00    0.95968   0.46352   -2.000
 5792.00    1.08753   0.46487   -2.000
 5793.00    1.15130   0.46908   -2.000
 5794.00    1.04867   0.47295   -2.000
 5795.00    0.94902   0.47550   -2.000
 5796.00    0.85602   0.47395   -2.000
 5797.00    0.80188   0.46794   -2.000
 5798.00    0.82288   0.46463   -2.000
 5799.00    0.84627   0.46896   -2.000
 5800.00    0.87371   0.47560   -2.000
 5801.00    0.88231   0.47890   -2.000
 5802.00    0.86309   0.47956   -2.000
 5803.00    0.80366   0.47686   -2.000
 5804.00    0.69197   0.47112   -2.000
 5805.00    0.64104   0.46744   -2.000
 5806.00    0.65966   0.46747   -2.000
 5807.00    0.67172   0.46939   -2.000
 5808.00    0.67715   0.47087   -2.000
 5809.00    0.71363   0.47148   -2.000
 5810.00    0.77776   0.47263   -2.000
 5811.00    0.81999   0.47368    0.000
 5812.00    0.84504   0.47340    0.000
 5813.00    0.82306   0.47205    0.000
 5814.00    0.76861   0.46960    0.000
 5815.00    0.78916   0.46555    0.000
 5816.00    0.85508   0.46243    0.000
 5817.00    0.89639   0.46448    0.000
 5818.00    0.92470   0.47007    0.000
 5819.00    0.89552   0.47376    0.000
 5820.00    0.84001   0.47478    0.000
 5821.00    0.82676   0.47461    0.000
 5822.00    0.83019   0.47308    0.000
 5823.00    0.85283   0.47110    0.000
 5824.00    0.88192   0.47038    0.000
 5825.00    0.85454   0.47137    0.000
 5826.00    0.81120   0.47177    0.000
 5827.00    0.78889   0.47154    0.000
 5828.00    0.77148   0.47194    0.000
 5829.00    0.83619   0.47267    0.000
 5830.00    0.91624   0.47240    0.000
 5831.00    0.95531   0.47146    0.000
 5832.00    0.98846   0.47114    0.000
 5833.00    0.97696   0.47029    0.000
 5834.00    0.96078   0.46785    0.000
 5835.00    0.95070   0.46656    0.000
 5836.00    0.94103   0.46817    0.000
 5837.00    0.93362   0.46878    0.000
 5838.00    0.92630   0.46673    0.000
 5839.00    0.88530   0.46626    0.000
 5840.00    0.84681   0.46881    0.000
 5841.00    0.88797   0.47145    0.000
 5842.00    0.92439   0.47216    0.000
 5843.00    0.88907   0.47157    0.000
 5844.00    0.84827   0.46974    0.000
 5845.00    0.75428   0.46716    0.000
 5846.00    0.67655   0.46420    0.000
 5847.00    0.71284   0.46153    0.000
 5848.00    0.75121   0.46098    0.000
 5849.00    0.80080   0.46213    0.000
 5850.00    0.82995   0.46261    0.000
 5851.00    0.77056   0.46078    0.000
 5852.00    0.71746   0.45568    0.000
 5853.00    0.68682   0.45024    0.000
 5854.00    0.68244   0.45011    0.000
 5855.00    0.75678   0.45317    0.000
 5856.00    0.82096   0.45128    0.000
 5857.00    0.85923   0.44404    0.000
 5858.00    0.86266   0.44048    0.000
 5859.00    0.78957   0.44456    0.000
 5860.00    0.73980   0.45096    0.000
 5861.00    0.73442   0.45452    0.000
 5862.00    0.76151   0.45368    0.000
 5863.00    0.84258   0.45298    0.000
 5864.00    0.88476   0.45501    0.000
 5865.00    0.87028   0.45576    0.000
 5866.00    0.83460   0.45282    0.000
 5867.00    0.77175   0.45077    0.000
 5868.00    0.73917   0.45340    0.000
 5869.00    0.74076   0.45769    0.000
 5870.00    0.73736   0.46026    0.000
 5871.00    0.72899   0.46014    0.000
 5872.00    0.74668   0.45760    0.000
 5873.00    0.78726   0.45432    0.000
 5874.00    0.81676   0.44800    0.000
 5875.00    0.83768   0.44016    0.000
 5876.00    0.84045   0.43711    0.000
 5877.00    0.83086   0.44117    0.000
 5878.00    0.80800   0.44828    0.000
 5879.00    0.77724   0.44838    0.000
 5880.00    0.75295   0.44567    0.000
 5881.00    0.73204   0.44578    0.000
 5882.00    0.74051   0.44781    0.000
 5883.00    0.76222   0.44702    0.000
 5884.00    0.78253   0.44476    0.000
 5885.00    0.80230   0.44440    0.000
 5886.00    0.77262   0.44410    0.000
 5887.00    0.72663   0.43819    0.000
 5888.00    0.66456   0.41879    0.000
 5889.00    0.59805   0.38681    0.000
 5890.00    0.64990   0.36635    0.000
 5891.00    0.72866   0.37726    0.000
 5892.00    0.82768   0.40109    0.000
 5893.00    0.93038   0.41434    0.000
 5894.00    0.92088   0.41248    0.000
 5895.00    0.89571   0.39433    0.000
 5896.00    0.86239   0.38066    0.000
 5897.00    0.82825   0.39221    0.000
 5898.00    0.85225   0.41308    0.000
 5899.00    0.87995   0.42460    0.000
 5900.00    0.82567   0.43098    0.000
 5901.00    0.76913   0.43670    0.006
 5902.00    0.76539   0.43989    0.007
 5903.00    0.76224   0.44165    0.007
 5904.00    0.77584   0.44283    0.007
 5905.00    0.78785   0.44209    0.007
 5906.00    0.77705   0.44155    0.007
 5907.00    0.76584   0.44328    0.007
 5908.00    0.75078   0.44551    0.007
 5909.00    0.73235   0.44567    0.007
 5910.00    0.69099   0.44560    0.007
 5911.00    0.65210   0.44698    0.007
 5912.00    0.62617   0.44635    0.007
 5913.00    0.60762   0.44129    0.007
 5914.00    0.62028   0.43520    0.007
 5915.00    0.64101   0.43359    0.007
 5916.00    0.68995   0.43557    0.007
 5917.00    0.72115   0.43908    0.007
 5918.00    0.70019   0.44166    0.006
 5919.00    0.68774   0.44248    0.006
 5920.00    0.69664   0.44348    0.006
 5921.00    0.69309   0.44316    0.006
 5922.00    0.66264   0.44155    0.006
 5923.00    0.64005   0.44161    0.006
 5924.00    0.63221   0.44292    0.006
 5925.00    0.64098   0.44415    0.006
 5926.00    0.67697   0.44523    0.006
 5927.00    0.71496   0.44461    0.006
 5928.00    0.75583   0.44185    0.006
 5929.00    0.78038   0.43778    0.006
 5930.00    0.78433   0.43542    0.006
 5931.00    0.77288   0.43846    0.006
 5932.00    0.74431   0.44310    0.006
 5933.00    0.68594   0.44300    0.006
 5934.00    0.59834   0.43883    0.006
 5935.00    0.56569   0.43698    0.006
 5936.00    0.58062   0.43995    0.006
 5937.00    0.66543   0.44317    0.007
 5938.00    0.80351   0.44459    0.007
 5939.00    0.85649   0.44454    0.007
 5940.00    0.85242   0.44109    0.007
 5941.00    0.82663   0.43589    0.007
 5942.00    0.78807   0.43468    0.007
 5943.00    0.79758   0.43710    0.007
 5944.00    0.83170   0.43985    0.007
 5945.00    0.83107   0.44236    0.007
 5946.00    0.81502   0.44364    0.007
 5947.00    0.74757   0.44152    0.007
 5948.00    0.66054   0.43611    0.007
 5949.00    0.64515   0.43275    0.006
 5950.00    0.65294   0.43522    0.006
 5951.00    0.61771   0.43799    0.006
 5952.00    0.57084   0.43549    0.006
 5953.00    0.56041   0.43272    0.006
 5954.00    0.55807   0.43510    0.006
 5955.00    0.61810   0.43724    0.006
 5956.00    0.68917   0.43410    0.006
 5957.00    0.73047   0.43068    0.006
 5958.00    0.76775   0.43152    0.006
 5959.00    0.73899   0.43529    0.006
 5960.00    0.70387   0.43937    0.006
 5961.00    0.72098   0.44171    0.006
 5962.00    0.74119   0.44257    0.006
 5963.00    0.81790   0.44228    0.006
 5964.00    0.89537   0.44109    0.006
 5965.00    0.86797   0.43859    0.006
 5966.00    0.83973   0.43679    0.006
 5967.00    0.79007   0.43820    0.006
 5968.00    0.74182   0.44017    0.006
 5969.00    0.71259   0.44131    0.006
 5970.00    0.68955   0.44244    0.006
 5971.00    0.72191   0.44325    0.006
 5972.00    0.75088   0.44324    0.007
 5973.00    0.75746   0.44252    0.007
 5974.00    0.75862   0.44045    0.007
 5975.00    0.73201   0.43627    0.007
 5976.00    0.70433   0.43173    0.007
 5977.00    0.67221   0.42875    0.006
 5978.00    0.65336   0.42784    0.006
 5979.00    0.67999   0.43023    0.006
 5980.00    0.69636   0.43461    0.006
 5981.00    0.68312   0.43720    0.006
 5982.00    0.67581   0.43557    0.006
 5983.00    0.68311   0.42982    0.006
 5984.00    0.67271   0.42385    0.006
 5985.00    0.62473   0.42413    0.006
 5986.00    0.58872   0.42874    0.006
 5987.00    0.57480   0.43146    0.006
 5988.00    0.58437   0.43234    0.006
 5989.00    0.63180   0.43396    0.006
 5990.00    0.69069   0.43441    0.006
 5991.00    0.76578   0.43232    0.006
 5992.00    0.79661   0.43199    0.006
 5993.00    0.77234   0.43561    0.006
 5994.00    0.73666   0.43880    0.006
 5995.00    0.68848   0.43829    0.006
 5996.00    0.66300   0.43496    0.006
 5997.00    0.65949   0.43090    0.006
 5998.00    0.66131   0.42865    0.006
 5999.00    0.66768   0.42957    0.006
 6000.00    0.67288   0.43194    0.006
 6001.00    0.67720   0.43257    0.006
 6002.00    0.68079   0.42971    0.006
 6003.00    0.68390   0.42719    0.006
 6004.00    0.70692   0.42873    0.006
 6005.00    0.74144   0.43044    0.006
 6006.00    0.77454   0.42832    0.006
 6007.00    0.80692   0.42331    0.006
 6008.00    0.82703   0.41948    0.006
 6009.00    0.84179   0.42242    0.006
 6010.00    0.85402   0.42957    0.006
 6011.00    0.86529   0.43234    0.007
 6012.00    0.83310   0.42887    0.007
 6013.00    0.78712   0.42439    0.007
 6014.00    0.73829   0.42448    0.006
 6015.00    0.68871   0.42647    0.006
 6016.00    0.66943   0.42534    0.006
 6017.00    0.65671   0.42396    0.006
 6018.00    0.65855   0.42505    0.006
 6019.00    0.66289   0.42431    0.006
 6020.00    0.72689   0.42131    0.006
 6021.00    0.79867   0.42029    0.006
 6022.00    0.79087   0.42170    0.006
 6023.00    0.77577   0.42276    0.006
 6024.00    0.74628   0.42327    0.006
 6025.00    0.71600   0.42584    0.006
 6026.00    0.72439   0.42792    0.006
 6027.00    0.73340   0.42772    0.006
 6028.00    0.72108   0.42913    0.006
 6029.00    0.70873   0.43154    0.006
 6030.00    0.69574   0.43196    0.006
 6031.00    0.68561   0.43111    0.006
 6032.00    0.71201   0.43154    0.006
 6033.00    0.74069   0.43298    0.006
 6034.00    0.78902   0.43352    0.006
 6035.00    0.81943   0.43336    0.006
 6036.00    0.73536   0.43315    0.006
 6037.00    0.65687   0.43295    0.006
 6038.00    0.60619   0.43244    0.006
 6039.00    0.57584   0.43088    0.006
 6040.00    0.62777   0.42902    0.006
 6041.00    0.66232   0.42819    0.006
 6042.00    0.63856   0.42837    0.006
 6043.00    0.61210   0.43029    0.006
 6044.00    0.57801   0.43242    0.006
 6045.00    0.57846   0.43300    0.006
 6046.00    0.66259   0.43280    0.006
 6047.00    0.72294   0.43300    0.006
 6048.00    0.73354   0.43274    0.006
 6049.00    0.73516   0.43218    0.006
 6050.00    0.72046   0.43284    0.006
 6051.00    0.72607   0.43314    0.006
 6052.00    0.76395   0.43135    0.006
 6053.00    0.79347   0.42861    0.006
 6054.00    0.81132   0.42674    0.006
 6055.00    0.81746   0.42517    0.006
 6056.00    0.80923   0.42336    0.006
 6057.00    0.80508   0.42321    0.006
 6058.00    0.80535   0.42501    0.006
 6059.00    0.80334   0.42760    0.006
 6060.00    0.79917   0.42914    0.006
 6061.00    0.77610   0.42913    0.006
 6062.00    0.73712   0.42731    0.006
 6063.00    0.68706   0.42423    0.006
 6064.00    0.62881   0.41940    0.006
 6065.00    0.56696   0.41403    0.006
 6066.00    0.50279   0.41536    0.006
 6067.00    0.48824   0.42299    0.006
 6068.00    0.50196   0.42867    0.006
 6069.00    0.52692   0.43048    0.006
 6070.00    0.55745   0.43069    0.006
 6071.00    0.57911   0.43098    0.006
 6072.00    0.59696   0.43172    0.006
 6073.00    0.63343   0.43197    0.006
 6074.00    0.67674   0.43158    0.006
 6075.00    0.72620   0.43078    0.006
 6076.00    0.77758   0.42892    0.006
 6077.00    0.79107   0.42542    0.006
 6078.00    0.79472   0.42092    0.006
 6079.00    0.78711   0.41914    0.006
 6080.00    0.77712   0.42045    0.006
 6081.00    0.75651   0.41947    0.006
 6082.00    0.73412   0.41655    0.006
 6083.00    0.69183   0.41666    0.006
 6084.00    0.64704   0.41827    0.006
 6085.00    0.63458   0.41797    0.006
 6086.00    0.62497   0.41811    0.006
 6087.00    0.64250   0.42009    0.006
 6088.00    0.66144   0.42150    0.006
 6089.00    0.68228   0.41935    0.006
 6090.00    0.70285   0.41533    0.006
 6091.00    0.70214   0.41405    0.006
 6092.00    0.70020   0.41504    0.006
 6093.00    0.67201   0.41596    0.006
 6094.00    0.64261   0.41875    0.006
 6095.00    0.59858   0.42226    0.006
 6096.00    0.55661   0.42235    0.006
 6097.00    0.53170   0.42031    0.006
 6098.00    0.51202   0.42025    0.006
 6099.00    0.52482   0.42222    0.006
 6100.00    0.53654   0.42265    0.006
 6101.00    0.54295   0.41660    0.006
 6102.00    0.55743   0.40349    0.006
 6103.00    0.60384   0.39660    0.006
 6104.00    0.63794   0.40401    0.006
 6105.00    0.63150   0.41434    0.006
 6106.00    0.62907   0.41814    0.006
 6107.00    0.63780   0.41690    0.006
 6108.00    0.65540   0.41586    0.006
 6109.00    0.69409   0.41826    0.006
 6110.00    0.71302   0.41995    0.006
 6111.00    0.69127   0.41782    0.006
 6112.00    0.65273   0.41662    0.006
 6113.00    0.58413   0.41899    0.006
 6114.00    0.55761   0.42137    0.006
 6115.00    0.59693   0.42068    0.006
 6116.00    0.63398   0.41761    0.006
 6117.00    0.66793   0.41686    0.006
 6118.00    0.67474   0.41822    0.006
 6119.00    0.64872   0.41639    0.006
 6120.00    0.62597   0.41072    0.006
 6121.00    0.60672   0.40273    0.006
 6122.00    0.59451   0.39621    0.006
 6123.00    0.58891   0.39948    0.006
 6124.00    0.61020   0.40849    0.006
 6125.00    0.65378   0.41242    0.006
 6126.00    0.70377   0.41147    0.006
 6127.00    0.75843   0.40980    0.006
 6128.00    0.77969   0.40871    0.006
 6129.00    0.77954   0.41001    0.006
 6130.00    0.76160   0.41390    0.006
 6131.00    0.73367   0.41706    0.006
 6132.00    0.74119   0.41790    0.006
 6133.00    0.76601   0.41741    0.006
 6134.00    0.76442   0.41382    0.006
 6135.00    0.75170   0.40480    0.006
 6136.00    0.70586   0.39107    0.006
 6137.00    0.64806   0.38136    0.006
 6138.00    0.62624   0.38711    0.006
 6139.00    0.61541   0.40254    0.006
 6140.00    0.62602   0.41002    0.006
 6141.00    0.64208   0.40538    0.006
 6142.00    0.64308   0.40138    0.006
 6143.00    0.64098   0.40647    0.006
 6144.00    0.63983   0.41371    0.006
 6145.00    0.63883   0.41625    0.006
 6146.00    0.65737   0.41508    0.006
 6147.00    0.67829   0.41258    0.006
 6148.00    0.64237   0.40884    0.006
 6149.00    0.60171   0.40529    0.006
 6150.00    0.57728   0.40376    0.006
 6151.00    0.55363   0.40528    0.006
 6152.00    0.56451   0.40866    0.006
 6153.00    0.57627   0.41072    0.006
 6154.00    0.61018   0.40836    0.006
 6155.00    0.64337   0.40494    0.006
 6156.00    0.66235   0.40456    0.006
 6157.00    0.67665   0.40473    0.006
 6158.00    0.63702   0.40417    0.006
 6159.00    0.60376   0.40269    0.006
 6160.00    0.62152   0.39561    0.006
 6161.00    0.64039   0.38128    0.006
 6162.00    0.66592   0.36973    0.006
 6163.00    0.68209   0.37024    0.006
 6164.00    0.65374   0.37926    0.006
 6165.00    0.61795   0.38786    0.006
 6166.00    0.55334   0.39255    0.006
 6167.00    0.50539   0.39525    0.006
 6168.00    0.51125   0.39274    0.006
 6169.00    0.51994   0.38343    0.006
 6170.00    0.53640   0.37932    0.006
 6171.00    0.54599   0.38670    0.006
 6172.00    0.53949   0.39493    0.006
 6173.00    0.54153   0.39650    0.006
 6174.00    0.56085   0.39633    0.006
 6175.00    0.58322   0.39698    0.006
 6176.00    0.61099   0.39661    0.006
 6177.00    0.62788   0.39666    0.006
 6178.00    0.62798   0.39902    0.006
 6179.00    0.64056   0.40041    0.006
 6180.00    0.67004   0.39962    0.006
 6181.00    0.70764   0.40050    0.006
 6182.00    0.75492   0.40252    0.006
 6183.00    0.76799   0.40288    0.006
 6184.00    0.74508   0.40234    0.006
 6185.00    0.71211   0.40111    0.006
 6186.00    0.66981   0.39740    0.006
 6187.00    0.63532   0.39362    0.006
 6188.00    0.60721   0.39227    0.006
 6189.00    0.58688   0.39161    0.006
 6190.00    0.57216   0.38705    0.006
 6191.00    0.60520   0.37900    0.006
 6192.00    0.66841   0.37843    0.006
 6193.00    0.87484   0.38723    0.006
 6194.00    1.16036   0.39448    0.006
 6195.00    1.61461   0.39711    0.007
 6196.00    2.14987   0.39870   -2.000
 6197.00    2.40749   0.39978   -2.000
 6198.00    2.55003   0.39734   -2.000
 6199.00    2.00999   0.39114   -2.000
 6200.00    1.22802   0.38742   -2.000
 6201.00    0.49876   0.39048   -2.000
 6202.00   -0.21473   0.39603   -2.000
 6203.00   -0.27278   0.39900   -2.000
 6204.00   -0.16802   0.39908   -2.000
 6205.00    0.08664   0.39860   -2.000
 6206.00    0.37149   0.39901   -2.000
 6207.00    0.52466   0.39960   -2.000
 6208.00    0.65707   0.39964    0.006
 6209.00    0.65248   0.39886    0.006
 6210.00    0.63184   0.39695    0.006
 6211.00    0.67063   0.39466    0.006
 6212.00    0.71414   0.39129    0.006
 6213.00    0.73513   0.38465    0.006
 6214.00    0.75513   0.37864    0.006
 6215.00    0.78665   0.37691    0.006
 6216.00    0.81771   0.37896    0.006
 6217.00    0.82072   0.38356    0.006
 6218.00    0.81991   0.38569    0.006
 6219.00    0.74929   0.38264    0.006
 6220.00    0.68213   0.37973    0.006
 6221.00    0.65306   0.38089    0.006
 6222.00    0.62564   0.38417    0.006
 6223.00    0.61099   0.38578    0.006
 6224.00    0.60380   0.38504    0.006
 6225.00    0.64030   0.38523    0.006
 6226.00    0.67486   0.38648    0.006
 6227.00    0.70045   0.38697    0.006
 6228.00    0.70996   0.38596    0.006
 6229.00    0.65851   0.38081    0.006
 6230.00    0.61723   0.37198    0.006
 6231.00    0.60809   0.36783    0.006
 6232.00    0.61017   0.37133    0.006
 6233.00    0.64234   0.37738    0.006
 6234.00    0.66737   0.38449    0.006
 6235.00    0.67594   0.38986    0.006
 6236.00    0.67469   0.39024    0.006
 6237.00    0.65386   0.38669    0.006
 6238.00    0.62439   0.38199    0.006
 6239.00    0.57991   0.37761    0.006
 6240.00    0.56653   0.37524    0.006
 6241.00    0.60040   0.37690    0.006
 6242.00    0.63539   0.37703    0.006
 6243.00    0.67184   0.37312    0.006
 6244.00    0.69358   0.37192    0.006
 6245.00    0.69801   0.37288    0.006
 6246.00    0.68381   0.37267    0.006
 6247.00    0.65027   0.37531    0.006
 6248.00    0.60811   0.38087    0.006
 6249.00    0.55807   0.38476    0.006
 6250.00    0.54774   0.38516    0.006
 6251.00    0.56941   0.38115    0.006
 6252.00    0.60082   0.37378    0.006
 6253.00    0.63913   0.36948    0.006
 6254.00    0.66375   0.36992    0.006
 6255.00    0.67983   0.37119    0.006
 6256.00    0.73319   0.36986    0.006
 6257.00    0.80682   0.36620    0.006
 6258.00    0.89880   0.36324    0.006
 6259.00    0.99945   0.36562    0.006
 6260.00    0.97587   0.37193    0.007
 6261.00    0.90167   0.37589    0.007
 6262.00    0.72327   0.37962    0.007
 6263.00    0.50861   0.38401    0.007
 6264.00    0.35867   0.38341    0.007
 6265.00    0.22771   0.37898    0.007
 6266.00    0.24222   0.37838    0.007
 6267.00    0.29206   0.38128    0.006
 6268.00    0.37901   0.38193    0.006
 6269.00    0.47324   0.38017    0.006
 6270.00    0.55135   0.37951    0.006
 6271.00    0.62700   0.38094    0.006
 6272.00    0.65011   0.38298    0.006
 6273.00    0.66728   0.38390    0.006
 6274.00    0.67727   0.38322    0.006
 6275.00    0.68672   0.38285    0.006
 6276.00    0.66593   0.38313    0.006
 6277.00    0.64393   0.38290    0.006
 6278.00    0.59302   0.38179    0.006
 6279.00    0.54243   0.37906    0.006
 6280.00    0.51338   0.37528    0.000
 6281.00    0.48749   0.37435    0.000
 6282.00    0.51555   0.37685    0.000
 6283.00    0.54547   0.38036    0.000
 6284.00    0.59487   0.38273    0.000
 6285.00    0.63908   0.38272    0.000
 6286.00    0.64456   0.38335    0.000
 6287.00    0.64919   0.38596    0.000
 6288.00    0.64901   0.38825    0.000
 6289.00    0.64504   0.38848    0.000
 6290.00    0.62393   0.38583    0.000
 6291.00    0.61566   0.38245    0.000
 6292.00    0.65506   0.38048    0.000
 6293.00    0.69059   0.38019    0.000
 6294.00    0.71414   0.38159    0.000
 6295.00    0.72813   0.38115    0.000
 6296.00    0.71691   0.37671    0.000
 6297.00    0.69023   0.37277    0.000
 6298.00    0.62851   0.37326    0.000
 6299.00    0.58151   0.37621    0.000
 6300.00    0.56336   0.37630    0.000
 6301.00    0.55070   0.37262    0.000
 6302.00    0.54740   0.37044    0.000
 6303.00    0.55565   0.37312    0.000
 6304.00    0.58120   0.37706    0.000
 6305.00    0.58892   0.37819    0.000
 6306.00    0.57316   0.37923    0.000
 6307.00    0.56839   0.38316    0.000
 6308.00    0.57635   0.38624    0.000
 6309.00    0.58831   0.38560    0.000
 6310.00    0.60438   0.38248    0.000
 6311.00    0.61028   0.37930    0.000
 6312.00    0.60699   0.37832    0.000
 6313.00    0.60008   0.37897    0.000
 6314.00    0.59029   0.37682    0.000
 6315.00    0.56774   0.37317    0.000
 6316.00    0.53626   0.37299    0.000
 6317.00    0.52489   0.37245    0.000
 6318.00    0.52585   0.36866    0.000
 6319.00    0.54500   0.36895    0.000
 6320.00    0.57388   0.37416    0.000
 6321.00    0.60013   0.37763    0.006
 6322.00    0.62514   0.37798    0.006
 6323.00    0.58630   0.37887    0.006
 6324.00    0.52189   0.38133    0.006
 6325.00    0.46932   0.38277    0.006
 6326.00    0.42079   0.38251    0.006
 6327.00    0.40065   0.38138    0.006
 6328.00    0.38867   0.38178    0.006
 6329.00    0.40724   0.38258    0.006
 6330.00    0.43305   0.38115    0.006
 6331.00    0.51364   0.38066    0.006
 6332.00    0.60471   0.38292    0.006
 6333.00    0.63202   0.38460    0.006
 6334.00    0.64987   0.38116    0.006
 6335.00    0.62821   0.37273    0.006
 6336.00    0.60227   0.36712    0.006
 6337.00    0.59719   0.36904    0.006
 6338.00    0.59360   0.37334    0.006
 6339.00    0.60526   0.37587    0.006
 6340.00    0.61747   0.37891    0.006
 6341.00    0.61518   0.38130    0.006
 6342.00    0.61184   0.37980    0.006
 6343.00    0.57352   0.37482    0.006
 6344.00    0.53527   0.37046    0.006
 6345.00    0.49803   0.36998    0.006
 6346.00    0.46691   0.37000    0.006
 6347.00    0.49748   0.37023    0.006
 6348.00    0.53753   0.37320    0.006
 6349.00    0.64593   0.37794    0.006
 6350.00    0.74146   0.38038    0.006
 6351.00    0.76571   0.38101    0.006
 6352.00    0.77302   0.38099    0.006
 6353.00    0.70536   0.37883    0.006
 6354.00    0.63749   0.37442    0.006
 6355.00    0.56884   0.37146    0.006
 6356.00    0.51469   0.37236    0.006
 6357.00    0.50474   0.37224    0.006
 6358.00    0.51503   0.36788    0.006
 6359.00    0.57774   0.36406    0.006
 6360.00    0.63377   0.36360    0.006
 6361.00    0.67495   0.36278    0.006
 6362.00    0.74618   0.36067    0.006
 6363.00    0.87545   0.36081    0.006
 6364.00    1.00988   0.36388    0.007
 6365.00    1.15301   0.36735    0.008
 6366.00    1.20914   0.37015    0.008
 6367.00    1.13690   0.37342    0.008
 6368.00    1.03611   0.37612    0.008
 6369.00    0.89829   0.37563    0.008
 6370.00    0.78200   0.37200    0.008
 6371.00    0.69032   0.37055    0.007
 6372.00    0.63173   0.37364    0.007
 6373.00    0.60649   0.37793    0.006
 6374.00    0.59398   0.37955    0.006
 6375.00    0.59279   0.37891    0.006
 6376.00    0.59132   0.37874    0.006
 6377.00    0.58962   0.37785    0.006
 6378.00    0.58762   0.37481    0.006
 6379.00    0.58542   0.37188    0.006
 6380.00    0.58070   0.37092    0.006
 6381.00    0.57446   0.37138    0.006
 6382.00    0.56685   0.37299    0.006
 6383.00    0.55852   0.37384    0.006
 6384.00    0.57624   0.37281    0.006
 6385.00    0.60586   0.37246    0.006
 6386.00    0.59881   0.37402    0.006
 6387.00    0.57732   0.37546    0.006
 6388.00    0.57034   0.37545    0.006
 6389.00    0.56822   0.37502    0.006
 6390.00    0.59235   0.37499    0.006
 6391.00    0.62388   0.37375    0.006
 6392.00    0.60093   0.36852    0.006
 6393.00    0.56534   0.36131    0.006
 6394.00    0.49746   0.36053    0.006
 6395.00    0.42356   0.36690    0.006
 6396.00    0.42769   0.37320    0.006
 6397.00    0.44303   0.37605    0.006
 6398.00    0.49401   0.37406    0.006
 6399.00    0.54870   0.36558    0.006
 6400.00    0.52506   0.35770    0.006
 6401.00    0.49615   0.36103    0.006
 6402.00    0.48549   0.37026    0.006
 6403.00    0.47542   0.37560    0.006
 6404.00    0.45461   0.37714    0.006
 6405.00    0.43362   0.37646    0.006
 6406.00    0.40710   0.37347    0.012
 6407.00    0.38297   0.36871   -1.000
 6408.00    0.39451   0.36601   -1.000
 6409.00    0.40722   0.36894   -1.000
 6410.00    0.43120   0.37104   -1.000
 6411.00    0.45450   0.36737   -1.000
 6412.00    0.47312   0.36493   -1.000
 6413.00    0.48318   0.36683   -1.000
 6414.00    0.44717   0.36884   -1.000
 6415.00    0.41858   0.37000    0.062
 6416.00    0.42203   0.37094    0.010
 6417.00    0.42293   0.37094    0.006
 6418.00    0.41475   0.36974    0.006
 6419.00    0.41647   0.36647    0.006
 6420.00    0.44782   0.36131    0.006
 6421.00    0.48083   0.35923    0.006
 6422.00    0.51804   0.36425    0.006
 6423.00    0.53148   0.37166    0.006
 6424.00    0.49281   0.37445    0.006
 6425.00    0.45636   0.37398    0.006
 6426.00    0.42414   0.37453    0.006
 6427.00    0.39888   0.37603    0.006
 6428.00    0.38515   0.37588    0.006
 6429.00    0.39586   0.37179    0.006
 6430.00    0.44209   0.36393    0.006
 6431.00    0.49383   0.35866    0.006
 6432.00    0.55264   0.36092    0.006
 6433.00    0.58756   0.36627    0.006
 6434.00    0.59556   0.37016    0.006
 6435.00    0.60724   0.37228    0.006
 6436.00    0.62258   0.37294    0.006
 6437.00    0.62506   0.37022    0.006
 6438.00    0.61629   0.36266    0.006
 6439.00    0.61196   0.35726    0.006
 6440.00    0.61105   0.36149    0.006
 6441.00    0.60200   0.36955    0.006
 6442.00    0.58743   0.37380    0.006
 6443.00    0.56526   0.37480    0.006
 6444.00    0.53858   0.37494    0.006
 6445.00    0.52831   0.37534    0.006
 6446.00    0.52657   0.37596    0.006
 6447.00    0.53496   0.37496    0.006
 6448.00    0.54790   0.36856    0.006
 6449.00    0.56911   0.35641    0.006
 6450.00    0.59350   0.34866    0.006
 6451.00    0.59206   0.35318    0.006
 6452.00    0.58213   0.36253    0.006
 6453.00    0.56539   0.36838    0.006
 6454.00    0.54677   0.36830    0.006
 6455.00    0.56055   0.36298    0.006
 6456.00    0.58166   0.35897    0.006
 6457.00    0.59817   0.36186    0.006
 6458.00    0.61385   0.36840    0.006
 6459.00    0.57270   0.37292    0.006
 6460.00    0.52364   0.37299    0.006
 6461.00    0.45762   0.36653    0.006
 6462.00    0.38990   0.35529    0.006
 6463.00    0.38859   0.35055    0.006
 6464.00    0.39147   0.35662    0.006
 6465.00    0.42582   0.36394    0.006
 6466.00    0.46123   0.36791    0.006
 6467.00    0.54213   0.36993    0.006
 6468.00    0.62074   0.36985    0.006
 6469.00    0.63580   0.36755    0.006
 6470.00    0.64611   0.36471    0.006
 6471.00    0.58928   0.36202    0.006
 6472.00    0.53949   0.36169    0.006
 6473.00    0.55481   0.36419    0.006
 6474.00    0.56749   0.36440    0.006
 6475.00    0.56225   0.36211    0.006
 6476.00    0.55488   0.36245    0.006
 6477.00    0.53637   0.36538    0.006
 6478.00    0.51682   0.36669    0.006
 6479.00    0.49289   0.36633    0.005
 6480.00    0.47450   0.36427    0.005
 6481.00    0.47544   0.35873    0.006
 6482.00    0.46821   0.35285    0.006
 6483.00    0.43702   0.35222    0.006
 6484.00    0.41807   0.35635    0.006
 6485.00    0.42974   0.36044    0.006
 6486.00    0.45731   0.36238    0.006
 6487.00    0.51915   0.36320    0.006
 6488.00    0.58215   0.36342    0.006
 6489.00    0.64733   0.36196    0.006
 6490.00    0.68283   0.35894    0.006
 6491.00    0.66985   0.35609    0.006
 6492.00    0.64951   0.35275    0.006
 6493.00    0.61863   0.34468    0.006
 6494.00    0.59120   0.33262    0.006
 6495.00    0.56813   0.32530    0.006
 6496.00    0.53912   0.32574    0.006
 6497.00    0.50353   0.33068    0.006
 6498.00    0.49469   0.33700    0.006
 6499.00    0.51206   0.34126    0.006
 6500.00    0.53385   0.34577    0.006
 6501.00    0.55947   0.35082    0.006
 6502.00    0.55792   0.35434    0.006
 6503.00    0.53569   0.35640    0.006
 6504.00    0.52822   0.35773    0.006
 6505.00    0.53064   0.35901    0.006
 6506.00    0.55723   0.35990    0.006
 6507.00    0.59799   0.35914    0.006
 6508.00    0.62478   0.35716    0.006
 6509.00    0.64444   0.35649    0.006
 6510.00    0.63384   0.35783    0.006
 6511.00    0.60985   0.35905    0.006
 6512.00    0.59294   0.35911    0.006
 6513.00    0.57871   0.35864    0.006
 6514.00    0.60526   0.35719    0.006
 6515.00    0.64496   0.35391    0.006
 6516.00    0.64958   0.35080    0.006
 6517.00    0.64472   0.34922    0.006
 6518.00    0.67361   0.34841    0.006
 6519.00    0.70998   0.34959    0.006
 6520.00    0.69511   0.35336    0.006
 6521.00    0.67121   0.35668    0.006
 6522.00    0.62723   0.35753    0.006
 6523.00    0.58055   0.35703    0.006
 6524.00    0.59080   0.35697    0.006
 6525.00    0.60649   0.35649    0.006
 6526.00    0.63492   0.35377    0.006
 6527.00    0.66409   0.35110    0.006
 6528.00    0.61668   0.35172    0.000
 6529.00    0.56725   0.35414    0.000
 6530.00    0.50410   0.35513    0.000
 6531.00    0.44446   0.35337    0.000
 6532.00    0.47316   0.35034    0.000
 6533.00    0.50397   0.34879    0.000
 6534.00    0.56303   0.35002    0.000
 6535.00    0.61645   0.35255    0.000
 6536.00    0.61971   0.35345    0.000
 6537.00    0.62082   0.35228    0.000
 6538.00    0.60785   0.35169    0.000
 6539.00    0.60361   0.35286    0.000
 6540.00    0.64398   0.35374    0.000
 6541.00    0.66943   0.35227    0.000
 6542.00    0.63324   0.34915    0.000
 6543.00    0.60430   0.34634    0.000
 6544.00    0.60012   0.34373    0.000
 6545.00    0.60437   0.33915    0.000
 6546.00    0.63286   0.33407    0.000
 6547.00    0.65102   0.33340    0.000
 6548.00    0.64375   0.33635    0.000
 6549.00    0.62470   0.33799    0.000
 6550.00    0.58066   0.33645    0.000
 6551.00    0.55330   0.33327    0.000
 6552.00    0.55670   0.33035    0.000
 6553.00    0.58507   0.32690    0.000
 6554.00    0.65362   0.32160    0.000
 6555.00    0.68772   0.31597    0.000
 6556.00    0.67317   0.31249    0.000
 6557.00    0.67305   0.31100    0.000
 6558.00    0.69087   0.30845    0.000
 6559.00    0.75853   0.30274    0.000
 6560.00    0.88078   0.29142    0.000
 6561.00    0.95634   0.26652    0.000
 6562.00    0.98678   0.23110    0.000
 6563.00    0.95693   0.21538    0.000
 6564.00    0.87571   0.23765    0.000
 6565.00    0.80783   0.27288    0.000
 6566.00    0.74997   0.29542    0.000
 6567.00    0.71155   0.30651    0.000
 6568.00    0.68594   0.31145    0.000
 6569.00    0.63874   0.31296    0.000
 6570.00    0.57909   0.31581    0.000
 6571.00    0.52493   0.31955    0.000
 6572.00    0.47353   0.32038    0.000
 6573.00    0.45029   0.31898    0.000
 6574.00    0.43931   0.31859    0.000
 6575.00    0.46011   0.32138    0.000
 6576.00    0.49276   0.32706    0.000
 6577.00    0.50929   0.33246    0.000
 6578.00    0.52070   0.33565    0.000
 6579.00    0.57355   0.33644    0.000
 6580.00    0.63737   0.33548    0.000
 6581.00    0.68922   0.33408    0.000
 6582.00    0.73848   0.33475    0.000
 6583.00    0.72972   0.33749    0.000
 6584.00    0.71101   0.33941    0.000
 6585.00    0.70670   0.33995    0.000
 6586.00    0.70426   0.33934    0.000
 6587.00    0.68816   0.34054    0.000
 6588.00    0.67080   0.34331    0.000
 6589.00    0.64876   0.34509    0.000
 6590.00    0.62645   0.34527    0.000
 6591.00    0.55421   0.34199    0.000
 6592.00    0.48121   0.33400    0.000
 6593.00    0.43761   0.32677    0.000
 6594.00    0.39635   0.32808    0.000
 6595.00    0.40881   0.33533    0.000
 6596.00    0.42152   0.34019    0.000
 6597.00    0.43733   0.34032    0.000
 6598.00    0.45358   0.33858    0.000
 6599.00    0.47360   0.33881    0.000
 6600.00    0.48864   0.34212    0.000
 6601.00    0.47199   0.34543    0.000
 6602.00    0.46131   0.34628    0.000
 6603.00    0.48042   0.34510    0.000
 6604.00    0.49528   0.34274    0.000
 6605.00    0.49302   0.34068    0.000
 6606.00    0.47466   0.33975    0.000
 6607.00    0.40241   0.33857    0.000
 6608.00    0.36011   0.33599    0.000
 6609.00    0.40249   0.33401    0.006
 6610.00    0.45713   0.33675    0.006
 6611.00    0.54145   0.34213    0.006
 6612.00    0.60029   0.34432    0.006
 6613.00    0.60600   0.34288    0.006
 6614.00    0.58383   0.34203    0.006
 6615.00    0.51107   0.34400    0.006
 6616.00    0.45893   0.34557    0.006
 6617.00    0.43948   0.34516    0.006
 6618.00    0.42137   0.34453    0.006
 6619.00    0.40511   0.34496    0.006
 6620.00    0.40121   0.34581    0.006
 6621.00    0.41244   0.34612    0.006
 6622.00    0.42251   0.34500    0.006
 6623.00    0.43135   0.34198    0.006
 6624.00    0.43321   0.33797    0.006
 6625.00    0.42844   0.33619    0.006
 6626.00    0.46531   0.33802    0.006
 6627.00    0.53714   0.34012    0.006
 6628.00    0.57004   0.34054    0.006
 6629.00    0.57414   0.34014    0.006
 6630.00    0.55485   0.33935    0.006
 6631.00    0.52037   0.33818    0.006
 6632.00    0.49190   0.33573    0.006
 6633.00    0.46685   0.33210    0.006
 6634.00    0.46958   0.33069    0.006
 6635.00    0.48607   0.33360    0.006
 6636.00    0.45957   0.33773    0.006
 6637.00    0.41468   0.34016    0.006
 6638.00    0.38494   0.34039    0.006
 6639.00    0.36076   0.33906    0.006
 6640.00    0.37581   0.33841    0.006
 6641.00    0.40304   0.33957    0.006
 6642.00    0.46795   0.33868    0.006
 6643.00    0.54260   0.33427    0.006
 6644.00    0.52104   0.33233    0.006
 6645.00    0.47919   0.33511    0.006
 6646.00    0.46770   0.33786    0.006
 6647.00    0.46128   0.33807    0.006
 6648.00    0.45486   0.33789    0.006
 6649.00    0.44843   0.33849    0.006
 6650.00    0.44582   0.33860    0.006
 6651.00    0.44354   0.33771    0.006
 6652.00    0.50024   0.33667    0.006
 6653.00    0.55996   0.33631    0.006
 6654.00    0.57905   0.33652    0.006
 6655.00    0.59671   0.33683    0.006
 6656.00    0.56393   0.33648    0.006
 6657.00    0.53009   0.33618    0.006
 6658.00    0.47374   0.33650    0.006
 6659.00    0.42337   0.33625    0.006
 6660.00    0.44516   0.33515    0.006
 6661.00    0.46059   0.33359    0.006
 6662.00    0.42355   0.33075    0.006
 6663.00    0.39555   0.32716    0.006
 6664.00    0.42336   0.32699    0.006
 6665.00    0.45228   0.32962    0.006
 6666.00    0.48665   0.33066    0.006
 6667.00    0.51881   0.33032    0.006
 6668.00    0.54221   0.33108    0.006
 6669.00    0.55480   0.33341    0.006
 6670.00    0.53188   0.33577    0.006
 6671.00    0.49931   0.33685    0.006
 6672.00    0.43999   0.33664    0.006
 6673.00    0.40981   0.33625    0.006
 6674.00    0.44891   0.33610    0.006
 6675.00    0.46425   0.33545    0.006
 6676.00    0.43080   0.33082    0.006
 6677.00    0.42359   0.32047    0.006
 6678.00    0.46325   0.31317    0.006
 6679.00    0.48019   0.31615    0.006
 6680.00    0.46162   0.32461    0.006
 6681.00    0.43328   0.32956    0.006
 6682.00    0.39154   0.33068    0.006
 6683.00    0.39173   0.33168    0.006
 6684.00    0.44257   0.33275    0.006
 6685.00    0.48304   0.33320    0.006
 6686.00    0.51248   0.33290    0.006
 6687.00    0.51836   0.33211    0.006
 6688.00    0.50212   0.33160    0.006
 6689.00    0.47792   0.33210    0.006
 6690.00    0.44713   0.33276    0.006
 6691.00    0.46929   0.33287    0.006
 6692.00    0.53005   0.33255    0.006
 6693.00    0.54703   0.33231    0.006
 6694.00    0.53600   0.33168    0.006
 6695.00    0.54908   0.32945    0.006
 6696.00    0.57565   0.32637    0.000
 6697.00    0.54573   0.32539    0.000
 6698.00    0.48829   0.32675    0.000
 6699.00    0.45259   0.32897    0.000
 6700.00    0.42603   0.33123    0.000
 6701.00    0.43525   0.33217    0.000
 6702.00    0.45735   0.33122    0.000
 6703.00    0.51640   0.32892    0.000
 6704.00    0.58671   0.32686    0.000
 6705.00    0.57754   0.32707    0.000
 6706.00    0.54825   0.32874    0.000
 6707.00    0.55922   0.32983    0.000
 6708.00    0.57848   0.33007    0.000
 6709.00    0.56228   0.32952    0.000
 6710.00    0.54033   0.32826    0.000
 6711.00    0.50582   0.32787    0.000
 6712.00    0.46979   0.32788    0.000
 6713.00    0.45500   0.32672    0.000
 6714.00    0.44197   0.32495    0.000
 6715.00    0.48499   0.32262    0.000
 6716.00    0.53067   0.31911    0.000
 6717.00    0.64231   0.31547    0.000
 6718.00    0.75122   0.31554    0.000
 6719.00    0.65367   0.31995    0.000
 6720.00    0.56068   0.32343    0.000
 6721.00    0.55673   0.32368    0.000
 6722.00    0.55181   0.32358    0.000
 6723.00    0.53584   0.32509    0.000
 6724.00    0.52028   0.32632    0.000
 6725.00    0.50804   0.32538    0.000
 6726.00    0.49846   0.32369    0.000
 6727.00    0.50489   0.32366    0.000
 6728.00    0.51588   0.32508    0.000
 6729.00    0.54846   0.32633    0.000
 6730.00    0.55989   0.32709    0.000
 6731.00    0.48960   0.32712    0.000
 6732.00    0.45359   0.32633    0.000
 6733.00    0.52800   0.32522    0.000
 6734.00    0.56605   0.32483    0.000
 6735.00    0.50496   0.32536    0.000
 6736.00    0.46862   0.32601    0.000
 6737.00    0.49012   0.32506    0.000
 6738.00    0.49859   0.32262    0.000
 6739.00    0.48073   0.32093    0.000
 6740.00    0.48661   0.32155    0.000
 6741.00    0.53425   0.32280    0.000
 6742.00    0.54497   0.32192    0.000
 6743.00    0.49884   0.32025    0.000
 6744.00    0.47933   0.32077    0.000
 6745.00    0.49580   0.32194    0.000
 6746.00    0.48983   0.32166    0.000
 6747.00    0.45713   0.32075    0.000
 6748.00    0.43681   0.31977    0.000
 6749.00    0.42946   0.31839    0.000
 6750.00    0.46218   0.31753    0.000
 6751.00    0.53201   0.31821    0.000
 6752.00    0.57414   0.31824    0.000
 6753.00    0.59364   0.31761    0.007
 6754.00    0.59629   0.31900    0.007
 6755.00    0.58683   0.32095    0.007
 6756.00    0.52355   0.32208    0.008
 6757.00    0.42632   0.32326    0.008
 6758.00    0.36493   0.32449    0.008
 6759.00    0.32329   0.32532    0.008
 6760.00    0.40260   0.32549    0.008
 6761.00    0.53989   0.32487    0.008
 6762.00    0.66285   0.32384    0.008
 6763.00    0.77988   0.32372    0.008
 6764.00    0.82674   0.32394    0.008
 6765.00    0.84878   0.32304    0.008
 6766.00    0.82699   0.32030    0.008
 6767.00    0.79212   0.31734    0.007
 6768.00    0.77228   0.31687    0.007
 6769.00    0.75617   0.31860    0.007
 6770.00    0.67484   0.31914    0.007
 6771.00    0.58043   0.31805    0.007
 6772.00    0.53921   0.31847    0.007
 6773.00    0.50635   0.32080    0.007
 6774.00    0.46213   0.32307    0.007
 6775.00    0.41658   0.32437    0.007
 6776.00    0.46027   0.32481    0.007
 6777.00    0.51100   0.32455    0.007
 6778.00    0.54020   0.32456    0.007
 6779.00    0.56847   0.32499    0.008
 6780.00    0.58354   0.32466    0.008
 6781.00    0.59616   0.32286    0.008
 6782.00    0.50067   0.31968    0.008
 6783.00    0.41339   0.31576    0.007
 6784.00    0.47491   0.31300    0.007
 6785.00    0.52892   0.31284    0.007
 6786.00    0.50060   0.31427    0.007
 6787.00    0.48690   0.31645    0.007
 6788.00    0.58552   0.31847    0.007
 6789.00    0.66540   0.31898    0.007
 6790.00    0.63604   0.31853    0.007
 6791.00    0.60290   0.31861    0.007
 6792.00    0.55224   0.31848    0.007
 6793.00    0.53664   0.31703    0.007
 6794.00    0.65361   0.31605    0.007
 6795.00    0.70334   0.31647    0.007
 6796.00    0.54077   0.31707    0.007
 6797.00    0.43630   0.31767    0.007
 6798.00    0.48741   0.31795    0.007
 6799.00    0.53923   0.31812    0.007
 6800.00    0.59266   0.31876    0.008
 6801.00    0.61178   0.31944    0.008
 6802.00    0.56266   0.31960    0.008
 6803.00    0.54074   0.31883    0.008
 6804.00    0.56593   0.31789    0.008
 6805.00    0.50410   0.31787    0.008
 6806.00    0.31025   0.31738    0.008
 6807.00    0.30190   0.31663    0.007
 6808.00    0.54075   0.31723    0.007
 6809.00    0.60580   0.31730    0.007
 6810.00    0.46686   0.31645    0.007
 6811.00    0.46435   0.31662    0.007
 6812.00    0.60307   0.31724    0.007
 6813.00    0.63422   0.31684    0.008
 6814.00    0.56717   0.31519    0.008
 6815.00    0.45740   0.31400    0.008
 6816.00    0.31326   0.31539    0.007
 6817.00    0.33236   0.31774    0.007
 6818.00    0.46702   0.31807    0.007
 6819.00    0.48604   0.31644    0.007
 6820.00    0.43323   0.31495    0.007
 6821.00    0.39833   0.31555    0.007
 6822.00    0.37313   0.31758    0.007
 6823.00    0.39460   0.31888    0.007
 6824.00    0.43807   0.31916    0.007
 6825.00    0.53376   0.31901    0.008
 6826.00    0.65069   0.31830    0.008
 6827.00    0.67733   0.31606    0.008
 6828.00    0.67263   0.31331    0.008
 6829.00    0.60145   0.31293    0.008
 6830.00    0.51083   0.31498    0.008
 6831.00    0.45706   0.31666    0.008
 6832.00    0.41223   0.31626    0.008
 6833.00    0.51230   0.31535    0.008
 6834.00    0.64073   0.31612    0.008
 6835.00    0.70451   0.31737    0.008
 6836.00    0.75844   0.31721    0.008
 6837.00    0.74417   0.31575    0.008
 6838.00    0.72224   0.31376    0.008
 6839.00    0.57918   0.31132    0.008
 6840.00    0.42707   0.30862    0.008
 6841.00    0.30379   0.30594    0.008
 6842.00    0.18165   0.30509    0.008
 6843.00    0.21719   0.30720    0.008
 6844.00    0.25650   0.31093    0.008
 6845.00    0.40259   0.31375    0.008
 6846.00    0.53694   0.31440    0.008
 6847.00    0.47278   0.31415    0.008
 6848.00    0.42193   0.31418    0.008
 6849.00    0.51021   0.31407    0.008
 6850.00    0.56965   0.31374    0.008
 6851.00    0.41488   0.31369    0.008
 6852.00    0.30530   0.31404    0.008
 6853.00    0.45185   0.31371    0.008
 6854.00    0.57896   0.31089    0.008
 6855.00    0.61831   0.30725    0.008
 6856.00    0.63171   0.30667    0.008
 6857.00    0.54904   0.30809    0.007
 6858.00    0.47666   0.30917    0.007
 6859.00    0.43615   0.30990    0.007
 6860.00    0.39384   0.30895    0.007
 6861.00    0.34679   0.30648    0.007
 6862.00    0.31669   0.30628    0.007
 6863.00    0.32491   0.30974    0.007
 6864.00    0.38654   0.31332    0.008
 6865.00    0.55272   0.31390    0.008
 6866.00    0.62375   0.31187    0.008
 6867.00    0.53240   0.30882    0.008
 6868.00    0.51816   0.30662    0.008
 6869.00    0.61917   0.30747    0.008
 6870.00    0.61325   0.30961    0.008
 6871.00    0.46686   0.30933    0.008
 6872.00    0.42627   0.30755    0.008
 6873.00    0.50810   0.30741    0.008
 6874.00    0.56095   0.30856    0.008
 6875.00    0.58421   0.30912    0.008
 6876.00    0.57262   0.30969    0.008
 6877.00    0.52968   0.31129    0.008
 6878.00    0.50859   0.31293    0.007
 6879.00    0.50484   0.31308    0.007
 6880.00    0.50837   0.31166    0.007
 6881.00    0.51699   0.30893    0.007
 6882.00    0.50244   0.30584    0.007
 6883.00    0.47371   0.30503    0.007
 6884.00    0.49931   0.30709    0.007
 6885.00    0.55394   0.30905    0.007
 6886.00    0.54708   0.30906    0.007
 6887.00    0.51170   0.30971    0.007
 6888.00    0.43950   0.31143    0.007
 6889.00    0.35260   0.31242    0.007
 6890.00    0.34723   0.31311    0.007
 6891.00    0.36965   0.31386    0.007
 6892.00    0.43108   0.31337    0.008
 6893.00    0.50369   0.31235    0.008
 6894.00    0.49611   0.31183    0.008
 6895.00    0.46954   0.31094    0.008
 6896.00    0.48077   0.31018    0.008
 6897.00    0.49920   0.31071    0.008
 6898.00    0.50055   0.31175    0.008
 6899.00    0.49938   0.31139    0.008
 6900.00    0.45525   0.30989    0.008
 6901.00    0.40648   0.30994    0.008
 6902.00    0.46643   0.31176    0.008
 6903.00    0.53407   0.31259    0.008
 6904.00    0.43119   0.31181    0.007
 6905.00    0.32219   0.31115    0.007
 6906.00    0.43083   0.31185    0.007
 6907.00    0.53562   0.31323    0.007
 6908.00    0.48235   0.31368    0.007
 6909.00    0.43150   0.31333    0.007
 6910.00    0.41900   0.31268    0.007
 6911.00    0.40819   0.31162    0.007
 6912.00    0.41435   0.31027    0.008
 6913.00    0.42917   0.30816    0.008
 6914.00    0.50624   0.30585    0.008
 6915.00    0.56663   0.30577    0.008
 6916.00    0.53503   0.30673    0.008
 6917.00    0.48856   0.30704    0.008
 6918.00    0.37650   0.30792    0.008
 6919.00    0.30649   0.30920    0.007
 6920.00    0.38889   0.31047    0.008
 6921.00    0.47046   0.31158    0.008
 6922.00    0.54951   0.31154    0.008
 6923.00    0.57967   0.30951    0.008
 6924.00    0.48347   0.30601    0.008
 6925.00    0.44278   0.30368    0.008
 6926.00    0.52546   0.30413    0.007
 6927.00    0.57578   0.30685    0.007
 6928.00    0.56377   0.30921    0.007
 6929.00    0.47856   0.30990    0.007
 6930.00    0.27032   0.30985    0.008
 6931.00    0.23893   0.30929    0.008
 6932.00    0.46799   0.30787    0.008
 6933.00    0.60888   0.30619    0.008
 6934.00    0.63560   0.30674    0.008
 6935.00    0.61358   0.30860    0.008
 6936.00    0.53595   0.30908    0.008
 6937.00    0.46788   0.30853    0.008
 6938.00    0.40943   0.30829    0.008
 6939.00    0.41154   0.30891    0.008
 6940.00    0.46741   0.30991    0.008
 6941.00    0.38184   0.31035    0.008
 6942.00    0.18567   0.30941    0.008
 6943.00    0.16297   0.30704    0.008
 6944.00    0.25955   0.30386    0.008
 6945.00    0.33864   0.30167    0.007
 6946.00    0.40720   0.30307    0.008
 6947.00    0.44353   0.30641    0.008
 6948.00    0.46290   0.30862    0.008
 6949.00    0.49233   0.30932    0.008
 6950.00    0.52635   0.30825    0.007
 6951.00    0.48275   0.30581    0.007
 6952.00    0.40865   0.30443    0.007
 6953.00    0.38238   0.30418    0.007
 6954.00    0.37211   0.30401    0.008
 6955.00    0.46420   0.30466    0.008
 6956.00    0.58504   0.30645    0.008
 6957.00    0.47225   0.30786    0.008
 6958.00    0.30538   0.30794    0.008
 6959.00    0.32113   0.30765    0.008
 6960.00    0.37077   0.30756    0.008
 6961.00    0.42309   0.30790    0.008
 6962.00    0.47579   0.30822    0.008
 6963.00    0.50897   0.30847    0.008
 6964.00    0.54012   0.30848    0.008
 6965.00    0.62230   0.30755    0.008
 6966.00    0.70788   0.30664    0.008
 6967.00    0.58063   0.30755    0.008
 6968.00    0.44659   0.30941    0.008
 6969.00    0.50001   0.30984    0.008
 6970.00    0.55068   0.30847    0.008
 6971.00    0.51712   0.30683    0.008
 6972.00    0.48608   0.30706    0.008
 6973.00    0.49271   0.30825    0.008
 6974.00    0.49910   0.30771    0.008
 6975.00    0.50321   0.30523    0.008
 6976.00    0.50932   0.30210    0.008
 6977.00    0.52931   0.29774    0.008
 6978.00    0.54851   0.29228    0.008
 6979.00    0.56343   0.29063    0.008
 6980.00    0.55754   0.29539    0.008
 6981.00    0.46199   0.30150    0.008
 6982.00    0.39268   0.30529    0.008
 6983.00    0.41652   0.30733    0.008
 6984.00    0.43498   0.30813    0.008
 6985.00    0.43738   0.30807    0.008
 6986.00    0.44561   0.30785    0.008
 6987.00    0.46864   0.30715    0.008
 6988.00    0.50226   0.30535    0.008
 6989.00    0.55904   0.30334    0.008
 6990.00    0.57948   0.30316    0.008
 6991.00    0.53099   0.30499    0.008
 6992.00    0.43257   0.30694    0.008
 6993.00    0.25146   0.30712    0.008
 6994.00    0.17411   0.30577    0.007
 6995.00    0.24737   0.30518    0.007
 6996.00    0.29498   0.30590    0.008
 6997.00    0.30986   0.30644    0.008
 6998.00    0.35866   0.30520    0.008
 6999.00    0.44561   0.30198    0.008
 7000.00    0.47912   0.29972    0.008
 7001.00    0.45962   0.30099    0.008
 7002.00    0.40186   0.30358    0.008
 7003.00    0.31064   0.30374    0.008
 7004.00    0.29104   0.30124    0.008
 7005.00    0.32666   0.29941    0.008
 7006.00    0.25466   0.29955    0.008
 7007.00    0.10973   0.30072    0.008
 7008.00    0.08567   0.30230    0.008
 7009.00    0.13338   0.30376    0.008
 7010.00    0.26619   0.30394    0.008
 7011.00    0.44305   0.30298    0.008
 7012.00    0.44844   0.30270    0.008
 7013.00    0.37684   0.30352    0.008
 7014.00    0.37859   0.30265    0.008
 7015.00    0.40866   0.29789    0.008
 7016.00    0.44481   0.29212    0.008
 7017.00    0.48297   0.29206    0.008
 7018.00    0.49312   0.29793    0.008
 7019.00    0.49557   0.30327    0.008
 7020.00    0.51781   0.30542    0.008
 7021.00    0.54453   0.30538    0.008
 7022.00    0.61794   0.30308    0.008
 7023.00    0.69978   0.29903    0.008
 7024.00    0.64619   0.29616    0.008
 7025.00    0.57383   0.29685    0.008
 7026.00    0.54002   0.29937    0.008
 7027.00    0.51002   0.30068    0.008
 7028.00    0.42969   0.30117    0.008
 7029.00    0.34621   0.30206    0.008
 7030.00    0.40667   0.30307    0.008
 7031.00    0.47067   0.30355    0.008
 7032.00    0.38763   0.30315    0.008
 7033.00    0.30610   0.30229    0.008
 7034.00    0.26614   0.30171    0.008
 7035.00    0.22810   0.30220    0.008
 7036.00    0.21714   0.30302    0.008
 7037.00    0.19824   0.30102    0.008
 7038.00    0.10620   0.29661    0.008
 7039.00    0.03763   0.29653    0.008
 7040.00    0.12726   0.30229    0.008
 7041.00    0.23056   0.30798    0.008
 7042.00    0.40535   0.31048    0.008
 7043.00    0.56249   0.31028    0.008
 7044.00    0.64528   0.30796    0.008
 7045.00    0.67534   0.30563    0.008
 7046.00    0.52199   0.30583    0.008
 7047.00    0.42330   0.30803    0.008
 7048.00    0.48464   0.30996    0.008
 7049.00    0.50958   0.31008    0.008
 7050.00    0.44368   0.30863   -2.000
 7051.00    0.38966   0.30597   -2.000
 7052.00    0.36120   0.30130   -2.000
 7053.00    0.36508   0.29625   -2.000
 7054.00    0.42936   0.29361   -2.000
 7055.00    0.46620   0.29350   -2.000
 7056.00    0.45825   0.29533   -2.000
 7057.00    0.42724   0.29731   -2.000
 7058.00    0.36324   0.29737   -2.000
 7059.00    0.38084   0.29487   -2.000
 7060.00    0.50112   0.29196   -2.000
 7061.00    0.56241   0.29138   -2.000
 7062.00    0.55829   0.29249   -2.000
 7063.00    0.49108   0.29381   -2.000
 7064.00    0.36217   0.29534   -2.000
 7065.00    0.30901   0.29550   -2.000
 7066.00    0.32119   0.29324   -2.000
 7067.00    0.41450   0.29014   -2.000
 7068.00    0.56943   0.28782   -2.000
 7069.00    0.46858   0.28845   -2.000
 7070.00    0.19694   0.29220   -2.000
 7071.00    0.17432   0.29551   -2.000
 7072.00    0.29733   0.29673   -2.000
 7073.00    0.39537   0.29718   -2.000
 7074.00    0.48067   0.29744   -2.000
 7075.00    0.58931   0.29701   -2.000
 7076.00    0.70826   0.29625   -2.000
 7077.00   -0.18823   0.29595   -2.000
 7078.00   -1.46977   0.29631   -2.000
 7079.00   -0.98740   0.29660   -2.000
 7080.00    0.06297   0.29697   -2.000
 7081.00    0.29481   0.29715   -2.000
 7082.00    0.30615   0.29534   -2.000
 7083.00    0.31477   0.29085   -2.000
 7084.00    0.32280   0.28533   -2.000
 7085.00    0.35139   0.28263   -2.000
 7086.00    0.38359   0.28343   -2.000
 7087.00    0.29244   0.28346   -2.000
 7088.00    0.18476   0.28170   -2.000
 7089.00    0.22612   0.28019   -2.000
 7090.00    0.28165   0.27936   -2.000
 7091.00    0.23639   0.27966   -2.000
 7092.00    0.18522   0.28055   -2.000
 7093.00    0.29842   0.28043   -2.000
 7094.00    0.41474   0.28022   -2.000
 7095.00    0.40616   0.28010   -2.000
 7096.00    0.39651   0.28004   -2.000
 7097.00    0.36052   0.28040   -2.000
 7098.00    0.32942   0.28185   -2.000
 7099.00    0.36333   0.28521   -2.000
 7100.00    0.38580   0.28686   -2.000
 7101.00    0.30685   0.28616   -2.000
 7102.00    0.23985   0.28441   -2.000
 7103.00    0.25080   0.28371   -2.000
 7104.00    0.26345   0.28504   -2.000
 7105.00    0.28469   0.28682   -2.000
 7106.00    0.30636   0.28666   -2.000
 7107.00    0.32977   0.28529   -2.000
 7108.00    0.35746   0.28502   -2.000
 7109.00    0.39974   0.28511   -2.000
 7110.00    0.44712   0.28346   -2.000
 7111.00    0.50914   0.28103   -2.000
 7112.00    0.49336   0.28067   -2.000
 7113.00    0.28665   0.28264   -2.000
 7114.00    0.16908   0.28457   -2.000
 7115.00    0.24012   0.28544   -2.000
 7116.00    0.27285   0.28621   -2.000
 7117.00    0.23514   0.28672   -2.000
 7118.00    0.27697   0.28649   -2.000
 7119.00    0.44661   0.28609   -2.000
 7120.00    0.55548   0.28575   -2.000
 7121.00    0.57866   0.28489   -2.000
 7122.00    0.61220   0.28364   -2.000
 7123.00    0.65859   0.28423   -2.000
 7124.00    0.18214   0.28520   -2.000
 7125.00   -0.86593   0.28321   -2.000
 7126.00   -0.88001   0.28002   -2.000
 7127.00    0.10307   0.27901   -2.000
 7128.00    0.51311   0.27976   -2.000
 7129.00    0.43587   0.27905   -2.000
 7130.00    0.42563   0.27598   -2.000
 7131.00    0.46557   0.27392   -2.000
 7132.00    0.41786   0.27556   -2.000
 7133.00    0.31247   0.27871   -2.000
 7134.00    0.31833   0.28123   -2.000
 7135.00    0.38826   0.28245   -2.000
 7136.00    0.47032   0.28276   -2.000
 7137.00    0.55848   0.28320   -2.000
 7138.00    0.62259   0.28237   -2.000
 7139.00    0.67626   0.28065   -2.000
 7140.00    0.48576   0.28067   -2.000
 7141.00    0.20431   0.28235   -2.000
 7142.00    0.08164   0.28308   -2.000
 7143.00    0.00913   0.28281   -2.000
 7144.00    0.16587   0.28259   -2.000
 7145.00    0.38307   0.28239   -2.000
 7146.00    0.33897   0.28169   -2.000
 7147.00    0.23855   0.27869   -2.000
 7148.00    0.29329   0.27463   -2.000
 7149.00    0.37456   0.27448   -2.000
 7150.00    0.27589   0.27746   -2.000
 7151.00    0.15393   0.28021   -2.000
 7152.00    0.24274   0.28294   -2.000
 7153.00    0.35070   0.28513   -2.000
 7154.00    0.33092   0.28495   -2.000
 7155.00    0.30414   0.28349   -2.000
 7156.00    0.33687   0.28409   -2.000
 7157.00    0.37115   0.28637   -2.000
 7158.00    0.43326   0.28644   -2.000
 7159.00    0.50229   0.28413   -2.000
 7160.00    0.72840   0.28239   -2.000
 7161.00    0.94162   0.28290   -2.000
 7162.00    0.99266   0.28395   -2.000
 7163.00    0.99333   0.28166   -2.000
 7164.00    0.56424   0.27638   -2.000
 7165.00    0.20615   0.27318   -2.000
 7166.00    0.29799   0.27554   -2.000
 7167.00    0.39495   0.28048   -2.000
 7168.00    0.51731   0.28345   -2.000
 7169.00    0.61583   0.28354   -2.000
 7170.00    0.61845   0.28302   -2.000
 7171.00    0.58120   0.28382   -2.000
 7172.00    0.41075   0.28555   -2.000
 7173.00    0.26301   0.28644   -2.000
 7174.00    0.17933   0.28577   -2.000
 7175.00    0.13539   0.28363   -2.000
 7176.00    0.18728   0.28140   -2.000
 7177.00    0.28011   0.28178   -2.000
 7178.00    0.45817   0.28365   -2.000
 7179.00    0.59041   0.28259   -2.000
 7180.00    0.63967   0.27822   -2.000
 7181.00    0.62148   0.27499   -2.000
 7182.00    0.49651   0.27647   -2.000
 7183.00    0.43111   0.28122   -2.000
 7184.00    0.44849   0.28424   -2.000
 7185.00    0.40895   0.28392   -2.000
 7186.00    0.29979   0.28087   -2.000
 7187.00    0.27518   0.27575   -2.000
 7188.00    0.34171   0.27248   -2.000
 7189.00    0.37356   0.27288   -2.000
 7190.00    0.37243   0.27551   -2.000
 7191.00    0.31856   0.27869   -2.000
 7192.00    0.22046   0.27954   -2.000
 7193.00    0.13289   0.27878   -2.000
 7194.00    0.05308   0.27914   -2.000
 7195.00    0.11509   0.28076   -2.000
 7196.00    0.26905   0.28052   -2.000
 7197.00    0.31657   0.27853   -2.000
 7198.00    0.30371   0.27857   -2.000
 7199.00    0.49356   0.28039   -2.000
 7200.00    0.78352   0.28099   -2.000
 7201.00    0.79370   0.27927   -2.000
 7202.00    0.68440   0.27764   -2.000
 7203.00    0.54599   0.27907   -2.000
 7204.00    0.39692   0.28215   -2.000
 7205.00    0.33402   0.28270   -2.000
 7206.00    0.29782   0.27835   -2.000
 7207.00    0.25838   0.27200   -2.000
 7208.00    0.21811   0.27004   -2.000
 7209.00    0.25603   0.27280   -2.000
 7210.00    0.31040   0.27721   -2.000
 7211.00    0.41347   0.28114   -2.000
 7212.00    0.52462   0.28181   -2.000
 7213.00    0.53067   0.28002   -2.000
 7214.00    0.52358   0.27844   -2.000
 7215.00    0.52517   0.27804   -2.000
 7216.00    0.52752   0.27876   -2.000
 7217.00    0.37761   0.28072   -2.000
 7218.00    0.21996   0.28269   -2.000
