###################################################################
## OUTPUT of StarlightChains_v04.for    [Cid@UFSC - 01/Apr/2007] ##
###################################################################

## Some input info
KUG0210-078._42_52.txt                   [arq_obs]
Base.CB07.vall.4m                        [arq_base]
Masks.EmLines.NEW.gm                     [arq_masks]
StCv04.C11.config                        [arq_config]
   66                                    [N_base]
    0                                    [N_YAV_components = # of components with extra extinction!]
    0                                    [i_FitPowerLaw (1/0 = Yes/No)]
-9.99                                    [alpha_PowerLaw]
CCM                                      [red_law_option]
 1.458241                                [q_norm = A(l_norm)/A(V)]

## (Re)Sampling Parameters
 3741.00                                 [l_ini (A)]
 7218.00                                 [l_fin (A)]
    1.00                                 [dl    (A)]     (OBS: dl_cushion =    50.00 A)

## Normalization info
 4020.00                                 [l_norm (A) - for base]
 4010.00                                 [llow_norm (A) - window for f_obs]
 4060.00                                 [lupp_norm (A) - window for f_obs]
6.358268E-18                             [fobs_norm (in input units)]

## S/N
 3691.00                                 [llow_SN (A) - window for S/N]
 7268.00                                 [lupp_SN (A) - window for S/N]
   2.621                                 [S/N in S/N window]
   3.367                                 [S/N in norm. window]
   0.005                                 [S/N_err in S/N window]
   0.007                                 [S/N_err in norm. window]
  1.0000                                 [fscale_chi2]

## etc...
    -2007791                             [idum_orig]
  2309                                   [NOl_eff]
  2291                                   [Nl_eff]
    18    NSIGMA                         [Ntot_cliped & clip_method]
  1699950                                [Nglobal_steps]
   7                                     [N_chains]
  33                                     [NEX0s_base = N_base in EX0s-fits]
 0   1   1       20   2.0   1.214E+03    [Clip-Bug, RC-Crash & Burn-In warning-flags, n_censored_weights, wei_nsig_threshold & wei_limit]
    46     45.744     45.128      0.616  [idt_all, wdt_TotTime, wdt_UsrTime & wdt_SysTime (sec)]

## Synthesis Results - Best model ##

 6.04311E-04                             [chi2/Nl_eff]
    45.74545                             [adev (%)]

    74.94296                             [sum-of-x (%)]
 2.44335E-18                             [Flux_tot (units of input spectrum!)]
 6.04535E-14                             [Mini_tot (???)]
 3.16147E-14                             [Mcor_tot (???)]

-485.28                                  [v0_min  (km/s)]
  34.44                                  [vd_min  (km/s)]
-0.4973                                  [AV_min  (mag)]
 0.0000                                  [YAV_min (mag)]

# j     x_j(%)      Mini_j(%)     Mcor_j(%)     age_j(yr)     Z_j      (L/M)_j    YAV?  Mstars   component_j        a/Fe...       SSP_chi2r SSP_adev(%)   SSP_AV   SSP_x(%)
  1      0.1897     9.3534E-04    1.7885E-03    1.000000E+06  0.00400  1.094E-02    0   1.0000   age020_m42            0.0000     2.1663E-05    45.1213   2.6209    70.8731
  2      0.0000     0.0000E+00    0.0000E+00    3.160000E+06  0.00400  4.007E-02    0   0.9999   age045_m42            0.0000     2.3011E-05    45.9677   1.9002    74.4354
  3      0.0000     0.0000E+00    0.0000E+00    5.010000E+06  0.00400  2.539E-02    0   0.9488   age055_m42            0.0000     2.4895E-05    45.6785   2.2226    72.8235
  4      0.0000     0.0000E+00    0.0000E+00    6.610000E+06  0.00400  2.620E-02    0   0.9220   age061_m42            0.0000     2.4460E-05    45.8770   1.8426    74.0843
  5      0.0000     0.0000E+00    0.0000E+00    1.000000E+07  0.00400  1.322E-02    0   0.8862   age070_m42            0.0000     2.6345E-05    46.8435   1.5064    76.2805
  6      0.4655     3.1846E-03    5.2194E-03    1.445000E+07  0.00400  7.883E-03    0   0.8571   age078_m42            0.0000     2.4482E-05    46.5403   1.8389    74.6952
  7      0.1184     1.2161E-03    1.9007E-03    2.512000E+07  0.00400  5.251E-03    0   0.8174   age090_m42            0.0000     2.3499E-05    47.0170   1.3748    76.4489
  8      0.0078     1.1490E-04    1.7250E-04    4.000000E+07  0.00400  3.649E-03    0   0.7851   age104_m42            0.0000     2.2571E-05    47.0008   1.1543    76.6989
  9      0.0000     0.0000E+00    0.0000E+00    5.500000E+07  0.00400  3.098E-03    0   0.7629   age110_m42            0.0000     2.3045E-05    46.7680   1.3260    76.6116
 10      0.4770     1.1545E-02    1.5911E-02    1.015200E+08  0.00400  2.228E-03    0   0.7207   age116_m42            0.0000     2.3204E-05    46.5656   1.3675    76.1987
 11      0.0000     0.0000E+00    0.0000E+00    2.861200E+08  0.00400  1.093E-03    0   0.6648   age125_m42            0.0000     2.3514E-05    46.8052   0.8071    77.2110
 12      0.0000     0.0000E+00    0.0000E+00    5.088000E+08  0.00400  6.597E-04    0   0.6365   age130_m42            0.0000     2.3998E-05    46.8087   0.8015    77.6690
 13      2.0879     5.2815E-01    5.8556E-01    1.434000E+09  0.00400  2.132E-04    0   0.5798   age139_m42            0.0000     2.4040E-05    46.7868  -0.1531    77.6361
 14      1.9237     1.7599E+00    1.8095E+00    4.250000E+09  0.00400  5.895E-05    0   0.5377   age158_m42            0.0000     2.4444E-05    45.6925  -0.5345    73.1195
 15      4.0906     6.2850E+00    6.2639E+00    7.500000E+09  0.00400  3.510E-05    0   0.5212   age171_m42            0.0000     2.4893E-05    45.5038  -0.7078    72.1614
 16      0.5734     1.5424E+00    1.4847E+00    1.300000E+10  0.00400  2.005E-05    0   0.5034   age193_m42            0.0000     2.5830E-05    45.3938  -0.8754    72.0947
 17      2.0075     7.0993E+00    6.7429E+00    1.800000E+10  0.00400  1.525E-05    0   0.4967   age213_m42            0.0000     2.4607E-05    45.3390  -0.8854    71.1506
 18      0.0000     0.0000E+00    0.0000E+00    1.000000E+06  0.00800  1.238E-02    0   1.0000   age020_m52            0.0000     2.5679E-05    45.1709   2.6141    71.1301
 19      0.0000     0.0000E+00    0.0000E+00    3.160000E+06  0.00800  3.074E-02    0   0.9966   age045_m52            0.0000     2.1964E-05    45.3491   2.5360    71.7339
 20      0.0000     0.0000E+00    0.0000E+00    5.010000E+06  0.00800  2.668E-02    0   0.9443   age055_m52            0.0000     2.6978E-05    45.6947   2.2948    72.7588
 21      0.0000     0.0000E+00    0.0000E+00    6.610000E+06  0.00800  2.136E-02    0   0.9177   age061_m52            0.0000     2.2016E-05    46.8147   0.9911    77.3929
 22      0.0291     1.2928E-04    2.1821E-04    1.000000E+07  0.00800  1.215E-02    0   0.8827   age070_m52            0.0000     2.3088E-05    47.3465   1.6526    76.9504
 23      0.0000     0.0000E+00    0.0000E+00    1.445000E+07  0.00800  8.717E-03    0   0.8552   age078_m52            0.0000     2.3955E-05    46.9235   1.7864    75.9427
 24      0.6904     6.6582E-03    1.0392E-02    2.512000E+07  0.00800  5.592E-03    0   0.8162   age090_m52            0.0000     2.2342E-05    47.4865   1.4191    77.5745
 25      0.0000     0.0000E+00    0.0000E+00    4.000000E+07  0.00800  3.896E-03    0   0.7841   age104_m52            0.0000     2.6091E-05    47.3117   1.3547    77.3611
 26      0.0863     2.1663E-03    2.9932E-03    1.015200E+08  0.00800  2.148E-03    0   0.7226   age116_m52            0.0000     2.7129E-05    46.8925   1.3214    76.6021
 27      0.0000     0.0000E+00    0.0000E+00    2.861200E+08  0.00800  9.925E-04    0   0.6683   age125_m52            0.0000     2.4068E-05    46.8424   0.8650    78.5341
 28      1.4139     2.4276E-01    2.8493E-01    9.047900E+08  0.00800  3.141E-04    0   0.6138   age135_m52            0.0000     2.4160E-05    46.9637   0.0759    80.6860
 29      4.4952     1.4103E+00    1.5784E+00    1.434000E+09  0.00800  1.719E-04    0   0.5853   age139_m52            0.0000     2.4371E-05    46.6621  -0.4742    76.9964
 30      0.0000     0.0000E+00    0.0000E+00    2.500000E+09  0.00800  7.872E-05    0   0.5600   age150_m52            0.0000     2.4967E-05    45.8496  -0.6903    73.7234
 31      0.0539     6.7084E-02    6.9603E-02    4.250000E+09  0.00800  4.336E-05    0   0.5426   age158_m52            0.0000     2.5014E-05    45.6781  -0.6996    72.9591
 32      2.7807     4.7472E+00    4.8284E+00    6.250000E+09  0.00800  3.159E-05    0   0.5319   age166_m52            0.0000     2.6086E-05    45.4131  -0.8778    72.1800
 33      0.0000     0.0000E+00    0.0000E+00    1.300000E+10  0.00800  1.361E-05    0   0.5073   age193_m52            0.0000     2.6246E+00    41.4863  -1.0000    63.8992
 34      0.0000     0.0000E+00    0.0000E+00    1.800000E+10  0.00800  9.886E-06    0   0.4990   age213_m52            0.0000     4.3300E+00    40.5952  -1.0000    61.2224
 35      0.0000     0.0000E+00    0.0000E+00    1.000000E+06  0.02000  1.544E-02    0   1.0000   age020_m62            0.0000     2.1617E-05    45.2928   2.6009    71.6343
 36      0.0000     0.0000E+00    0.0000E+00    3.160000E+06  0.02000  3.762E-02    0   0.9858   age045_m62            0.0000     2.1631E-05    45.5285   2.5300    72.7112
 37      0.0000     0.0000E+00    0.0000E+00    5.010000E+06  0.02000  3.296E-02    0   0.9342   age055_m62            0.0000     2.6276E-05    45.8590   2.1760    74.2134
 38      0.0000     0.0000E+00    0.0000E+00    8.710000E+06  0.02000  1.154E-02    0   0.8861   age067_m62            0.0000     2.1381E-05    49.6079   0.9880    80.6288
 39      0.0000     0.0000E+00    0.0000E+00    1.445000E+07  0.02000  7.663E-03    0   0.8472   age078_m62            0.0000     2.3208E-05    48.2557   1.2570    78.8308
 40      0.0000     0.0000E+00    0.0000E+00    2.512000E+07  0.02000  4.532E-03    0   0.8099   age090_m62            0.0000     2.6281E-05    48.3112   1.2616    77.8223
 41      0.0000     0.0000E+00    0.0000E+00    5.500000E+07  0.02000  2.733E-03    0   0.7595   age110_m62            0.0000     2.2938E-05    47.2027   1.3401    76.5742
 42      1.3473     5.3076E-02    7.0892E-02    1.609000E+08  0.02000  1.369E-03    0   0.6985   age120_m62            0.0000     2.6066E-05    46.9798   1.2099    78.0153
 43      0.5545     3.3178E-02    4.2596E-02    2.861200E+08  0.02000  9.013E-04    0   0.6714   age125_m62            0.0000     2.4927E-05    47.1530   0.9541    80.3428
 44      0.0000     0.0000E+00    0.0000E+00    5.088000E+08  0.02000  5.028E-04    0   0.6449   age130_m62            0.0000     2.4483E-05    47.0536   0.5865    82.1300
 45      0.1740     3.8658E-02    4.5676E-02    9.047900E+08  0.02000  2.428E-04    0   0.6179   age135_m62            0.0000     2.4552E-05    46.3033   0.0672    78.6623
 46      1.1275     4.8143E-01    5.4388E-01    1.434000E+09  0.02000  1.263E-04    0   0.5908   age139_m62            0.0000     2.5069E-05    45.8230  -0.3295    75.3028
 47      2.4101     2.1717E+00    2.3559E+00    2.500000E+09  0.02000  5.985E-05    0   0.5673   age150_m62            0.0000     2.6095E-05    45.4118  -0.6606    73.1470
 48      0.0000     0.0000E+00    0.0000E+00    4.250000E+09  0.02000  3.271E-05    0   0.5468   age158_m62            0.0000     2.6720E-05    44.9428  -0.9149    70.9222
 49      1.3641     5.4095E+00    5.3447E+00    1.000000E+10  0.02000  1.360E-05    0   0.5167   age181_m62            0.0000     1.0107E+00    42.1796  -1.0000    64.3796
 50      1.7852     1.3514E+01    1.2955E+01    1.800000E+10  0.02000  7.124E-06    0   0.5013   age213_m62            0.0000     3.7092E+00    40.3916  -1.0000    59.2276
 51      0.0000     0.0000E+00    0.0000E+00    1.000000E+06  0.05000  2.592E-02    0   0.9998   age020_m72            0.0000     2.3105E-05    45.2857   2.5899    71.6442
 52      0.0000     0.0000E+00    0.0000E+00    3.160000E+06  0.05000  4.845E-02    0   0.9577   age045_m72            0.0000     2.6805E-05    45.5698   2.4323    72.7606
 53      0.0000     0.0000E+00    0.0000E+00    5.010000E+06  0.05000  3.072E-02    0   0.9147   age055_m72            0.0000     2.1728E-05    47.3084   1.8787    76.3221
 54      0.1568     5.8113E-04    9.8645E-04    6.610000E+06  0.05000  1.455E-02    0   0.8877   age061_m72            0.0000     2.0928E-05    51.6220   0.9691    83.0146
 55      0.8118     4.8250E-03    7.8646E-03    1.000000E+07  0.05000  9.074E-03    0   0.8524   age070_m72            0.0000     2.1813E-05    47.2444   2.1048    75.6307
 56      0.0000     0.0000E+00    0.0000E+00    2.512000E+07  0.05000  4.250E-03    0   0.7902   age090_m72            0.0000     2.6977E-05    47.4672   1.7969    75.8319
 57      0.0942     1.6456E-03    2.3972E-03    4.000000E+07  0.05000  3.087E-03    0   0.7618   age104_m72            0.0000     2.2650E-05    47.9763   1.5515    76.8358
 58      0.0000     0.0000E+00    0.0000E+00    1.015200E+08  0.05000  1.700E-03    0   0.7096   age116_m72            0.0000     2.3333E-05    47.5058   1.3251    78.0089
 59      0.0000     0.0000E+00    0.0000E+00    2.861200E+08  0.05000  7.384E-04    0   0.6633   age125_m72            0.0000     2.4476E-05    47.0730   0.8528    79.8846
 60      0.0000     0.0000E+00    0.0000E+00    5.088000E+08  0.05000  3.819E-04    0   0.6372   age130_m72            0.0000     2.4844E-05    46.5382   0.4017    79.5235
 61     37.1598     1.1957E+01    1.3970E+01    9.047900E+08  0.05000  1.676E-04    0   0.6110   age135_m72            0.0000     2.5616E-05    45.5837  -0.2228    75.4918
 62      0.0000     0.0000E+00    0.0000E+00    1.434000E+09  0.05000  8.837E-05    0   0.5874   age139_m72            0.0000     2.6451E-05    45.4397  -0.6539    73.6426
 63      2.2529     2.8703E+00    3.0725E+00    2.500000E+09  0.05000  4.233E-05    0   0.5598   age150_m72            0.0000     2.7624E-05    44.8924  -0.8983    70.7942
 64      0.9977     3.7494E+00    3.7633E+00    6.250000E+09  0.05000  1.435E-05    0   0.5249   age166_m72            0.0000     2.0218E+00    41.4036  -1.0000    61.6013
 65      0.6348     5.2564E+00    5.0618E+00    1.300000E+10  0.05000  6.513E-06    0   0.5036   age193_m72            0.0000     6.9972E+00    39.3548  -1.0000    56.1599
 66      2.5812     3.0749E+01    2.9076E+01    1.800000E+10  0.05000  4.527E-06    0   0.4945   age213_m72            0.0000     1.1178E+01    38.6294  -1.0000    52.5534


## Synthesis Results - Average & Chains ##

# j      x_j: min, <> & last-chain-values for 1 ...  7 chains
  1      0.1897      0.1822      0.0000      0.4605      0.0000      0.7028      0.6779      0.0000      0.4684
  2      0.0000      0.0976      0.0000      0.0856      0.0000      0.0000      0.0000      0.4656      0.1790
  3      0.0000      0.0860      0.0000      0.0000      0.2704      0.0000      0.0000      0.0000      0.0000
  4      0.0000      0.1044      0.0000      0.0084      0.1179      0.0000      0.0000      0.0875      0.0346
  5      0.0000      0.0770      0.7566      0.0057      0.0000      0.2529      0.0000      0.3974      0.0194
  6      0.4655      0.1840      0.0000      0.4799      0.0000      0.0000      0.0000      0.0000      0.4863
  7      0.1184      0.1629      0.0000      0.2764      0.6704      0.0000      0.0000      0.0000      0.0000
  8      0.0078      0.1954      0.0000      0.4704      0.0000      0.6903      0.0000      0.3874      0.0000
  9      0.0000      0.0962      0.0000      0.0027      0.0718      0.0000      0.1184      0.0000      0.0000
 10      0.4770      0.0840      0.1434      0.2701      0.0000      0.1465      0.0000      0.1946      0.5135
 11      0.0000      0.1511      0.0693      0.0014      0.0000      0.0000      0.4348      0.0000      0.0000
 12      0.0000      0.3399      0.0000      0.0900      0.0000      0.0000      0.5220      0.0433      0.0706
 13      2.0879      0.9179      0.0000      0.4840      0.3101      1.7837      0.0000      0.0810      0.0000
 14      1.9237      2.1458      0.0000      1.2354      0.5349      1.3120      1.7622      0.0000      0.8315
 15      4.0906      1.2318      0.8283      0.1266      0.0000      0.0000      0.0000      0.0000      0.1908
 16      0.5734      1.2776      0.0000      0.8415      0.4092      0.6635      0.0000      0.8789      0.2371
 17      2.0075      0.8887      0.0000      0.8875      1.3545      0.0000      0.0000      0.0000      1.3632
 18      0.0000      0.0468      0.1050      0.0494      0.0000      0.1441      0.1331      0.0000      0.0000
 19      0.0000      0.1421      0.0673      0.0000      0.0000      0.0000      0.0000      0.0000      0.0000
 20      0.0000      0.0707      0.7283      0.0047      0.5896      0.0000      0.0000      0.0097      0.0371
 21      0.0000      0.1396      0.1672      0.0295      0.4282      0.0000      0.3177      0.0000      0.0000
 22      0.0291      0.1243      0.0000      0.2419      0.0000      0.0000      0.0000      0.1463      0.2626
 23      0.0000      0.0908      0.7348      0.0510      0.0000      0.0000      0.0000      0.1166      0.0000
 24      0.6904      0.2267      0.0000      0.2385      0.0563      0.2241      0.0000      0.0000      0.1543
 25      0.0000      0.1061      0.5870      0.4811      0.0000      0.0000      0.0844      0.0000      0.5813
 26      0.0863      0.1188      0.4132      0.2253      0.2804      0.0000      0.0000      0.1077      0.0000
 27      0.0000      0.1654      0.0000      0.0788      0.0000      0.0000      0.0000      0.1964      0.0846
 28      1.4139      0.6047      0.3966      0.9346      1.7425      0.5224      0.1184      0.0000      1.1683
 29      4.4952      2.4299      0.2972      0.8688      1.7305      1.1918      2.0009      1.2725      0.1836
 30      0.0000      1.7754      0.1623      0.0630      1.5314      2.9390      2.5626      0.0000      0.0000
 31      0.0539      1.3241      0.7568      0.1165      2.5829      2.5355      0.0000      0.0000      0.0000
 32      2.7807      0.7009      0.8074      0.2580      0.0000      1.8435      1.2226      0.6491      0.0000
 33      0.0000      0.2676      0.0000      0.0879      0.2828      0.0000      0.0000      0.3277      0.1092
 34      0.0000      0.2201      0.0542      0.0967      0.3511      0.6941      0.0000      0.6505      0.0000
 35      0.0000      0.0721      0.0000      0.0103      0.0000      0.0000      0.0000      0.0000      0.0000
 36      0.0000      0.0477      0.0000      0.0409      0.5190      0.0000      0.0000      0.2360      0.0733
 37      0.0000      0.1004      0.0892      0.0387      0.2849      0.0000      0.0000      0.0009      0.0000
 38      0.0000      0.1619      0.0000      0.0000      0.0521      0.0000      0.0000      0.4062      0.0000
 39      0.0000      0.0768      0.5657      0.0856      0.3036      0.0000      0.0000      0.0772      0.0000
 40      0.0000      0.1027      0.2137      0.0622      0.0000      0.0000      0.0000      0.2318      0.0000
 41      0.0000      0.0938      0.0000      0.0082      0.0000      0.0000      0.0000      0.1493      0.0000
 42      1.3473      0.0936      0.0000      0.1499      0.2184      0.0000      0.1257      0.0000      0.2073
 43      0.5545      0.3956      0.3952      0.1409      1.9163      0.0435      0.1434      0.4554      0.2770
 44      0.0000      0.2233      0.8346      0.0556      0.0897      0.0056      0.0000      0.4200      0.0000
 45      0.1740      0.4318      0.0000      0.3094      0.2271      0.0000      0.5222      0.4546      0.4899
 46      1.1275      1.9911      0.2267      0.8077      0.3860      3.0725      0.0000      0.9596      0.0408
 47      2.4101      1.6506      0.0000      1.0451      0.9483      0.0000      0.0000      1.1736      0.4607
 48      0.0000      0.6902      0.2631      0.0948      0.0000      0.0000      1.5794      0.0000      0.0000
 49      1.3641      0.3054      0.3092      0.3781      0.7204      0.7749      0.0000      0.3421      0.4900
 50      1.7852      1.4927      1.8817      1.6782      0.8142      2.1644      2.0081      1.8108      1.6554
 51      0.0000      0.0894      0.0000      0.0238      0.0000      0.0000      0.0000      0.0000      0.1021
 52      0.0000      0.1076      0.0000      0.1001      0.0000      0.4144      0.4090      0.0868      0.1785
 53      0.0000      0.1136      0.0000      0.1031      0.0145      0.0000      0.0000      0.0000      0.2440
 54      0.1568      0.1122      0.0000      0.1744      0.0000      0.0000      0.0000      0.2845      0.2976
 55      0.8118      0.0753      0.0000      0.2748      0.0000      0.0000      0.0000      0.2380      0.3008
 56      0.0000      0.1070      0.0000      0.0096      0.0000      0.0000      0.0729      0.0000      0.0000
 57      0.0942      0.0975      0.0000      0.6304      0.5201      0.0000      0.0000      0.0000      0.3092
 58      0.0000      0.1566      0.0000      0.0042      0.4147      0.0000      0.0365      0.7002      0.0000
 59      0.0000      0.1960      0.0000      0.0287      0.0000      1.1702      0.0885      0.2771      0.0910
 60      0.0000      0.2650      0.3625      0.0202      0.0000      0.0000      0.7138      0.0000      0.0000
 61     37.1598     40.3675     52.9414     50.3318     44.0351     43.0378     52.1476     52.2510     53.8911
 62      0.0000      2.1322      0.3138      0.0547      0.1319      3.2159      0.6962      0.0000      0.0000
 63      2.2529      0.6313      0.3120      0.5914      2.1513      1.1397      0.0000      0.0000      0.4735
 64      0.9977      0.4755      0.5706      0.8395      0.7671      0.0000      0.0000      1.3214      0.6592
 65      0.6348      1.3388      2.3203      1.9230      2.1146      0.0861      1.6022      1.5242      2.0016
 66      2.5812      4.1278      6.4438      5.5880      5.2775      4.2248      4.9445      5.7636      5.9482

# j      m_j: min, <> & last-chain-values for 1 ...  7 chains
  1  1.7885E-03  1.5550E-03  0.0000E+00  3.4646E-03  0.0000E+00  6.3214E-03  5.6737E-03  0.0000E+00  3.4500E-03
  2  0.0000E+00  2.2730E-04  0.0000E+00  1.7574E-04  0.0000E+00  0.0000E+00  0.0000E+00  9.4610E-04  3.5981E-04
  3  0.0000E+00  3.0021E-04  0.0000E+00  0.0000E+00  8.4408E-04  0.0000E+00  0.0000E+00  0.0000E+00  0.0000E+00
  4  0.0000E+00  3.4319E-04  0.0000E+00  2.4443E-05  3.4645E-04  0.0000E+00  0.0000E+00  2.5076E-04  9.8173E-05
  5  0.0000E+00  4.8212E-04  3.9116E-03  3.1188E-05  0.0000E+00  1.6679E-03  0.0000E+00  2.1694E-03  1.0473E-04
  6  5.2194E-03  1.8680E-03  0.0000E+00  4.2952E-03  0.0000E+00  0.0000E+00  0.0000E+00  0.0000E+00  4.2602E-03
  7  1.9007E-03  2.3671E-03  0.0000E+00  3.5416E-03  8.7169E-03  0.0000E+00  0.0000E+00  0.0000E+00  0.0000E+00
  8  1.7250E-04  3.9263E-03  0.0000E+00  8.3310E-03  0.0000E+00  1.4614E-02  0.0000E+00  6.7866E-03  0.0000E+00
  9  0.0000E+00  2.2118E-03  0.0000E+00  5.4439E-05  1.4769E-03  0.0000E+00  2.6703E-03  0.0000E+00  0.0000E+00
 10  1.5911E-02  2.5377E-03  3.5778E-03  7.1925E-03  0.0000E+00  4.6641E-03  0.0000E+00  5.1256E-03  1.3383E-02
 11  0.0000E+00  8.5797E-03  3.2522E-03  7.0558E-05  0.0000E+00  0.0000E+00  2.4217E-02  0.0000E+00  0.0000E+00
 12  0.0000E+00  3.0621E-02  0.0000E+00  7.1476E-03  0.0000E+00  0.0000E+00  4.6121E-02  3.4050E-03  5.4864E-03
 13  5.8556E-01  2.3310E-01  0.0000E+00  1.0834E-01  7.0455E-02  4.7730E-01  0.0000E+00  1.7933E-02  0.0000E+00
 14  1.8095E+00  1.8276E+00  0.0000E+00  9.2748E-01  4.0757E-01  1.1775E+00  1.4718E+00  0.0000E+00  6.1112E-01
 15  6.2639E+00  1.7080E+00  9.4863E-01  1.5474E-01  0.0000E+00  0.0000E+00  0.0000E+00  0.0000E+00  2.2827E-01
 16  1.4847E+00  2.9953E+00  0.0000E+00  1.7391E+00  8.5826E-01  1.6391E+00  0.0000E+00  1.7969E+00  4.7968E-01
 17  6.7429E+00  2.7027E+00  0.0000E+00  2.3792E+00  3.6853E+00  0.0000E+00  0.0000E+00  0.0000E+00  3.5776E+00
 18  0.0000E+00  3.5319E-04  6.5419E-04  3.2825E-04  0.0000E+00  1.1456E-03  9.8443E-04  0.0000E+00  0.0000E+00
 19  0.0000E+00  4.3020E-04  1.6829E-04  0.0000E+00  0.0000E+00  0.0000E+00  0.0000E+00  0.0000E+00  0.0000E+00
 20  0.0000E+00  2.3356E-04  1.9882E-03  1.3744E-05  1.7433E-03  0.0000E+00  0.0000E+00  2.7874E-05  1.0594E-04
 21  0.0000E+00  5.5994E-04  5.5398E-04  1.0421E-04  1.5366E-03  0.0000E+00  1.2500E-03  0.0000E+00  0.0000E+00
 22  2.1821E-04  8.4350E-04  0.0000E+00  1.4466E-03  0.0000E+00  0.0000E+00  0.0000E+00  8.6575E-04  1.5373E-03
 23  0.0000E+00  8.3158E-04  5.5598E-03  4.1192E-04  0.0000E+00  0.0000E+00  0.0000E+00  9.3161E-04  0.0000E+00
 24  1.0392E-02  3.0903E-03  0.0000E+00  2.8658E-03  6.8587E-04  3.2185E-03  0.0000E+00  0.0000E+00  1.8151E-03
 25  0.0000E+00  1.9938E-03  9.1106E-03  7.9698E-03  0.0000E+00  0.0000E+00  1.5558E-03  0.0000E+00  9.4264E-03
 26  2.9932E-03  3.7316E-03  1.0721E-02  6.2385E-03  7.8796E-03  0.0000E+00  0.0000E+00  2.9495E-03  0.0000E+00
 27  0.0000E+00  1.0399E-02  0.0000E+00  4.3653E-03  0.0000E+00  0.0000E+00  0.0000E+00  1.0770E-02  4.5899E-03
 28  2.8493E-01  1.1034E-01  5.9777E-02  1.5033E-01  2.8444E-01  1.0045E-01  2.1195E-02  0.0000E+00  1.8395E-01
 29  1.5784E+00  7.7255E-01  7.8038E-02  2.4348E-01  4.9220E-01  3.9928E-01  6.2383E-01  3.5280E-01  5.0367E-02
 30  0.0000E+00  1.1793E+00  8.9027E-02  3.6884E-02  9.1002E-01  2.0572E+00  1.6693E+00  0.0000E+00  0.0000E+00
 31  6.9603E-02  1.5472E+00  7.3038E-01  1.2003E-01  2.7000E+00  3.1220E+00  0.0000E+00  0.0000E+00  0.0000E+00
 32  4.8284E+00  1.1020E+00  1.0485E+00  3.5750E-01  0.0000E+00  3.0543E+00  1.8850E+00  8.8998E-01  0.0000E+00
 33  0.0000E+00  9.3137E-01  0.0000E+00  2.6953E-01  8.8066E-01  0.0000E+00  0.0000E+00  9.9477E-01  3.2797E-01
 34  0.0000E+00  1.0376E+00  2.1107E-01  4.0178E-01  1.4804E+00  3.4471E+00  0.0000E+00  2.6735E+00  0.0000E+00
 35  0.0000E+00  4.3623E-04  0.0000E+00  5.5017E-05  0.0000E+00  0.0000E+00  0.0000E+00  0.0000E+00  0.0000E+00
 36  0.0000E+00  1.1669E-04  0.0000E+00  8.8178E-05  1.1360E-03  0.0000E+00  0.0000E+00  5.0354E-04  1.5483E-04
 37  0.0000E+00  2.6575E-04  1.9507E-04  9.0226E-05  6.7451E-04  0.0000E+00  0.0000E+00  1.9861E-06  0.0000E+00
 38  0.0000E+00  1.1606E-03  0.0000E+00  0.0000E+00  3.3438E-04  0.0000E+00  0.0000E+00  2.5397E-03  0.0000E+00
 39  0.0000E+00  7.9302E-04  4.8236E-03  7.7900E-04  2.8039E-03  0.0000E+00  0.0000E+00  6.9543E-04  0.0000E+00
 40  0.0000E+00  1.7140E-03  2.9448E-03  9.1429E-04  0.0000E+00  0.0000E+00  0.0000E+00  3.3736E-03  0.0000E+00
 41  0.0000E+00  2.4335E-03  0.0000E+00  1.8674E-04  0.0000E+00  0.0000E+00  0.0000E+00  3.3789E-03  0.0000E+00
 42  7.0892E-02  4.4598E-03  0.0000E+00  6.2943E-03  9.3103E-03  0.0000E+00  5.8712E-03  0.0000E+00  8.5238E-03
 43  4.2596E-02  2.7518E-02  2.2703E-02  8.6381E-03  1.1925E-01  3.1860E-03  9.7816E-03  2.7622E-02  1.6629E-02
 44  0.0000E+00  2.6747E-02  8.2555E-02  5.8681E-03  9.6126E-03  7.0562E-04  0.0000E+00  4.3866E-02  0.0000E+00
 45  4.5676E-02  1.0260E-01  0.0000E+00  6.4816E-02  4.8281E-02  0.0000E+00  1.2168E-01  9.4203E-02  1.0045E-01
 46  5.4388E-01  8.6971E-01  8.1772E-02  3.1098E-01  1.5085E-01  1.4142E+00  0.0000E+00  3.6554E-01  1.5379E-02
 47  2.3559E+00  1.4609E+00  0.0000E+00  8.1541E-01  7.5084E-01  0.0000E+00  0.0000E+00  9.0584E-01  3.5182E-01
 48  0.0000E+00  1.0773E+00  3.3919E-01  1.3049E-01  0.0000E+00  0.0000E+00  2.4177E+00  0.0000E+00  0.0000E+00
 49  5.3447E+00  1.0835E+00  9.0607E-01  1.1823E+00  2.2864E+00  2.8968E+00  0.0000E+00  1.0583E+00  1.5001E+00
 50  1.2955E+01  9.8083E+00  1.0212E+01  9.7203E+00  4.7857E+00  1.4986E+01  1.2939E+01  1.0376E+01  9.3859E+00
 51  0.0000E+00  3.2210E-04  0.0000E+00  7.5413E-05  0.0000E+00  0.0000E+00  0.0000E+00  0.0000E+00  3.1728E-04
 52  0.0000E+00  1.9857E-04  0.0000E+00  1.6280E-04  0.0000E+00  8.0598E-04  7.4021E-04  1.3972E-04  2.8435E-04
 53  0.0000E+00  3.1596E-04  0.0000E+00  2.5259E-04  3.5952E-05  0.0000E+00  0.0000E+00  0.0000E+00  5.8544E-04
 54  9.8645E-04  6.3918E-04  0.0000E+00  8.7556E-04  0.0000E+00  0.0000E+00  0.0000E+00  1.4135E-03  1.4630E-03
 55  7.8646E-03  6.6033E-04  0.0000E+00  2.1247E-03  0.0000E+00  0.0000E+00  0.0000E+00  1.8207E-03  2.2767E-03
 56  0.0000E+00  1.8576E-03  0.0000E+00  1.4652E-04  0.0000E+00  0.0000E+00  1.2405E-03  0.0000E+00  0.0000E+00
 57  2.3972E-03  2.2474E-03  0.0000E+00  1.2804E-02  1.0720E-02  0.0000E+00  0.0000E+00  0.0000E+00  6.1484E-03
 58  0.0000E+00  6.1046E-03  0.0000E+00  1.4328E-04  1.4460E-02  0.0000E+00  1.3956E-03  2.3801E-02  0.0000E+00
 59  0.0000E+00  1.6444E-02  0.0000E+00  2.1216E-03  0.0000E+00  1.0344E-01  7.2831E-03  2.0266E-02  6.5857E-03
 60  0.0000E+00  4.1281E-02  4.6642E-02  2.7736E-03  0.0000E+00  0.0000E+00  1.0906E-01  0.0000E+00  0.0000E+00
 61  1.3970E+01  1.3742E+01  1.4885E+01  1.5103E+01  1.3410E+01  1.5438E+01  1.7408E+01  1.5511E+01  1.5830E+01
 62  0.0000E+00  1.3234E+00  1.6086E-01  2.9932E-02  7.3214E-02  2.1033E+00  4.2378E-01  0.0000E+00  0.0000E+00
 63  3.0725E+00  7.7954E-01  3.1818E-01  6.4380E-01  2.3766E+00  1.4830E+00  0.0000E+00  0.0000E+00  5.0454E-01
 64  3.7633E+00  1.6241E+00  1.6097E+00  2.5275E+00  2.3440E+00  0.0000E+00  0.0000E+00  3.9360E+00  1.9430E+00
 65  5.0618E+00  9.6660E+00  1.3837E+01  1.2239E+01  1.3658E+01  6.5472E-01  1.1344E+01  9.5970E+00  1.2470E+01
 66  2.9076E+01  4.2103E+01  5.4285E+01  5.0242E+01  4.8155E+01  4.5410E+01  4.9456E+01  5.1266E+01  5.2352E+01

# AV, chi2 & Mass for <> & i_chain = 1 ...  7 solutions
AV      -0.4973     -0.5083     -0.5201     -0.5037     -0.5173     -0.5068     -0.5003     -0.5156     -0.5021
chi2 6.0431E-04  1.5971E-04  1.7792E-04  1.3017E-04  1.3129E-04  1.1054E-04  1.6710E-04  1.3096E-04  1.3625E-04
Mass 3.1615E-14  3.4404E-14  4.1000E-14  3.9274E-14  3.7996E-14  3.2715E-14  3.5463E-14  3.9066E-14  4.0203E-14
-485.28                                  [v0_min (km/s) before EX0s...]
  34.44                                  [vd_min (km/s) before EX0s...]


## Synthetic spectrum (Best Model) ##l_obs f_obs f_syn wei
 3478    [Nl_obs]
 3741.00    3.24128   0.31849    0.000
 3742.00    1.84240   0.27993    0.000
 3743.00   -0.68421   0.24962    0.000
 3744.00   -0.53657   0.26515    0.000
 3745.00    1.16922   0.32206    0.026
 3746.00    2.20755   0.38405    0.026
 3747.00    2.90694   0.43442    0.026
 3748.00    2.24644   0.47979    0.026
 3749.00    0.98796   0.50857    0.026
 3750.00    0.92412   0.49426    0.026
 3751.00    1.31129   0.43694    0.025
 3752.00    1.07128   0.38484    0.025
 3753.00    0.63027   0.37922    0.025
 3754.00   -0.34831   0.40258    0.000
 3755.00   -1.47095   0.42459    0.000
 3756.00   -1.52789   0.43832    0.000
 3757.00   -1.35091   0.44307    0.000
 3758.00   -1.69504   0.44644    0.000
 3759.00   -2.13013   0.44628    0.000
 3760.00   -2.37425   0.42384    0.000
 3761.00   -2.59300   0.39635    0.000
 3762.00   -1.53807   0.38771    0.000
 3763.00   -0.36344   0.37860    0.000
 3764.00    0.40799   0.36263    0.021
 3765.00    1.15616   0.37438    0.021
 3766.00   -0.13345   0.41695    0.000
 3767.00   -1.46458   0.45108    0.000
 3768.00   -1.96736   0.45974    0.000
 3769.00   -2.42700   0.46196    0.000
 3770.00   -1.83891   0.47648    0.000
 3771.00   -1.30970   0.49898    0.000
 3772.00   -1.55210   0.52029    0.000
 3773.00   -1.74750   0.54483    0.000
 3774.00   -1.53017   0.56758    0.000
 3775.00   -1.37065   0.57336    0.000
 3776.00   -1.58591   0.56941    0.000
 3777.00   -1.61927   0.57418    0.000
 3778.00   -0.73199   0.57849    0.000
 3779.00   -0.14263   0.54864    0.000
 3780.00   -0.77272   0.49257    0.000
 3781.00   -1.01772   0.45702    0.000
 3782.00    0.04342   0.44589    0.022
 3783.00    0.88040   0.44182    0.023
 3784.00    1.07627   0.44822    0.022
 3785.00    0.92536   0.46165    0.022
 3786.00   -0.07282   0.45811    0.000
 3787.00   -0.80399   0.42942    0.000
 3788.00   -0.97241   0.39486    0.000
 3789.00   -0.92001   0.37003    0.000
 3790.00   -0.46312   0.34554    0.000
 3791.00   -0.07907   0.31120    0.000
 3792.00    0.18838   0.29400    0.021
 3793.00    0.12549   0.32308    0.020
 3794.00   -0.40139   0.38190    0.000
 3795.00   -0.90621   0.43649    0.000
 3796.00   -1.38378   0.48069    0.000
 3797.00   -1.49660   0.51735    0.000
 3798.00   -1.21204   0.53285    0.000
 3799.00   -0.67167   0.52129    0.000
 3800.00    0.11451   0.49675    0.020
 3801.00    0.57726   0.48844    0.020
 3802.00    0.76594   0.51413    0.020
 3803.00    0.53606   0.55424    0.020
 3804.00   -0.00614   0.57984    0.000
 3805.00   -0.23390   0.57635    0.000
 3806.00   -0.25554   0.53972    0.000
 3807.00   -0.04285   0.48754    0.000
 3808.00    0.30430   0.45149    0.021
 3809.00    0.28959   0.44300    0.020
 3810.00    0.09403   0.46156    0.020
 3811.00   -0.47740   0.49446    0.000
 3812.00   -1.21138   0.50313    0.000
 3813.00   -1.65779   0.47177    0.000
 3814.00   -1.99755   0.43799    0.000
 3815.00   -0.60247   0.44511    0.000
 3816.00    1.33795   0.47495    0.020
 3817.00    0.82232   0.47089    0.020
 3818.00   -0.33760   0.42879    0.000
 3819.00   -0.25967   0.39495    0.000
 3820.00    0.08348   0.38706    0.020
 3821.00   -0.69213   0.38883    0.000
 3822.00   -1.65760   0.38983    0.000
 3823.00   -1.78543   0.39083    0.000
 3824.00   -1.80578   0.38609    0.000
 3825.00   -0.94269   0.36055    0.000
 3826.00   -0.00030   0.31762    0.000
 3827.00    0.94853   0.28273    0.019
 3828.00    1.89771   0.26635    0.020
 3829.00    1.72729   0.26834    0.020
 3830.00    1.53063   0.28603    0.020
 3831.00    1.01416   0.30414    0.020
 3832.00    0.53427   0.31508    0.019
 3833.00    0.86718   0.32851    0.019
 3834.00    1.15972   0.35296    0.019
 3835.00    0.95014   0.39411    0.019
 3836.00    0.72605   0.44153    0.019
 3837.00    0.37937   0.47215    0.019
 3838.00    0.12845   0.48409    0.019
 3839.00    0.47996   0.48730    0.019
 3840.00    0.76711   0.49545    0.019
 3841.00    0.73675   0.51190    0.020
 3842.00    0.55897   0.51424    0.020
 3843.00   -0.20894   0.49545    0.000
 3844.00   -0.79940   0.48949    0.000
 3845.00   -0.79992   0.51333    0.000
 3846.00   -0.70775   0.53571    0.000
 3847.00   -0.35529   0.53598    0.000
 3848.00   -0.39323   0.52449    0.000
 3849.00   -1.36885   0.50834    0.000
 3850.00   -1.48214   0.49868    0.000
 3851.00    0.19298   0.49691    0.000
 3852.00    1.11998   0.47943    0.000
 3853.00    0.69763   0.45733    0.000
 3854.00    0.52399   0.46989    0.000
 3855.00    0.74257   0.51264    0.000
 3856.00    0.66060   0.54801    0.000
 3857.00    0.16254   0.55865    0.000
 3858.00   -0.17767   0.55315    0.000
 3859.00   -0.32555   0.54293    0.000
 3860.00   -0.35224   0.53819    0.000
 3861.00   -0.24875   0.54292    0.000
 3862.00   -0.46173   0.54931    0.000
 3863.00   -0.97456   0.54484    0.000
 3864.00   -1.35859   0.52228    0.000
 3865.00   -1.63505   0.48665    0.000
 3866.00   -1.48979   0.45921    0.000
 3867.00   -1.03437   0.46953    0.000
 3868.00   -0.72876   0.51036    0.000
 3869.00   -0.51992   0.53955    0.000
 3870.00   -0.46257   0.52989    0.000
 3871.00   -0.49084   0.48851    0.000
 3872.00   -0.38675   0.45588    0.000
 3873.00   -0.21756   0.46657    0.000
 3874.00   -0.32674   0.48752    0.000
 3875.00   -0.55430   0.47652    0.000
 3876.00   -0.29454   0.45678    0.000
 3877.00    0.14274   0.45542    0.000
 3878.00    0.66777   0.44628    0.000
 3879.00    1.21985   0.40435    0.000
 3880.00    0.45905   0.35678    0.000
 3881.00   -0.63878   0.32964    0.000
 3882.00   -1.20444   0.31588    0.000
 3883.00   -1.65884   0.32254    0.000
 3884.00   -1.27580   0.36433    0.000
 3885.00   -0.75467   0.42076    0.000
 3886.00   -0.65012   0.46041    0.000
 3887.00   -0.59717   0.47350    0.000
 3888.00    0.72275   0.47127    0.019
 3889.00    2.15110   0.47321    0.019
 3890.00    1.58400   0.49041    0.019
 3891.00    0.91745   0.50595    0.019
 3892.00    0.04447   0.50165    0.019
 3893.00   -0.82329   0.49605    0.000
 3894.00   -1.13532   0.51479    0.000
 3895.00   -1.35268   0.54375    0.000
 3896.00    0.36653   0.54710    0.018
 3897.00    1.90657   0.53170    0.018
 3898.00    1.32764   0.51715    0.017
 3899.00    0.72776   0.49939    0.017
 3900.00   -0.04268   0.49847    0.000
 3901.00   -0.71452   0.53230    0.000
 3902.00   -0.78410   0.57524    0.000
 3903.00   -0.79935   0.60138    0.000
 3904.00   -0.55312   0.61320    0.000
 3905.00   -0.26286   0.61934    0.000
 3906.00    0.19985   0.61305    0.015
 3907.00    0.58492   0.59400    0.015
 3908.00    0.71694   0.58130    0.015
 3909.00    0.58363   0.57596    0.015
 3910.00   -0.28134   0.56548    0.000
 3911.00   -0.80049   0.55433    0.000
 3912.00   -0.50300   0.54204    0.000
 3913.00   -0.32942   0.52392    0.000
 3914.00   -0.40873   0.50946    0.000
 3915.00   -0.68970   0.50971    0.000
 3916.00   -1.32885   0.52110    0.000
 3917.00   -1.29765   0.53304    0.000
 3918.00   -0.22484   0.53304    0.000
 3919.00    0.21549   0.51137    0.018
 3920.00   -0.20714   0.47682    0.000
 3921.00   -0.17922   0.43710    0.000
 3922.00    0.38989   0.39263    0.018
 3923.00    0.21106   0.34695    0.018
 3924.00   -0.75991   0.29994    0.000
 3925.00   -1.10304   0.25167    0.000
 3926.00   -0.85965   0.20738    0.000
 3927.00   -0.93633   0.18029    0.000
 3928.00   -1.27662   0.18578    0.000
 3929.00   -1.23891   0.22447    0.000
 3930.00   -0.92720   0.28090    0.000
 3931.00   -0.38797   0.33869    0.000
 3932.00    0.29604   0.39294    0.018
 3933.00    0.96832   0.44042    0.018
 3934.00    1.63409   0.46910    0.018
 3935.00    1.42400   0.47678    0.018
 3936.00    0.78993   0.47337    0.018
 3937.00    0.34789   0.46744    0.018
 3938.00   -0.01385   0.47946    0.000
 3939.00   -0.02411   0.51975    0.000
 3940.00    0.09137   0.55220    0.017
 3941.00    0.17248   0.54754    0.017
 3942.00    0.24319   0.53453    0.018
 3943.00    0.41369   0.54495    0.018
 3944.00    0.60926   0.56391    0.018
 3945.00    0.73405   0.56380    0.018
 3946.00    0.84440   0.55573    0.018
 3947.00    0.58507   0.57001    0.017
 3948.00    0.26653   0.58810    0.017
 3949.00   -0.08839   0.56992    0.000
 3950.00   -0.44766   0.53559    0.000
 3951.00    0.19344   0.53023    0.017
 3952.00    0.91601   0.54834    0.017
 3953.00    1.60289   0.54765    0.017
 3954.00    2.28813   0.50489    0.017
 3955.00    2.08331   0.44477    0.018
 3956.00    1.86473   0.40542    0.018
 3957.00    1.52025   0.38474    0.018
 3958.00    1.18040   0.35607    0.017
 3959.00    0.92815   0.30757    0.017
 3960.00    0.69177   0.24661    0.000
 3961.00    0.63428   0.19080    0.000
 3962.00    0.51668   0.15883    0.000
 3963.00   -0.07341   0.16185    0.000
 3964.00   -0.53120   0.19732    0.000
 3965.00   -0.20403   0.25027    0.000
 3966.00    0.22305   0.30321    0.000
 3967.00    1.11919   0.35085    0.000
 3968.00    1.83246   0.39868    0.000
 3969.00    1.84490   0.44265    0.000
 3970.00    1.78675   0.47625    0.000
 3971.00    1.50300   0.50866    0.000
 3972.00    1.24459   0.54741    0.000
 3973.00    1.05483   0.58229    0.000
 3974.00    0.97138   0.59437    0.000
 3975.00    1.13481   0.58132    0.000
 3976.00    1.26877   0.56885    0.000
 3977.00    1.34354   0.57657    0.000
 3978.00    1.35109   0.59692    0.000
 3979.00    1.24104   0.61298    0.000
 3980.00    1.17245   0.62148    0.000
 3981.00    1.16730   0.63406    0.018
 3982.00    1.25149   0.64390    0.018
 3983.00    1.45582   0.63897    0.018
 3984.00    1.72227   0.63780    0.018
 3985.00    2.06229   0.65441    0.018
 3986.00    1.96846   0.67419    0.018
 3987.00    1.42159   0.67838    0.017
 3988.00    1.06658   0.66381    0.017
 3989.00    0.88825   0.63972    0.016
 3990.00    0.78998   0.61444    0.016
 3991.00    0.75669   0.60367    0.017
 3992.00    0.74480   0.62759    0.017
 3993.00    0.74820   0.67180    0.017
 3994.00    0.98948   0.69728    0.017
 3995.00    1.37990   0.70118    0.017
 3996.00    1.62699   0.70290    0.017
 3997.00    1.79552   0.68781    0.017
 3998.00    2.04771   0.63878    0.017
 3999.00    2.33977   0.59684    0.016
 4000.00    2.34563   0.61029    0.017
 4001.00    2.23387   0.65757    0.017
 4002.00    1.86216   0.69058    0.017
 4003.00    1.39915   0.70081    0.016
 4004.00    0.83590   0.70349    0.016
 4005.00    0.24295   0.70319    0.016
 4006.00   -0.02617   0.70117    0.000
 4007.00   -0.21574   0.70278    0.000
 4008.00    0.84097   0.71057    0.016
 4009.00    2.14547   0.71873    0.016
 4010.00    1.86736   0.71345    0.017
 4011.00    1.34334   0.70580    0.017
 4012.00    0.88601   0.72057    0.017
 4013.00    0.43635   0.74124    0.017
 4014.00    0.65306   0.73878    0.017
 4015.00    0.92129   0.72137    0.017
 4016.00    0.06142   0.70580    0.017
 4017.00   -0.84595   0.68927    0.000
 4018.00   -0.78221   0.67937    0.000
 4019.00   -0.69191   0.69819    0.000
 4020.00    0.17362   0.73464    0.017
 4021.00    1.00493   0.75383    0.017
 4022.00    1.23297   0.73761    0.017
 4023.00    1.44420   0.68510    0.017
 4024.00    1.47459   0.62391    0.017
 4025.00    1.44917   0.59267    0.017
 4026.00    1.00000   0.59151    0.017
 4027.00    0.70699   0.60586    0.017
 4028.00    1.31469   0.63514    0.017
 4029.00    1.76582   0.67836    0.017
 4030.00    1.49934   0.72643    0.016
 4031.00    1.26959   0.75970    0.016
 4032.00    1.17760   0.76299    0.016
 4033.00    1.02293   0.74073    0.016
 4034.00    0.67176   0.71703    0.016
 4035.00    0.71900   0.71603    0.015
 4036.00    1.82611   0.71929    0.016
 4037.00    2.65096   0.68193    0.016
 4038.00    2.83126   0.60784    0.016
 4039.00    2.81470   0.56473    0.016
 4040.00    2.40895   0.60224    0.016
 4041.00    1.96627   0.67531    0.016
 4042.00    1.45997   0.71624    0.016
 4043.00    0.94980   0.72810    0.015
 4044.00    0.43381   0.73237    0.015
 4045.00    0.03017   0.72298    0.015
 4046.00   -0.22453   0.69999    0.000
 4047.00   -0.20364   0.67490    0.000
 4048.00    0.13902   0.65916    0.016
 4049.00    0.50719   0.65883    0.016
 4050.00    0.90163   0.65845    0.016
 4051.00    0.90956   0.65035    0.016
 4052.00    0.56651   0.65934    0.016
 4053.00    0.72193   0.69177    0.016
 4054.00    1.27631   0.71126    0.016
 4055.00    1.48762   0.68325    0.016
 4056.00    1.45736   0.62111    0.016
 4057.00    1.10844   0.58652    0.016
 4058.00    0.56269   0.61355    0.016
 4059.00    0.66899   0.65200    0.016
 4060.00    1.12715   0.65832    0.016
 4061.00    1.43504   0.66591    0.016
 4062.00    1.67251   0.69776    0.016
 4063.00    1.58631   0.70922    0.016
 4064.00    1.36935   0.67016    0.017
 4065.00    1.28109   0.63068    0.016
 4066.00    1.23719   0.64438    0.016
 4067.00    1.27137   0.68050    0.016
 4068.00    1.32822   0.67984    0.016
 4069.00    2.00465   0.63309    0.017
 4070.00    2.82990   0.57531    0.017
 4071.00    2.46019   0.55460    0.017
 4072.00    1.85894   0.58870    0.017
 4073.00    1.46648   0.64986    0.016
 4074.00    1.10550   0.70156    0.016
 4075.00    0.72888   0.71868    0.016
 4076.00    0.35053   0.69899    0.016
 4077.00    1.10388   0.66871    0.016
 4078.00    1.94011   0.65168    0.015
 4079.00    1.08338   0.65619    0.015
 4080.00    0.16183   0.68348    0.015
 4081.00    0.19485   0.71890    0.015
 4082.00    0.24328   0.73745    0.015
 4083.00    0.67326   0.73157    0.015
 4084.00    1.09096   0.71395    0.015
 4085.00    1.30648   0.69644    0.015
 4086.00    1.49472   0.68911    0.015
 4087.00    1.40224   0.68664    0.015
 4088.00    1.30862   0.66265    0.015
 4089.00    1.20664   0.62027    0.015
 4090.00    1.06038   0.58908    0.015
 4091.00    0.66579   0.57319    0.015
 4092.00    0.41132   0.55304    0.000
 4093.00    0.78390   0.50965    0.000
 4094.00    1.15505   0.44779    0.000
 4095.00    1.52094   0.41283    0.000
 4096.00    1.65593   0.43790    0.000
 4097.00    1.08076   0.49752    0.000
 4098.00    0.25936   0.55587    0.000
 4099.00   -1.20559   0.60057    0.000
 4100.00   -2.44490   0.62501    0.000
 4101.00   -3.17745   0.63022    0.000
 4102.00   -3.03340   0.62383    0.000
 4103.00   -1.18357   0.61481    0.000
 4104.00    0.47506   0.61502    0.000
 4105.00    1.80925   0.62950    0.000
 4106.00    2.34870   0.65327    0.000
 4107.00    1.70676   0.67715    0.000
 4108.00    1.15179   0.69592    0.000
 4109.00    0.71047   0.70983    0.000
 4110.00    0.38689   0.70861    0.000
 4111.00    0.19881   0.68020    0.000
 4112.00    0.16884   0.64796    0.000
 4113.00    0.29935   0.64564    0.015
 4114.00    0.72259   0.65958    0.015
 4115.00    1.40792   0.66055    0.015
 4116.00    1.58165   0.65647    0.015
 4117.00    1.35173   0.66880    0.015
 4118.00    1.03623   0.68989    0.015
 4119.00    0.66133   0.69377    0.014
 4120.00    0.63249   0.67472    0.021
 4121.00    0.81422   0.65057    0.082
 4122.00    0.81658   0.64096   -1.000
 4123.00    0.72365   0.64360   -1.000
 4124.00    0.54907   0.63635   -1.000
 4125.00    0.33684   0.61273   -1.000
 4126.00    0.42874   0.59898   -1.000
 4127.00    0.64141   0.61325   -1.000
 4128.00    0.34528   0.65019    0.039
 4129.00   -0.12306   0.68977    0.000
 4130.00    0.34666   0.70812    0.015
 4131.00    1.08329   0.71560    0.015
 4132.00    0.76617   0.73078    0.015
 4133.00    0.20164   0.74135    0.015
 4134.00    0.35350   0.72732    0.015
 4135.00    0.64058   0.67793    0.014
 4136.00    0.59781   0.61241    0.015
 4137.00    0.50686   0.58569    0.015
 4138.00    1.22755   0.62027    0.015
 4139.00    2.03449   0.67090    0.015
 4140.00    1.61930   0.69572    0.015
 4141.00    1.11957   0.69467    0.015
 4142.00    0.52679   0.67829    0.015
 4143.00   -0.06921   0.66260    0.000
 4144.00    0.90944   0.66194    0.014
 4145.00    1.86886   0.66687    0.014
 4146.00    2.09039   0.66257    0.014
 4147.00    2.29062   0.64743    0.014
 4148.00    2.16143   0.63500    0.014
 4149.00    2.01313   0.63339    0.014
 4150.00    1.67637   0.64157    0.014
 4151.00    1.35256   0.66271    0.014
 4152.00    1.12069   0.68735    0.014
 4153.00    0.93935   0.69811    0.014
 4154.00    1.03379   0.69603    0.014
 4155.00    1.04594   0.70243    0.014
 4156.00    0.69841   0.71695    0.013
 4157.00    0.40473   0.71974    0.013
 4158.00    0.30472   0.71386    0.013
 4159.00    0.32013   0.70327    0.013
 4160.00    0.68381   0.68569    0.013
 4161.00    0.84984   0.68004    0.013
 4162.00    0.50826   0.69554    0.013
 4163.00    0.37823   0.70178    0.013
 4164.00    0.71549   0.66999    0.013
 4165.00    1.01225   0.61274    0.013
 4166.00    1.23144   0.57405    0.013
 4167.00    1.30488   0.58034    0.013
 4168.00    1.13473   0.61220    0.013
 4169.00    0.98562   0.63326    0.013
 4170.00    0.86731   0.62812    0.013
 4171.00    0.74917   0.61588    0.014
 4172.00    0.63125   0.62561    0.014
 4173.00    0.72399   0.65380    0.014
 4174.00    1.05578   0.66634    0.014
 4175.00    1.01193   0.65548    0.014
 4176.00    0.59210   0.64989    0.014
 4177.00    0.10008   0.66348    0.014
 4178.00   -0.45567   0.68450    0.000
 4179.00   -0.43923   0.68352    0.000
 4180.00    0.02221   0.65192    0.014
 4181.00    0.69301   0.63613    0.014
 4182.00    1.50699   0.66045    0.014
 4183.00    1.39780   0.68491    0.014
 4184.00    0.73526   0.68517    0.014
 4185.00    1.10155   0.69228    0.014
 4186.00    2.00594   0.72084    0.014
 4187.00    1.86468   0.73126    0.014
 4188.00    1.24913   0.70013    0.014
 4189.00    0.99827   0.65847    0.014
 4190.00    0.88973   0.63239    0.014
 4191.00    0.46491   0.61296    0.014
 4192.00   -0.06496   0.60761    0.000
 4193.00    0.22719   0.62519    0.014
 4194.00    0.74845   0.63344    0.014
 4195.00    0.47482   0.62360    0.014
 4196.00    0.01883   0.62690    0.014
 4197.00    0.60601   0.64264    0.014
 4198.00    1.38490   0.65518    0.014
 4199.00    1.22762   0.67274    0.014
 4200.00    0.93796   0.69560    0.014
 4201.00    0.74499   0.70942    0.013
 4202.00    0.56188   0.70481    0.013
 4203.00    0.70964   0.69355    0.013
 4204.00    0.87896   0.69900    0.013
 4205.00    1.36340   0.71729    0.013
 4206.00    1.85609   0.72144    0.013
 4207.00    1.42755   0.69511    0.013
 4208.00    1.01365   0.64925    0.013
 4209.00    1.02956   0.63020    0.013
 4210.00    1.05996   0.66656    0.013
 4211.00    1.30118   0.71688    0.013
 4212.00    1.54263   0.73962    0.013
 4213.00    1.78625   0.74430    0.013
 4214.00    1.96897   0.74429    0.013
 4215.00    1.73297   0.72653    0.013
 4216.00    1.48118   0.68845    0.013
 4217.00    1.14536   0.63878    0.013
 4218.00    0.79771   0.57502    0.012
 4219.00    0.39944   0.50962    0.013
 4220.00    0.15153   0.49252    0.013
 4221.00    0.43337   0.55709    0.013
 4222.00    0.70849   0.65329    0.013
 4223.00    0.96372   0.71649    0.013
 4224.00    1.05733   0.73563    0.013
 4225.00    0.74307   0.71397    0.012
 4226.00    0.53052   0.67258    0.012
 4227.00    0.53900   0.65354    0.012
 4228.00    0.57912   0.65275    0.012
 4229.00    0.67888   0.64728    0.012
 4230.00    0.62249   0.65011    0.012
 4231.00    0.30904   0.65975    0.012
 4232.00    0.05156   0.66340    0.012
 4233.00   -0.12514   0.67573    0.000
 4234.00    0.02807   0.70200    0.011
 4235.00    0.60016   0.71912    0.011
 4236.00    0.95608   0.72723    0.011
 4237.00    1.07017   0.74403    0.012
 4238.00    0.95792   0.74867    0.012
 4239.00    0.62231   0.71928    0.012
 4240.00    0.62013   0.68002    0.012
 4241.00    0.90812   0.66282    0.011
 4242.00    0.99364   0.65734    0.012
 4243.00    0.92394   0.64208    0.012
 4244.00    0.81867   0.64122    0.012
 4245.00    0.68944   0.66842    0.012
 4246.00    0.62345   0.68129    0.012
 4247.00    0.59480   0.66353    0.012
 4248.00    0.45034   0.65758    0.012
 4249.00    0.24627   0.68769    0.012
 4250.00    0.19959   0.71702    0.012
 4251.00    0.22315   0.70438    0.013
 4252.00    0.33274   0.66117    0.013
 4253.00    0.47532   0.62314    0.013
 4254.00    0.56015   0.62218    0.013
 4255.00    0.62616   0.66735    0.012
 4256.00    0.71455   0.72344    0.013
 4257.00    0.80905   0.75628    0.013
 4258.00    1.12869   0.76968    0.013
 4259.00    1.49879   0.76974    0.013
 4260.00    1.46817   0.74853    0.013
 4261.00    1.36588   0.71659    0.013
 4262.00    1.51492   0.68698    0.013
 4263.00    1.69834   0.64606    0.013
 4264.00    1.00139   0.59177    0.013
 4265.00    0.21844   0.56565    0.013
 4266.00    0.72936   0.58303    0.013
 4267.00    1.31941   0.60250    0.013
 4268.00    1.23539   0.61861    0.013
 4269.00    1.13316   0.65905    0.013
 4270.00    1.02705   0.70924    0.013
 4271.00    0.93567   0.73557    0.013
 4272.00    1.23372   0.72711    0.013
 4273.00    1.49844   0.69954    0.013
 4274.00    1.30495   0.68188    0.013
 4275.00    1.10018   0.67833    0.013
 4276.00    0.79284   0.68065    0.013
 4277.00    0.58367   0.68393    0.013
 4278.00    1.02834   0.67698    0.013
 4279.00    1.39381   0.66639    0.013
 4280.00    1.34925   0.65844    0.013
 4281.00    1.22901   0.63385    0.013
 4282.00    0.79286   0.58550   -2.000
 4283.00    0.46165   0.55431   -2.000
 4284.00    0.49269   0.58142   -2.000
 4285.00    0.56590   0.64116   -2.000
 4286.00    0.76171   0.67386   -2.000
 4287.00    0.83819   0.66327   -2.000
 4288.00    0.61872   0.64799   -2.000
 4289.00    0.55926   0.64405   -2.000
 4290.00    0.84185   0.63064   -2.000
 4291.00    0.99623   0.59308   -2.000
 4292.00    0.91258   0.53733   -2.000
 4293.00    0.76538   0.50334   -2.000
 4294.00    0.51513   0.50923   -2.000
 4295.00    0.34272   0.52272   -2.000
 4296.00    0.28103   0.53515   -2.000
 4297.00    0.53059   0.55651   -2.000
 4298.00    1.16969   0.56694    0.013
 4299.00    1.20315   0.55594    0.013
 4300.00    0.56855   0.53089    0.012
 4301.00    0.24289   0.50572    0.012
 4302.00    0.21780   0.50893    0.012
 4303.00    0.33946   0.54657    0.012
 4304.00    0.58702   0.59106    0.012
 4305.00    0.80072   0.61518    0.012
 4306.00    0.98884   0.61695    0.012
 4307.00    0.91440   0.61851    0.012
 4308.00    0.66562   0.65400    0.012
 4309.00    0.42121   0.72255    0.012
 4310.00    0.17935   0.77203    0.012
 4311.00   -0.18179   0.77858    0.000
 4312.00   -0.60339   0.76279    0.000
 4313.00   -0.11900   0.73975    0.000
 4314.00    0.76294   0.71934    0.011
 4315.00    1.09292   0.70748    0.011
 4316.00    1.21498   0.67755    0.011
 4317.00    0.99350   0.61441    0.012
 4318.00    0.66218   0.55159    0.012
 4319.00    0.64719   0.54601    0.012
 4320.00    0.71674   0.61355    0.012
 4321.00    0.84442   0.69542    0.012
 4322.00    0.98481   0.72845    0.012
 4323.00    1.16721   0.71315    0.012
 4324.00    1.35691   0.69659    0.012
 4325.00    0.99230   0.70096    0.012
 4326.00    0.55436   0.70865    0.012
 4327.00    0.46513   0.71306    0.012
 4328.00    0.40848   0.70963    0.012
 4329.00    0.51799   0.66900    0.012
 4330.00    0.63700   0.58668    0.000
 4331.00    0.50785   0.50781    0.000
 4332.00    0.37566   0.45446    0.000
 4333.00    0.55731   0.42342    0.000
 4334.00    0.72216   0.44250    0.000
 4335.00    0.48380   0.50959    0.000
 4336.00    0.28585   0.56721    0.000
 4337.00    0.61379   0.59966    0.000
 4338.00    0.92012   0.63386    0.000
 4339.00    1.03759   0.66439    0.000
 4340.00    1.08866   0.68349    0.000
 4341.00    0.71079   0.70856    0.000
 4342.00    0.41852   0.72728    0.000
 4343.00    0.55807   0.69756    0.000
 4344.00    0.69587   0.62694    0.000
 4345.00    0.82652   0.58912    0.000
 4346.00    0.95542   0.61898    0.000
 4347.00    1.07840   0.66838    0.000
 4348.00    1.14133   0.70134    0.000
 4349.00    1.03290   0.72786    0.000
 4350.00    0.84003   0.73963    0.000
 4351.00    0.44129   0.71996    0.012
 4352.00    0.19662   0.69611    0.012
 4353.00    0.27602   0.70750    0.012
 4354.00    0.38166   0.74290    0.012
 4355.00    0.53528   0.76578    0.012
 4356.00    0.70389   0.77426    0.015
 4357.00    0.89641   0.78863    0.042
 4358.00    0.99050   0.79899   -1.000
 4359.00    0.94654   0.77837   -1.000
 4360.00    0.85539   0.73417   -1.000
 4361.00    0.70600   0.70516 1214.373
 4362.00    0.62870   0.70578   -1.000
 4363.00    0.62980   0.71722   -1.000
 4364.00    0.66629   0.72915    0.046
 4365.00    0.73674   0.73205    0.016
 4366.00    0.59077   0.70480    0.012
 4367.00    0.26173   0.65476    0.012
 4368.00    0.07881   0.63199    0.012
 4369.00    0.00474   0.66714    0.012
 4370.00   -0.04357   0.72806    0.000
 4371.00   -0.07504   0.76302    0.000
 4372.00    0.12402   0.76013    0.012
 4373.00    0.45510   0.74243    0.012
 4374.00    0.80292   0.71552    0.012
 4375.00    1.15908   0.65215    0.012
 4376.00    0.83836   0.56137    0.012
 4377.00    0.22556   0.51491    0.012
 4378.00    0.36460   0.55295    0.012
 4379.00    0.78185   0.62817    0.012
 4380.00    0.92599   0.67495    0.012
 4381.00    0.98448   0.68506    0.012
 4382.00    0.52840   0.68168    0.012
 4383.00   -0.06229   0.67644    0.000
 4384.00    0.14557   0.68302    0.012
 4385.00    0.52400   0.70294    0.012
 4386.00    0.57481   0.70684    0.012
 4387.00    0.57023   0.68357    0.012
 4388.00    0.74874   0.67353    0.012
 4389.00    0.95065   0.70811    0.012
 4390.00    0.54014   0.75042    0.012
 4391.00    0.07499   0.75021    0.012
 4392.00    0.33595   0.71105    0.012
 4393.00    0.63559   0.67313    0.012
 4394.00    0.77527   0.67832    0.012
 4395.00    0.91070   0.71100    0.012
 4396.00    0.95418   0.70297    0.012
 4397.00    1.00204   0.65050    0.012
 4398.00    1.14601   0.62848    0.012
 4399.00    1.27786   0.65512    0.012
 4400.00    1.25988   0.67185    0.012
 4401.00    1.22122   0.66760    0.012
 4402.00    1.00863   0.68609    0.012
 4403.00    0.83748   0.72864    0.012
 4404.00    0.92603   0.76235    0.012
 4405.00    1.02911   0.77658    0.012
 4406.00    1.20362   0.76036    0.012
 4407.00    1.30889   0.70385    0.012
 4408.00    1.13777   0.64959    0.012
 4409.00    0.98570   0.64450    0.011
 4410.00    0.89679   0.67380    0.011
 4411.00    0.90038   0.71416    0.011
 4412.00    1.16312   0.75655    0.011
 4413.00    1.23252   0.77361    0.011
 4414.00    0.83853   0.75014    0.011
 4415.00    0.61576   0.71475    0.011
 4416.00    0.74734   0.70689    0.011
 4417.00    0.80312   0.72389    0.011
 4418.00    0.72241   0.73373    0.011
 4419.00    0.61555   0.73003    0.011
 4420.00    0.46749   0.72915    0.011
 4421.00    0.37403   0.73582    0.011
 4422.00    0.35600   0.73082    0.011
 4423.00    0.54820   0.71341    0.011
 4424.00    0.99609   0.71459    0.011
 4425.00    1.27490   0.72646    0.011
 4426.00    1.37240   0.71136    0.011
 4427.00    1.36766   0.67264    0.011
 4428.00    1.26622   0.65237    0.011
 4429.00    1.01599   0.68107    0.011
 4430.00    0.64166   0.74001    0.011
 4431.00    0.59678   0.78708    0.011
 4432.00    0.79377   0.79951    0.011
 4433.00    0.74005   0.77255    0.011
 4434.00    0.52470   0.71915    0.011
 4435.00    0.63837   0.66875    0.011
 4436.00    0.93764   0.65281    0.011
 4437.00    1.24394   0.68615    0.011
 4438.00    1.55369   0.74247    0.011
 4439.00    1.36402   0.77240    0.011
 4440.00    0.96244   0.77086    0.011
 4441.00    0.98762   0.76850    0.011
 4442.00    1.16788   0.76233    0.011
 4443.00    0.98161   0.74624    0.011
 4444.00    0.68262   0.74289    0.011
 4445.00    0.75476   0.74709    0.011
 4446.00    0.92191   0.72633    0.011
 4447.00    1.04085   0.67946    0.011
 4448.00    1.14975   0.64631    0.011
 4449.00    1.01435   0.65285    0.011
 4450.00    0.83880   0.67157    0.011
 4451.00    1.00992   0.67364    0.011
 4452.00    1.22378   0.66693    0.011
 4453.00    1.21201   0.65915    0.011
 4454.00    1.18105   0.64903    0.011
 4455.00    1.01754   0.66005    0.011
 4456.00    0.84748   0.69818    0.011
 4457.00    0.63039   0.72408    0.010
 4458.00    0.42009   0.72482    0.010
 4459.00    0.68257   0.71964    0.011
 4460.00    0.93520   0.71150    0.011
 4461.00    0.98833   0.69482    0.000
 4462.00    1.03557   0.68206    0.000
 4463.00    1.01342   0.69199    0.000
 4464.00    0.99670   0.72022    0.000
 4465.00    1.02386   0.75304    0.000
 4466.00    0.98697   0.78096    0.000
 4467.00    0.56034   0.79294    0.000
 4468.00    0.17520   0.79111    0.000
 4469.00   -0.01094   0.79705    0.000
 4470.00   -0.12146   0.81237    0.000
 4471.00    0.06327   0.80602    0.000
 4472.00    0.25478   0.76192    0.000
 4473.00    0.46828   0.70276    0.000
 4474.00    0.68447   0.66690    0.000
 4475.00    0.90809   0.67955    0.000
 4476.00    0.96092   0.72938    0.000
 4477.00    0.61128   0.77834    0.000
 4478.00    0.29284   0.80601    0.000
 4479.00    0.03793   0.81000    0.000
 4480.00    0.01929   0.78537    0.000
 4481.00    0.41953   0.73984    0.000
 4482.00    0.66271   0.70475    0.010
 4483.00    0.66233   0.70628    0.011
 4484.00    0.78609   0.73656    0.011
 4485.00    1.07894   0.76096    0.011
 4486.00    1.13137   0.75123    0.010
 4487.00    0.89551   0.72006    0.010
 4488.00    0.63773   0.70584    0.011
 4489.00    0.35677   0.72006    0.011
 4490.00    0.43767   0.75059    0.011
 4491.00    0.85600   0.78062    0.011
 4492.00    0.84209   0.78936    0.011
 4493.00    0.47285   0.77110    0.010
 4494.00    0.40566   0.75520    0.010
 4495.00    0.55704   0.77950    0.010
 4496.00    0.84019   0.82770    0.010
 4497.00    1.20706   0.85357    0.010
 4498.00    1.13219   0.84795    0.010
 4499.00    0.81196   0.82645    0.010
 4500.00    0.81440   0.80401    0.010
 4501.00    0.97273   0.79587    0.011
 4502.00    0.96216   0.80781    0.011
 4503.00    0.88113   0.82400    0.010
 4504.00    0.88767   0.82212    0.011
 4505.00    0.92546   0.80178    0.011
 4506.00    1.04496   0.77794    0.011
 4507.00    1.18909   0.76145    0.010
 4508.00    1.10484   0.75934    0.010
 4509.00    0.96338   0.76528    0.010
 4510.00    0.65345   0.76338    0.010
 4511.00    0.30927   0.76094    0.010
 4512.00    0.34017   0.77257    0.010
 4513.00    0.43090   0.78864    0.010
 4514.00    0.48999   0.78759    0.010
 4515.00    0.54533   0.76461    0.011
 4516.00    0.60704   0.74552    0.011
 4517.00    0.66926   0.73865    0.011
 4518.00    0.85799   0.72331    0.010
 4519.00    1.05248   0.69796    0.010
 4520.00    0.86114   0.67327    0.010
 4521.00    0.66545   0.65745    0.011
 4522.00    0.48901   0.65967    0.011
 4523.00    0.32655   0.67835    0.011
 4524.00    0.42666   0.70139    0.011
 4525.00    0.54050   0.70976    0.011
 4526.00    0.80818   0.68865    0.010
 4527.00    0.99837   0.66274    0.010
 4528.00    0.58221   0.67368    0.011
 4529.00    0.15044   0.72818    0.011
 4530.00   -0.37361   0.78514    0.000
 4531.00   -0.65470   0.79966    0.000
 4532.00    0.20145   0.77605    0.017
 4533.00    0.71902   0.74792    0.016
 4534.00   -0.05745   0.74177    0.000
 4535.00   -0.67702   0.75789    0.000
 4536.00   -0.79630   0.76555    0.000
 4537.00   -0.69417   0.75011    0.000
 4538.00    0.00627   0.73816    0.012
 4539.00    0.47653   0.74385    0.010
 4540.00    0.41340   0.74347    0.010
 4541.00    0.45870   0.71855    0.010
 4542.00    0.72133   0.69388    0.010
 4543.00    0.78254   0.70466    0.011
 4544.00    0.49210   0.73051    0.010
 4545.00    0.51685   0.73144    0.010
 4546.00    1.02328   0.71020    0.010
 4547.00    1.13670   0.69046    0.010
 4548.00    0.72252   0.69455    0.010
 4549.00    0.49348   0.72861    0.011
 4550.00    0.48331   0.76751    0.000
 4551.00    0.60764   0.78578    0.000
 4552.00    0.87218   0.78961    0.000
 4553.00    1.15328   0.79382    0.000
 4554.00    1.44961   0.79629    0.000
 4555.00    1.37529   0.78036    0.000
 4556.00    1.00058   0.74425    0.000
 4557.00    0.76252   0.71668    0.000
 4558.00    0.62192   0.72227    0.000
 4559.00    0.52492   0.75656    0.000
 4560.00    0.45520   0.79272    0.000
 4561.00    0.21894   0.80735    0.000
 4562.00   -0.10843   0.79863    0.000
 4563.00   -0.05866   0.76868    0.000
 4564.00    0.17040   0.73764    0.000
 4565.00    0.29526   0.74528    0.000
 4566.00    0.37739   0.78002    0.000
 4567.00    0.27334   0.79441    0.000
 4568.00    0.10406   0.78750    0.000
 4569.00    0.32454   0.78287    0.000
 4570.00    0.66020   0.77887    0.000
 4571.00    0.91112   0.76075    0.000
 4572.00    1.14127   0.73046    0.000
 4573.00    1.12203   0.70962    0.000
 4574.00    1.05337   0.70948    0.000
 4575.00    0.94862   0.71493    0.000
 4576.00    0.83829   0.71430    0.000
 4577.00    0.57768   0.71629    0.000
 4578.00    0.29988   0.72462    0.000
 4579.00    0.50554   0.73784    0.000
 4580.00    0.74834   0.75761    0.000
 4581.00    0.85572   0.77533    0.000
 4582.00    0.95746   0.77877    0.000
 4583.00    0.56974   0.76408    0.000
 4584.00    0.19562   0.74113    0.000
 4585.00    0.58790   0.72868    0.000
 4586.00    0.96372   0.73142    0.000
 4587.00    1.05189   0.73502    0.000
 4588.00    1.12432   0.73470    0.000
 4589.00    1.02838   0.73806    0.000
 4590.00    0.92181   0.74572    0.000
 4591.00    0.73481   0.75239    0.000
 4592.00    0.59746   0.74815    0.000
 4593.00    0.74549   0.73585    0.000
 4594.00    0.89734   0.73514    0.000
 4595.00    1.06670   0.74495    0.000
 4596.00    1.15478   0.74970    0.000
 4597.00    0.93876   0.74651    0.000
 4598.00    0.78236   0.74533    0.000
 4599.00    0.81244   0.75912    0.000
 4600.00    0.88459   0.78757    0.000
 4601.00    1.06844   0.81531    0.000
 4602.00    1.13081   0.82319    0.000
 4603.00    0.91639   0.80854    0.000
 4604.00    0.82304   0.78868    0.000
 4605.00    0.96854   0.77618    0.000
 4606.00    1.00577   0.77519    0.000
 4607.00    0.85684   0.78427    0.000
 4608.00    0.66273   0.78860    0.000
 4609.00    0.40061   0.78610    0.000
 4610.00    0.28898   0.78324    0.000
 4611.00    0.37648   0.77244    0.000
 4612.00    0.48107   0.76466    0.000
 4613.00    0.60555   0.77826    0.000
 4614.00    0.78375   0.79678    0.000
 4615.00    1.01717   0.80246    0.000
 4616.00    0.88794   0.80116    0.000
 4617.00    0.42997   0.79406    0.000
 4618.00    0.31618   0.78366    0.000
 4619.00    0.47738   0.78180    0.000
 4620.00    0.47889   0.78245    0.000
 4621.00    0.36816   0.77148    0.000
 4622.00    0.58803   0.76435    0.000
 4623.00    1.01173   0.78033    0.000
 4624.00    1.05470   0.79600    0.000
 4625.00    0.89264   0.78401    0.000
 4626.00    0.76563   0.76118    0.000
 4627.00    0.65502   0.75282    0.000
 4628.00    0.61388   0.75514    0.000
 4629.00    0.60074   0.75202    0.000
 4630.00    0.68144   0.74206    0.000
 4631.00    0.79442   0.73544    0.000
 4632.00    0.89065   0.73655    0.000
 4633.00    0.98202   0.74876    0.000
 4634.00    1.13267   0.76708    0.000
 4635.00    1.29752   0.77283    0.000
 4636.00    1.03418   0.76209    0.000
 4637.00    0.68815   0.74251    0.000
 4638.00    0.70871   0.71339    0.000
 4639.00    0.78428   0.68561    0.000
 4640.00    0.71561   0.68012    0.000
 4641.00    0.63107   0.69931    0.000
 4642.00    0.89777   0.72908    0.000
 4643.00    1.19000   0.75321    0.000
 4644.00    0.94391   0.76599    0.000
 4645.00    0.67746   0.76991    0.000
 4646.00    0.58543   0.75788    0.000
 4647.00    0.50169   0.73243    0.000
 4648.00    0.69212   0.71536    0.000
 4649.00    0.87507   0.72107    0.000
 4650.00    0.93557   0.75203    0.000
 4651.00    0.98071   0.79377    0.000
 4652.00    0.86859   0.81803    0.000
 4653.00    0.77422   0.81155    0.000
 4654.00    0.80958   0.78411    0.000
 4655.00    0.83775   0.75496    0.000
 4656.00    0.82578   0.74027    0.000
 4657.00    0.80693   0.73445    0.000
 4658.00    0.75737   0.70964    0.000
 4659.00    0.73223   0.66247    0.000
 4660.00    0.79651   0.63359    0.000
 4661.00    0.84985   0.64943    0.000
 4662.00    0.86961   0.69017    0.000
 4663.00    0.82431   0.72826    0.000
 4664.00    0.60930   0.74898    0.000
 4665.00    0.57582   0.74964    0.000
 4666.00    0.94917   0.74469    0.000
 4667.00    1.15066   0.75066    0.000
 4668.00    1.01839   0.76795    0.000
 4669.00    0.84039   0.77802    0.000
 4670.00    0.58495   0.76490    0.000
 4671.00    0.59401   0.73975    0.000
 4672.00    0.99555   0.72207    0.000
 4673.00    1.18058   0.71505    0.000
 4674.00    1.08323   0.71786    0.000
 4675.00    0.98720   0.73347    0.000
 4676.00    0.89269   0.75224    0.000
 4677.00    0.68201   0.76004    0.000
 4678.00    0.35362   0.75857    0.000
 4679.00    0.35335   0.75368    0.000
 4680.00    0.64634   0.74822    0.000
 4681.00    0.98995   0.74668    0.000
 4682.00    1.37342   0.74535    0.000
 4683.00    1.22861   0.73845    0.000
 4684.00    0.71787   0.73462    0.000
 4685.00    0.29771   0.74121    0.000
 4686.00   -0.06743   0.75272    0.000
 4687.00    0.20654   0.76572    0.000
 4688.00    0.81940   0.77624    0.000
 4689.00    1.08766   0.77078    0.000
 4690.00    1.19735   0.74382    0.000
 4691.00    1.10367   0.71679    0.000
 4692.00    0.92941   0.71139    0.000
 4693.00    0.83582   0.71566    0.000
 4694.00    0.76946   0.70830    0.000
 4695.00    0.79278   0.69503    0.000
 4696.00    0.84154   0.69904    0.000
 4697.00    0.95540   0.71999    0.000
 4698.00    1.08449   0.73052    0.000
 4699.00    0.94067   0.71800    0.000
 4700.00    0.74552   0.69858    0.000
 4701.00    0.71808   0.69175    0.000
 4702.00    0.71504   0.70562    0.000
 4703.00    0.82150   0.73418    0.000
 4704.00    0.93954   0.75415    0.000
 4705.00    0.94139   0.74845    0.000
 4706.00    0.93526   0.72598    0.000
 4707.00    0.86734   0.71460    0.000
 4708.00    0.79731   0.73183    0.000
 4709.00    0.54098   0.75995    0.000
 4710.00    0.30062   0.77642    0.000
 4711.00    0.58922   0.78481    0.000
 4712.00    0.85660   0.79195    0.000
 4713.00    0.79850   0.79209    0.000
 4714.00    0.72388   0.78302    0.000
 4715.00    0.48733   0.77714    0.000
 4716.00    0.33323   0.78532    0.000
 4717.00    0.76203   0.79716    0.000
 4718.00    1.09773   0.79007    0.000
 4719.00    0.92683   0.75541    0.000
 4720.00    0.73149   0.71465    0.000
 4721.00    0.42962   0.69553    0.000
 4722.00    0.21931   0.69665    0.000
 4723.00    0.33746   0.70354    0.000
 4724.00    0.45904   0.71599    0.000
 4725.00    0.59097   0.73299    0.000
 4726.00    0.71402   0.74631    0.000
 4727.00    0.81432   0.75171    0.000
 4728.00    0.90369   0.74283    0.000
 4729.00    0.96894   0.73107    0.000
 4730.00    0.98648   0.74197    0.000
 4731.00    0.91283   0.76292    0.000
 4732.00    0.90433   0.76465    0.000
 4733.00    1.00452   0.75413    0.000
 4734.00    1.14390   0.75364    0.000
 4735.00    1.34058   0.76375    0.000
 4736.00    1.26244   0.76890    0.000
 4737.00    0.83096   0.76556    0.000
 4738.00    0.61009   0.76791    0.000
 4739.00    0.62778   0.77664    0.000
 4740.00    0.75052   0.77851    0.000
 4741.00    0.97822   0.77626    0.000
 4742.00    0.96949   0.77821    0.000
 4743.00    0.75245   0.77730    0.000
 4744.00    0.68903   0.76628    0.000
 4745.00    0.74489   0.75142    0.000
 4746.00    0.84617   0.73970    0.000
 4747.00    0.97844   0.73338    0.000
 4748.00    1.06058   0.73231    0.000
 4749.00    1.11272   0.73667    0.000
 4750.00    1.08811   0.74624    0.000
 4751.00    1.02343   0.75812    0.000
 4752.00    0.98327   0.76452    0.000
 4753.00    0.95422   0.75246    0.000
 4754.00    0.96940   0.72336    0.000
 4755.00    1.00180   0.69929    0.000
 4756.00    1.11565   0.68959    0.000
 4757.00    1.25650   0.68411    0.000
 4758.00    1.25227   0.68251    0.000
 4759.00    1.20772   0.69467    0.000
 4760.00    0.93167   0.71867    0.000
 4761.00    0.60268   0.74335    0.009
 4762.00    0.58516   0.75626    0.009
 4763.00    0.62468   0.74845    0.009
 4764.00    0.66968   0.73395    0.009
 4765.00    0.71545   0.73749    0.009
 4766.00    0.72950   0.75891    0.009
 4767.00    0.74033   0.77456    0.009
 4768.00    0.64574   0.77515    0.009
 4769.00    0.54433   0.77552    0.009
 4770.00    0.65626   0.77786    0.009
 4771.00    0.77433   0.77031    0.009
 4772.00    0.73533   0.75924    0.009
 4773.00    0.69844   0.75575    0.009
 4774.00    0.72257   0.74996    0.009
 4775.00    0.75348   0.73561    0.009
 4776.00    0.88244   0.73004    0.009
 4777.00    1.00247   0.73421    0.009
 4778.00    1.03859   0.72784    0.009
 4779.00    1.04480   0.71964    0.009
 4780.00    0.84619   0.72307    0.009
 4781.00    0.68402   0.72520    0.009
 4782.00    0.71486   0.72535    0.008
 4783.00    0.75522   0.73315    0.008
 4784.00    0.83613   0.74623    0.008
 4785.00    0.89233   0.76506    0.008
 4786.00    0.86168   0.78824    0.008
 4787.00    0.86348   0.80207    0.008
 4788.00    0.96110   0.79703    0.009
 4789.00    0.94973   0.77834    0.009
 4790.00    0.66386   0.75435    0.008
 4791.00    0.51251   0.73440    0.008
 4792.00    0.65287   0.73046    0.008
 4793.00    0.79073   0.74627    0.008
 4794.00    0.92390   0.76962    0.009
 4795.00    1.01129   0.77987    0.009
 4796.00    1.02346   0.76749    0.009
 4797.00    0.98093   0.74539    0.008
 4798.00    0.85960   0.73442    0.009
 4799.00    0.79495   0.73255    0.009
 4800.00    0.80214   0.73128    0.009
 4801.00    0.80310   0.73585    0.008
 4802.00    0.79709   0.74505    0.008
 4803.00    0.87274   0.74978    0.008
 4804.00    1.02885   0.74966    0.008
 4805.00    1.07883   0.75051    0.008
 4806.00    1.03662   0.75502    0.008
 4807.00    0.93843   0.76160    0.008
 4808.00    0.79741   0.76927    0.008
 4809.00    0.74768   0.77698    0.008
 4810.00    0.75936   0.78327    0.008
 4811.00    0.74296   0.78810    0.008
 4812.00    0.71002   0.78832    0.008
 4813.00    0.76956   0.78033    0.008
 4814.00    0.87662   0.75848    0.008
 4815.00    0.98473   0.72212    0.008
 4816.00    1.09331   0.69997    0.008
 4817.00    0.88894   0.71505    0.008
 4818.00    0.56484   0.74362    0.008
 4819.00    0.63471   0.75483    0.008
 4820.00    0.83267   0.74781    0.008
 4821.00    0.96653   0.73985    0.008
 4822.00    1.08294   0.73882    0.009
 4823.00    1.21524   0.73309    0.008
 4824.00    1.35108   0.72194    0.008
 4825.00    1.13933   0.72380    0.008
 4826.00    0.86563   0.73865    0.008
 4827.00    0.70403   0.74734    0.008
 4828.00    0.55770   0.74561    0.009
 4829.00    0.68470   0.74355    0.008
 4830.00    0.83825   0.73760    0.008
 4831.00    0.67266   0.72159    0.008
 4832.00    0.48772   0.70888    0.008
 4833.00    0.54799   0.71166    0.008
 4834.00    0.61531   0.71740    0.008
 4835.00    0.77981   0.71484    0.008
 4836.00    0.93314   0.71814    0.008
 4837.00    0.79474   0.73383    0.008
 4838.00    0.66454   0.74269    0.008
 4839.00    0.64627   0.72916    0.008
 4840.00    0.65040   0.70266    0.008
 4841.00    0.85698   0.69069    0.008
 4842.00    1.02922   0.70298    0.008
 4843.00    0.97363   0.71606    0.008
 4844.00    0.96147   0.71483    0.008
 4845.00    1.17339   0.70205    0.008
 4846.00    1.28055   0.67224    0.008
 4847.00    0.95159   0.63300    0.008
 4848.00    0.67805   0.61698    0.000
 4849.00    0.59537   0.62770    0.000
 4850.00    0.56193   0.62600    0.000
 4851.00    0.67131   0.58494    0.000
 4852.00    0.70988   0.51500    0.000
 4853.00    0.57319   0.45864    0.000
 4854.00    0.52342   0.46353    0.000
 4855.00    0.65910   0.51882    0.000
 4856.00    0.75672   0.57074    0.000
 4857.00    0.78381   0.60442    0.000
 4858.00    0.84567   0.63224    0.000
 4859.00    0.96380   0.65341    0.000
 4860.00    1.06842   0.66564    0.000
 4861.00    1.15388   0.66922    0.000
 4862.00    1.15949   0.65164    0.000
 4863.00    1.06535   0.61616    0.000
 4864.00    0.96289   0.60273    0.000
 4865.00    0.85126   0.62796    0.000
 4866.00    0.73559   0.65885    0.000
 4867.00    0.61600   0.67216    0.000
 4868.00    0.70725   0.67798    0.000
 4869.00    0.97909   0.68687    0.000
 4870.00    1.09148   0.70112    0.000
 4871.00    1.08361   0.72290    0.000
 4872.00    0.94662   0.73351    0.000
 4873.00    0.72404   0.71846    0.000
 4874.00    0.73424   0.70131    0.000
 4875.00    0.87956   0.69797    0.009
 4876.00    0.88427   0.69169    0.009
 4877.00    0.81785   0.67536    0.009
 4878.00    0.82927   0.66461    0.009
 4879.00    0.87477   0.66979    0.009
 4880.00    0.90594   0.68003    0.009
 4881.00    0.93173   0.67670    0.009
 4882.00    0.71189   0.65280    0.009
 4883.00    0.41371   0.63172    0.009
 4884.00    0.48860   0.65230    0.009
 4885.00    0.66294   0.70552    0.009
 4886.00    0.62512   0.75173    0.009
 4887.00    0.54101   0.77717    0.009
 4888.00    0.61228   0.78520    0.009
 4889.00    0.71047   0.78229    0.009
 4890.00    0.79177   0.77099    0.009
 4891.00    0.87086   0.74844    0.009
 4892.00    0.73704   0.72856    0.009
 4893.00    0.58345   0.72830    0.009
 4894.00    0.71275   0.73145    0.009
 4895.00    0.85810   0.72300    0.009
 4896.00    0.82893   0.72246    0.009
 4897.00    0.79462   0.74356    0.009
 4898.00    0.63249   0.76591    0.009
 4899.00    0.48255   0.76534    0.009
 4900.00    0.62170   0.74284    0.009
 4901.00    0.74209   0.71105    0.009
 4902.00    0.61981   0.68436    0.009
 4903.00    0.49800   0.68108    0.009
 4904.00    0.38027   0.70139    0.009
 4905.00    0.32916   0.72499    0.009
 4906.00    0.70682   0.74282    0.009
 4907.00    0.99114   0.75762    0.009
 4908.00    0.80609   0.75938    0.009
 4909.00    0.66839   0.73261    0.009
 4910.00    0.72340   0.67970    0.009
 4911.00    0.77708   0.62533    0.009
 4912.00    0.82622   0.59851    0.009
 4913.00    0.90839   0.61238    0.009
 4914.00    1.08454   0.64879    0.009
 4915.00    1.21965   0.66961    0.009
 4916.00    1.25490   0.66937    0.009
 4917.00    1.21098   0.68040    0.008
 4918.00    1.00090   0.71212    0.009
 4919.00    0.84048   0.73955    0.009
 4920.00    0.77067   0.75523    0.009
 4921.00    0.70528   0.76747    0.009
 4922.00    0.64695   0.77185    0.008
 4923.00    0.66056   0.76527    0.008
 4924.00    0.77486   0.74336    0.008
 4925.00    0.85845   0.70673    0.008
 4926.00    0.90421   0.68713    0.008
 4927.00    0.94540   0.70189    0.008
 4928.00    0.98161   0.71440    0.008
 4929.00    0.98185   0.69415    0.008
 4930.00    0.94764   0.65942    0.008
 4931.00    1.00098   0.64993    0.008
 4932.00    1.12824   0.68131    0.008
 4933.00    1.13659   0.72478    0.008
 4934.00    1.05653   0.74952    0.008
 4935.00    0.78272   0.75984    0.008
 4936.00    0.38237   0.76193    0.008
 4937.00    0.32672   0.75111    0.008
 4938.00    0.46811   0.74037    0.008
 4939.00    0.59307   0.74614    0.008
 4940.00    0.70985   0.75875    0.000
 4941.00    0.82798   0.76486    0.000
 4942.00    0.94668   0.76753    0.000
 4943.00    0.90473   0.76917    0.000
 4944.00    0.80348   0.76283    0.000
 4945.00    0.79224   0.75152    0.000
 4946.00    0.80917   0.74481    0.000
 4947.00    0.92423   0.73340    0.000
 4948.00    1.06489   0.69401    0.000
 4949.00    0.92425   0.63926    0.000
 4950.00    0.72371   0.63104    0.000
 4951.00    0.75788   0.68302    0.000
 4952.00    0.83161   0.73488    0.000
 4953.00    0.81021   0.75107    0.000
 4954.00    0.77671   0.74926    0.000
 4955.00    0.78881   0.74763    0.000
 4956.00    0.80496   0.73747    0.000
 4957.00    0.86601   0.71416    0.000
 4958.00    0.92943   0.69635    0.000
 4959.00    0.89512   0.69407    0.000
 4960.00    0.85694   0.69793    0.000
 4961.00    0.66244   0.70254    0.000
 4962.00    0.48174   0.70906    0.000
 4963.00    0.60115   0.72045    0.000
 4964.00    0.71865   0.73427    0.000
 4965.00    0.81271   0.74469    0.000
 4966.00    0.89860   0.75129    0.000
 4967.00    0.91606   0.75138    0.000
 4968.00    0.90976   0.74363    0.000
 4969.00    0.75518   0.72938    0.000
 4970.00    0.64136   0.71070    0.000
 4971.00    0.72746   0.69654    0.000
 4972.00    0.80846   0.68521    0.000
 4973.00    0.86915   0.65976    0.000
 4974.00    0.92753   0.62233    0.000
 4975.00    0.97830   0.60224    0.000
 4976.00    0.97420   0.61324    0.000
 4977.00    0.81676   0.64075    0.000
 4978.00    0.73430   0.67366    0.000
 4979.00    0.83116   0.70451    0.000
 4980.00    0.88222   0.71788    0.000
 4981.00    0.83868   0.71130    0.000
 4982.00    0.84554   0.69770    0.000
 4983.00    0.94296   0.69120    0.000
 4984.00    0.98325   0.69544    0.000
 4985.00    0.93379   0.69730    0.000
 4986.00    0.94445   0.69752    0.000
 4987.00    1.03802   0.70753    0.000
 4988.00    1.03326   0.71754    0.000
 4989.00    0.90909   0.71665    0.000
 4990.00    0.84314   0.70340    0.000
 4991.00    0.83950   0.67935    0.000
 4992.00    0.75522   0.65756    0.000
 4993.00    0.59482   0.64985    0.000
 4994.00    0.61948   0.65462    0.000
 4995.00    0.79821   0.66196    0.000
 4996.00    0.84788   0.65561    0.000
 4997.00    0.80297   0.63111    0.000
 4998.00    0.85046   0.61474    0.000
 4999.00    0.95741   0.63342    0.000
 5000.00    0.97773   0.67224    0.000
 5001.00    0.94929   0.69470    0.000
 5002.00    0.86737   0.68989    0.000
 5003.00    0.75925   0.66681    0.000
 5004.00    0.97455   0.63514    0.000
 5005.00    1.32680   0.61031    0.000
 5006.00    1.14494   0.60575    0.000
 5007.00    0.76941   0.62228    0.000
 5008.00    0.75960   0.63819    0.000
 5009.00    0.86199   0.63267    0.000
 5010.00    0.85221   0.62178    0.000
 5011.00    0.81380   0.63085    0.000
 5012.00    0.82555   0.64931    0.000
 5013.00    0.84772   0.65386    0.000
 5014.00    0.84189   0.64994    0.000
 5015.00    0.83149   0.65893    0.000
 5016.00    0.74467   0.67788    0.000
 5017.00    0.64847   0.68733    0.000
 5018.00    0.68755   0.67941    0.000
 5019.00    0.73807   0.66320    0.000
 5020.00    0.77697   0.66228    0.000
 5021.00    0.81530   0.67937    0.000
 5022.00    0.76830   0.69371    0.000
 5023.00    0.71794   0.70409    0.000
 5024.00    0.54329   0.72013    0.000
 5025.00    0.39285   0.73137    0.000
 5026.00    0.72793   0.71762    0.000
 5027.00    1.04373   0.68226    0.000
 5028.00    1.13420   0.65846    0.000
 5029.00    1.17320   0.66050    0.008
 5030.00    0.79663   0.65848    0.008
 5031.00    0.50731   0.63064    0.008
 5032.00    0.74697   0.59061    0.008
 5033.00    0.98657   0.57355    0.008
 5034.00    1.22586   0.60527    0.008
 5035.00    1.36605   0.66121    0.008
 5036.00    1.12032   0.70351    0.008
 5037.00    0.93363   0.72839    0.008
 5038.00    0.93847   0.73605    0.008
 5039.00    0.92047   0.71694    0.008
 5040.00    0.83976   0.68036    0.008
 5041.00    0.73442   0.65331    0.008
 5042.00    0.57118   0.64627    0.008
 5043.00    0.46520   0.64918    0.008
 5044.00    0.47563   0.65942    0.008
 5045.00    0.58319   0.68069    0.008
 5046.00    0.86260   0.70291    0.008
 5047.00    0.98505   0.71361    0.008
 5048.00    0.86452   0.71463    0.008
 5049.00    0.76667   0.71660    0.008
 5050.00    0.69967   0.72161    0.008
 5051.00    0.73203   0.72581    0.008
 5052.00    0.88332   0.73181    0.008
 5053.00    0.96793   0.73924    0.008
 5054.00    0.98216   0.73645    0.008
 5055.00    0.87771   0.71227    0.008
 5056.00    0.66278   0.67488    0.008
 5057.00    0.54811   0.65474    0.008
 5058.00    0.51572   0.66166    0.008
 5059.00    0.65562   0.66874    0.008
 5060.00    0.91996   0.66732    0.008
 5061.00    0.92212   0.67442    0.008
 5062.00    0.75804   0.68568    0.008
 5063.00    0.73932   0.67974    0.008
 5064.00    0.80120   0.66623    0.008
 5065.00    0.74651   0.66852    0.008
 5066.00    0.63563   0.67675    0.008
 5067.00    0.65195   0.67638    0.008
 5068.00    0.72122   0.67730    0.008
 5069.00    0.70732   0.67807    0.008
 5070.00    0.66380   0.65522    0.008
 5071.00    0.66567   0.61377    0.008
 5072.00    0.68120   0.59556    0.008
 5073.00    0.79378   0.61206    0.008
 5074.00    0.93061   0.63263    0.008
 5075.00    0.82902   0.64236    0.008
 5076.00    0.67910   0.65514    0.008
 5077.00    0.74414   0.67293    0.008
 5078.00    0.84335   0.68122    0.008
 5079.00    0.92027   0.67987    0.008
 5080.00    0.99456   0.68191    0.008
 5081.00    0.88455   0.68861    0.008
 5082.00    0.75972   0.69239    0.008
 5083.00    0.79411   0.69647    0.008
 5084.00    0.83567   0.70704    0.008
 5085.00    0.66871   0.71656    0.007
 5086.00    0.50264   0.71372    0.007
 5087.00    0.50386   0.69800    0.007
 5088.00    0.51268   0.67492    0.007
 5089.00    0.66295   0.64748    0.007
 5090.00    0.79351   0.62163    0.007
 5091.00    0.70466   0.61469    0.007
 5092.00    0.64836   0.63713    0.007
 5093.00    0.84559   0.66912    0.008
 5094.00    0.98660   0.68503    0.008
 5095.00    0.79634   0.68277    0.008
 5096.00    0.65043   0.67504    0.008
 5097.00    0.71148   0.66793    0.008
 5098.00    0.79493   0.65688    0.008
 5099.00    0.96375   0.64340    0.008
 5100.00    1.04900   0.63764    0.008
 5101.00    0.86842   0.63735    0.008
 5102.00    0.75024   0.64089    0.007
 5103.00    0.80030   0.65607    0.008
 5104.00    0.83322   0.67424    0.008
 5105.00    0.82653   0.68385    0.008
 5106.00    0.77709   0.68815    0.008
 5107.00    0.64213   0.69193    0.008
 5108.00    0.59441   0.69953    0.008
 5109.00    0.69870   0.70926    0.008
 5110.00    0.74200   0.71087    0.008
 5111.00    0.69229   0.70097    0.008
 5112.00    0.70701   0.68503    0.008
 5113.00    0.80806   0.66711    0.008
 5114.00    0.90971   0.64544    0.008
 5115.00    1.01207   0.62287    0.008
 5116.00    1.02097   0.61351    0.008
 5117.00    0.93262   0.62012    0.008
 5118.00    0.75878   0.62828    0.008
 5119.00    0.50648   0.62879    0.008
 5120.00    0.50393   0.62475    0.008
 5121.00    0.70342   0.62473    0.008
 5122.00    0.69749   0.63461    0.008
 5123.00    0.54533   0.64861    0.008
 5124.00    0.48602   0.65623    0.008
 5125.00    0.48472   0.66028    0.008
 5126.00    0.55345   0.67066    0.008
 5127.00    0.66042   0.67875    0.008
 5128.00    0.72479   0.66772    0.008
 5129.00    0.76895   0.64503    0.008
 5130.00    0.71293   0.62684    0.008
 5131.00    0.61590   0.62372    0.008
 5132.00    0.69799   0.63662    0.008
 5133.00    0.84270   0.63952    0.008
 5134.00    0.86763   0.62626    0.008
 5135.00    0.85726   0.62750    0.008
 5136.00    0.81484   0.64162    0.008
 5137.00    0.76459   0.64119    0.008
 5138.00    0.85551   0.62885    0.008
 5139.00    0.97430   0.62395    0.008
 5140.00    0.90658   0.63216    0.008
 5141.00    0.81009   0.64176    0.008
 5142.00    0.81425   0.63887    0.008
 5143.00    0.82988   0.62798    0.008
 5144.00    0.88096   0.61960    0.008
 5145.00    0.93474   0.61572    0.008
 5146.00    0.86939   0.62139    0.008
 5147.00    0.79913   0.64036    0.007
 5148.00    0.79438   0.66429    0.008
 5149.00    0.78821   0.68166    0.008
 5150.00    0.69937   0.68694    0.008
 5151.00    0.61797   0.68541    0.007
 5152.00    0.66548   0.68214    0.007
 5153.00    0.72820   0.67156    0.007
 5154.00    0.95284   0.65723    0.008
 5155.00    1.15577   0.64716    0.008
 5156.00    1.19523   0.62723    0.008
 5157.00    1.18516   0.58161    0.008
 5158.00    0.89149   0.52140    0.008
 5159.00    0.66208   0.47967    0.008
 5160.00    0.72537   0.48517    0.008
 5161.00    0.81000   0.52614    0.008
 5162.00    0.97430   0.54889    0.008
 5163.00    1.02786   0.51986    0.008
 5164.00    0.73592   0.48308    0.008
 5165.00    0.60018   0.50366    0.008
 5166.00    0.87813   0.57146    0.008
 5167.00    1.00330   0.62661    0.008
 5168.00    0.78105   0.64812    0.008
 5169.00    0.56415   0.65543    0.008
 5170.00    0.35782   0.65821    0.008
 5171.00    0.36109   0.65217    0.008
 5172.00    0.72408   0.63439    0.008
 5173.00    0.95728   0.59627    0.008
 5174.00    0.99542   0.53356    0.008
 5175.00    0.87130   0.48286    0.008
 5176.00    0.53286   0.49657    0.008
 5177.00    0.38723   0.56269    0.007
 5178.00    0.46588   0.62041    0.007
 5179.00    0.54658   0.64110    0.007
 5180.00    0.62937   0.64407    0.007
 5181.00    0.70989   0.65112    0.007
 5182.00    0.78834   0.64433    0.007
 5183.00    0.80936   0.60969    0.007
 5184.00    0.78457   0.58530    0.007
 5185.00    0.73702   0.59566    0.007
 5186.00    0.67348   0.61128    0.007
 5187.00    0.56135   0.61488    0.007
 5188.00    0.41931   0.62153    0.007
 5189.00    0.59623   0.63565    0.007
 5190.00    0.94459   0.65123    0.000
 5191.00    0.93556   0.66408    0.000
 5192.00    0.75973   0.66811    0.000
 5193.00    0.76590   0.66259    0.000
 5194.00    0.84528   0.65199    0.000
 5195.00    0.79808   0.63193    0.000
 5196.00    0.70744   0.59818    0.000
 5197.00    0.76279   0.57042    0.000
 5198.00    0.86031   0.56588    0.000
 5199.00    0.83190   0.56809    0.000
 5200.00    0.77342   0.56758    0.000
 5201.00    0.61897   0.58110    0.000
 5202.00    0.44604   0.61061    0.000
 5203.00    0.56317   0.64380    0.000
 5204.00    0.72368   0.67102    0.000
 5205.00    0.70091   0.67962    0.000
 5206.00    0.65806   0.66316    0.000
 5207.00    0.56030   0.63713    0.000
 5208.00    0.45857   0.62755    0.000
 5209.00    0.58414   0.64241    0.000
 5210.00    0.71821   0.66765    0.000
 5211.00    0.77178   0.68657    0.008
 5212.00    0.82152   0.69515    0.008
 5213.00    0.74560   0.69564    0.008
 5214.00    0.66883   0.68522    0.008
 5215.00    0.57825   0.66083    0.008
 5216.00    0.51262   0.62411    0.007
 5217.00    0.70091   0.58023    0.008
 5218.00    0.86549   0.54885    0.008
 5219.00    0.85747   0.56129    0.008
 5220.00    0.85212   0.61151    0.008
 5221.00    0.86168   0.65529    0.008
 5222.00    0.86382   0.67257    0.007
 5223.00    0.83291   0.66593    0.008
 5224.00    0.79349   0.64072    0.008
 5225.00    0.72297   0.61984    0.008
 5226.00    0.72943   0.62232    0.008
 5227.00    0.97153   0.64386    0.008
 5228.00    1.09445   0.66992    0.007
 5229.00    0.90726   0.68652    0.007
 5230.00    0.80222   0.69011    0.007
 5231.00    0.88091   0.68844    0.008
 5232.00    0.93143   0.68893    0.008
 5233.00    0.92738   0.68886    0.007
 5234.00    0.94316   0.68622    0.007
 5235.00    0.99247   0.69053    0.007
 5236.00    1.01136   0.69930    0.007
 5237.00    0.98520   0.69012    0.007
 5238.00    0.95183   0.66092    0.007
 5239.00    0.90910   0.64136    0.007
 5240.00    0.83100   0.64069    0.007
 5241.00    0.71236   0.63729    0.007
 5242.00    0.71784   0.63097    0.007
 5243.00    0.84887   0.63933    0.007
 5244.00    0.89669   0.65457    0.007
 5245.00    0.87027   0.65592    0.008
 5246.00    0.87349   0.64525    0.008
 5247.00    0.90000   0.64783    0.007
 5248.00    1.01091   0.67378    0.007
 5249.00    1.18018   0.70175    0.008
 5250.00    1.12561   0.71206    0.008
 5251.00    0.93534   0.70236    0.008
 5252.00    0.85323   0.67575    0.007
 5253.00    0.82836   0.63762    0.007
 5254.00    0.97338   0.59837    0.008
 5255.00    1.19642   0.56709    0.008
 5256.00    1.21436   0.54589    0.008
 5257.00    1.15122   0.54004    0.008
 5258.00    0.96103   0.55780    0.008
 5259.00    0.72805   0.57637    0.008
 5260.00    0.77556   0.55664    0.008
 5261.00    0.90248   0.52217    0.008
 5262.00    0.73100   0.53442    0.008
 5263.00    0.48985   0.58626    0.008
 5264.00    0.72743   0.62205    0.008
 5265.00    1.05476   0.62581    0.008
 5266.00    1.03313   0.61591    0.008
 5267.00    0.96094   0.61558    0.008
 5268.00    0.95375   0.64235    0.008
 5269.00    0.95339   0.67960    0.008
 5270.00    0.80553   0.69488    0.008
 5271.00    0.64761   0.68336    0.008
 5272.00    0.66605   0.66184    0.008
 5273.00    0.69041   0.64260    0.008
 5274.00    0.85044   0.62710    0.008
 5275.00    1.00027   0.62185    0.008
 5276.00    0.81840   0.64277    0.008
 5277.00    0.65238   0.68333    0.008
 5278.00    0.72769   0.71192    0.008
 5279.00    0.80708   0.71534    0.008
 5280.00    0.92625   0.71033    0.008
 5281.00    1.01729   0.71279    0.008
 5282.00    0.91030   0.71847    0.008
 5283.00    0.83874   0.71594    0.008
 5284.00    0.95920   0.70581    0.008
 5285.00    1.04357   0.69817    0.007
 5286.00    0.97103   0.69220    0.007
 5287.00    0.95871   0.67290    0.007
 5288.00    1.16182   0.63692    0.007
 5289.00    1.30001   0.60895    0.008
 5290.00    1.24322   0.61488    0.008
 5291.00    1.15165   0.64168    0.008
 5292.00    0.97117   0.65588    0.007
 5293.00    0.83232   0.65602    0.007
 5294.00    0.78504   0.66519    0.007
 5295.00    0.73009   0.68836    0.007
 5296.00    0.66052   0.70790    0.007
 5297.00    0.62222   0.70976    0.007
 5298.00    0.63600   0.69931    0.007
 5299.00    0.65431   0.69373    0.007
 5300.00    0.67921   0.70129    0.007
 5301.00    0.73397   0.71238    0.007
 5302.00    0.82705   0.71558    0.007
 5303.00    0.82011   0.71056    0.007
 5304.00    0.70005   0.70225    0.007
 5305.00    0.70375   0.69546    0.007
 5306.00    0.83085   0.68862    0.007
 5307.00    0.95075   0.67580    0.007
 5308.00    1.06429   0.66484    0.007
 5309.00    1.13803   0.66847    0.007
 5310.00    1.18091   0.67958    0.007
 5311.00    1.17380   0.68537    0.007
 5312.00    1.13261   0.68577    0.007
 5313.00    1.00728   0.68155    0.007
 5314.00    0.83170   0.66727    0.008
 5315.00    0.78260   0.64559    0.008
 5316.00    0.79940   0.63438    0.007
 5317.00    0.87264   0.63289    0.007
 5318.00    0.97138   0.60916    0.007
 5319.00    0.98702   0.56105    0.007
 5320.00    0.97037   0.54279    0.007
 5321.00    0.95330   0.58253    0.007
 5322.00    0.93609   0.63740    0.007
 5323.00    0.86672   0.66321    0.007
 5324.00    0.78289   0.66564    0.007
 5325.00    0.80743   0.67084    0.007
 5326.00    0.85668   0.68213    0.007
 5327.00    0.84032   0.68505    0.007
 5328.00    0.81199   0.67854    0.007
 5329.00    0.88488   0.67156    0.007
 5330.00    0.97197   0.65848    0.007
 5331.00    0.91026   0.63373    0.007
 5332.00    0.83353   0.61998    0.007
 5333.00    0.70594   0.63707    0.007
 5334.00    0.57508   0.66604    0.007
 5335.00    0.74043   0.68008    0.007
 5336.00    0.91413   0.67504    0.007
 5337.00    0.89828   0.66401    0.007
 5338.00    0.88476   0.65977    0.007
 5339.00    0.93785   0.65611    0.007
 5340.00    0.98855   0.64749    0.007
 5341.00    1.00510   0.64940    0.007
 5342.00    1.00054   0.66909    0.007
 5343.00    0.79830   0.68908    0.007
 5344.00    0.62837   0.69710    0.007
 5345.00    0.67872   0.70322    0.007
 5346.00    0.73444   0.71515    0.007
 5347.00    0.81842   0.72466    0.007
 5348.00    0.89164   0.72707    0.007
 5349.00    0.91916   0.72679    0.007
 5350.00    0.93959   0.72581    0.007
 5351.00    0.93517   0.72056    0.007
 5352.00    0.94795   0.70681    0.007
 5353.00    1.01142   0.68822    0.007
 5354.00    1.01935   0.67516    0.007
 5355.00    0.88773   0.66845    0.007
 5356.00    0.80682   0.66242    0.007
 5357.00    0.83568   0.65981    0.007
 5358.00    0.87974   0.66110    0.007
 5359.00    0.95232   0.65923    0.007
 5360.00    0.97356   0.64540    0.007
 5361.00    0.91058   0.61681    0.007
 5362.00    0.80821   0.59228    0.007
 5363.00    0.64918   0.60012    0.007
 5364.00    0.65549   0.63960    0.007
 5365.00    0.87096   0.67996    0.007
 5366.00    0.95451   0.70079    0.007
 5367.00    0.89098   0.70317    0.007
 5368.00    0.85649   0.69698   -2.000
 5369.00    0.85056   0.69367   -2.000
 5370.00    0.86987   0.69290   -2.000
 5371.00    0.91107   0.68641   -2.000
 5372.00    1.01082   0.67661   -2.000
 5373.00    1.15529   0.66959   -2.000
 5374.00    1.12795   0.66558   -2.000
 5375.00    0.98525   0.66940   -2.000
 5376.00    0.93088   0.68197   -2.000
 5377.00    0.92846   0.69134   -2.000
 5378.00    0.97260   0.69106   -2.000
 5379.00    1.04062   0.68405   -2.000
 5380.00    0.97887   0.67185   -2.000
 5381.00    0.85946   0.65836   -2.000
 5382.00    0.92575   0.64970   -2.000
 5383.00    1.06294   0.64608    0.007
 5384.00    1.01469   0.64478    0.007
 5385.00    0.90630   0.64537    0.007
 5386.00    0.91572   0.64304    0.007
 5387.00    0.95712   0.62696    0.007
 5388.00    0.96293   0.60581    0.007
 5389.00    0.96082   0.60857    0.007
 5390.00    0.94888   0.63375    0.007
 5391.00    0.93520   0.65172    0.007
 5392.00    0.92968   0.65679    0.007
 5393.00    0.92527   0.65861    0.007
 5394.00    0.87135   0.64774    0.007
 5395.00    0.81266   0.61626    0.007
 5396.00    0.92197   0.58305    0.007
 5397.00    1.04139   0.57479    0.007
 5398.00    0.97453   0.59540    0.007
 5399.00    0.90341   0.61872    0.007
 5400.00    0.93103   0.62006    0.007
 5401.00    0.95428   0.61086    0.007
 5402.00    0.86485   0.61983    0.007
 5403.00    0.77620   0.64627    0.007
 5404.00    0.69805   0.66464    0.007
 5405.00    0.63488   0.66473    0.007
 5406.00    0.70658   0.66149    0.007
 5407.00    0.78930   0.67014    0.007
 5408.00    0.94486   0.68385    0.007
 5409.00    1.04358   0.68693    0.007
 5410.00    0.85000   0.67787    0.007
 5411.00    0.70729   0.66667    0.007
 5412.00    0.77572   0.66353    0.007
 5413.00    0.83395   0.66730    0.007
 5414.00    0.85713   0.66193    0.007
 5415.00    0.87506   0.64621    0.007
 5416.00    0.87780   0.64520    0.007
 5417.00    0.86600   0.66706    0.007
 5418.00    0.81831   0.68641    0.007
 5419.00    0.80620   0.67538    0.007
 5420.00    0.86988   0.63842    0.007
 5421.00    0.87465   0.61651    0.007
 5422.00    0.77048   0.62887    0.007
 5423.00    0.69719   0.64224    0.007
 5424.00    0.67380   0.63302    0.007
 5425.00    0.69795   0.61620    0.007
 5426.00    0.78949   0.61127    0.007
 5427.00    0.86886   0.62319    0.007
 5428.00    0.93306   0.64648    0.007
 5429.00    0.93131   0.67289    0.007
 5430.00    0.85708   0.69336    0.007
 5431.00    0.84535   0.70342    0.007
 5432.00    0.89422   0.70550    0.007
 5433.00    0.91948   0.70454    0.007
 5434.00    0.92457   0.70033    0.007
 5435.00    0.91280   0.68510    0.007
 5436.00    0.88833   0.65385    0.007
 5437.00    0.93377   0.61659    0.007
 5438.00    1.02547   0.60027    0.007
 5439.00    1.03290   0.62088    0.007
 5440.00    0.99150   0.65660    0.007
 5441.00    0.91352   0.67845    0.007
 5442.00    0.81709   0.68246    0.007
 5443.00    0.86068   0.67700    0.007
 5444.00    0.96545   0.66418    0.007
 5445.00    0.96665   0.63976    0.007
 5446.00    0.92901   0.61119    0.007
 5447.00    0.91771   0.60543    0.007
 5448.00    0.91479   0.63289    0.007
 5449.00    0.84726   0.66719    0.007
 5450.00    0.76255   0.68253    0.007
 5451.00    0.73378   0.67777    0.007
 5452.00    0.71718   0.66279    0.006
 5453.00    0.77188   0.64333    0.007
 5454.00    0.83891   0.62889    0.007
 5455.00    0.90651   0.63356    0.007
 5456.00    0.97418   0.65020    0.007
 5457.00    0.95005   0.65947    0.007
 5458.00    0.91744   0.66218    0.007
 5459.00    0.84716   0.66617    0.007
 5460.00    0.77477   0.66608    0.007
 5461.00    0.85417   0.65950    0.007
 5462.00    0.93680   0.65424    0.007
 5463.00    1.00352   0.65036    0.007
 5464.00    1.06593   0.64212    0.007
 5465.00    1.02721   0.63385    0.007
 5466.00    0.99080   0.62267    0.007
 5467.00    0.98420   0.59989    0.007
 5468.00    0.96199   0.58656    0.007
 5469.00    0.80469   0.60588    0.007
 5470.00    0.67165   0.63551    0.007
 5471.00    0.69417   0.64105    0.007
 5472.00    0.72480   0.62696    0.007
 5473.00    0.79604   0.62188    0.007
 5474.00    0.85881   0.63541    0.007
 5475.00    0.88715   0.65637    0.007
 5476.00    0.88910   0.67061    0.007
 5477.00    0.80223   0.66682    0.007
 5478.00    0.76127   0.64931   -2.000
 5479.00    0.85070   0.63858   -2.000
 5480.00    0.91206   0.64252   -2.000
 5481.00    0.90527   0.65015   -2.000
 5482.00    0.86930   0.65607   -2.000
 5483.00    0.77219   0.65842   -2.000
 5484.00    0.73583   0.65429   -2.000
 5485.00    0.81011   0.65156   -2.000
 5486.00    1.12471   0.65477   -2.000
 5487.00    1.82184   0.65246   -2.000
 5488.00    2.18285   0.64309   -2.000
 5489.00    2.07431   0.64509   -2.000
 5490.00    2.01441   0.65946   -2.000
 5491.00    2.01428   0.66175   -2.000
 5492.00    1.71820   0.64553   -2.000
 5493.00    1.10140   0.63187   -2.000
 5494.00    0.76477   0.63349   -2.000
 5495.00    0.69598   0.64042   -2.000
 5496.00    0.71959   0.63739   -2.000
 5497.00    0.82108   0.62553   -2.000
 5498.00    0.92343   0.62378   -2.000
 5499.00    1.02642   0.63645   -2.000
 5500.00    1.01058   0.64581   -2.000
 5501.00    0.91726   0.64341   -2.000
 5502.00    0.83521   0.63272    0.006
 5503.00    0.75959   0.61923    0.006
 5504.00    0.70482   0.61315    0.006
 5505.00    0.66041   0.61880    0.006
 5506.00    0.67635   0.62991    0.006
 5507.00    0.71822   0.64081    0.006
 5508.00    0.71879   0.65218    0.006
 5509.00    0.70415   0.66519    0.006
 5510.00    0.81868   0.67335    0.006
 5511.00    0.97353   0.67244    0.006
 5512.00    1.03037   0.66816    0.006
 5513.00    1.06171   0.66613    0.006
 5514.00    1.04722   0.66557    0.007
 5515.00    1.02302   0.66198    0.007
 5516.00    0.93161   0.65204    0.007
 5517.00    0.82892   0.63598    0.007
 5518.00    0.70275   0.61668    0.007
 5519.00    0.57360   0.60495    0.007
 5520.00    0.64895   0.61490    0.007
 5521.00    0.74234   0.63941    0.006
 5522.00    0.76337   0.65601    0.007
 5523.00    0.78061   0.65712    0.007
 5524.00    0.81675   0.64985    0.007
 5525.00    0.85070   0.63996    0.007
 5526.00    0.69210   0.63409    0.007
 5527.00    0.54345   0.63877    0.007
 5528.00    0.60911   0.64744    0.007
 5529.00    0.68010   0.65264    0.006
 5530.00    0.81618   0.65895    0.006
 5531.00    0.92587   0.66786    0.007
 5532.00    0.81554   0.67174    0.006
 5533.00    0.72272   0.66485    0.006
 5534.00    0.73878   0.65299    0.006
 5535.00    0.76942   0.64717    0.006
 5536.00    0.87130   0.64763    0.006
 5537.00    0.95481   0.64974    0.006
 5538.00    0.96537   0.65697    0.006
 5539.00    0.96408   0.66921    0.006
 5540.00    0.92371   0.67789    0.006
 5541.00    0.89142   0.67977    0.006
 5542.00    0.88163   0.67720    0.006
 5543.00    0.88796   0.67056    0.006
 5544.00    0.93272   0.66047    0.006
 5545.00    0.93897   0.65219    0.006
 5546.00    0.86584   0.65164    0.006
 5547.00    0.81034   0.65588    0.006
 5548.00    0.78647   0.65747    0.006
 5549.00    0.77257   0.65689    0.006
 5550.00    0.77430   0.65774    0.006
 5551.00    0.75655   0.65758    0.006
 5552.00    0.71199   0.65305    0.006
 5553.00    0.73812   0.64493    0.006
 5554.00    0.84992   0.63905    0.006
 5555.00    0.89309   0.63843    0.006
 5556.00    0.86291   0.63686    0.006
 5557.00    0.83559   0.63288    0.006
 5558.00    0.81095   0.63201    0.006
 5559.00    0.78841   0.63237    0.006
 5560.00    0.76761   0.63105    0.006
 5561.00    0.76346   0.63423    0.006
 5562.00    0.77151   0.63886    0.006
 5563.00    0.81225   0.63321    0.006
 5564.00    0.87400   0.62804    0.006
 5565.00    0.87305   0.63668    0.006
 5566.00    0.83687   0.64581    0.006
 5567.00    0.87713   0.64727    0.006
 5568.00    0.95477   0.64953    0.006
 5569.00    0.99321   0.65279    0.006
 5570.00    1.01508   0.65448    0.006
 5571.00    0.90882   0.65557    0.006
 5572.00    0.75621   0.65275    0.006
 5573.00    0.70362   0.64807    0.006
 5574.00    0.68163   0.64696    0.006
 5575.00    0.67952   0.64368    0.006
 5576.00    0.68247   0.62957    0.006
 5577.00    0.66961   0.60553    0.006
 5578.00    0.65348   0.58300    0.006
 5579.00    0.77326   0.57373    0.006
 5580.00    0.91521   0.57976    0.006
 5581.00    0.94609   0.59604    0.006
 5582.00    0.96339   0.61243    0.006
 5583.00    0.92408   0.61930    0.006
 5584.00    0.88000   0.61686    0.006
 5585.00    0.80305   0.61554    0.006
 5586.00    0.72451   0.62731    0.006
 5587.00    0.68184   0.64398    0.006
 5588.00    0.64080   0.64327    0.006
 5589.00    0.66462   0.62694    0.006
 5590.00    0.68792   0.61526    0.006
 5591.00    0.70082   0.61033    0.006
 5592.00    0.72193   0.60258    0.006
 5593.00    0.83826   0.59658    0.006
 5594.00    0.93473   0.60504    0.006
 5595.00    0.87156   0.62914    0.006
 5596.00    0.81591   0.65440    0.006
 5597.00    0.80570   0.66895    0.006
 5598.00    0.80039   0.67244    0.006
 5599.00    0.81851   0.67017    0.006
 5600.00    0.82488   0.66732    0.007
 5601.00    0.78557   0.66713    0.006
 5602.00    0.75437   0.67022    0.006
 5603.00    0.74939   0.67188    0.006
 5604.00    0.73095   0.66047    0.006
 5605.00    0.67561   0.62882    0.006
 5606.00    0.66226   0.59549    0.006
 5607.00    0.74743   0.59123    0.006
 5608.00    0.77537   0.61260    0.006
 5609.00    0.68722   0.62960    0.006
 5610.00    0.66574   0.63297    0.006
 5611.00    0.76203   0.63529    0.006
 5612.00    0.81342   0.64265    0.006
 5613.00    0.79544   0.64519    0.006
 5614.00    0.77932   0.63160    0.006
 5615.00    0.76575   0.60971    0.006
 5616.00    0.74680   0.60184    0.006
 5617.00    0.72145   0.61340    0.006
 5618.00    0.70058   0.62890    0.006
 5619.00    0.68443   0.64070    0.006
 5620.00    0.68415   0.65185    0.006
 5621.00    0.69862   0.66021    0.006
 5622.00    0.69638   0.66215    0.006
 5623.00    0.68046   0.65849    0.006
 5624.00    0.68504   0.65151    0.006
 5625.00    0.70441   0.64387    0.006
 5626.00    0.72383   0.63672    0.006
 5627.00    0.74329   0.62890    0.006
 5628.00    0.79806   0.62277    0.006
 5629.00    0.87237   0.62359    0.006
 5630.00    0.90652   0.62803    0.006
 5631.00    0.92135   0.62644    0.006
 5632.00    0.81690   0.62088    0.006
 5633.00    0.66290   0.62146    0.006
 5634.00    0.66684   0.62745    0.006
 5635.00    0.72689   0.63264    0.006
 5636.00    0.74204   0.63679    0.006
 5637.00    0.74373   0.64106    0.006
 5638.00    0.74584   0.64417    0.006
 5639.00    0.74806   0.64317    0.006
 5640.00    0.78399   0.63892    0.006
 5641.00    0.82673   0.63839    0.006
 5642.00    0.85261   0.64478    0.006
 5643.00    0.87581   0.65052    0.006
 5644.00    0.88713   0.64648    0.006
 5645.00    0.89705   0.63465    0.006
 5646.00    0.83668   0.62706    0.006
 5647.00    0.77071   0.62281    0.006
 5648.00    0.78210   0.60586    0.006
 5649.00    0.79693   0.58395    0.006
 5650.00    0.82963   0.58544    0.006
 5651.00    0.86289   0.60554    0.006
 5652.00    0.91317   0.61386    0.006
 5653.00    0.95613   0.60851    0.006
 5654.00    0.86427   0.61112    0.006
 5655.00    0.77162   0.62583    0.006
 5656.00    0.67033   0.63698    0.006
 5657.00    0.58240   0.63480    0.006
 5658.00    0.59803   0.62538    0.006
 5659.00    0.62539   0.62049    0.006
 5660.00    0.72158   0.62343    0.006
 5661.00    0.78959   0.62990    0.006
 5662.00    0.72655   0.63830    0.006
 5663.00    0.67681   0.64944    0.006
 5664.00    0.67763   0.65813    0.006
 5665.00    0.70848   0.65799    0.006
 5666.00    0.83460   0.65391    0.006
 5667.00    0.92605   0.65468    0.006
 5668.00    0.92423   0.65675    0.006
 5669.00    0.89215   0.65331    0.006
 5670.00    0.79025   0.64792    0.006
 5671.00    0.72509   0.64372    0.006
 5672.00    0.73329   0.63481    0.006
 5673.00    0.77006   0.62143    0.006
 5674.00    0.85652   0.61578    0.006
 5675.00    0.89802   0.62148    0.006
 5676.00    0.87108   0.62680    0.006
 5677.00    0.85253   0.62244    0.006
 5678.00    0.84519   0.61385    0.006
 5679.00    0.81267   0.61277    0.006
 5680.00    0.75046   0.62227    0.006
 5681.00    0.71477   0.63531    0.006
 5682.00    0.70661   0.64572    0.006
 5683.00    0.73215   0.65233    0.006
 5684.00    0.78859   0.65336    0.006
 5685.00    0.77801   0.65025    0.006
 5686.00    0.71330   0.64851    0.006
 5687.00    0.66777   0.64785    0.006
 5688.00    0.63584   0.64235    0.006
 5689.00    0.58401   0.63302    0.006
 5690.00    0.51976   0.62594    0.006
 5691.00    0.55402   0.61889    0.006
 5692.00    0.64194   0.61126    0.006
 5693.00    0.75415   0.61116    0.006
 5694.00    0.87784   0.61983    0.006
 5695.00    0.83210   0.62608    0.006
 5696.00    0.71716   0.62086    0.006
 5697.00    0.72124   0.60822    0.006
 5698.00    0.76685   0.59561    0.006
 5699.00    0.79029   0.58478    0.006
 5700.00    0.80720   0.57984    0.006
 5701.00    0.82636   0.58315    0.006
 5702.00    0.84608   0.58932    0.006
 5703.00    0.84225   0.60051    0.006
 5704.00    0.83378   0.61834    0.006
 5705.00    0.76396   0.63236    0.006
 5706.00    0.68472   0.63888    0.006
 5707.00    0.69408   0.64210    0.006
 5708.00    0.71348   0.64292    0.006
 5709.00    0.89306   0.64404    0.006
 5710.00    1.08477   0.64796    0.006
 5711.00    1.06852   0.65242    0.006
 5712.00    1.04382   0.65697    0.006
 5713.00    0.89393   0.66157    0.006
 5714.00    0.74817   0.66345    0.006
 5715.00    0.81292   0.66163    0.006
 5716.00    0.87663   0.65554    0.006
 5717.00    0.92243   0.64504    0.006
 5718.00    0.95718   0.63778    0.006
 5719.00    0.87505   0.64148    0.006
 5720.00    0.79584   0.64801    0.006
 5721.00    0.73863   0.64438    0.006
 5722.00    0.69742   0.63513    0.006
 5723.00    0.74753   0.63522    0.006
 5724.00    0.79908   0.64537    0.006
 5725.00    0.85718   0.65409    0.006
 5726.00    0.89492   0.65566    0.006
 5727.00    0.85683   0.65225    0.006
 5728.00    0.80810   0.64844    0.006
 5729.00    0.72620   0.64684    0.006
 5730.00    0.67654   0.64683    0.006
 5731.00    0.71205   0.64679    0.006
 5732.00    0.75626   0.64505    0.006
 5733.00    0.82020   0.64191    0.006
 5734.00    0.85401   0.64185    0.006
 5735.00    0.82858   0.64809    0.006
 5736.00    0.80259   0.65478    0.006
 5737.00    0.77564   0.65177    0.006
 5738.00    0.76802   0.63934    0.006
 5739.00    0.78937   0.63185    0.006
 5740.00    0.79715   0.63800    0.000
 5741.00    0.78704   0.64672    0.000
 5742.00    0.78923   0.64300    0.000
 5743.00    0.80569   0.62633    0.000
 5744.00    0.84292   0.61029    0.000
 5745.00    0.90140   0.60963    0.000
 5746.00    0.92875   0.62545    0.000
 5747.00    0.92798   0.64423    0.000
 5748.00    0.88761   0.65433    0.000
 5749.00    0.81571   0.65386    0.000
 5750.00    0.79559   0.64480    0.000
 5751.00    0.81175   0.63063    0.000
 5752.00    0.84942   0.61613    0.000
 5753.00    0.90031   0.60885    0.000
 5754.00    0.89791   0.61698    0.000
 5755.00    0.86693   0.63638    0.000
 5756.00    0.85720   0.65183    0.000
 5757.00    0.85738   0.65734    0.000
 5758.00    0.82787   0.65747    0.000
 5759.00    0.78644   0.65549    0.000
 5760.00    0.78260   0.65224    0.000
 5761.00    0.79163   0.64811    0.000
 5762.00    0.87208   0.64313    0.000
 5763.00    0.97312   0.63918    0.000
 5764.00    0.91529   0.63736    0.000
 5765.00    0.81963   0.63664    0.000
 5766.00    0.81043   0.63875    0.000
 5767.00    0.81783   0.64383    0.000
 5768.00    0.86057   0.64648    0.000
 5769.00    0.90858   0.64202    0.000
 5770.00    0.92842   0.62790    0.000
 5771.00    0.94519   0.60689    0.000
 5772.00    0.89875   0.59158    0.000
 5773.00    0.84778   0.59063    0.000
 5774.00    0.82257   0.59481    0.000
 5775.00    0.79831   0.59327    0.000
 5776.00    0.93927   0.59296    0.000
 5777.00    1.07611   0.60413    0.000
 5778.00    1.04032   0.62054    0.000
 5779.00    1.00715   0.63102    0.000
 5780.00    1.01617   0.63183    0.000
 5781.00    1.01911   0.62561    0.000
 5782.00    0.96045   0.62226    0.000
 5783.00    0.89744   0.62756    0.000
 5784.00    0.80291   0.63663    0.000
 5785.00    0.73096   0.64443    0.000
 5786.00    0.78435   0.64651    0.000
 5787.00    0.83337   0.63878    0.000
 5788.00    0.86302   0.62786    0.000
 5789.00    0.87486   0.62813    0.000
 5790.00    0.82175   0.64131    0.000
 5791.00    0.79224   0.65486   -2.000
 5792.00    0.83477   0.66086   -2.000
 5793.00    0.84191   0.65853   -2.000
 5794.00    0.75717   0.64810   -2.000
 5795.00    0.68542   0.63566   -2.000
 5796.00    0.64265   0.62991   -2.000
 5797.00    0.66040   0.63175   -2.000
 5798.00    0.79518   0.63622   -2.000
 5799.00    0.88632   0.63970   -2.000
 5800.00    0.90381   0.64279   -2.000
 5801.00    0.93846   0.64646   -2.000
 5802.00    0.99850   0.64877   -2.000
 5803.00    1.03074   0.64818   -2.000
 5804.00    1.02688   0.64449   -2.000
 5805.00    0.99072   0.63679   -2.000
 5806.00    0.91757   0.62749   -2.000
 5807.00    0.84344   0.62504   -2.000
 5808.00    0.76834   0.63412   -2.000
 5809.00    0.72007   0.64718   -2.000
 5810.00    0.69572   0.65497   -2.000
 5811.00    0.74424   0.65654    0.000
 5812.00    0.84995   0.65429    0.000
 5813.00    0.88355   0.65043    0.000
 5814.00    0.86739   0.64831    0.000
 5815.00    0.84916   0.64964    0.000
 5816.00    0.82970   0.65182    0.000
 5817.00    0.80452   0.65211    0.000
 5818.00    0.77634   0.65159    0.000
 5819.00    0.72336   0.65246    0.000
 5820.00    0.65902   0.65398    0.000
 5821.00    0.67490   0.65370    0.000
 5822.00    0.72243   0.65206    0.000
 5823.00    0.81224   0.65009    0.000
 5824.00    0.91626   0.64620    0.000
 5825.00    0.88883   0.64179    0.000
 5826.00    0.82427   0.64186    0.000
 5827.00    0.79763   0.64477    0.000
 5828.00    0.77981   0.64411    0.000
 5829.00    0.80752   0.64203    0.000
 5830.00    0.84374   0.64509    0.000
 5831.00    0.76132   0.65196    0.000
 5832.00    0.66179   0.65696    0.000
 5833.00    0.65662   0.65805    0.000
 5834.00    0.66132   0.65579    0.000
 5835.00    0.71274   0.65074    0.000
 5836.00    0.76732   0.64377    0.000
 5837.00    0.69995   0.63646    0.000
 5838.00    0.62855   0.63212    0.000
 5839.00    0.63085   0.63289    0.000
 5840.00    0.63680   0.63596    0.000
 5841.00    0.75660   0.63574    0.000
 5842.00    0.86866   0.62808    0.000
 5843.00    0.86387   0.61548    0.000
 5844.00    0.86238   0.60834    0.000
 5845.00    0.89290   0.61123    0.000
 5846.00    0.91384   0.61269    0.000
 5847.00    0.86762   0.60251    0.000
 5848.00    0.82453   0.59052    0.000
 5849.00    0.79831   0.59198    0.000
 5850.00    0.77682   0.60500    0.000
 5851.00    0.77577   0.61713    0.000
 5852.00    0.76198   0.62094    0.000
 5853.00    0.70275   0.61988    0.000
 5854.00    0.64626   0.62213    0.000
 5855.00    0.59796   0.62651    0.000
 5856.00    0.55169   0.62528    0.000
 5857.00    0.51060   0.62031    0.000
 5858.00    0.51562   0.62144    0.000
 5859.00    0.62188   0.62979    0.000
 5860.00    0.71694   0.63765    0.000
 5861.00    0.79068   0.64029    0.000
 5862.00    0.82948   0.63785    0.000
 5863.00    0.81022   0.63361    0.000
 5864.00    0.80279   0.63233    0.000
 5865.00    0.81256   0.63426    0.000
 5866.00    0.80020   0.63448    0.000
 5867.00    0.75947   0.63107    0.000
 5868.00    0.76806   0.62608    0.000
 5869.00    0.83231   0.62001    0.000
 5870.00    0.89229   0.61317    0.000
 5871.00    0.94803   0.61005    0.000
 5872.00    0.95835   0.61270    0.000
 5873.00    0.92878   0.61447    0.000
 5874.00    0.90817   0.61146    0.000
 5875.00    0.89448   0.60906    0.000
 5876.00    0.87687   0.60934    0.000
 5877.00    0.85658   0.60228    0.000
 5878.00    0.82714   0.57190    0.000
 5879.00    0.79223   0.51286    0.000
 5880.00    0.77176   0.45462    0.000
 5881.00    0.75879   0.44493    0.000
 5882.00    0.76763   0.48510    0.000
 5883.00    0.78631   0.52844    0.000
 5884.00    0.77369   0.54043    0.000
 5885.00    0.74894   0.51552    0.000
 5886.00    0.73967   0.47942    0.000
 5887.00    0.73549   0.47866    0.000
 5888.00    0.72674   0.51894    0.000
 5889.00    0.71672   0.56053    0.000
 5890.00    0.74972   0.58396    0.000
 5891.00    0.79250   0.59784    0.000
 5892.00    0.86428   0.60688    0.000
 5893.00    0.94134   0.61118    0.000
 5894.00    0.87297   0.61261    0.000
 5895.00    0.78429   0.61122    0.000
 5896.00    0.74743   0.60871    0.000
 5897.00    0.71577   0.60975    0.000
 5898.00    0.73836   0.61434    0.000
 5899.00    0.76439   0.61763    0.000
 5900.00    0.80916   0.61875    0.000
 5901.00    0.85423   0.62092    0.006
 5902.00    0.81025   0.62202    0.006
 5903.00    0.76770   0.61553    0.006
 5904.00    0.76566   0.60250    0.006
 5905.00    0.76742   0.59306    0.006
 5906.00    0.82328   0.59300    0.006
 5907.00    0.87375   0.59990    0.006
 5908.00    0.87412   0.60861    0.006
 5909.00    0.86479   0.61498    0.006
 5910.00    0.78962   0.61866    0.006
 5911.00    0.72365   0.61917    0.006
 5912.00    0.70608   0.61621    0.006
 5913.00    0.69777   0.61416    0.006
 5914.00    0.72873   0.61621    0.006
 5915.00    0.76440   0.62028    0.006
 5916.00    0.81651   0.62342    0.005
 5917.00    0.85966   0.62285    0.005
 5918.00    0.87642   0.61697    0.005
 5919.00    0.86121   0.60770    0.005
 5920.00    0.76585   0.60070    0.005
 5921.00    0.71892   0.60338    0.005
 5922.00    0.77659   0.61369    0.005
 5923.00    0.84245   0.61884    0.005
 5924.00    0.92367   0.61312    0.005
 5925.00    0.95074   0.60619    0.005
 5926.00    0.88917   0.60839    0.005
 5927.00    0.84587   0.61633    0.005
 5928.00    0.82883   0.62213    0.005
 5929.00    0.80035   0.62423    0.005
 5930.00    0.75742   0.62124    0.005
 5931.00    0.75244   0.61303    0.005
 5932.00    0.78970   0.60681    0.006
 5933.00    0.81566   0.60809    0.006
 5934.00    0.83052   0.61425    0.006
 5935.00    0.80726   0.62092    0.006
 5936.00    0.75098   0.62487    0.006
 5937.00    0.71786   0.62236    0.006
 5938.00    0.70238   0.61270    0.006
 5939.00    0.68276   0.60340    0.006
 5940.00    0.66036   0.60386    0.006
 5941.00    0.65185   0.61026    0.006
 5942.00    0.65150   0.61004    0.006
 5943.00    0.68513   0.60390    0.006
 5944.00    0.73616   0.60400    0.006
 5945.00    0.77311   0.61000    0.006
 5946.00    0.80383   0.61063    0.005
 5947.00    0.79343   0.60514    0.006
 5948.00    0.76737   0.60266    0.006
 5949.00    0.70966   0.60723    0.005
 5950.00    0.64171   0.61549    0.005
 5951.00    0.65640   0.62283    0.005
 5952.00    0.69347   0.62672    0.005
 5953.00    0.76236   0.62707    0.005
 5954.00    0.83833   0.62509    0.005
 5955.00    0.82937   0.62084    0.005
 5956.00    0.80538   0.61651    0.005
 5957.00    0.80722   0.61700    0.005
 5958.00    0.81255   0.62162    0.005
 5959.00    0.78341   0.62599    0.005
 5960.00    0.75097   0.62912    0.005
 5961.00    0.70058   0.63130    0.005
 5962.00    0.64913   0.63164    0.005
 5963.00    0.65846   0.63014    0.005
 5964.00    0.66973   0.62625    0.005
 5965.00    0.73981   0.61813    0.006
 5966.00    0.80622   0.60759    0.006
 5967.00    0.77895   0.60026    0.006
 5968.00    0.74430   0.59957    0.006
 5969.00    0.61022   0.60509    0.006
 5970.00    0.48840   0.61391    0.006
 5971.00    0.47637   0.61984    0.006
 5972.00    0.47689   0.61732    0.006
 5973.00    0.56013   0.60551    0.006
 5974.00    0.64278   0.59106    0.006
 5975.00    0.72242   0.58621    0.006
 5976.00    0.78711   0.59335    0.006
 5977.00    0.78997   0.60226    0.006
 5978.00    0.78254   0.60780    0.006
 5979.00    0.73993   0.61210    0.005
 5980.00    0.71323   0.61369    0.005
 5981.00    0.73246   0.61028    0.005
 5982.00    0.75923   0.60783    0.005
 5983.00    0.80454   0.61307    0.005
 5984.00    0.81933   0.62128    0.005
 5985.00    0.76931   0.62360    0.005
 5986.00    0.74966   0.61785    0.005
 5987.00    0.78611   0.60807    0.005
 5988.00    0.81050   0.60131    0.005
 5989.00    0.81543   0.60195    0.005
 5990.00    0.80683   0.60732    0.005
 5991.00    0.77909   0.61079    0.005
 5992.00    0.76413   0.60763    0.005
 5993.00    0.76510   0.60218    0.005
 5994.00    0.80084   0.60270    0.005
 5995.00    0.87474   0.60616    0.005
 5996.00    0.91939   0.60349    0.005
 5997.00    0.93572   0.59321    0.006
 5998.00    0.90713   0.58318    0.006
 5999.00    0.84020   0.58547    0.006
 6000.00    0.78715   0.59997    0.005
 6001.00    0.74454   0.61075    0.005
 6002.00    0.71884   0.60769    0.005
 6003.00    0.70433   0.59788    0.006
 6004.00    0.70532   0.59385    0.006
 6005.00    0.71527   0.59641    0.006
 6006.00    0.73028   0.59694    0.006
 6007.00    0.74783   0.59517    0.005
 6008.00    0.74713   0.59587    0.005
 6009.00    0.73848   0.59498    0.005
 6010.00    0.71803   0.58942    0.005
 6011.00    0.69318   0.58585    0.005
 6012.00    0.69810   0.58816    0.005
 6013.00    0.71246   0.59217    0.005
 6014.00    0.71889   0.59542    0.005
 6015.00    0.72320   0.60048    0.005
 6016.00    0.72730   0.60546    0.005
 6017.00    0.73136   0.60702    0.005
 6018.00    0.73398   0.60936    0.005
 6019.00    0.73635   0.61427    0.005
 6020.00    0.76203   0.61732    0.005
 6021.00    0.79076   0.61774    0.005
 6022.00    0.77170   0.61928    0.005
 6023.00    0.74825   0.62210    0.005
 6024.00    0.78331   0.62322    0.005
 6025.00    0.82164   0.62250    0.005
 6026.00    0.89775   0.62222    0.005
 6027.00    0.97287   0.62284    0.005
 6028.00    0.86724   0.62277    0.005
 6029.00    0.76401   0.62039    0.005
 6030.00    0.71627   0.61645    0.005
 6031.00    0.67121   0.61333    0.005
 6032.00    0.66043   0.61274    0.005
 6033.00    0.64595   0.61606    0.005
 6034.00    0.59959   0.62111    0.005
 6035.00    0.56513   0.62385    0.006
 6036.00    0.60669   0.62460    0.005
 6037.00    0.65777   0.62537    0.005
 6038.00    0.75646   0.62542    0.005
 6039.00    0.83975   0.62478    0.005
 6040.00    0.86073   0.62538    0.005
 6041.00    0.88029   0.62570    0.005
 6042.00    0.89512   0.62228    0.005
 6043.00    0.91031   0.61610    0.005
 6044.00    0.92649   0.61091    0.005
 6045.00    0.92031   0.60714    0.005
 6046.00    0.85994   0.60387    0.005
 6047.00    0.82001   0.60369    0.005
 6048.00    0.82280   0.60809    0.005
 6049.00    0.83264   0.61444    0.005
 6050.00    0.85533   0.61903    0.005
 6051.00    0.84460   0.61960    0.005
 6052.00    0.78080   0.61574    0.005
 6053.00    0.72569   0.60820    0.005
 6054.00    0.68273   0.59746    0.005
 6055.00    0.67309   0.58727    0.005
 6056.00    0.70434   0.58831    0.005
 6057.00    0.71076   0.60323    0.005
 6058.00    0.69032   0.61911    0.005
 6059.00    0.66767   0.62627    0.005
 6060.00    0.64290   0.62727    0.005
 6061.00    0.64687   0.62747    0.005
 6062.00    0.67504   0.62862    0.005
 6063.00    0.69069   0.62960    0.005
 6064.00    0.69707   0.62934    0.005
 6065.00    0.67673   0.62736    0.005
 6066.00    0.63900   0.62289    0.005
 6067.00    0.61553   0.61513    0.005
 6068.00    0.60018   0.60540    0.005
 6069.00    0.63670   0.59976    0.005
 6070.00    0.69893   0.60072    0.005
 6071.00    0.77094   0.60093    0.005
 6072.00    0.84715   0.59688    0.005
 6073.00    0.82867   0.59479    0.005
 6074.00    0.77538   0.59648    0.005
 6075.00    0.72133   0.59760    0.005
 6076.00    0.66704   0.59844    0.005
 6077.00    0.68310   0.60179    0.005
 6078.00    0.71743   0.60518    0.005
 6079.00    0.74875   0.60304    0.005
 6080.00    0.77944   0.59625    0.005
 6081.00    0.73019   0.59214    0.005
 6082.00    0.66756   0.59303    0.005
 6083.00    0.63500   0.59603    0.005
 6084.00    0.60622   0.60161    0.005
 6085.00    0.63637   0.60873    0.005
 6086.00    0.67168   0.61125    0.005
 6087.00    0.67198   0.60867    0.005
 6088.00    0.67047   0.60766    0.005
 6089.00    0.70389   0.61058    0.005
 6090.00    0.73793   0.61073    0.005
 6091.00    0.77067   0.59763    0.005
 6092.00    0.80119   0.57210    0.005
 6093.00    0.78466   0.55664    0.005
 6094.00    0.76533   0.56814    0.005
 6095.00    0.71205   0.59119    0.005
 6096.00    0.65713   0.60364    0.005
 6097.00    0.58866   0.60353    0.005
 6098.00    0.53319   0.60161    0.005
 6099.00    0.55834   0.60495    0.005
 6100.00    0.59101   0.60840    0.005
 6101.00    0.66034   0.60574    0.005
 6102.00    0.71773   0.60267    0.005
 6103.00    0.72785   0.60596    0.005
 6104.00    0.73258   0.61158    0.005
 6105.00    0.71953   0.61169    0.005
 6106.00    0.71653   0.60639    0.005
 6107.00    0.74148   0.60353    0.005
 6108.00    0.76094   0.60462    0.005
 6109.00    0.76731   0.60140    0.005
 6110.00    0.75941   0.58962    0.005
 6111.00    0.72213   0.57264    0.005
 6112.00    0.68696   0.56052    0.005
 6113.00    0.65559   0.56621    0.005
 6114.00    0.64558   0.58500    0.005
 6115.00    0.66902   0.59741    0.005
 6116.00    0.69714   0.59758    0.005
 6117.00    0.73169   0.59286    0.005
 6118.00    0.74247   0.58907    0.005
 6119.00    0.72447   0.58999    0.005
 6120.00    0.70945   0.59642    0.005
 6121.00    0.69758   0.60359    0.005
 6122.00    0.69068   0.60749    0.005
 6123.00    0.68847   0.60722    0.005
 6124.00    0.69113   0.59913    0.005
 6125.00    0.69783   0.57810    0.005
 6126.00    0.73212   0.54748    0.005
 6127.00    0.78656   0.52653    0.005
 6128.00    0.79983   0.53593    0.005
 6129.00    0.78672   0.56655    0.005
 6130.00    0.76565   0.58620    0.005
 6131.00    0.74011   0.58278    0.005
 6132.00    0.74398   0.57641    0.005
 6133.00    0.76219   0.58500    0.005
 6134.00    0.79030   0.60031    0.005
 6135.00    0.82258   0.60796    0.005
 6136.00    0.82304   0.60624    0.005
 6137.00    0.81202   0.59912    0.005
 6138.00    0.79915   0.58990    0.005
 6139.00    0.78571   0.58294    0.005
 6140.00    0.73889   0.58185    0.005
 6141.00    0.68359   0.58682    0.005
 6142.00    0.69395   0.59392    0.005
 6143.00    0.71786   0.59680    0.005
 6144.00    0.74021   0.59202    0.005
 6145.00    0.76231   0.58549    0.005
 6146.00    0.74393   0.58420    0.005
 6147.00    0.72062   0.58574    0.005
 6148.00    0.69627   0.58595    0.005
 6149.00    0.67182   0.58126    0.005
 6150.00    0.71418   0.56354    0.005
 6151.00    0.75973   0.53310    0.005
 6152.00    0.78816   0.50968    0.005
 6153.00    0.81557   0.51118    0.005
 6154.00    0.79922   0.53177    0.005
 6155.00    0.78321   0.55276    0.005
 6156.00    0.77393   0.56502    0.005
 6157.00    0.76936   0.56934    0.005
 6158.00    0.81932   0.56189    0.005
 6159.00    0.86730   0.54422    0.005
 6160.00    0.89949   0.53620    0.005
 6161.00    0.91918   0.54939    0.005
 6162.00    0.86358   0.56750    0.005
 6163.00    0.81026   0.57469    0.005
 6164.00    0.76770   0.57520    0.005
 6165.00    0.72441   0.57525    0.005
 6166.00    0.67829   0.57428    0.005
 6167.00    0.64587   0.57468    0.005
 6168.00    0.65763   0.57912    0.005
 6169.00    0.66762   0.58271    0.005
 6170.00    0.67277   0.58301    0.005
 6171.00    0.67515   0.58523    0.005
 6172.00    0.67105   0.58955    0.005
 6173.00    0.67194   0.59141    0.005
 6174.00    0.68292   0.59023    0.005
 6175.00    0.67744   0.58615    0.005
 6176.00    0.64293   0.57835    0.005
 6177.00    0.62810   0.57070    0.005
 6178.00    0.64362   0.56715    0.005
 6179.00    0.64914   0.56436    0.005
 6180.00    0.64111   0.55432    0.005
 6181.00    0.63892   0.53998    0.005
 6182.00    0.64368   0.53940    0.005
 6183.00    0.67633   0.55675    0.005
 6184.00    0.73829   0.57442    0.005
 6185.00    0.76146   0.58277    0.005
 6186.00    0.74867   0.58665    0.005
 6187.00    0.71495   0.58797    0.005
 6188.00    0.66410   0.58201    0.005
 6189.00    0.65190   0.56961    0.005
 6190.00    0.66750   0.56228    0.005
 6191.00    0.70198   0.56799    0.005
 6192.00    0.74837   0.57993    0.005
 6193.00    0.81186   0.58732    0.005
 6194.00    0.88479   0.58830    0.005
 6195.00    1.08186   0.58762    0.005
 6196.00    1.33855   0.58819   -2.000
 6197.00    1.76733   0.58892   -2.000
 6198.00    2.26745   0.58869   -2.000
 6199.00    2.34350   0.58702   -2.000
 6200.00    2.26925   0.58340   -2.000
 6201.00    1.79488   0.57796   -2.000
 6202.00    1.20077   0.56871   -2.000
 6203.00    0.71816   0.55436   -2.000
 6204.00    0.26325   0.54136   -2.000
 6205.00    0.25393   0.53742   -2.000
 6206.00    0.33433   0.54329   -2.000
 6207.00    0.42012   0.55295   -2.000
 6208.00    0.50675   0.55631    0.006
 6209.00    0.49738   0.55042    0.005
 6210.00    0.47676   0.54517    0.005
 6211.00    0.51069   0.54869    0.005
 6212.00    0.54895   0.55726    0.005
 6213.00    0.56744   0.56246    0.005
 6214.00    0.58506   0.56269    0.005
 6215.00    0.63086   0.56329    0.005
 6216.00    0.67626   0.56595    0.005
 6217.00    0.68797   0.56725    0.005
 6218.00    0.69709   0.56286    0.005
 6219.00    0.65900   0.54879    0.005
 6220.00    0.62664   0.53020    0.005
 6221.00    0.65750   0.52182    0.005
 6222.00    0.69109   0.52929    0.005
 6223.00    0.74581   0.54535    0.005
 6224.00    0.79611   0.56287    0.005
 6225.00    0.82053   0.57471    0.005
 6226.00    0.84401   0.57510    0.005
 6227.00    0.86317   0.56630    0.005
 6228.00    0.87094   0.55491    0.005
 6229.00    0.83552   0.54574    0.005
 6230.00    0.80582   0.54246    0.005
 6231.00    0.79429   0.54468    0.005
 6232.00    0.79265   0.54378    0.005
 6233.00    0.81754   0.53697    0.005
 6234.00    0.84038   0.53256    0.005
 6235.00    0.85847   0.53248    0.005
 6236.00    0.86608   0.53479    0.005
 6237.00    0.85280   0.54319    0.005
 6238.00    0.84666   0.55609    0.005
 6239.00    0.85295   0.56479    0.005
 6240.00    0.85379   0.56404    0.005
 6241.00    0.84636   0.55342    0.005
 6242.00    0.83024   0.53828    0.005
 6243.00    0.80250   0.52894    0.005
 6244.00    0.78772   0.52883    0.005
 6245.00    0.78816   0.53097    0.005
 6246.00    0.76452   0.52834    0.005
 6247.00    0.71593   0.52184    0.005
 6248.00    0.67600   0.51878    0.005
 6249.00    0.64397   0.52564    0.005
 6250.00    0.61965   0.53895    0.005
 6251.00    0.60155   0.55094    0.005
 6252.00    0.58215   0.56101    0.005
 6253.00    0.56183   0.56737    0.005
 6254.00    0.59483   0.56427    0.005
 6255.00    0.66101   0.55675    0.005
 6256.00    0.75673   0.55620    0.005
 6257.00    0.86851   0.56136    0.005
 6258.00    0.98937   0.56279    0.005
 6259.00    1.11451   0.55953    0.006
 6260.00    1.23813   0.55774    0.006
 6261.00    1.36113   0.56051    0.006
 6262.00    1.27654   0.56559    0.006
 6263.00    1.11972   0.56882    0.007
 6264.00    0.90564   0.56883    0.006
 6265.00    0.67476   0.56822    0.006
 6266.00    0.58884   0.56822    0.006
 6267.00    0.53814   0.56723    0.006
 6268.00    0.56333   0.56365    0.005
 6269.00    0.60342   0.55668    0.005
 6270.00    0.62312   0.54965    0.005
 6271.00    0.63970   0.54890    0.005
 6272.00    0.62893   0.55499    0.005
 6273.00    0.61508   0.56293    0.005
 6274.00    0.61963   0.56784    0.005
 6275.00    0.62556   0.56897    0.005
 6276.00    0.63372   0.57084    0.005
 6277.00    0.64197   0.57576    0.005
 6278.00    0.60679   0.58051    0.005
 6279.00    0.57193   0.58058    0.005
 6280.00    0.56276   0.57489    0.000
 6281.00    0.55661   0.56779    0.000
 6282.00    0.60211   0.56395    0.000
 6283.00    0.64842   0.56436    0.000
 6284.00    0.70318   0.56643    0.000
 6285.00    0.75233   0.56421    0.000
 6286.00    0.75961   0.55578    0.000
 6287.00    0.76570   0.54856    0.000
 6288.00    0.76502   0.54875    0.000
 6289.00    0.75636   0.55197    0.000
 6290.00    0.71155   0.54965    0.000
 6291.00    0.67928   0.54246    0.000
 6292.00    0.69350   0.54042    0.000
 6293.00    0.69433   0.54767    0.000
 6294.00    0.65354   0.55649    0.000
 6295.00    0.61095   0.56107    0.000
 6296.00    0.56363   0.56560    0.000
 6297.00    0.53971   0.57282    0.000
 6298.00    0.56876   0.57716    0.000
 6299.00    0.58153   0.57417    0.000
 6300.00    0.56238   0.56658    0.000
 6301.00    0.53278   0.56059    0.000
 6302.00    0.48532   0.55940    0.000
 6303.00    0.47603   0.55854    0.000
 6304.00    0.52387   0.55254    0.000
 6305.00    0.54892   0.54587    0.000
 6306.00    0.54398   0.54328    0.000
 6307.00    0.55890   0.53935    0.000
 6308.00    0.59684   0.53423    0.000
 6309.00    0.64673   0.53754    0.000
 6310.00    0.70884   0.54813    0.000
 6311.00    0.72269   0.55565    0.000
 6312.00    0.69304   0.55853    0.000
 6313.00    0.65063   0.56271    0.000
 6314.00    0.59808   0.56889    0.000
 6315.00    0.58311   0.57250    0.000
 6316.00    0.59441   0.57200    0.000
 6317.00    0.61370   0.57046    0.000
 6318.00    0.63789   0.57101    0.000
 6319.00    0.62209   0.57120    0.000
 6320.00    0.58487   0.56910    0.000
 6321.00    0.54807   0.56917    0.005
 6322.00    0.51145   0.57269    0.005
 6323.00    0.52302   0.57231    0.005
 6324.00    0.55389   0.56101    0.005
 6325.00    0.58920   0.54413    0.005
 6326.00    0.62602   0.53622    0.005
 6327.00    0.62640   0.54159    0.005
 6328.00    0.61630   0.55087    0.005
 6329.00    0.58007   0.55805    0.005
 6330.00    0.53764   0.56437    0.005
 6331.00    0.53889   0.56689    0.005
 6332.00    0.54850   0.56132    0.005
 6333.00    0.56521   0.55142    0.005
 6334.00    0.58298   0.54608    0.005
 6335.00    0.58844   0.54830    0.005
 6336.00    0.59256   0.55265    0.005
 6337.00    0.59431   0.55678    0.005
 6338.00    0.59588   0.56265    0.005
 6339.00    0.61010   0.56821    0.005
 6340.00    0.62478   0.57090    0.005
 6341.00    0.69313   0.57156    0.005
 6342.00    0.75993   0.56985    0.005
 6343.00    0.76549   0.56349    0.005
 6344.00    0.76867   0.55464    0.005
 6345.00    0.73397   0.55031    0.005
 6346.00    0.70203   0.55113    0.005
 6347.00    0.69787   0.54856    0.005
 6348.00    0.69299   0.54000    0.005
 6349.00    0.68289   0.53310    0.005
 6350.00    0.66677   0.53047    0.005
 6351.00    0.61734   0.52746    0.005
 6352.00    0.57681   0.52492    0.005
 6353.00    0.57563   0.52798    0.005
 6354.00    0.57604   0.53614    0.005
 6355.00    0.58227   0.54483    0.005
 6356.00    0.58738   0.55219    0.005
 6357.00    0.58908   0.55874    0.005
 6358.00    0.59681   0.56258    0.005
 6359.00    0.62018   0.56109    0.005
 6360.00    0.65085   0.55786    0.005
 6361.00    0.69778   0.55973    0.005
 6362.00    0.74208   0.56708    0.005
 6363.00    0.78129   0.57315    0.005
 6364.00    0.79319   0.57410    0.005
 6365.00    0.75908   0.57299    0.005
 6366.00    0.73026   0.57204    0.005
 6367.00    0.70925   0.56884    0.005
 6368.00    0.69792   0.56310    0.005
 6369.00    0.69916   0.55870    0.005
 6370.00    0.68903   0.55767    0.005
 6371.00    0.66590   0.55962    0.005
 6372.00    0.65203   0.56261    0.005
 6373.00    0.64750   0.56310    0.005
 6374.00    0.64418   0.56165    0.005
 6375.00    0.64193   0.56292    0.005
 6376.00    0.64019   0.56713    0.005
 6377.00    0.63884   0.57008    0.005
 6378.00    0.63073   0.57067    0.005
 6379.00    0.61796   0.57081    0.005
 6380.00    0.60374   0.56932    0.005
 6381.00    0.58865   0.56153    0.005
 6382.00    0.58426   0.54681    0.005
 6383.00    0.58551   0.53584    0.005
 6384.00    0.59206   0.54046    0.005
 6385.00    0.60102   0.55610    0.005
 6386.00    0.61189   0.56874    0.005
 6387.00    0.62350   0.57045    0.005
 6388.00    0.65713   0.55883    0.005
 6389.00    0.69815   0.53997    0.005
 6390.00    0.69848   0.53243    0.005
 6391.00    0.68736   0.54546    0.005
 6392.00    0.69646   0.56424    0.005
 6393.00    0.71025   0.57402    0.005
 6394.00    0.73561   0.57494    0.005
 6395.00    0.76312   0.57021    0.005
 6396.00    0.71441   0.56082    0.005
 6397.00    0.65474   0.55128    0.005
 6398.00    0.63479   0.54987    0.005
 6399.00    0.61897   0.55535    0.005
 6400.00    0.65046   0.55585    0.005
 6401.00    0.68512   0.55057    0.005
 6402.00    0.69695   0.54977    0.005
 6403.00    0.70804   0.55403    0.005
 6404.00    0.69128   0.55733    0.005
 6405.00    0.67503   0.55935    0.005
 6406.00    0.67473   0.56104    0.005
 6407.00    0.67676   0.56055    0.005
 6408.00    0.71359   0.55556    0.005
 6409.00    0.74563   0.54558    0.005
 6410.00    0.73130   0.53681    0.005
 6411.00    0.71448   0.53939    0.005
 6412.00    0.68026   0.55386    0.011
 6413.00    0.65053   0.56765   -1.000
 6414.00    0.64494   0.57201   -1.000
 6415.00    0.62995   0.57191   -1.000
 6416.00    0.57437   0.57395 1214.373
 6417.00    0.52224   0.57625   -1.000
 6418.00    0.48237   0.57232   -1.000
 6419.00    0.46249   0.55892   -1.000
 6420.00    0.50234   0.54266   -1.000
 6421.00    0.54197   0.53655    0.034
 6422.00    0.58104   0.54413    0.007
 6423.00    0.61047   0.55671    0.005
 6424.00    0.61882   0.56633    0.005
 6425.00    0.62798   0.57048    0.005
 6426.00    0.63872   0.56747    0.005
 6427.00    0.64107   0.55529    0.005
 6428.00    0.62951   0.54038    0.005
 6429.00    0.61032   0.53819    0.005
 6430.00    0.58002   0.55233    0.005
 6431.00    0.56710   0.56852    0.005
 6432.00    0.57639   0.57603    0.005
 6433.00    0.57714   0.57710    0.005
 6434.00    0.56828   0.57736    0.005
 6435.00    0.57893   0.57892    0.005
 6436.00    0.60897   0.57890    0.005
 6437.00    0.64754   0.57033    0.005
 6438.00    0.69358   0.54891    0.005
 6439.00    0.68932   0.52548    0.005
 6440.00    0.64621   0.52015    0.005
 6441.00    0.62284   0.53543    0.005
 6442.00    0.61286   0.55429    0.005
 6443.00    0.59802   0.56246    0.005
 6444.00    0.58029   0.55690    0.005
 6445.00    0.55183   0.54589    0.005
 6446.00    0.51780   0.54367    0.005
 6447.00    0.52383   0.55446    0.005
 6448.00    0.54789   0.56851    0.005
 6449.00    0.56839   0.57511    0.005
 6450.00    0.58753   0.56856    0.005
 6451.00    0.60009   0.54937    0.005
 6452.00    0.61048   0.53142    0.005
 6453.00    0.61136   0.53157    0.005
 6454.00    0.60961   0.54644    0.005
 6455.00    0.62619   0.56069    0.005
 6456.00    0.64693   0.56832    0.005
 6457.00    0.64962   0.57039    0.005
 6458.00    0.64905   0.56752    0.005
 6459.00    0.65738   0.56139    0.005
 6460.00    0.66695   0.55501    0.005
 6461.00    0.69731   0.55220    0.005
 6462.00    0.72975   0.55567    0.005
 6463.00    0.72448   0.56044    0.005
 6464.00    0.71683   0.56010    0.005
 6465.00    0.74087   0.55818    0.005
 6466.00    0.76573   0.56036    0.005
 6467.00    0.76110   0.56406    0.005
 6468.00    0.75672   0.56503    0.005
 6469.00    0.75957   0.56253    0.005
 6470.00    0.76154   0.55475    0.005
 6471.00    0.75119   0.54269    0.005
 6472.00    0.73831   0.53524    0.005
 6473.00    0.70206   0.53869    0.005
 6474.00    0.66561   0.54801    0.005
 6475.00    0.62781   0.55534    0.005
 6476.00    0.59916   0.55908    0.005
 6477.00    0.61855   0.56073    0.005
 6478.00    0.64148   0.55946    0.005
 6479.00    0.67937   0.55400    0.005
 6480.00    0.69916   0.54604    0.005
 6481.00    0.65578   0.53686    0.005
 6482.00    0.63578   0.52199    0.005
 6483.00    0.68434   0.49837    0.005
 6484.00    0.73991   0.47609    0.005
 6485.00    0.81301   0.46881    0.005
 6486.00    0.85945   0.47714    0.005
 6487.00    0.84841   0.49226    0.005
 6488.00    0.81508   0.50584    0.005
 6489.00    0.74004   0.51678    0.005
 6490.00    0.66270   0.52821    0.005
 6491.00    0.58162   0.53873    0.005
 6492.00    0.55984   0.54580    0.005
 6493.00    0.62302   0.55029    0.005
 6494.00    0.68196   0.55372    0.005
 6495.00    0.73554   0.55638    0.005
 6496.00    0.75947   0.55677    0.005
 6497.00    0.75045   0.55376    0.005
 6498.00    0.74690   0.55042    0.005
 6499.00    0.74870   0.55090    0.005
 6500.00    0.74891   0.55415    0.005
 6501.00    0.74774   0.55628    0.005
 6502.00    0.75016   0.55627    0.005
 6503.00    0.75530   0.55415    0.005
 6504.00    0.74732   0.54856    0.005
 6505.00    0.73057   0.54105    0.005
 6506.00    0.70915   0.53588    0.005
 6507.00    0.68499   0.53388    0.005
 6508.00    0.68280   0.53482    0.005
 6509.00    0.69183   0.54070    0.005
 6510.00    0.73270   0.54922    0.005
 6511.00    0.78765   0.55452    0.005
 6512.00    0.81772   0.55559    0.005
 6513.00    0.83834   0.55576    0.005
 6514.00    0.82760   0.55558    0.005
 6515.00    0.80673   0.55185    0.005
 6516.00    0.77479   0.54544    0.005
 6517.00    0.73987   0.54275    0.005
 6518.00    0.69743   0.54617    0.005
 6519.00    0.65332   0.55064    0.005
 6520.00    0.63857   0.55056    0.005
 6521.00    0.62901   0.54555    0.005
 6522.00    0.63555   0.54038    0.005
 6523.00    0.64425   0.54030    0.005
 6524.00    0.64309   0.54552    0.005
 6525.00    0.64099   0.55053    0.005
 6526.00    0.65830   0.55086    0.005
 6527.00    0.67675   0.54934    0.005
 6528.00    0.69695   0.55096    0.000
 6529.00    0.71675   0.55446    0.000
 6530.00    0.67228   0.55474    0.000
 6531.00    0.62811   0.55047    0.000
 6532.00    0.59138   0.54477    0.000
 6533.00    0.55814   0.53936    0.000
 6534.00    0.57163   0.53203    0.000
 6535.00    0.58712   0.52275    0.000
 6536.00    0.62036   0.51854    0.000
 6537.00    0.65562   0.52357    0.000
 6538.00    0.70411   0.53156    0.000
 6539.00    0.74213   0.53462    0.000
 6540.00    0.72660   0.53166    0.000
 6541.00    0.71650   0.52647    0.000
 6542.00    0.72882   0.52106    0.000
 6543.00    0.74396   0.51387    0.000
 6544.00    0.76874   0.50537    0.000
 6545.00    0.77104   0.49992    0.000
 6546.00    0.70865   0.49959    0.000
 6547.00    0.65003   0.50013    0.000
 6548.00    0.60068   0.49555    0.000
 6549.00    0.57032   0.48116    0.000
 6550.00    0.58020   0.44898    0.000
 6551.00    0.58573   0.39761    0.000
 6552.00    0.58320   0.35703    0.000
 6553.00    0.60085   0.36683    0.000
 6554.00    0.65095   0.41861    0.000
 6555.00    0.72778   0.46904    0.000
 6556.00    0.84236   0.49713    0.000
 6557.00    1.00120   0.50719    0.000
 6558.00    1.21503   0.50718    0.000
 6559.00    1.38377   0.50582    0.000
 6560.00    1.50314   0.50781    0.000
 6561.00    1.48653   0.50898    0.000
 6562.00    1.33856   0.50579    0.000
 6563.00    1.16505   0.50168    0.000
 6564.00    0.96979   0.50254    0.000
 6565.00    0.83282   0.51142    0.000
 6566.00    0.73958   0.52468    0.000
 6567.00    0.72132   0.53481    0.000
 6568.00    0.75250   0.53746    0.000
 6569.00    0.76509   0.53355    0.000
 6570.00    0.76695   0.52797    0.000
 6571.00    0.71733   0.52672    0.000
 6572.00    0.64181   0.53043    0.000
 6573.00    0.62221   0.53415    0.000
 6574.00    0.62693   0.53434    0.000
 6575.00    0.64829   0.53232    0.000
 6576.00    0.67586   0.53257    0.000
 6577.00    0.74889   0.53687    0.000
 6578.00    0.83632   0.54165    0.000
 6579.00    0.91564   0.54291    0.000
 6580.00    0.99282   0.53714    0.000
 6581.00    0.92989   0.52187    0.000
 6582.00    0.83667   0.50432    0.000
 6583.00    0.73247   0.49972    0.000
 6584.00    0.62640   0.51106    0.000
 6585.00    0.64164   0.52463    0.000
 6586.00    0.67265   0.52985    0.000
 6587.00    0.70745   0.52870    0.000
 6588.00    0.74260   0.52862    0.000
 6589.00    0.71619   0.53374    0.000
 6590.00    0.68638   0.54092    0.000
 6591.00    0.65272   0.54446    0.000
 6592.00    0.61930   0.54250    0.000
 6593.00    0.61598   0.53698    0.000
 6594.00    0.61369   0.53109    0.000
 6595.00    0.63507   0.52716    0.000
 6596.00    0.65412   0.52426    0.000
 6597.00    0.64367   0.51998    0.000
 6598.00    0.63289   0.51620    0.000
 6599.00    0.61916   0.51919    0.000
 6600.00    0.60939   0.52913    0.000
 6601.00    0.62473   0.53703    0.000
 6602.00    0.64057   0.53749    0.000
 6603.00    0.65888   0.53571    0.000
 6604.00    0.67354   0.53793    0.000
 6605.00    0.67353   0.54176    0.000
 6606.00    0.67279   0.54244    0.000
 6607.00    0.66963   0.54125    0.000
 6608.00    0.66903   0.54177    0.000
 6609.00    0.67565   0.54399    0.005
 6610.00    0.67750   0.54542    0.005
 6611.00    0.66781   0.54392    0.005
 6612.00    0.66870   0.53834    0.005
 6613.00    0.69165   0.53005    0.005
 6614.00    0.71755   0.52445    0.005
 6615.00    0.74881   0.52579    0.005
 6616.00    0.75530   0.53070    0.005
 6617.00    0.72251   0.53359    0.005
 6618.00    0.69631   0.53349    0.005
 6619.00    0.67926   0.53155    0.005
 6620.00    0.66361   0.52805    0.005
 6621.00    0.64966   0.52217    0.005
 6622.00    0.62934   0.51437    0.005
 6623.00    0.60213   0.50969    0.005
 6624.00    0.60798   0.51331    0.005
 6625.00    0.64532   0.52272    0.005
 6626.00    0.68522   0.53071    0.005
 6627.00    0.72726   0.53330    0.005
 6628.00    0.75066   0.53156    0.005
 6629.00    0.76027   0.52993    0.005
 6630.00    0.74626   0.53085    0.005
 6631.00    0.71690   0.52973    0.005
 6632.00    0.69690   0.52310    0.005
 6633.00    0.68223   0.51792    0.005
 6634.00    0.69885   0.52076    0.005
 6635.00    0.73094   0.52667    0.005
 6636.00    0.74594   0.52899    0.005
 6637.00    0.75362   0.52905    0.005
 6638.00    0.70308   0.53026    0.005
 6639.00    0.63118   0.53155    0.005
 6640.00    0.57087   0.53085    0.005
 6641.00    0.51416   0.52909    0.005
 6642.00    0.53535   0.52798    0.005
 6643.00    0.57670   0.52798    0.005
 6644.00    0.62895   0.52862    0.005
 6645.00    0.68350   0.52875    0.005
 6646.00    0.75342   0.52852    0.005
 6647.00    0.82591   0.52881    0.005
 6648.00    0.81002   0.52853    0.005
 6649.00    0.78303   0.52635    0.005
 6650.00    0.70647   0.52233    0.005
 6651.00    0.62559   0.51596    0.005
 6652.00    0.56619   0.50856    0.005
 6653.00    0.50790   0.50596    0.005
 6654.00    0.53114   0.50991    0.005
 6655.00    0.55612   0.51441    0.005
 6656.00    0.60249   0.51599    0.005
 6657.00    0.64489   0.51742    0.005
 6658.00    0.60344   0.52140    0.005
 6659.00    0.56250   0.52669    0.005
 6660.00    0.52771   0.53013    0.005
 6661.00    0.50016   0.53074    0.005
 6662.00    0.53246   0.53040    0.005
 6663.00    0.56342   0.53052    0.005
 6664.00    0.58611   0.52968    0.005
 6665.00    0.60148   0.52352    0.005
 6666.00    0.58136   0.50992    0.005
 6667.00    0.55833   0.49727    0.005
 6668.00    0.52382   0.49743    0.005
 6669.00    0.51255   0.50819    0.005
 6670.00    0.57758   0.51755    0.005
 6671.00    0.63692   0.52151    0.005
 6672.00    0.68048   0.52366    0.005
 6673.00    0.69283   0.52584    0.005
 6674.00    0.63103   0.52722    0.005
 6675.00    0.58811   0.52716    0.004
 6676.00    0.58397   0.52598    0.005
 6677.00    0.58591   0.52477    0.005
 6678.00    0.59872   0.52498    0.005
 6679.00    0.61071   0.52630    0.005
 6680.00    0.62143   0.52718    0.005
 6681.00    0.61848   0.52706    0.005
 6682.00    0.59678   0.52633    0.005
 6683.00    0.56683   0.52422    0.005
 6684.00    0.52694   0.51910    0.005
 6685.00    0.50317   0.51236    0.005
 6686.00    0.49656   0.50876    0.005
 6687.00    0.49847   0.51055    0.005
 6688.00    0.50840   0.51588    0.005
 6689.00    0.52316   0.52186    0.005
 6690.00    0.54194   0.52516    0.005
 6691.00    0.55630   0.52375    0.005
 6692.00    0.56745   0.51873    0.005
 6693.00    0.55669   0.51402    0.005
 6694.00    0.53190   0.51342    0.005
 6695.00    0.53392   0.51637    0.005
 6696.00    0.55095   0.51909    0.000
 6697.00    0.55767   0.51981    0.000
 6698.00    0.55939   0.51915    0.000
 6699.00    0.56457   0.51758    0.000
 6700.00    0.57121   0.51619    0.000
 6701.00    0.60869   0.51512    0.000
 6702.00    0.65727   0.51276    0.000
 6703.00    0.62399   0.50865    0.000
 6704.00    0.56578   0.50305    0.000
 6705.00    0.53514   0.49577    0.000
 6706.00    0.51147   0.48957    0.000
 6707.00    0.54136   0.49052    0.000
 6708.00    0.58228   0.49963    0.000
 6709.00    0.64642   0.50880    0.000
 6710.00    0.71432   0.51196    0.000
 6711.00    0.81052   0.51230    0.000
 6712.00    0.91014   0.51443    0.000
 6713.00    0.89552   0.51666    0.000
 6714.00    0.87142   0.51519    0.000
 6715.00    0.78453   0.51153    0.000
 6716.00    0.69465   0.51041    0.000
 6717.00    0.65945   0.51271    0.000
 6718.00    0.62516   0.51599    0.000
 6719.00    0.59953   0.51852    0.000
 6720.00    0.57699   0.51933    0.000
 6721.00    0.61452   0.51788    0.000
 6722.00    0.64910   0.51553    0.000
 6723.00    0.64969   0.51472    0.000
 6724.00    0.65313   0.51593    0.000
 6725.00    0.67927   0.51677    0.000
 6726.00    0.70505   0.51444    0.000
 6727.00    0.72861   0.50961    0.000
 6728.00    0.74285   0.50634    0.000
 6729.00    0.71291   0.50702    0.000
 6730.00    0.68206   0.50876    0.000
 6731.00    0.64771   0.50766    0.000
 6732.00    0.60406   0.50518    0.000
 6733.00    0.53044   0.50544    0.000
 6734.00    0.47283   0.50769    0.000
 6735.00    0.45884   0.50814    0.000
 6736.00    0.46203   0.50607    0.000
 6737.00    0.50536   0.50300    0.000
 6738.00    0.54403   0.50022    0.000
 6739.00    0.57326   0.49922    0.000
 6740.00    0.59275   0.50065    0.000
 6741.00    0.59509   0.50205    0.000
 6742.00    0.60162   0.50237    0.000
 6743.00    0.61461   0.50415    0.000
 6744.00    0.59196   0.50739    0.000
 6745.00    0.52114   0.51039    0.000
 6746.00    0.44698   0.51343    0.000
 6747.00    0.36885   0.51682    0.000
 6748.00    0.36389   0.51956    0.000
 6749.00    0.43576   0.52063    0.000
 6750.00    0.49324   0.51975    0.000
 6751.00    0.53740   0.51806    0.000
 6752.00    0.60052   0.51741    0.000
 6753.00    0.67912   0.51718    0.005
 6754.00    0.74525   0.51475    0.005
 6755.00    0.80242   0.50907    0.005
 6756.00    0.78207   0.50298    0.005
 6757.00    0.71283   0.50134    0.005
 6758.00    0.63066   0.50391    0.005
 6759.00    0.54138   0.50528    0.005
 6760.00    0.53424   0.50415    0.005
 6761.00    0.56648   0.50492    0.005
 6762.00    0.60014   0.50973    0.006
 6763.00    0.63440   0.51585    0.006
 6764.00    0.71611   0.51999    0.006
 6765.00    0.81461   0.52127    0.006
 6766.00    0.83686   0.52079    0.006
 6767.00    0.83634   0.52086    0.005
 6768.00    0.75486   0.52204    0.005
 6769.00    0.65332   0.52182    0.005
 6770.00    0.65853   0.51798    0.005
 6771.00    0.68518   0.51071    0.005
 6772.00    0.69182   0.50216    0.005
 6773.00    0.69533   0.49604    0.005
 6774.00    0.66678   0.49482    0.005
 6775.00    0.63450   0.49783    0.005
 6776.00    0.58422   0.50313    0.005
 6777.00    0.53252   0.50806    0.005
 6778.00    0.57775   0.51021    0.005
 6779.00    0.62720   0.51043    0.005
 6780.00    0.66988   0.51063    0.005
 6781.00    0.71042   0.50963    0.005
 6782.00    0.65462   0.50630    0.005
 6783.00    0.60368   0.50318    0.005
 6784.00    0.64086   0.50253    0.005
 6785.00    0.68019   0.50375    0.005
 6786.00    0.74316   0.50567    0.005
 6787.00    0.79188   0.50732    0.005
 6788.00    0.73104   0.50849    0.005
 6789.00    0.67521   0.50995    0.005
 6790.00    0.64854   0.51160    0.005
 6791.00    0.62928   0.51196    0.005
 6792.00    0.64431   0.51031    0.005
 6793.00    0.65807   0.50836    0.005
 6794.00    0.66703   0.50778    0.005
 6795.00    0.66088   0.50746    0.005
 6796.00    0.60699   0.50688    0.005
 6797.00    0.57335   0.50676    0.005
 6798.00    0.59399   0.50605    0.005
 6799.00    0.61643   0.50498    0.005
 6800.00    0.64304   0.50568    0.005
 6801.00    0.66520   0.50717    0.005
 6802.00    0.67854   0.50653    0.005
 6803.00    0.67821   0.50364    0.005
 6804.00    0.65417   0.50233    0.005
 6805.00    0.62089   0.50544    0.005
 6806.00    0.57359   0.50993    0.005
 6807.00    0.56167   0.51086    0.005
 6808.00    0.59691   0.50782    0.005
 6809.00    0.63597   0.50492    0.005
 6810.00    0.67952   0.50596    0.005
 6811.00    0.68730   0.51022    0.005
 6812.00    0.65804   0.51410    0.005
 6813.00    0.63012   0.51558    0.005
 6814.00    0.60340   0.51497    0.005
 6815.00    0.60047   0.51228    0.005
 6816.00    0.61668   0.50703    0.005
 6817.00    0.58300   0.50195    0.005
 6818.00    0.51401   0.50152    0.005
 6819.00    0.50992   0.50563    0.005
 6820.00    0.54614   0.50952    0.005
 6821.00    0.53136   0.51025    0.005
 6822.00    0.48892   0.50978    0.005
 6823.00    0.49570   0.51072    0.005
 6824.00    0.52571   0.51203    0.005
 6825.00    0.53532   0.51097    0.005
 6826.00    0.53663   0.50710    0.005
 6827.00    0.52648   0.50151    0.005
 6828.00    0.51234   0.49484    0.005
 6829.00    0.56149   0.48799    0.005
 6830.00    0.62916   0.48280    0.005
 6831.00    0.63706   0.48208    0.005
 6832.00    0.63048   0.48717    0.005
 6833.00    0.58058   0.49564    0.005
 6834.00    0.52221   0.50296    0.005
 6835.00    0.49719   0.50658    0.005
 6836.00    0.47726   0.50752    0.005
 6837.00    0.51421   0.50764    0.005
 6838.00    0.55755   0.50738    0.005
 6839.00    0.54276   0.50685    0.005
 6840.00    0.52364   0.50673    0.005
 6841.00    0.52220   0.50678    0.005
 6842.00    0.52146   0.50434    0.005
 6843.00    0.50765   0.49751    0.005
 6844.00    0.49741   0.49039    0.005
 6845.00    0.63304   0.48867    0.005
 6846.00    0.75314   0.49146    0.005
 6847.00    0.61092   0.49466    0.005
 6848.00    0.48723   0.49579    0.005
 6849.00    0.55747   0.49318    0.005
 6850.00    0.61864   0.48913    0.005
 6851.00    0.61242   0.49006    0.005
 6852.00    0.60286   0.49742    0.005
 6853.00    0.57437   0.50466    0.005
 6854.00    0.56099   0.50564    0.005
 6855.00    0.61580   0.50041    0.005
 6856.00    0.66005   0.49338    0.005
 6857.00    0.66519   0.49004    0.005
 6858.00    0.66260   0.49241    0.005
 6859.00    0.63609   0.49614    0.005
 6860.00    0.61218   0.49614    0.005
 6861.00    0.59508   0.49361    0.005
 6862.00    0.57533   0.49297    0.005
 6863.00    0.54961   0.49436    0.005
 6864.00    0.54669   0.49574    0.005
 6865.00    0.58840   0.49795    0.005
 6866.00    0.60999   0.50180    0.005
 6867.00    0.59727   0.50491    0.005
 6868.00    0.61423   0.50483    0.005
 6869.00    0.67556   0.50133    0.005
 6870.00    0.69593   0.49557    0.005
 6871.00    0.66248   0.49086    0.005
 6872.00    0.63200   0.49101    0.005
 6873.00    0.60496   0.49512    0.005
 6874.00    0.57474   0.49828    0.005
 6875.00    0.54128   0.49932    0.005
 6876.00    0.53569   0.50149    0.005
 6877.00    0.55519   0.50535    0.005
 6878.00    0.58269   0.50872    0.005
 6879.00    0.61656   0.51070    0.005
 6880.00    0.63910   0.51098    0.005
 6881.00    0.65374   0.50949    0.005
 6882.00    0.63746   0.50740    0.005
 6883.00    0.60226   0.50537    0.005
 6884.00    0.61852   0.50341    0.005
 6885.00    0.66228   0.50295    0.005
 6886.00    0.66178   0.50455    0.005
 6887.00    0.64074   0.50579    0.005
 6888.00    0.61300   0.50478    0.005
 6889.00    0.58258   0.50351    0.005
 6890.00    0.54017   0.50465    0.005
 6891.00    0.49368   0.50706    0.005
 6892.00    0.51113   0.50792    0.005
 6893.00    0.54692   0.50702    0.005
 6894.00    0.55676   0.50641    0.005
 6895.00    0.56046   0.50760    0.005
 6896.00    0.55786   0.50990    0.005
 6897.00    0.55407   0.51149    0.005
 6898.00    0.54952   0.51165    0.005
 6899.00    0.54486   0.51012    0.005
 6900.00    0.59263   0.50704    0.005
 6901.00    0.64605   0.50296    0.005
 6902.00    0.66984   0.49817    0.005
 6903.00    0.69153   0.49468    0.005
 6904.00    0.58247   0.49458    0.005
 6905.00    0.46872   0.49614    0.005
 6906.00    0.45644   0.49775    0.005
 6907.00    0.44592   0.50063    0.005
 6908.00    0.48498   0.50476    0.005
 6909.00    0.52234   0.50849    0.005
 6910.00    0.53279   0.51045    0.005
 6911.00    0.54295   0.50913    0.005
 6912.00    0.55011   0.50358    0.005
 6913.00    0.55418   0.49583    0.005
 6914.00    0.53604   0.49084    0.005
 6915.00    0.52155   0.49193    0.005
 6916.00    0.52714   0.49724    0.005
 6917.00    0.53499   0.50208    0.005
 6918.00    0.55279   0.50420    0.005
 6919.00    0.56035   0.50413    0.005
 6920.00    0.53083   0.50220    0.005
 6921.00    0.50533   0.49878    0.005
 6922.00    0.49205   0.49660    0.005
 6923.00    0.51257   0.49837    0.005
 6924.00    0.62047   0.50183    0.005
 6925.00    0.68514   0.50315    0.005
 6926.00    0.65370   0.50260    0.005
 6927.00    0.62030   0.50296    0.005
 6928.00    0.58313   0.50527    0.005
 6929.00    0.56330   0.50786    0.005
 6930.00    0.57260   0.50810    0.005
 6931.00    0.56667   0.50454    0.005
 6932.00    0.53828   0.49791    0.005
 6933.00    0.52321   0.49084    0.005
 6934.00    0.52540   0.48786    0.005
 6935.00    0.54240   0.49160    0.005
 6936.00    0.57629   0.49860    0.005
 6937.00    0.58848   0.50368    0.005
 6938.00    0.57885   0.50466    0.005
 6939.00    0.58726   0.50139    0.005
 6940.00    0.61168   0.49631    0.005
 6941.00    0.59179   0.49315    0.005
 6942.00    0.53724   0.49254    0.005
 6943.00    0.54012   0.49357    0.005
 6944.00    0.58249   0.49660    0.005
 6945.00    0.60477   0.50075    0.005
 6946.00    0.61494   0.50345    0.005
 6947.00    0.62546   0.50385    0.005
 6948.00    0.63616   0.50336    0.005
 6949.00    0.64951   0.50357    0.005
 6950.00    0.66408   0.50476    0.005
 6951.00    0.63104   0.50600    0.005
 6952.00    0.57929   0.50651    0.005
 6953.00    0.59542   0.50561    0.005
 6954.00    0.63426   0.50329    0.005
 6955.00    0.65867   0.50242    0.005
 6956.00    0.67904   0.50524    0.005
 6957.00    0.56797   0.50886    0.005
 6958.00    0.42649   0.50906    0.005
 6959.00    0.45193   0.50586    0.005
 6960.00    0.50836   0.50345    0.005
 6961.00    0.62767   0.50468    0.005
 6962.00    0.75599   0.50613    0.005
 6963.00    0.70352   0.50304    0.005
 6964.00    0.63232   0.49593    0.005
 6965.00    0.56107   0.48700    0.005
 6966.00    0.48982   0.47627    0.005
 6967.00    0.50020   0.46739    0.005
 6968.00    0.51321   0.46837    0.005
 6969.00    0.52527   0.47989    0.005
 6970.00    0.53771   0.49320    0.005
 6971.00    0.56178   0.50219    0.005
 6972.00    0.58009   0.50673    0.005
 6973.00    0.51262   0.50789    0.005
 6974.00    0.45156   0.50718    0.005
 6975.00    0.45216   0.50613    0.005
 6976.00    0.46591   0.50447    0.005
 6977.00    0.57124   0.50133    0.005
 6978.00    0.65247   0.49854    0.005
 6979.00    0.60434   0.49919    0.005
 6980.00    0.56251   0.50286    0.005
 6981.00    0.54783   0.50578    0.005
 6982.00    0.54271   0.50556    0.005
 6983.00    0.57152   0.50375    0.005
 6984.00    0.60393   0.50317    0.005
 6985.00    0.64707   0.50383    0.005
 6986.00    0.67965   0.50271    0.005
 6987.00    0.68543   0.49763    0.005
 6988.00    0.67929   0.49107    0.005
 6989.00    0.64708   0.48884    0.005
 6990.00    0.60039   0.49261    0.005
 6991.00    0.52623   0.49656    0.005
 6992.00    0.48260   0.49522    0.005
 6993.00    0.48954   0.49048    0.005
 6994.00    0.45715   0.48776    0.005
 6995.00    0.36770   0.48913    0.005
 6996.00    0.35217   0.49311    0.005
 6997.00    0.43098   0.49741    0.005
 6998.00    0.51253   0.49986    0.005
 6999.00    0.59716   0.49928    0.005
 7000.00    0.59706   0.49757    0.005
 7001.00    0.51292   0.49758    0.005
 7002.00    0.50494   0.49757    0.005
 7003.00    0.56357   0.49206    0.005
 7004.00    0.59209   0.48036    0.005
 7005.00    0.59741   0.47182    0.005
 7006.00    0.61404   0.47592    0.005
 7007.00    0.63834   0.48901    0.005
 7008.00    0.65743   0.50018    0.005
 7009.00    0.67342   0.50444    0.005
 7010.00    0.64560   0.50227    0.005
 7011.00    0.59508   0.49486    0.005
 7012.00    0.61024   0.48611    0.005
 7013.00    0.65489   0.48223    0.005
 7014.00    0.61665   0.48548    0.005
 7015.00    0.54642   0.49170    0.005
 7016.00    0.50654   0.49618    0.005
 7017.00    0.47662   0.49854    0.005
 7018.00    0.49220   0.50019    0.005
 7019.00    0.52028   0.50110    0.005
 7020.00    0.52794   0.50055    0.005
 7021.00    0.53098   0.49899    0.005
 7022.00    0.57468   0.49783    0.005
 7023.00    0.62573   0.49821    0.005
 7024.00    0.65673   0.49991    0.005
 7025.00    0.68496   0.49918    0.005
 7026.00    0.62965   0.49280    0.005
 7027.00    0.56606   0.48701    0.005
 7028.00    0.60997   0.49139    0.005
 7029.00    0.66062   0.50415    0.005
 7030.00    0.62778   0.51536    0.005
 7031.00    0.59268   0.51935    0.005
 7032.00    0.58731   0.51640    0.005
 7033.00    0.58081   0.51006    0.005
 7034.00    0.54352   0.50622    0.005
 7035.00    0.50834   0.50833    0.005
 7036.00    0.50266   0.51386    0.006
 7037.00    0.49551   0.51807    0.006
 7038.00    0.47483   0.51846    0.005
 7039.00    0.46281   0.51442    0.005
 7040.00    0.50924   0.50544    0.005
 7041.00    0.56281   0.49334    0.005
 7042.00    0.65378   0.48360    0.005
 7043.00    0.71834   0.48043    0.005
 7044.00    0.67169   0.48325    0.005
 7045.00    0.62435   0.48844    0.005
 7046.00    0.57463   0.49119    0.005
 7047.00    0.53405   0.48823    0.005
 7048.00    0.52026   0.48133    0.005
 7049.00    0.51590   0.47651    0.005
 7050.00    0.53509   0.47714   -2.000
 7051.00    0.56945   0.48114   -2.000
 7052.00    0.63643   0.48568   -2.000
 7053.00    0.67722   0.48846   -2.000
 7054.00    0.66913   0.48635   -2.000
 7055.00    0.67681   0.47894   -2.000
 7056.00    0.71024   0.47052   -2.000
 7057.00    0.71157   0.46724   -2.000
 7058.00    0.66699   0.47229   -2.000
 7059.00    0.68356   0.48170   -2.000
 7060.00    0.77709   0.48853   -2.000
 7061.00    0.78910   0.49091   -2.000
 7062.00    0.71072   0.49114   -2.000
 7063.00    0.65977   0.49049   -2.000
 7064.00    0.63566   0.48932   -2.000
 7065.00    0.64510   0.48883   -2.000
 7066.00    0.68348   0.48982   -2.000
 7067.00    0.68836   0.49162   -2.000
 7068.00    0.66778   0.49352   -2.000
 7069.00    0.64035   0.49469   -2.000
 7070.00    0.60834   0.49250   -2.000
 7071.00    0.67553   0.48448   -2.000
 7072.00    0.80074   0.47239   -2.000
 7073.00    0.84355   0.46280   -2.000
 7074.00    0.84434   0.46083   -2.000
 7075.00    0.76437   0.46336   -2.000
 7076.00    0.64873   0.46402   -2.000
 7077.00    0.67512   0.46167   -2.000
 7078.00    0.75536   0.45864   -2.000
 7079.00    0.69938   0.45716   -2.000
 7080.00    0.59952   0.45801   -2.000
 7081.00    0.58904   0.45936   -2.000
 7082.00    0.60265   0.45995   -2.000
 7083.00    0.63630   0.46040   -2.000
 7084.00    0.67438   0.46092   -2.000
 7085.00    0.69391   0.46191   -2.000
 7086.00    0.71018   0.46434   -2.000
 7087.00    0.68018   0.46839   -2.000
 7088.00    0.64398   0.47192   -2.000
 7089.00    0.64399   0.47234   -2.000
 7090.00    0.64743   0.46991   -2.000
 7091.00    0.60676   0.46767   -2.000
 7092.00    0.56349   0.46863   -2.000
 7093.00    0.59053   0.47190   -2.000
 7094.00    0.61906   0.47324   -2.000
 7095.00    0.61531   0.47088   -2.000
 7096.00    0.60868   0.46796   -2.000
 7097.00    0.53043   0.46690   -2.000
 7098.00    0.46530   0.46531   -2.000
 7099.00    0.57445   0.46137   -2.000
 7100.00    0.67125   0.45829   -2.000
 7101.00    0.65861   0.45950   -2.000
 7102.00    0.63941   0.46354   -2.000
 7103.00    0.57742   0.46698   -2.000
 7104.00    0.53489   0.46880   -2.000
 7105.00    0.59148   0.46942   -2.000
 7106.00    0.62888   0.46902   -2.000
 7107.00    0.58732   0.46794   -2.000
 7108.00    0.54500   0.46646   -2.000
 7109.00    0.50011   0.46446   -2.000
 7110.00    0.48282   0.46228   -2.000
 7111.00    0.54482   0.46216   -2.000
 7112.00    0.57925   0.46455   -2.000
 7113.00    0.54606   0.46530   -2.000
 7114.00    0.54285   0.46219   -2.000
 7115.00    0.60308   0.45875   -2.000
 7116.00    0.64395   0.45788   -2.000
 7117.00    0.64925   0.45677   -2.000
 7118.00    0.63241   0.45183   -2.000
 7119.00    0.58000   0.44615   -2.000
 7120.00    0.57958   0.44604   -2.000
 7121.00    0.65245   0.45204   -2.000
 7122.00    0.69664   0.45942   -2.000
 7123.00    0.70527   0.46442   -2.000
 7124.00    0.76153   0.46680   -2.000
 7125.00    0.86986   0.46834   -2.000
 7126.00    0.83890   0.46849   -2.000
 7127.00    0.67361   0.46575   -2.000
 7128.00    0.55351   0.46297   -2.000
 7129.00    0.47183   0.46384   -2.000
 7130.00    0.52036   0.46646   -2.000
 7131.00    0.66642   0.46730   -2.000
 7132.00    0.76870   0.46655   -2.000
 7133.00    0.84219   0.46555   -2.000
 7134.00    0.79172   0.46371   -2.000
 7135.00    0.66984   0.45864   -2.000
 7136.00    0.63853   0.45076   -2.000
 7137.00    0.65267   0.44671   -2.000
 7138.00    0.64200   0.45049   -2.000
 7139.00    0.62056   0.45800   -2.000
 7140.00    0.63264   0.46512   -2.000
 7141.00    0.65720   0.47075   -2.000
 7142.00    0.71417   0.47279   -2.000
 7143.00    0.78137   0.47075   -2.000
 7144.00    0.70519   0.46925   -2.000
 7145.00    0.59119   0.47186   -2.000
 7146.00    0.51980   0.47464   -2.000
 7147.00    0.45761   0.47298   -2.000
 7148.00    0.46440   0.46894   -2.000
 7149.00    0.48299   0.46708   -2.000
 7150.00    0.56780   0.46761   -2.000
 7151.00    0.66118   0.46512   -2.000
 7152.00    0.53774   0.45612   -2.000
 7153.00    0.39462   0.44660   -2.000
 7154.00    0.47813   0.44624   -2.000
 7155.00    0.57405   0.45588   -2.000
 7156.00    0.54944   0.46702   -2.000
 7157.00    0.52397   0.47239   -2.000
 7158.00    0.64970   0.47249   -2.000
 7159.00    0.76954   0.47249   -2.000
 7160.00    0.75538   0.47511   -2.000
 7161.00    0.75035   0.47810   -2.000
 7162.00    0.86010   0.47795   -2.000
 7163.00    0.93342   0.47371   -2.000
 7164.00    0.69592   0.46831   -2.000
 7165.00    0.50584   0.46681   -2.000
 7166.00    0.61623   0.46978   -2.000
 7167.00    0.71965   0.47039   -2.000
 7168.00    0.78849   0.46364   -2.000
 7169.00    0.85128   0.45464   -2.000
 7170.00    0.88972   0.45286   -2.000
 7171.00    0.90089   0.46049   -2.000
 7172.00    0.82096   0.46969   -2.000
 7173.00    0.72420   0.47226   -2.000
 7174.00    0.57994   0.46664   -2.000
 7175.00    0.51070   0.45640   -2.000
 7176.00    0.62242   0.44796   -2.000
 7177.00    0.66302   0.44635   -2.000
 7178.00    0.55554   0.45102   -2.000
 7179.00    0.52723   0.45734   -2.000
 7180.00    0.64227   0.46028   -2.000
 7181.00    0.67288   0.45924   -2.000
 7182.00    0.56987   0.45896   -2.000
 7183.00    0.51223   0.46199   -2.000
 7184.00    0.51765   0.46451   -2.000
 7185.00    0.55262   0.46362   -2.000
 7186.00    0.62373   0.46275   -2.000
 7187.00    0.68356   0.46456   -2.000
 7188.00    0.73123   0.46614   -2.000
 7189.00    0.73964   0.46439   -2.000
 7190.00    0.71072   0.46128   -2.000
 7191.00    0.67703   0.46202   -2.000
 7192.00    0.63932   0.46731   -2.000
 7193.00    0.65993   0.47025   -2.000
 7194.00    0.72357   0.46403   -2.000
 7195.00    0.61514   0.45122   -2.000
 7196.00    0.39514   0.44279   -2.000
 7197.00    0.42579   0.44548   -2.000
 7198.00    0.59862   0.45584   -2.000
 7199.00    0.72134   0.46636   -2.000
 7200.00    0.81930   0.47080   -2.000
 7201.00    0.87340   0.46795   -2.000
 7202.00    0.90877   0.46238   -2.000
 7203.00    0.68703   0.45916   -2.000
 7204.00    0.37122   0.46018   -2.000
 7205.00    0.39218   0.46478   -2.000
 7206.00    0.51747   0.46996   -2.000
 7207.00    0.45948   0.47186   -2.000
 7208.00    0.35418   0.46972   -2.000
 7209.00    0.44521   0.46591   -2.000
 7210.00    0.57755   0.46254   -2.000
 7211.00    0.62759   0.46067   -2.000
 7212.00    0.66397   0.46184   -2.000
 7213.00    0.47766   0.46667   -2.000
 7214.00    0.26353   0.47250   -2.000
 7215.00    0.44228   0.47574   -2.000
 7216.00    0.65505   0.47480   -2.000
 7217.00    0.61152   0.47180   -2.000
 7218.00    0.55496   0.47148   -2.000
