###################################################################
## OUTPUT of StarlightChains_v04.for    [Cid@UFSC - 01/Apr/2007] ##
###################################################################

## Some input info
KUG0210-078._41_44.txt                   [arq_obs]
Base.CB07.vall.4m                        [arq_base]
Masks.EmLines.NEW.gm                     [arq_masks]
StCv04.C11.config                        [arq_config]
   66                                    [N_base]
    0                                    [N_YAV_components = # of components with extra extinction!]
    0                                    [i_FitPowerLaw (1/0 = Yes/No)]
-9.99                                    [alpha_PowerLaw]
CCM                                      [red_law_option]
 1.458241                                [q_norm = A(l_norm)/A(V)]

## (Re)Sampling Parameters
 3741.00                                 [l_ini (A)]
 7218.00                                 [l_fin (A)]
    1.00                                 [dl    (A)]     (OBS: dl_cushion =    50.00 A)

## Normalization info
 4020.00                                 [l_norm (A) - for base]
 4010.00                                 [llow_norm (A) - window for f_obs]
 4060.00                                 [lupp_norm (A) - window for f_obs]
9.099107E-18                             [fobs_norm (in input units)]

## S/N
 3691.00                                 [llow_SN (A) - window for S/N]
 7268.00                                 [lupp_SN (A) - window for S/N]
   4.327                                 [S/N in S/N window]
   3.718                                 [S/N in norm. window]
   0.012                                 [S/N_err in S/N window]
   0.010                                 [S/N_err in norm. window]
  1.0000                                 [fscale_chi2]

## etc...
    -2007757                             [idum_orig]
  2417                                   [NOl_eff]
  2357                                   [Nl_eff]
    60    NSIGMA                         [Ntot_cliped & clip_method]
  6455190                                [Nglobal_steps]
   7                                     [N_chains]
  42                                     [NEX0s_base = N_base in EX0s-fits]
 0   0   1       60   2.0   3.010E+03    [Clip-Bug, RC-Crash & Burn-In warning-flags, n_censored_weights, wei_nsig_threshold & wei_limit]
    87     80.492     78.301      2.191  [idt_all, wdt_TotTime, wdt_UsrTime & wdt_SysTime (sec)]

## Synthesis Results - Best model ##

 7.36073E-06                             [chi2/Nl_eff]
    31.53762                             [adev (%)]

    88.42942                             [sum-of-x (%)]
 6.85274E-17                             [Flux_tot (units of input spectrum!)]
 5.59413E-13                             [Mini_tot (???)]
 3.03625E-13                             [Mcor_tot (???)]

   0.00                                  [v0_min  (km/s)]
 150.00                                  [vd_min  (km/s)]
 1.5948                                  [AV_min  (mag)]
 0.0000                                  [YAV_min (mag)]

# j     x_j(%)      Mini_j(%)     Mcor_j(%)     age_j(yr)     Z_j      (L/M)_j    YAV?  Mstars   component_j        a/Fe...       SSP_chi2r SSP_adev(%)   SSP_AV   SSP_x(%)
  1      0.0000     0.0000E+00    0.0000E+00    1.000000E+06  0.00400  1.094E-02    0   1.0000   age020_m42            0.0000     9.5605E-06    40.6434   4.0000    73.8615
  2      0.0000     0.0000E+00    0.0000E+00    3.160000E+06  0.00400  4.007E-02    0   0.9999   age045_m42            0.0000     8.5031E-06    37.6631   3.2682    79.2169
  3      0.0000     0.0000E+00    0.0000E+00    5.010000E+06  0.00400  2.539E-02    0   0.9488   age055_m42            0.0000     9.1269E-06    38.9825   3.6076    76.6341
  4      0.0000     0.0000E+00    0.0000E+00    6.610000E+06  0.00400  2.620E-02    0   0.9220   age061_m42            0.0000     8.6163E-06    37.1888   3.2059    78.9876
  5      0.0000     0.0000E+00    0.0000E+00    1.000000E+07  0.00400  1.322E-02    0   0.8862   age070_m42            0.0000     9.0273E-06    38.6801   2.9430    79.9185
  6      0.0000     0.0000E+00    0.0000E+00    1.445000E+07  0.00400  7.883E-03    0   0.8571   age078_m42            0.0000     9.3013E-06    39.5051   3.2728    77.8057
  7      0.0000     0.0000E+00    0.0000E+00    2.512000E+07  0.00400  5.251E-03    0   0.8174   age090_m42            0.0000     9.0235E-06    38.7190   2.8137    80.3332
  8      0.2798     1.0623E-02    1.5366E-02    4.000000E+07  0.00400  3.649E-03    0   0.7851   age104_m42            0.0000     8.7621E-06    37.9478   2.5803    81.2504
  9      0.0000     0.0000E+00    0.0000E+00    5.500000E+07  0.00400  3.098E-03    0   0.7629   age110_m42            0.0000     8.3605E-06    36.4395   2.7183    81.8267
 10      0.3523     2.1905E-02    2.9086E-02    1.015200E+08  0.00400  2.228E-03    0   0.7207   age116_m42            0.0000     8.1233E-06    35.2441   2.7310    82.2692
 11      0.0000     0.0000E+00    0.0000E+00    2.861200E+08  0.00400  1.093E-03    0   0.6648   age125_m42            0.0000     8.1245E-06    35.1046   2.1596    84.6045
 12      1.1777     2.4730E-01    2.9001E-01    5.088000E+08  0.00400  6.597E-04    0   0.6365   age130_m42            0.0000     7.6911E-06    33.5196   2.1331    86.0039
 13      0.0000     0.0000E+00    0.0000E+00    1.434000E+09  0.00400  2.132E-04    0   0.5798   age139_m42            0.0000     7.4453E-06    33.4879   1.1574    87.9910
 14      0.0000     0.0000E+00    0.0000E+00    4.250000E+09  0.00400  5.895E-05    0   0.5377   age158_m42            0.0000     8.0411E-06    35.4384   0.7303    84.1762
 15      0.0000     0.0000E+00    0.0000E+00    7.500000E+09  0.00400  3.510E-05    0   0.5212   age171_m42            0.0000     8.1104E-06    35.5249   0.5358    83.8518
 16      0.0000     0.0000E+00    0.0000E+00    1.300000E+10  0.00400  2.005E-05    0   0.5034   age193_m42            0.0000     8.2529E-06    35.4118   0.3695    83.4219
 17      0.0000     0.0000E+00    0.0000E+00    1.800000E+10  0.00400  1.525E-05    0   0.4967   age213_m42            0.0000     8.3143E-06    35.5805   0.3482    82.9686
 18      0.0000     0.0000E+00    0.0000E+00    1.000000E+06  0.00800  1.238E-02    0   1.0000   age020_m52            0.0000     9.5994E-06    40.6774   4.0000    73.9000
 19      0.0000     0.0000E+00    0.0000E+00    3.160000E+06  0.00800  3.074E-02    0   0.9966   age045_m52            0.0000     9.6252E-06    40.6573   3.9379    74.1820
 20      0.0000     0.0000E+00    0.0000E+00    5.010000E+06  0.00800  2.668E-02    0   0.9443   age055_m52            0.0000     9.3605E-06    39.5814   3.6967    75.7271
 21      0.6699     4.3448E-03    7.3462E-03    6.610000E+06  0.00800  2.136E-02    0   0.9177   age061_m52            0.0000     9.0994E-06    39.5294   2.4493    80.7009
 22      0.5829     6.6457E-03    1.0808E-02    1.000000E+07  0.00800  1.215E-02    0   0.8827   age070_m52            0.0000     9.3969E-06    39.9929   3.1273    79.4751
 23      0.0000     0.0000E+00    0.0000E+00    1.445000E+07  0.00800  8.717E-03    0   0.8552   age078_m52            0.0000     9.2405E-06    39.3631   3.2381    78.8880
 24      0.0000     0.0000E+00    0.0000E+00    2.512000E+07  0.00800  5.592E-03    0   0.8162   age090_m52            0.0000     9.0212E-06    38.7265   2.8758    81.3023
 25      0.0000     0.0000E+00    0.0000E+00    4.000000E+07  0.00800  3.896E-03    0   0.7841   age104_m52            0.0000     8.7072E-06    37.7411   2.7790    82.2647
 26      0.0000     0.0000E+00    0.0000E+00    1.015200E+08  0.00800  2.148E-03    0   0.7226   age116_m52            0.0000     8.3487E-06    36.2424   2.7082    82.5155
 27      0.0000     0.0000E+00    0.0000E+00    2.861200E+08  0.00800  9.925E-04    0   0.6683   age125_m52            0.0000     7.6409E-06    33.2105   2.1966    86.8447
 28      0.0000     0.0000E+00    0.0000E+00    9.047900E+08  0.00800  3.141E-04    0   0.6138   age135_m52            0.0000     7.2974E-06    32.5402   1.3739    91.3944
 29      0.5271     4.2478E-01    4.5807E-01    1.434000E+09  0.00800  1.719E-04    0   0.5853   age139_m52            0.0000     7.6865E-06    34.4337   0.8065    89.0024
 30      0.0000     1.5258E-05    1.5743E-05    2.500000E+09  0.00800  7.872E-05    0   0.5600   age150_m52            0.0000     7.9135E-06    34.7020   0.5417    86.6770
 31      0.0000     0.0000E+00    0.0000E+00    4.250000E+09  0.00800  4.336E-05    0   0.5426   age158_m52            0.0000     8.0805E-06    35.0429   0.5302    85.7232
 32      0.0000     0.0000E+00    0.0000E+00    6.250000E+09  0.00800  3.159E-05    0   0.5319   age166_m52            0.0000     8.1451E-06    34.6248   0.3178    86.0962
 33      0.0721     7.3409E-01    6.8613E-01    1.300000E+10  0.00800  1.361E-05    0   0.5073   age193_m52            0.0000     8.4165E-06    34.2992  -0.1564    85.7637
 34      0.0000     0.0000E+00    0.0000E+00    1.800000E+10  0.00800  9.886E-06    0   0.4990   age213_m52            0.0000     8.5717E-06    33.9748  -0.2784    85.8225
 35      0.0000     0.0000E+00    0.0000E+00    1.000000E+06  0.02000  1.544E-02    0   1.0000   age020_m62            0.0000     9.6745E-06    40.9056   4.0000    73.9535
 36      0.0000     0.0000E+00    0.0000E+00    3.160000E+06  0.02000  3.762E-02    0   0.9858   age045_m62            0.0000     9.7861E-06    40.9691   3.9521    74.2345
 37      0.0000     0.0000E+00    0.0000E+00    5.010000E+06  0.02000  3.296E-02    0   0.9342   age055_m62            0.0000     8.9806E-06    38.0314   3.5669    77.5980
 38      0.0000     0.0000E+00    0.0000E+00    8.710000E+06  0.02000  1.154E-02    0   0.8861   age067_m62            0.0000     1.1187E-05    45.0787   2.6082    80.2435
 39      0.0000     0.0000E+00    0.0000E+00    1.445000E+07  0.02000  7.663E-03    0   0.8472   age078_m62            0.0000     9.7737E-06    41.4144   2.7776    80.9634
 40      0.0000     0.0000E+00    0.0000E+00    2.512000E+07  0.02000  4.532E-03    0   0.8099   age090_m62            0.0000     9.8510E-06    41.2766   2.7717    80.6097
 41      0.0000     0.0000E+00    0.0000E+00    5.500000E+07  0.02000  2.733E-03    0   0.7595   age110_m62            0.0000     8.9105E-06    37.9399   2.7708    81.3321
 42      0.0000     0.0000E+00    0.0000E+00    1.609000E+08  0.02000  1.369E-03    0   0.6985   age120_m62            0.0000     8.0534E-06    34.4365   2.5817    84.6499
 43      0.0000     0.0000E+00    0.0000E+00    2.861200E+08  0.02000  9.013E-04    0   0.6714   age125_m62            0.0000     7.4753E-06    32.2036   2.3067    88.0691
 44      0.0000     0.0000E+00    0.0000E+00    5.088000E+08  0.02000  5.028E-04    0   0.6449   age130_m62            0.0000     6.9773E-06    31.0299   1.8951    91.7571
 45      0.0000     0.0000E+00    0.0000E+00    9.047900E+08  0.02000  2.428E-04    0   0.6179   age135_m62            0.0000     7.3733E-06    32.9085   1.3200    90.7690
 46      4.2209     4.6295E+00    5.0393E+00    1.434000E+09  0.02000  1.263E-04    0   0.5908   age139_m62            0.0000     7.7686E-06    34.1794   0.8861    89.0659
 47      0.0000     0.0000E+00    0.0000E+00    2.500000E+09  0.02000  5.985E-05    0   0.5673   age150_m62            0.0000     8.0998E-06    34.4352   0.5202    87.8751
 48      0.0000     0.0000E+00    0.0000E+00    4.250000E+09  0.02000  3.271E-05    0   0.5468   age158_m62            0.0000     8.3581E-06    34.0043   0.2063    87.4598
 49      0.0000     0.0000E+00    0.0000E+00    1.000000E+10  0.02000  1.360E-05    0   0.5167   age181_m62            0.0000     8.7528E-06    33.5428  -0.1629    87.8166
 50      0.0000     0.0000E+00    0.0000E+00    1.800000E+10  0.02000  7.124E-06    0   0.5013   age213_m62            0.0000     9.1107E-06    33.3009  -0.3916    87.7422
 51      0.0000     0.0000E+00    0.0000E+00    1.000000E+06  0.05000  2.592E-02    0   0.9998   age020_m72            0.0000     9.8448E-06    41.5204   4.0000    73.7355
 52      0.0000     0.0000E+00    0.0000E+00    3.160000E+06  0.05000  4.845E-02    0   0.9577   age045_m72            0.0000     9.5480E-06    39.8254   3.8374    75.1630
 53      0.0000     0.0000E+00    0.0000E+00    5.010000E+06  0.05000  3.072E-02    0   0.9147   age055_m72            0.0000     9.9376E-06    41.5987   3.3577    78.0179
 54      0.4502     4.2858E-03    7.0097E-03    6.610000E+06  0.05000  1.455E-02    0   0.8877   age061_m72            0.0000     1.2757E-05    48.7017   2.6356    80.6513
 55      1.6916     2.5824E-02    4.0557E-02    1.000000E+07  0.05000  9.074E-03    0   0.8524   age070_m72            0.0000     1.0226E-05    42.3684   3.5181    78.0872
 56      0.3370     1.0984E-02    1.5992E-02    2.512000E+07  0.05000  4.250E-03    0   0.7902   age090_m72            0.0000     9.5644E-06    40.2023   3.2239    79.6646
 57      0.0000     0.0000E+00    0.0000E+00    4.000000E+07  0.05000  3.087E-03    0   0.7618   age104_m72            0.0000     9.4379E-06    39.5794   2.9955    80.9975
 58      0.0067     5.4372E-04    7.1085E-04    1.015200E+08  0.05000  1.700E-03    0   0.7096   age116_m72            0.0000     8.3150E-06    35.6070   2.7274    84.0587
 59      3.6578     6.8623E-01    8.3863E-01    2.861200E+08  0.05000  7.384E-04    0   0.6633   age125_m72            0.0000     7.1866E-06    31.1525   2.1545    90.0581
 60     71.4907     2.5932E+01    3.0444E+01    5.088000E+08  0.05000  3.819E-04    0   0.6372   age130_m72            0.0000     7.1703E-06    31.4602   1.6548    91.9028
 61      0.0000     0.0000E+00    0.0000E+00    9.047900E+08  0.05000  1.676E-04    0   0.6110   age135_m72            0.0000     7.8878E-06    33.1381   0.9714    89.8540
 62      0.0000     0.0000E+00    0.0000E+00    1.434000E+09  0.05000  8.837E-05    0   0.5874   age139_m72            0.0000     8.2373E-06    34.1268   0.5164    89.2318
 63      0.0000     0.0000E+00    0.0000E+00    2.500000E+09  0.05000  4.233E-05    0   0.5598   age150_m72            0.0000     8.4883E-06    33.8829   0.1973    88.4908
 64      0.0000     0.0000E+00    0.0000E+00    6.250000E+09  0.05000  1.435E-05    0   0.5249   age166_m72            0.0000     8.8677E-06    33.6505  -0.2699    87.7958
 65      2.3438     4.9852E+01    4.6255E+01    1.300000E+10  0.05000  6.513E-06    0   0.5036   age193_m72            0.0000     9.3907E-06    33.3460  -0.5671    89.1643
 66      0.5689     1.7409E+01    1.5862E+01    1.800000E+10  0.05000  4.527E-06    0   0.4945   age213_m72            0.0000     9.7343E-06    33.1201  -0.7460    89.5481


## Synthesis Results - Average & Chains ##

# j      x_j: min, <> & last-chain-values for 1 ...  7 chains
  1      0.0000     36.3953     35.1409     29.2907     33.7897     25.5155     39.3298     25.6552     32.4965
  2      0.0000      0.2419      0.0356      2.7708      0.0000      1.3230      0.5219      0.4713      0.0000
  3      0.0000      0.4029      0.5952      0.1792      0.0000      0.0000      0.0000      0.0517      0.0000
  4      0.0000      0.2688      0.0000      0.5942      0.6988      0.2718      0.1511      1.0762      0.1667
  5      0.0000      0.2842      0.8957      1.2062      0.1565      2.8483      0.0000      0.0000      0.8092
  6      0.0000      0.3406      0.0568      0.6017      0.0547      1.5186      0.0000      0.4585      0.3569
  7      0.0000      0.2551      0.0000      0.7925      0.0474      0.7363      0.4654      0.4800      0.0000
  8      0.2798      0.2841      0.0000      0.0569      0.7770      0.5317      0.1712      0.6297      0.0364
  9      0.0000      0.2730      0.4112      0.2236      0.2376      0.1827      0.2339      0.1436      0.8607
 10      0.3523      0.3168      0.4499      0.0000      0.8297      0.2962      0.2221      0.5672      0.2847
 11      0.0000      0.2842      0.0776      0.5806      0.7026      0.7827      1.5304      0.2958      1.2240
 12      1.1777      0.3157      0.5192      0.4898      0.2412      0.2149      0.0309      0.8804      0.3352
 13      0.0000      0.2500      0.4550      0.7835      0.1288      0.7227      0.5505      0.0000      0.5588
 14      0.0000      0.2198      0.0000      1.0194      0.0000      1.5500      0.3026      1.4789      0.0142
 15      0.0000      0.2821      0.4747      2.5304      0.3702      0.8719      0.0543      1.9217      0.1968
 16      0.0000      0.2284      0.1046      0.2917      0.8236      1.3595      0.0329      0.2240      0.1280
 17      0.0000      0.2275      0.8010      0.8922      0.2098      0.5869      0.1966      0.0000      0.0481
 18      0.0000     24.9616     23.6781     17.6144     25.2530     18.8817     24.7792     20.6846     25.3558
 19      0.0000      0.2616      0.2897      0.1912      0.8532      0.0000      0.0544      0.5366      0.1676
 20      0.0000      0.2760      0.2470      0.3409      0.0000      0.0000      0.1571      1.2809      0.3608
 21      0.6699      0.3351      0.2131      1.0153      0.0000      0.1780      0.2494      0.6536      0.0501
 22      0.5829      0.3470      0.7082      1.3498      0.0875      0.0000      0.0282      0.6683      0.5935
 23      0.0000      0.3478      1.5829      0.0971      0.2131      0.0000      0.3329      0.5994      0.1978
 24      0.0000      0.2802      0.2854      0.0290      0.2450      0.0510      0.0659      0.5373      0.0660
 25      0.0000      0.1981      0.0000      0.1712      0.1760      0.8709      0.0000      0.5221      0.4622
 26      0.0000      0.1906      0.1287      0.5122      0.2454      0.3459      0.4565      0.0000      0.4137
 27      0.0000      0.3231      0.6920      0.1098      0.3715      1.6516      0.7485      0.0000      0.0000
 28      0.0000      0.1792      0.0000      0.8316      0.0909      1.4475      0.1267      0.9398      0.3746
 29      0.5271      0.2069      0.0000      1.7155      0.0000      0.0226      0.2148      0.4969      0.0000
 30      0.0000      0.2021      0.0355      0.0000      0.0000      0.3047      0.2045      0.8141      0.3438
 31      0.0000      0.3464      0.0000      1.8876      0.4362      0.8719      0.5195      0.1221      0.5943
 32      0.0000      0.2334      0.1442      1.6226      0.4183      0.0000      0.0000      0.0475      0.6166
 33      0.0721      0.3122      0.7053      0.0000      0.4126      0.1019      0.6164      0.9969      0.0000
 34      0.0000      0.1987      0.3928      0.1318      0.0295      1.3371      0.0000      0.6040      0.0198
 35      0.0000      0.3382      0.2215      1.3620      0.0000      0.6147      0.0775      0.7165      0.9349
 36      0.0000      0.2226      0.3289      0.0064      0.1894      0.6697      0.0000      0.1344      0.4664
 37      0.0000      0.3024      0.1359      0.0000      0.0000      0.1599      0.0000      0.0000      0.7080
 38      0.0000      0.3342      0.8346      0.4866      0.0596      0.7791      0.2606      0.0000      0.4368
 39      0.0000      0.2519      0.0000      0.6190      0.2419      0.3501      0.1642      0.0000      0.0000
 40      0.0000      0.1836      0.0940      0.0000      0.0000      1.0496      0.2297      0.0000      0.3612
 41      0.0000      0.2848      0.5484      0.9465      0.0000      0.0000      0.0967      0.0000      0.0786
 42      0.0000      0.2183      0.2207      0.0000      0.1556      2.0807      0.3256      0.8980      0.0485
 43      0.0000      0.3172      0.0000      0.5258      0.5398      1.2330      0.0300      2.7397      1.3120
 44      0.0000      0.2869      0.2362      0.5561      0.3377      1.2570      0.0000      0.4045      0.0000
 45      0.0000      0.2407      0.1880      0.5739      0.7090      2.2734      0.3938      1.2473      0.3064
 46      4.2209      0.2724      0.0000      0.8591      0.4874      0.7036      0.0721      0.8504      1.3555
 47      0.0000      0.2267      0.1910      0.0000      0.7976      0.3973      0.0843      0.0000      0.0000
 48      0.0000      0.2236      0.4046      0.4517      0.2705      0.0414      0.0968      0.6306      0.9517
 49      0.0000      0.1888      0.1578      0.6188      0.0000      0.0198      0.0006      2.6487      0.0000
 50      0.0000      0.3354      0.7143      0.6536      0.7499      0.1887      0.5745      2.6622      1.5510
 51      0.0000      0.2480      0.0000      0.0000      0.0739      0.7109      0.0000      0.0000      0.4040
 52      0.0000      0.3400      0.7643      0.0000      0.3505      0.7134      0.2287      0.4053      0.3248
 53      0.0000      0.3007      0.2469      0.0000      1.1797      0.0000      0.0000      0.0701      0.0000
 54      0.4502      0.2516      0.1743      0.4000      0.6448      0.3753      0.0000      0.8395      0.1426
 55      1.6916      0.2532      0.0180      0.3548      0.0836      1.5531      0.0818      1.1939      0.7572
 56      0.3370      0.2816      0.1429      2.1096      0.6987      0.6137      0.5890      0.5929      0.0000
 57      0.0000      0.2924      0.1331      0.3452      0.4528      0.5535      0.3460      0.2513      0.2267
 58      0.0067      0.2194      0.1645      0.0000      0.5801      1.6210      0.0000      0.4579      0.3166
 59      3.6578      0.2608      0.9869      0.0000      0.2558      0.2990      0.2424      0.5703      0.0000
 60     71.4907      0.3210      0.6380      0.0000      0.0277      0.9035      0.5283      1.3390      0.1164
 61      0.0000      0.2106      0.0000      0.0000      0.1499      0.0367      0.0410      1.1943      0.0554
 62      0.0000      0.2909      0.3494      0.0000      0.8134      0.0000      0.1536      0.3858      0.7103
 63      0.0000      0.2385      0.0000      1.5136      0.2083      0.7140      0.2182      0.0000      0.1951
 64      0.0000      0.3079      1.6947      0.0000      0.1031      0.9603      0.1538      2.1749      0.7981
 65      2.3438     17.4227     16.7504     15.4938     16.7794     13.8474     17.7613     13.0390     16.0360
 66      0.5689     19.1432     19.1969     16.4137     19.8173     15.0091     19.4746     14.8585     19.0787

# j      m_j: min, <> & last-chain-values for 1 ...  7 chains
  1  0.0000E+00  9.3583E-02  8.8804E-02  8.2335E-02  8.5438E-02  7.8645E-02  9.9645E-02  7.4150E-02  8.4084E-02
  2  0.0000E+00  1.6978E-04  2.4573E-05  2.1262E-03  0.0000E+00  1.1132E-03  3.6096E-04  3.7185E-04  0.0000E+00
  3  0.0000E+00  4.2348E-04  6.1493E-04  2.0597E-04  0.0000E+00  0.0000E+00  0.0000E+00  6.1072E-05  0.0000E+00
  4  0.0000E+00  2.6606E-04  0.0000E+00  6.4303E-04  6.8026E-04  3.2252E-04  1.4734E-04  1.1975E-03  1.6611E-04
  5  0.0000E+00  5.3595E-04  1.6600E-03  2.4865E-03  2.9025E-04  6.4382E-03  0.0000E+00  0.0000E+00  1.5355E-03
  6  0.0000E+00  1.0418E-03  1.7070E-04  2.0117E-03  1.6440E-04  5.5677E-03  0.0000E+00  1.5763E-03  1.0985E-03
  7  0.0000E+00  1.1169E-03  0.0000E+00  3.7936E-03  2.0431E-04  3.8651E-03  2.0080E-03  2.3627E-03  0.0000E+00
  8  1.5366E-02  1.7196E-03  0.0000E+00  3.7633E-04  4.6242E-03  3.8572E-03  1.0210E-03  4.2837E-03  2.2174E-04
  9  0.0000E+00  1.8913E-03  2.7996E-03  1.6932E-03  1.6183E-03  1.5167E-03  1.5966E-03  1.1185E-03  5.9994E-03
 10  2.9086E-02  2.8830E-03  4.0235E-03  0.0000E+00  7.4242E-03  3.2303E-03  1.9913E-03  5.8008E-03  2.6064E-03
 11  0.0000E+00  4.8622E-03  1.3055E-03  1.0859E-02  1.1822E-02  1.6053E-02  2.5800E-02  5.6885E-03  2.1073E-02
 12  2.9001E-01  8.5682E-03  1.3848E-02  1.4532E-02  6.4388E-03  6.9926E-03  8.2577E-04  2.6857E-02  9.1547E-03
 13  0.0000E+00  1.9124E-02  3.4207E-02  6.5526E-02  9.6892E-03  6.6273E-02  4.1497E-02  0.0000E+00  4.3017E-02
 14  0.0000E+00  5.6387E-02  0.0000E+00  2.8594E-01  0.0000E+00  4.7674E-01  7.6515E-02  4.2654E-01  3.6564E-03
 15  0.0000E+00  1.1784E-01  1.9486E-01  1.1555E+00  1.5206E-01  4.3657E-01  2.2330E-02  9.0225E-01  8.2711E-02
 16  0.0000E+00  1.6133E-01  7.2579E-02  2.2525E-01  5.7204E-01  1.1509E+00  2.2893E-02  1.7781E-01  9.0986E-02
 17  0.0000E+00  2.0847E-01  7.2122E-01  8.9361E-01  1.8906E-01  6.4454E-01  1.7748E-01  0.0000E+00  4.4356E-02
 18  0.0000E+00  5.6718E-02  5.2877E-02  4.3754E-02  5.6426E-02  5.1428E-02  5.5478E-02  5.2830E-02  5.7976E-02
 19  0.0000E+00  2.3855E-04  2.5965E-04  1.9060E-04  7.6513E-04  0.0000E+00  4.8923E-05  5.5006E-04  1.5384E-04
 20  0.0000E+00  2.7475E-04  2.4171E-04  3.7101E-04  0.0000E+00  0.0000E+00  1.5408E-04  1.4335E-03  3.6149E-04
 21  7.3462E-03  4.0495E-04  2.5306E-04  1.3414E-03  0.0000E+00  2.5786E-04  2.9698E-04  8.8795E-04  6.0931E-05
 22  1.0808E-02  7.0924E-04  1.4224E-03  3.0156E-03  1.7583E-04  0.0000E+00  5.6737E-05  1.5353E-03  1.2206E-03
 23  0.0000E+00  9.5982E-04  4.2932E-03  2.9293E-04  5.7839E-04  0.0000E+00  9.0517E-04  1.8595E-03  5.4941E-04
 24  0.0000E+00  1.1505E-03  1.1518E-03  1.2997E-04  9.8907E-04  2.5121E-04  2.6665E-04  2.4797E-03  2.7278E-04
 25  0.0000E+00  1.1217E-03  0.0000E+00  1.0596E-03  9.7997E-04  5.9100E-03  0.0000E+00  3.3226E-03  2.6330E-03
 26  0.0000E+00  1.8037E-03  1.1974E-03  5.2984E-03  2.2834E-03  3.9236E-03  4.2562E-03  0.0000E+00  3.9393E-03
 27  0.0000E+00  6.1205E-03  1.2883E-02  2.2726E-03  6.9203E-03  3.7500E-02  1.3969E-02  0.0000E+00  0.0000E+00
 28  0.0000E+00  9.8484E-03  0.0000E+00  4.9971E-02  4.9117E-03  9.5381E-02  6.8630E-03  5.8067E-02  2.0719E-02
 29  4.5807E-01  1.9816E-02  0.0000E+00  1.7963E-01  0.0000E+00  2.5953E-03  2.0274E-02  5.3492E-02  0.0000E+00
 30  1.5743E-05  4.0444E-02  6.9739E-03  0.0000E+00  0.0000E+00  7.3098E-02  4.0317E-02  1.8311E-01  6.9238E-02
 31  0.0000E+00  1.2195E-01  0.0000E+00  7.2637E-01  1.5101E-01  3.6790E-01  1.8020E-01  4.8300E-02  2.1053E-01
 32  0.0000E+00  1.1053E-01  6.7118E-02  8.4017E-01  1.9481E-01  0.0000E+00  0.0000E+00  2.5282E-02  2.9389E-01
 33  6.8613E-01  3.2730E-01  7.2678E-01  0.0000E+00  4.2547E-01  1.2802E-01  6.3679E-01  1.1750E+00  0.0000E+00
 34  0.0000E+00  2.8212E-01  5.4817E-01  2.0463E-01  4.1234E-02  2.2758E+00  0.0000E+00  9.6398E-01  2.8295E-02
 35  0.0000E+00  6.1610E-04  3.9664E-04  2.7127E-03  0.0000E+00  1.3424E-03  1.3904E-04  1.4673E-03  1.7140E-03
 36  0.0000E+00  1.6407E-04  2.3824E-04  5.1580E-06  1.3728E-04  5.9177E-04  0.0000E+00  1.1139E-04  3.4598E-04
 37  0.0000E+00  2.4109E-04  1.0646E-04  0.0000E+00  0.0000E+00  1.5281E-04  0.0000E+00  0.0000E+00  5.6803E-04
 38  0.0000E+00  7.2192E-04  1.7718E-03  1.1490E-03  1.2664E-04  2.0173E-03  5.5453E-04  0.0000E+00  9.4948E-04
 39  0.0000E+00  7.8354E-04  0.0000E+00  2.1046E-03  7.3990E-04  1.3050E-03  5.0311E-04  0.0000E+00  0.0000E+00
 40  0.0000E+00  9.2284E-04  4.6459E-04  0.0000E+00  0.0000E+00  6.3248E-03  1.1377E-03  0.0000E+00  1.8274E-03
 41  0.0000E+00  2.2261E-03  4.2133E-03  8.0884E-03  0.0000E+00  0.0000E+00  7.4499E-04  0.0000E+00  6.1832E-04
 42  0.0000E+00  3.1335E-03  3.1131E-03  0.0000E+00  2.1968E-03  3.5799E-02  4.6050E-03  1.4487E-02  7.0080E-04
 43  0.0000E+00  6.6460E-03  0.0000E+00  1.2044E-02  1.1123E-02  3.0972E-02  6.1999E-04  6.4532E-02  2.7666E-02
 44  0.0000E+00  1.0353E-02  8.3756E-03  2.1932E-02  1.1980E-02  5.4365E-02  0.0000E+00  1.6406E-02  0.0000E+00
 45  0.0000E+00  1.7232E-02  1.3228E-02  4.4916E-02  4.9911E-02  1.9509E-01  2.7779E-02  1.0036E-01  2.2074E-02
 46  5.0393E+00  3.5849E-02  0.0000E+00  1.2358E-01  6.3071E-02  1.1099E-01  9.3533E-03  1.2578E-01  1.7948E-01
 47  0.0000E+00  6.0435E-02  5.0050E-02  0.0000E+00  2.0914E-01  1.2699E-01  2.2158E-02  0.0000E+00  0.0000E+00
 48  0.0000E+00  1.0515E-01  1.8699E-01  2.3218E-01  1.2506E-01  2.3358E-02  4.4846E-02  3.3332E-01  4.5032E-01
 49  0.0000E+00  2.0172E-01  1.6570E-01  7.2291E-01  0.0000E+00  2.5363E-02  6.1759E-04  3.1819E+00  0.0000E+00
 50  0.0000E+00  6.6387E-01  1.3896E+00  1.4144E+00  1.4597E+00  4.4767E-01  1.1204E+00  5.9232E+00  3.0893E+00
 51  0.0000E+00  2.6904E-04  0.0000E+00  0.0000E+00  7.8878E-05  9.2460E-04  0.0000E+00  0.0000E+00  4.4109E-04
 52  0.0000E+00  1.8908E-04  4.1770E-04  0.0000E+00  1.9165E-04  4.7549E-04  1.2532E-04  2.5329E-04  1.8175E-04
 53  0.0000E+00  2.5190E-04  2.0325E-04  0.0000E+00  9.7163E-04  0.0000E+00  0.0000E+00  6.6015E-05  0.0000E+00
 54  7.0097E-03  4.3185E-04  2.9397E-04  7.5054E-04  1.0883E-03  7.7204E-04  0.0000E+00  1.6195E-03  2.4620E-04
 55  4.0557E-02  6.6901E-04  4.6821E-05  1.0250E-03  2.1721E-04  4.9197E-03  2.1292E-04  3.5462E-03  2.0134E-03
 56  1.5992E-02  1.4726E-03  7.3432E-04  1.2062E-02  3.5936E-03  3.8477E-03  3.0356E-03  3.4858E-03  0.0000E+00
 57  0.0000E+00  2.0300E-03  9.0793E-04  2.6193E-03  3.0909E-03  4.6056E-03  2.3663E-03  1.9606E-03  1.5836E-03
 58  7.1085E-04  2.5757E-03  1.8981E-03  0.0000E+00  6.6984E-03  2.2815E-02  0.0000E+00  6.0437E-03  3.7413E-03
 59  8.3863E-01  6.5899E-03  2.4508E-02  0.0000E+00  6.3566E-03  9.0566E-03  6.0341E-03  1.6198E-02  0.0000E+00
 60  3.0444E+01  1.5064E-02  2.9427E-02  0.0000E+00  1.2790E-03  5.0835E-02  2.4431E-02  7.0642E-02  5.4990E-03
 61  0.0000E+00  2.1602E-02  0.0000E+00  0.0000E+00  1.5118E-02  4.5134E-03  4.1408E-03  1.3767E-01  5.7221E-03
 62  0.0000E+00  5.4386E-02  6.4202E-02  0.0000E+00  1.4955E-01  0.0000E+00  2.8293E-02  8.1076E-02  1.3364E-01
 63  0.0000E+00  8.8712E-02  0.0000E+00  6.1554E-01  7.6192E-02  3.1838E-01  7.9964E-02  0.0000E+00  7.3048E-02
 64  0.0000E+00  3.1686E-01  1.7138E+00  0.0000E+00  1.0432E-01  1.1845E+00  1.5597E-01  2.5155E+00  8.2639E-01
 65  4.6255E+01  3.7896E+01  3.5807E+01  3.6841E+01  3.5889E+01  3.6104E+01  3.8066E+01  3.1879E+01  3.5099E+01
 66  1.5862E+01  5.8822E+01  5.7973E+01  5.5136E+01  5.9881E+01  5.5283E+01  5.8962E+01  5.1320E+01  5.8992E+01

# AV, chi2 & Mass for <> & i_chain = 1 ...  7 solutions
AV       1.5948      0.4538      0.4809      0.4772      0.4841      0.5837      0.5178      0.4803      0.4967
chi2 7.3607E-06  1.7268E-05  1.6921E-05  1.6124E-05  1.6878E-05  1.6383E-05  1.7112E-05  1.5755E-05  1.6928E-05
Mass 3.0362E-13  5.9498E-13  6.2785E-13  5.6163E-13  6.3025E-13  5.9100E-13  6.5810E-13  5.4852E-13  6.2634E-13
   0.00                                  [v0_min (km/s) before EX0s...]
 150.00                                  [vd_min (km/s) before EX0s...]


## Synthetic spectrum (Best Model) ##l_obs f_obs f_syn wei
 3478    [Nl_obs]
 3741.00    0.81653   0.41615    0.000
 3742.00    0.69660   0.41577    0.000
 3743.00    0.41100   0.40538    0.000
 3744.00    0.36886   0.38830    0.000
 3745.00    0.46855   0.36609   -1.000
 3746.00    0.87393   0.34047   -1.000
 3747.00    1.43453   0.31456   -1.000
 3748.00    1.38328   0.29210   -1.000
 3749.00    1.06298   0.27911   -1.000
 3750.00    1.03399   0.28178   -1.000
 3751.00    1.11497   0.30133   -1.000
 3752.00    1.05836   0.33320   -1.000
 3753.00    0.95766   0.36960   -1.000
 3754.00    0.90150   0.40251   -1.000
 3755.00    0.85727   0.42565   -1.000
 3756.00    1.26514   0.43611   -1.000
 3757.00    1.77224   0.43555   -1.000
 3758.00    1.46769   0.43056   -1.000
 3759.00    1.02146   0.42797   -1.000
 3760.00    0.86739   0.42974   -1.000
 3761.00    0.75212   0.43396   -1.000
 3762.00    0.81307   0.43778   -1.000
 3763.00    0.89059   0.43756   -1.000
 3764.00    0.66310   0.43109   -1.000
 3765.00    0.41801   0.41838   -1.000
 3766.00    0.35160   0.39926   -1.000
 3767.00    0.29155   0.37591   -1.000
 3768.00    0.48789   0.35321   -1.000
 3769.00    0.68838   0.33527   -1.000
 3770.00    0.98985   0.32622   -1.000
 3771.00    1.29660   0.33024   -1.000
 3772.00    1.67253   0.34699   -1.000
 3773.00    1.98961   0.37136   -1.000
 3774.00    1.79007   0.39850   -1.000
 3775.00    1.56995   0.42606   -1.000
 3776.00    1.21635   0.45337   -1.000
 3777.00    0.90664   0.48026   -1.000
 3778.00    0.81911   0.50561   -1.000
 3779.00    0.68370   0.52822   -1.000
 3780.00    0.35233   0.54690   -1.000
 3781.00    0.12802   0.56005   -1.000
 3782.00    0.26679   0.56683   -1.000
 3783.00    0.33136   0.56740    0.169
 3784.00    0.18367   0.56151    0.035
 3785.00    0.06483   0.54817    0.022
 3786.00    0.01647   0.52925    0.022
 3787.00   -0.00719   0.51025    0.000
 3788.00    0.02119   0.49459    0.022
 3789.00    0.00942   0.48234    0.021
 3790.00   -0.07588   0.47193    0.000
 3791.00   -0.06413   0.45994    0.000
 3792.00    0.10301   0.44250    0.021
 3793.00    0.38683   0.41798    0.021
 3794.00    0.83457   0.38798    0.021
 3795.00    0.98353   0.35656    0.021
 3796.00    0.76321   0.32881    0.020
 3797.00    0.36637   0.31006    0.020
 3798.00   -0.22278   0.30600    0.000
 3799.00   -0.44692   0.32003    0.000
 3800.00   -0.32029   0.34957    0.000
 3801.00   -0.42630   0.38756    0.000
 3802.00   -0.72944   0.42663    0.000
 3803.00   -0.63255   0.46085    0.000
 3804.00   -0.23715   0.48661    0.000
 3805.00   -0.03549   0.50448    0.000
 3806.00    0.03916   0.51833    0.020
 3807.00    0.13310   0.53300    0.020
 3808.00    0.23811   0.55115    0.020
 3809.00    0.46049   0.56985    0.020
 3810.00    0.74154   0.58328    0.020
 3811.00    0.60059   0.58702    0.020
 3812.00    0.27717   0.58019    0.020
 3813.00    0.49819   0.56724    0.020
 3814.00    0.92113   0.55622    0.020
 3815.00    0.78928   0.55216    0.020
 3816.00    0.48303   0.55485    0.020
 3817.00    0.17485   0.56052    0.020
 3818.00   -0.13384   0.56374    0.000
 3819.00   -0.03042   0.56154    0.000
 3820.00    0.16130   0.55551    0.019
 3821.00    0.26426   0.54888    0.019
 3822.00    0.35215   0.54184    0.019
 3823.00    0.42615   0.53080    0.019
 3824.00    0.49836   0.51422    0.019
 3825.00    0.43402   0.49528    0.019
 3826.00    0.35742   0.47689    0.019
 3827.00    0.51390   0.45957    0.019
 3828.00    0.68290   0.44270    0.020
 3829.00    0.76251   0.42443    0.020
 3830.00    0.83452   0.40249    0.020
 3831.00    0.41609   0.37561    0.020
 3832.00    0.02994   0.34516    0.020
 3833.00    0.36092   0.31619    0.020
 3834.00    0.68475   0.29429    0.020
 3835.00    0.91951   0.28369    0.020
 3836.00    1.07078   0.28668    0.020
 3837.00    0.51644   0.30177    0.020
 3838.00    0.06386   0.32520    0.020
 3839.00    0.25135   0.35417    0.020
 3840.00    0.38229   0.38661    0.020
 3841.00    0.23415   0.42092    0.020
 3842.00    0.15790   0.45504    0.020
 3843.00    0.36936   0.48586    0.020
 3844.00    0.52852   0.51184    0.020
 3845.00    0.51378   0.53300    0.020
 3846.00    0.47095   0.55013    0.020
 3847.00    0.34925   0.56452    0.000
 3848.00    0.40000   0.57645    0.000
 3849.00    0.86493   0.58624    0.000
 3850.00    1.00167   0.59637    0.000
 3851.00    0.45778   0.60839    0.000
 3852.00    0.22161   0.61944    0.000
 3853.00    0.54046   0.62628    0.000
 3854.00    0.73697   0.62866    0.000
 3855.00    0.74053   0.62734    0.000
 3856.00    0.63388   0.62458    0.000
 3857.00    0.37468   0.62357    0.000
 3858.00    0.27153   0.62447    0.000
 3859.00    0.35851   0.62757    0.000
 3860.00    0.39531   0.63503    0.000
 3861.00    0.37818   0.64582    0.000
 3862.00    0.46908   0.65584    0.000
 3863.00    0.66231   0.66283    0.000
 3864.00    0.78481   0.66678    0.000
 3865.00    0.84823   0.66844    0.000
 3866.00    1.00414   0.66932    0.000
 3867.00    1.22807   0.67029    0.000
 3868.00    1.25288   0.66949    0.000
 3869.00    1.14906   0.66366    0.000
 3870.00    1.04993   0.65146    0.000
 3871.00    0.95344   0.63496    0.000
 3872.00    0.77974   0.61902    0.000
 3873.00    0.56807   0.60912    0.000
 3874.00    0.50068   0.60577    0.000
 3875.00    0.49464   0.60337    0.000
 3876.00    0.60528   0.59633    0.000
 3877.00    0.75841   0.58304    0.000
 3878.00    0.85502   0.56639    0.000
 3879.00    0.93420   0.55180    0.000
 3880.00    0.91317   0.53990    0.000
 3881.00    0.86642   0.52597    0.019
 3882.00    0.61129   0.50707    0.018
 3883.00    0.31259   0.48299    0.018
 3884.00    0.16089   0.45333    0.018
 3885.00    0.03343   0.41859    0.018
 3886.00    0.06051   0.38283    0.018
 3887.00    0.10674   0.35253    0.018
 3888.00    0.30348   0.33332    0.018
 3889.00    0.51311   0.32969    0.018
 3890.00    0.32276   0.34324    0.018
 3891.00    0.11249   0.36982    0.018
 3892.00    0.05704   0.40197    0.018
 3893.00    0.00492   0.43345    0.018
 3894.00    0.00367   0.46111    0.018
 3895.00    0.00591   0.48457    0.018
 3896.00    0.07934   0.50504    0.018
 3897.00    0.16173   0.52350    0.018
 3898.00    0.34998   0.54014    0.017
 3899.00    0.52510   0.55594    0.017
 3900.00    0.59319   0.57230    0.016
 3901.00    0.65844   0.58844    0.016
 3902.00    0.70634   0.60059    0.016
 3903.00    0.73864   0.60744    0.015
 3904.00    0.69589   0.61199    0.015
 3905.00    0.67412   0.61707    0.015
 3906.00    0.73450   0.62618    0.015
 3907.00    0.71598   0.64269    0.015
 3908.00    0.44032   0.66449    0.016
 3909.00    0.27601   0.68581    0.016
 3910.00    0.41875   0.70207    0.016
 3911.00    0.56455   0.71087    0.017
 3912.00    0.71758   0.71175    0.017
 3913.00    0.83035   0.70643    0.018
 3914.00    0.86094   0.69879    0.018
 3915.00    0.74758   0.69162    0.019
 3916.00    0.37856   0.68487    0.019
 3917.00    0.35991   0.67899    0.019
 3918.00    0.88568   0.67476    0.019
 3919.00    1.24860   0.67250    0.019
 3920.00    1.38932   0.67320    0.019
 3921.00    1.31994   0.67739    0.019
 3922.00    0.99819   0.68336    0.019
 3923.00    0.82719   0.68771    0.019
 3924.00    0.81587   0.68687    0.019
 3925.00    0.78829   0.67743    0.019
 3926.00    0.74554   0.65827    0.019
 3927.00    0.60904   0.63015    0.019
 3928.00    0.39533   0.59346    0.019
 3929.00    0.31777   0.54920    0.019
 3930.00    0.33892   0.49963    0.019
 3931.00    0.30393   0.44917    0.019
 3932.00    0.23322   0.40492    0.019
 3933.00    0.33408   0.37645    0.019
 3934.00    0.53042   0.37331    0.018
 3935.00    0.66863   0.39814    0.018
 3936.00    0.77870   0.44372    0.018
 3937.00    0.73055   0.49782    0.018
 3938.00    0.61625   0.54951    0.018
 3939.00    0.59952   0.59215    0.018
 3940.00    0.61768   0.62213    0.018
 3941.00    0.77444   0.63906    0.018
 3942.00    0.97309   0.64697    0.018
 3943.00    0.88677   0.65112    0.018
 3944.00    0.72886   0.65569    0.018
 3945.00    0.64752   0.66301    0.018
 3946.00    0.58180   0.67092    0.018
 3947.00    0.70059   0.67478    0.018
 3948.00    0.84892   0.67394    0.019
 3949.00    0.99714   0.67171    0.018
 3950.00    1.14534   0.67036    0.018
 3951.00    1.11667   0.66949    0.019
 3952.00    1.07359   0.66817    0.019
 3953.00    0.88216   0.66635    0.019
 3954.00    0.68390   0.66278    0.019
 3955.00    0.32341   0.65479    0.019
 3956.00   -0.02502   0.64287    0.000
 3957.00    0.36478   0.63063    0.019
 3958.00    0.73607   0.61896    0.019
 3959.00    0.75663   0.60451    0.019
 3960.00    0.75771   0.58340    0.000
 3961.00    0.53937   0.55487    0.000
 3962.00    0.37508   0.52152    0.000
 3963.00    0.63557   0.48508    0.000
 3964.00    0.81611   0.44483    0.000
 3965.00    0.52225   0.40007    0.000
 3966.00    0.27740   0.35262    0.000
 3967.00    0.26261   0.30752    0.000
 3968.00    0.26206   0.27252    0.000
 3969.00    0.31608   0.25525    0.000
 3970.00    0.35620   0.25955    0.000
 3971.00    0.35191   0.28378    0.000
 3972.00    0.43142   0.32193    0.000
 3973.00    0.73788   0.36687    0.000
 3974.00    0.91520   0.41338    0.000
 3975.00    0.79265   0.45836    0.000
 3976.00    0.71877   0.49990    0.000
 3977.00    0.74263   0.53746    0.000
 3978.00    0.78638   0.57091    0.000
 3979.00    0.86492   0.59910    0.000
 3980.00    0.97368   0.62066    0.000
 3981.00    1.12871   0.63548    0.020
 3982.00    1.18680   0.64615    0.020
 3983.00    1.11452   0.65685    0.020
 3984.00    1.02878   0.66980    0.019
 3985.00    0.92709   0.68449    0.019
 3986.00    0.94142   0.69920    0.019
 3987.00    1.07689   0.71296    0.019
 3988.00    1.12283   0.72532    0.018
 3989.00    1.08630   0.73567    0.018
 3990.00    0.88129   0.74482    0.018
 3991.00    0.53950   0.75395    0.018
 3992.00    0.61609   0.76204    0.018
 3993.00    0.99159   0.76650    0.018
 3994.00    1.33497   0.76552    0.018
 3995.00    1.65821   0.76034    0.018
 3996.00    1.55540   0.75467    0.018
 3997.00    1.21912   0.75279    0.018
 3998.00    1.01121   0.75802    0.018
 3999.00    0.86444   0.76994    0.017
 4000.00    0.76506   0.78315    0.018
 4001.00    0.68514   0.79151    0.018
 4002.00    0.75885   0.79287    0.018
 4003.00    0.88651   0.78808    0.018
 4004.00    0.93226   0.77926    0.018
 4005.00    0.95375   0.77165    0.018
 4006.00    0.86639   0.77243    0.018
 4007.00    0.75231   0.78316    0.018
 4008.00    1.10678   0.79846    0.018
 4009.00    1.55442   0.81249    0.018
 4010.00    1.42368   0.82248    0.018
 4011.00    1.20306   0.82785    0.019
 4012.00    1.10097   0.82956    0.019
 4013.00    1.01252   0.83006    0.019
 4014.00    1.03666   0.83110    0.019
 4015.00    1.06951   0.83341    0.019
 4016.00    1.18160   0.83702    0.019
 4017.00    1.29703   0.84163    0.019
 4018.00    1.17229   0.84768    0.019
 4019.00    1.03872   0.85395    0.019
 4020.00    0.61428   0.85653    0.021
 4021.00    0.22432   0.85332    0.023
 4022.00    0.44244   0.84624    0.023
 4023.00    0.65219   0.83868    0.023
 4024.00    0.77195   0.83372    0.023
 4025.00    0.89055   0.83383    0.023
 4026.00    1.00041   0.83781    0.021
 4027.00    1.00000   0.83939    0.019
 4028.00    0.36360   0.83292    0.019
 4029.00   -0.06040   0.81757    0.000
 4030.00    0.48896   0.79737    0.019
 4031.00    0.94507   0.78022    0.019
 4032.00    1.05132   0.77286    0.019
 4033.00    1.08083   0.77729    0.018
 4034.00    0.86974   0.79201    0.019
 4035.00    0.71258   0.81315    0.019
 4036.00    0.69889   0.83563    0.019
 4037.00    0.75009   0.85443    0.018
 4038.00    0.94946   0.86582    0.018
 4039.00    1.16183   0.86869    0.019
 4040.00    1.39991   0.86421    0.019
 4041.00    1.45502   0.85471    0.019
 4042.00    1.19496   0.84185    0.018
 4043.00    0.92765   0.82558    0.018
 4044.00    0.64941   0.80740    0.018
 4045.00    0.56056   0.79353    0.018
 4046.00    0.72277   0.79165    0.018
 4047.00    0.84605   0.80278    0.018
 4048.00    0.92388   0.81899    0.019
 4049.00    0.94126   0.83261    0.019
 4050.00    0.89642   0.84062    0.018
 4051.00    0.98663   0.84148    0.018
 4052.00    1.19948   0.83541    0.018
 4053.00    1.25677   0.82567    0.018
 4054.00    1.18956   0.81623    0.018
 4055.00    1.11188   0.81006    0.018
 4056.00    1.02682   0.80804    0.018
 4057.00    1.03515   0.80897    0.018
 4058.00    1.10117   0.81200    0.018
 4059.00    1.02188   0.81582    0.018
 4060.00    0.86417   0.81667    0.018
 4061.00    0.63563   0.81113    0.018
 4062.00    0.37389   0.79988    0.018
 4063.00    0.57633   0.78841    0.018
 4064.00    0.96631   0.78341    0.018
 4065.00    1.04648   0.78612    0.018
 4066.00    1.01983   0.79178    0.018
 4067.00    0.80572   0.79737    0.018
 4068.00    0.53718   0.80275    0.018
 4069.00    0.58301   0.80567    0.018
 4070.00    0.70434   0.80292    0.018
 4071.00    0.88150   0.79576    0.018
 4072.00    1.06947   0.78861    0.018
 4073.00    1.30611   0.78230    0.019
 4074.00    1.55008   0.77293    0.019
 4075.00    1.51902   0.75828    0.019
 4076.00    1.45755   0.74153    0.019
 4077.00    1.42040   0.73005    0.018
 4078.00    1.38503   0.73085    0.018
 4079.00    0.99969   0.74392    0.018
 4080.00    0.60096   0.76202    0.018
 4081.00    0.64671   0.77658    0.018
 4082.00    0.69822   0.78225    0.018
 4083.00    0.87364   0.77906    0.019
 4084.00    1.03395   0.77152    0.019
 4085.00    0.94529   0.76491    0.019
 4086.00    0.87382   0.76233    0.019
 4087.00    0.97929   0.76327    0.019
 4088.00    1.08000   0.76422    0.019
 4089.00    1.14572   0.76127    0.019
 4090.00    1.13602   0.75268    0.019
 4091.00    0.70326   0.73888    0.019
 4092.00    0.41681   0.72081    0.000
 4093.00    0.78509   0.69913    0.000
 4094.00    0.99744   0.67351    0.000
 4095.00    0.63711   0.64304    0.000
 4096.00    0.43524   0.60845    0.000
 4097.00    0.72070   0.57134    0.000
 4098.00    0.97179   0.53287    0.000
 4099.00    1.13307   0.49491    0.000
 4100.00    1.11807   0.46136    0.000
 4101.00    0.70720   0.43877    0.000
 4102.00    0.60198   0.43430    0.000
 4103.00    1.09154   0.45006    0.000
 4104.00    1.30985   0.48096    0.000
 4105.00    1.06788   0.51894    0.000
 4106.00    0.99443   0.55660    0.000
 4107.00    1.17150   0.58899    0.000
 4108.00    1.17967   0.61483    0.000
 4109.00    0.96715   0.63564    0.000
 4110.00    0.73115   0.65439    0.000
 4111.00    0.46813   0.67395    0.000
 4112.00    0.43487   0.69545    0.000
 4113.00    0.63483   0.71784    0.018
 4114.00    0.80670   0.73863    0.018
 4115.00    0.95341   0.75516    0.017
 4116.00    0.93583   0.76565    0.017
 4117.00    0.78862   0.76946    0.017
 4118.00    0.84404   0.76841    0.017
 4119.00    1.04007   0.76699    0.017
 4120.00    1.19583   0.76864    0.017
 4121.00    1.32709   0.77298    0.017
 4122.00    1.22800   0.77863    0.017
 4123.00    1.00654   0.78530    0.017
 4124.00    0.83525   0.79203    0.017
 4125.00    0.68710   0.79596    0.017
 4126.00    0.91438   0.79456    0.017
 4127.00    1.29075   0.78824    0.017
 4128.00    1.29243   0.77985    0.017
 4129.00    1.16731   0.77252    0.017
 4130.00    1.00098   0.76755    0.017
 4131.00    0.82293   0.76557    0.017
 4132.00    0.74578   0.76852    0.017
 4133.00    0.69233   0.77871    0.017
 4134.00    0.73724   0.79562    0.017
 4135.00    0.80072   0.81621    0.017
 4136.00    0.85224   0.83645    0.017
 4137.00    0.90202   0.85286    0.017
 4138.00    0.95260   0.86439    0.017
 4139.00    1.00327   0.86948    0.017
 4140.00    0.90705   0.86577    0.017
 4141.00    0.80067   0.85312    0.018
 4142.00    0.78651   0.83527    0.017
 4143.00    0.77553   0.81968    0.017
 4144.00    1.09878   0.81391    0.018
 4145.00    1.40604   0.81905    0.018
 4146.00    1.16269   0.82921    0.018
 4147.00    0.92428   0.83803    0.017
 4148.00    0.76216   0.84215    0.017
 4149.00    0.63555   0.84127    0.018
 4150.00    0.85897   0.83782    0.018
 4151.00    1.05229   0.83383    0.018
 4152.00    1.03192   0.82931    0.018
 4153.00    1.00546   0.82405    0.018
 4154.00    0.94575   0.81909    0.018
 4155.00    0.88069   0.81683    0.018
 4156.00    0.79225   0.81881    0.018
 4157.00    0.72518   0.82513    0.018
 4158.00    0.73497   0.83483    0.017
 4159.00    0.74391   0.84538    0.017
 4160.00    0.75029   0.85466    0.017
 4161.00    0.80979   0.86242    0.018
 4162.00    1.00571   0.86963    0.018
 4163.00    1.18210   0.87577    0.018
 4164.00    1.31539   0.87917    0.018
 4165.00    1.30938   0.87954    0.018
 4166.00    1.03656   0.87702    0.018
 4167.00    0.90468   0.87238    0.018
 4168.00    1.00834   0.86640    0.018
 4169.00    0.99765   0.85751    0.018
 4170.00    0.81945   0.84309    0.018
 4171.00    0.72937   0.82398    0.017
 4172.00    0.75279   0.80553    0.018
 4173.00    0.70584   0.79387    0.018
 4174.00    0.57904   0.79108    0.018
 4175.00    0.69944   0.79404    0.017
 4176.00    1.06726   0.79809    0.018
 4177.00    1.36174   0.80126    0.018
 4178.00    1.59147   0.80520    0.017
 4179.00    1.45725   0.81217    0.017
 4180.00    1.03995   0.82155    0.017
 4181.00    0.89055   0.83011    0.017
 4182.00    0.92436   0.83627    0.017
 4183.00    0.86287   0.84090    0.017
 4184.00    0.74424   0.84441    0.017
 4185.00    0.84694   0.84639    0.017
 4186.00    1.06539   0.84611    0.017
 4187.00    1.30306   0.84505    0.017
 4188.00    1.54946   0.84772    0.017
 4189.00    1.30874   0.85565    0.017
 4190.00    0.87794   0.86576    0.017
 4191.00    0.75690   0.87514    0.017
 4192.00    0.73875   0.88276    0.017
 4193.00    0.68170   0.88638    0.017
 4194.00    0.61382   0.88222    0.017
 4195.00    0.75394   0.86963    0.017
 4196.00    0.94178   0.85272    0.017
 4197.00    0.89988   0.83641    0.017
 4198.00    0.81576   0.82392    0.017
 4199.00    0.64948   0.81803    0.016
 4200.00    0.47159   0.81857    0.016
 4201.00    0.76651   0.82184    0.016
 4202.00    1.10964   0.82637    0.016
 4203.00    0.98168   0.83345    0.016
 4204.00    0.82303   0.84288    0.016
 4205.00    0.93099   0.85386    0.016
 4206.00    1.04708   0.86579    0.016
 4207.00    1.12503   0.87672    0.016
 4208.00    1.19885   0.88481    0.016
 4209.00    1.15163   0.88997    0.016
 4210.00    1.09974   0.89349    0.016
 4211.00    0.97973   0.89608    0.016
 4212.00    0.84931   0.89619    0.016
 4213.00    0.62043   0.89188    0.016
 4214.00    0.43435   0.88389    0.016
 4215.00    0.54246   0.87649    0.016
 4216.00    0.66164   0.87583    0.016
 4217.00    0.83972   0.88390    0.016
 4218.00    0.98177   0.89598    0.016
 4219.00    0.96996   0.90578    0.016
 4220.00    0.99104   0.90928    0.016
 4221.00    1.12807   0.90402    0.016
 4222.00    1.22557   0.88843    0.016
 4223.00    1.20605   0.86405    0.016
 4224.00    1.11672   0.83562    0.016
 4225.00    0.85126   0.81037    0.016
 4226.00    0.70995   0.79682    0.016
 4227.00    0.83838   0.80129    0.016
 4228.00    0.98908   0.82310    0.016
 4229.00    1.18177   0.85219    0.016
 4230.00    1.30090   0.87600    0.016
 4231.00    1.29895   0.88740    0.016
 4232.00    1.27030   0.88561    0.016
 4233.00    1.20313   0.87610    0.015
 4234.00    1.21263   0.86693    0.016
 4235.00    1.31946   0.86169    0.016
 4236.00    1.36446   0.86050    0.016
 4237.00    1.34027   0.86342    0.016
 4238.00    1.33201   0.86928    0.016
 4239.00    1.33948   0.87741    0.016
 4240.00    1.40550   0.88830    0.016
 4241.00    1.52247   0.90063    0.016
 4242.00    1.43249   0.91125    0.016
 4243.00    1.18385   0.91823    0.016
 4244.00    0.99964   0.92027    0.016
 4245.00    0.85885   0.91571    0.016
 4246.00    0.82119   0.90523    0.016
 4247.00    0.84442   0.89257    0.017
 4248.00    1.05142   0.88154    0.017
 4249.00    1.35304   0.87332    0.017
 4250.00    1.46972   0.86805    0.017
 4251.00    1.50388   0.86743    0.018
 4252.00    1.29414   0.87144    0.017
 4253.00    0.99088   0.87705    0.017
 4254.00    0.99936   0.88261    0.017
 4255.00    1.10943   0.88845    0.017
 4256.00    0.85926   0.89319    0.016
 4257.00    0.51075   0.89345    0.016
 4258.00    0.50259   0.88806    0.016
 4259.00    0.57069   0.88073    0.016
 4260.00    0.66646   0.87739    0.017
 4261.00    0.76718   0.88307    0.017
 4262.00    0.99706   0.89852    0.017
 4263.00    1.24461   0.91876    0.017
 4264.00    0.92407   0.93680    0.017
 4265.00    0.54804   0.94742    0.017
 4266.00    0.83574   0.94756    0.017
 4267.00    1.16404   0.93658    0.017
 4268.00    0.94238   0.91674    0.016
 4269.00    0.70857   0.89196    0.016
 4270.00    0.99929   0.86648    0.016
 4271.00    1.26186   0.84517    0.016
 4272.00    0.78035   0.83365    0.016
 4273.00    0.34743   0.83428    0.016
 4274.00    0.58240   0.84450    0.016
 4275.00    0.81295   0.86141    0.016
 4276.00    1.00338   0.88207    0.017
 4277.00    1.20306   0.90126    0.017
 4278.00    1.46435   0.91424    0.017
 4279.00    1.62051   0.91930    0.017
 4280.00    1.23240   0.91761    0.017
 4281.00    0.88952   0.91225    0.016
 4282.00    0.73542   0.90596   -2.000
 4283.00    0.53974   0.90029   -2.000
 4284.00    0.20056   0.89511   -2.000
 4285.00   -0.03300   0.88836   -2.000
 4286.00    0.04044   0.87838   -2.000
 4287.00    0.27895   0.86493   -2.000
 4288.00    0.92687   0.84966   -2.000
 4289.00    1.27725   0.83683   -2.000
 4290.00    0.99155   0.83226   -2.000
 4291.00    0.77747   0.83853   -2.000
 4292.00    0.69634   0.85083   -2.000
 4293.00    0.59010   0.86092   -2.000
 4294.00    0.44312   0.86382   -2.000
 4295.00    0.43409   0.85916   -2.000
 4296.00    0.62129   0.84775   -2.000
 4297.00    0.76234   0.83059   -2.000
 4298.00    0.84562   0.80965    0.016
 4299.00    0.89988   0.78824    0.016
 4300.00    0.92212   0.77192    0.016
 4301.00    0.88587   0.76427    0.016
 4302.00    0.79271   0.76406    0.016
 4303.00    0.60325   0.76873    0.016
 4304.00    0.33116   0.77507    0.016
 4305.00    0.18020   0.77882    0.015
 4306.00    0.12077   0.77869    0.015
 4307.00    0.16068   0.77692    0.015
 4308.00    0.26655   0.77749    0.015
 4309.00    0.43644   0.78423    0.015
 4310.00    0.64356   0.79708    0.015
 4311.00    0.80366   0.81201    0.015
 4312.00    0.93993   0.82486    0.015
 4313.00    1.05115   0.83518    0.015
 4314.00    1.15137   0.84600    0.015
 4315.00    1.06860   0.86061    0.015
 4316.00    0.91689   0.87843    0.015
 4317.00    0.91317   0.89391    0.015
 4318.00    0.95676   0.90192    0.015
 4319.00    0.93958   0.90097    0.015
 4320.00    0.90617   0.89175    0.015
 4321.00    0.81831   0.87603    0.015
 4322.00    0.71854   0.85566    0.015
 4323.00    0.79029   0.83151    0.015
 4324.00    0.89188   0.80626    0.015
 4325.00    0.91280   0.78602    0.015
 4326.00    0.92304   0.77721    0.015
 4327.00    0.79139   0.78106    0.015
 4328.00    0.64649   0.79116    0.015
 4329.00    0.67077   0.79887    0.015
 4330.00    0.70472   0.79951    0.000
 4331.00    0.62581   0.79331    0.000
 4332.00    0.54647   0.78173    0.000
 4333.00    0.71894   0.76437    0.000
 4334.00    0.89028   0.73976    0.000
 4335.00    1.03446   0.70612    0.000
 4336.00    1.14004   0.66260    0.000
 4337.00    0.74314   0.61239    0.000
 4338.00    0.40015   0.56377    0.000
 4339.00    0.52811   0.52598    0.000
 4340.00    0.66600   0.50625    0.000
 4341.00    0.86793   0.50909    0.000
 4342.00    1.02122   0.53292    0.000
 4343.00    0.92916   0.57003    0.000
 4344.00    0.84903   0.61277    0.000
 4345.00    0.81759   0.65609    0.000
 4346.00    0.78525   0.69571    0.000
 4347.00    0.74986   0.72833    0.000
 4348.00    0.73151   0.75220    0.000
 4349.00    0.76180   0.76618    0.000
 4350.00    0.73708   0.77096    0.000
 4351.00    0.57826   0.77153    0.016
 4352.00    0.52334   0.77636    0.016
 4353.00    0.68695   0.79082    0.016
 4354.00    0.87965   0.81291    0.016
 4355.00    1.12552   0.83711    0.015
 4356.00    1.19430   0.85882    0.015
 4357.00    0.98015   0.87518    0.015
 4358.00    0.87810   0.88633    0.015
 4359.00    0.93322   0.89594    0.015
 4360.00    0.92660   0.90800    0.015
 4361.00    0.84381   0.92311    0.016
 4362.00    0.78835   0.93883    0.016
 4363.00    0.76261   0.95236    0.015
 4364.00    0.75385   0.96144    0.015
 4365.00    0.76135   0.96398    0.016
 4366.00    0.72263   0.95923    0.016
 4367.00    0.64479   0.94970    0.015
 4368.00    0.73162   0.94031    0.015
 4369.00    0.94110   0.93474    0.016
 4370.00    0.89082   0.93280    0.016
 4371.00    0.67056   0.93197    0.016
 4372.00    0.60308   0.92932    0.016
 4373.00    0.62310   0.92377    0.016
 4374.00    0.67518   0.91820    0.015
 4375.00    0.74326   0.91841    0.015
 4376.00    0.75147   0.92759    0.015
 4377.00    0.73385   0.94206    0.015
 4378.00    0.60521   0.95374    0.016
 4379.00    0.43550   0.95566    0.016
 4380.00    0.61576   0.94490    0.016
 4381.00    0.90577   0.92257    0.016
 4382.00    0.91209   0.89296    0.015
 4383.00    0.84421   0.86414    0.015
 4384.00    0.69231   0.84656    0.015
 4385.00    0.52248   0.84626    0.015
 4386.00    0.76700   0.86041    0.015
 4387.00    1.08159   0.88062    0.015
 4388.00    0.96191   0.89976    0.015
 4389.00    0.78673   0.91448    0.015
 4390.00    0.80484   0.92420    0.015
 4391.00    0.84020   0.93043    0.015
 4392.00    0.76767   0.93498    0.015
 4393.00    0.68940   0.93811    0.015
 4394.00    0.72020   0.94047    0.015
 4395.00    0.75379   0.94445    0.015
 4396.00    0.84134   0.95115    0.015
 4397.00    0.92157   0.95736    0.015
 4398.00    0.84108   0.95874    0.015
 4399.00    0.78287   0.95461    0.015
 4400.00    0.99990   0.94762    0.015
 4401.00    1.17664   0.94129    0.016
 4402.00    1.01444   0.93676    0.016
 4403.00    0.90619   0.93209    0.016
 4404.00    1.13611   0.92698    0.016
 4405.00    1.27511   0.92494    0.016
 4406.00    0.96691   0.92829    0.016
 4407.00    0.73150   0.93567    0.016
 4408.00    0.78664   0.94588    0.016
 4409.00    0.84644   0.95882    0.016
 4410.00    0.92171   0.97211    0.015
 4411.00    0.94985   0.98122    0.015
 4412.00    0.84597   0.98265    0.015
 4413.00    0.77448   0.97508    0.015
 4414.00    0.78063   0.96069    0.015
 4415.00    0.77841   0.94645    0.015
 4416.00    0.75887   0.93997    0.015
 4417.00    0.83583   0.94380    0.015
 4418.00    1.08648   0.95575    0.015
 4419.00    1.13978   0.97078    0.015
 4420.00    0.88243   0.98258    0.015
 4421.00    0.75492   0.98750    0.015
 4422.00    0.80683   0.98692    0.016
 4423.00    0.89372   0.98527    0.016
 4424.00    1.02316   0.98538    0.016
 4425.00    1.06055   0.98673    0.016
 4426.00    0.99925   0.98783    0.015
 4427.00    0.84252   0.98789    0.015
 4428.00    0.59556   0.98676    0.016
 4429.00    0.59124   0.98399    0.015
 4430.00    0.78927   0.97948    0.015
 4431.00    0.97943   0.97440    0.016
 4432.00    1.16381   0.96906    0.016
 4433.00    1.12689   0.96333    0.016
 4434.00    0.94730   0.95981    0.016
 4435.00    0.93816   0.96259    0.016
 4436.00    1.02517   0.97363    0.016
 4437.00    1.03303   0.98981    0.016
 4438.00    1.00204   1.00398    0.016
 4439.00    0.95909   1.00941    0.016
 4440.00    0.91108   1.00327    0.016
 4441.00    0.90661   0.98851    0.016
 4442.00    0.91797   0.97276    0.016
 4443.00    0.77933   0.96423    0.016
 4444.00    0.59455   0.96746    0.016
 4445.00    0.74419   0.98039    0.015
 4446.00    0.97945   0.99589    0.015
 4447.00    1.04789   1.00771    0.015
 4448.00    1.08158   1.01384    0.015
 4449.00    1.15686   1.01421    0.015
 4450.00    1.23897   1.00957    0.016
 4451.00    1.22815   1.00179    0.015
 4452.00    1.20587   0.99146    0.015
 4453.00    1.24436   0.97802    0.015
 4454.00    1.28801   0.96256    0.015
 4455.00    1.05224   0.94881    0.015
 4456.00    0.80268   0.94012    0.015
 4457.00    0.88586   0.93606    0.015
 4458.00    0.97386   0.93414    0.015
 4459.00    1.03228   0.93340    0.015
 4460.00    1.08103   0.93436    0.015
 4461.00    0.93369   0.93767    0.000
 4462.00    0.80908   0.94443    0.000
 4463.00    0.95147   0.95425    0.000
 4464.00    1.09547   0.96333    0.000
 4465.00    1.25248   0.96841    0.000
 4466.00    1.33662   0.96917    0.000
 4467.00    0.97727   0.96706    0.000
 4468.00    0.68098   0.96475    0.000
 4469.00    0.68721   0.96577    0.000
 4470.00    0.76860   0.97299    0.000
 4471.00    1.14351   0.98637    0.000
 4472.00    1.39336   1.00340    0.000
 4473.00    1.23659   1.02075    0.000
 4474.00    1.16055   1.03518    0.000
 4475.00    1.30660   1.04422    0.000
 4476.00    1.30630   1.04670    0.000
 4477.00    0.96117   1.04153    0.000
 4478.00    0.77383   1.02731    0.000
 4479.00    0.90785   1.00546    0.000
 4480.00    1.02812   0.98232    0.000
 4481.00    1.12398   0.96716    0.000
 4482.00    1.15287   0.96709    0.015
 4483.00    1.07787   0.98170    0.015
 4484.00    1.01529   1.00312    0.015
 4485.00    0.96962   1.02189    0.015
 4486.00    0.94711   1.03151    0.015
 4487.00    0.95235   1.03022    0.015
 4488.00    1.05812   1.02123    0.015
 4489.00    1.27018   1.01102    0.015
 4490.00    1.28740   1.00514    0.015
 4491.00    1.12291   1.00492    0.015
 4492.00    1.03470   1.00798    0.015
 4493.00    1.00920   1.01101    0.014
 4494.00    0.93713   1.01295    0.014
 4495.00    0.83134   1.01602    0.015
 4496.00    0.87544   1.02219    0.014
 4497.00    1.01475   1.03096    0.014
 4498.00    1.06761   1.04033    0.014
 4499.00    1.07243   1.04826    0.015
 4500.00    0.98144   1.05459    0.015
 4501.00    0.84416   1.06165    0.015
 4502.00    1.03105   1.07225    0.015
 4503.00    1.35317   1.08539    0.015
 4504.00    1.17706   1.09641    0.015
 4505.00    0.82313   1.10172    0.014
 4506.00    0.91274   1.10092    0.014
 4507.00    1.13609   1.09629    0.015
 4508.00    1.15965   1.09141    0.014
 4509.00    1.13318   1.08869    0.014
 4510.00    1.06084   1.08742    0.014
 4511.00    0.97918   1.08469    0.014
 4512.00    1.12337   1.07866    0.014
 4513.00    1.30358   1.07001    0.014
 4514.00    1.20211   1.06084    0.014
 4515.00    1.06716   1.05383    0.015
 4516.00    1.05758   1.05064    0.015
 4517.00    1.05814   1.05044    0.014
 4518.00    0.99487   1.05127    0.014
 4519.00    0.92869   1.05152    0.014
 4520.00    1.17440   1.04971    0.014
 4521.00    1.41146   1.04486    0.014
 4522.00    1.01150   1.03666    0.014
 4523.00    0.63406   1.02632    0.014
 4524.00    0.67923   1.01520    0.014
 4525.00    0.72788   1.00317    0.014
 4526.00    0.81544   0.99084    0.014
 4527.00    0.89920   0.97989    0.014
 4528.00    0.95317   0.97208    0.014
 4529.00    0.98546   0.96887    0.014
 4530.00    0.88963   0.97014    0.014
 4531.00    0.83496   0.97383    0.014
 4532.00    0.97292   0.97802    0.014
 4533.00    1.08241   0.98245    0.014
 4534.00    1.08302   0.98969    0.014
 4535.00    1.04191   1.00283    0.014
 4536.00    0.86778   1.02128    0.014
 4537.00    0.77290   1.04017    0.014
 4538.00    0.89216   1.05357    0.014
 4539.00    1.00105   1.05904    0.014
 4540.00    1.08590   1.05868    0.014
 4541.00    1.12975   1.05644    0.014
 4542.00    1.09141   1.05510    0.014
 4543.00    1.12586   1.05428    0.014
 4544.00    1.28740   1.05168    0.014
 4545.00    1.30523   1.04612    0.014
 4546.00    1.10345   1.03778    0.014
 4547.00    0.96955   1.02708    0.014
 4548.00    0.92676   1.01535    0.014
 4549.00    0.97777   1.00535    0.014
 4550.00    1.13968   1.00026    0.000
 4551.00    1.14404   0.99991    0.000
 4552.00    0.98419   1.00062    0.000
 4553.00    0.91514   1.00046    0.000
 4554.00    0.92957   1.00091    0.000
 4555.00    0.85612   1.00516    0.000
 4556.00    0.71146   1.01558    0.000
 4557.00    0.70318   1.03103    0.000
 4558.00    0.79217   1.04751    0.000
 4559.00    0.97408   1.06146    0.000
 4560.00    1.21414   1.07050    0.000
 4561.00    1.19358   1.07312    0.000
 4562.00    1.03048   1.06958    0.000
 4563.00    0.97851   1.06253    0.000
 4564.00    0.97937   1.05695    0.000
 4565.00    0.93899   1.05732    0.000
 4566.00    0.88171   1.06434    0.000
 4567.00    0.94837   1.07469    0.000
 4568.00    1.05847   1.08314    0.000
 4569.00    1.02306   1.08616    0.000
 4570.00    0.94464   1.08378    0.000
 4571.00    1.00755   1.07889    0.000
 4572.00    1.10507   1.07601    0.000
 4573.00    1.19956   1.07750    0.000
 4574.00    1.29345   1.08101    0.000
 4575.00    1.07508   1.08314    0.000
 4576.00    0.80837   1.08203    0.000
 4577.00    0.81713   1.07678    0.000
 4578.00    0.85742   1.06723    0.000
 4579.00    0.83193   1.05447    0.000
 4580.00    0.80140   1.04109    0.000
 4581.00    0.79268   1.03001    0.000
 4582.00    0.78486   1.02292    0.000
 4583.00    0.68034   1.02052    0.000
 4584.00    0.58250   1.02333    0.000
 4585.00    0.80736   1.03072    0.000
 4586.00    1.02118   1.04051    0.000
 4587.00    1.04207   1.05022    0.000
 4588.00    1.05366   1.05768    0.000
 4589.00    0.96569   1.06141    0.000
 4590.00    0.90831   1.06110    0.000
 4591.00    1.08215   1.05788    0.000
 4592.00    1.22926   1.05413    0.000
 4593.00    1.22276   1.05207    0.000
 4594.00    1.21567   1.05223    0.000
 4595.00    1.20587   1.05393    0.000
 4596.00    1.20498   1.05665    0.000
 4597.00    1.23740   1.05975    0.000
 4598.00    1.22655   1.06247    0.000
 4599.00    1.08034   1.06438    0.000
 4600.00    0.94914   1.06541    0.000
 4601.00    0.85776   1.06646    0.000
 4602.00    0.79321   1.06837    0.000
 4603.00    0.78977   1.07119    0.000
 4604.00    0.85311   1.07535    0.000
 4605.00    1.04816   1.08175    0.000
 4606.00    1.16848   1.09109    0.000
 4607.00    1.16028   1.10251    0.000
 4608.00    1.16437   1.11338    0.000
 4609.00    1.18697   1.12068    0.000
 4610.00    1.17551   1.12266    0.000
 4611.00    1.11899   1.12022    0.000
 4612.00    1.08787   1.11582    0.000
 4613.00    1.08637   1.11150    0.000
 4614.00    1.02125   1.10822    0.000
 4615.00    0.89076   1.10555    0.000
 4616.00    0.91285   1.10246    0.000
 4617.00    1.07325   1.09927    0.000
 4618.00    1.12142   1.09682    0.000
 4619.00    1.07993   1.09635    0.000
 4620.00    1.05880   1.09941    0.000
 4621.00    1.05199   1.10536    0.000
 4622.00    1.04747   1.11157    0.000
 4623.00    1.04437   1.11586    0.000
 4624.00    1.13065   1.11706    0.000
 4625.00    1.26505   1.11512    0.000
 4626.00    1.19027   1.11140    0.000
 4627.00    1.01765   1.10749    0.000
 4628.00    0.91212   1.10422    0.000
 4629.00    0.83365   1.10230    0.000
 4630.00    0.92276   1.10226    0.000
 4631.00    1.06951   1.10275    0.000
 4632.00    0.97020   1.10128    0.000
 4633.00    0.79961   1.09712    0.000
 4634.00    0.84866   1.09179    0.000
 4635.00    0.95031   1.08706    0.000
 4636.00    1.00224   1.08369    0.000
 4637.00    1.04456   1.08174    0.000
 4638.00    0.99579   1.08151    0.000
 4639.00    0.93335   1.08317    0.000
 4640.00    0.89569   1.08598    0.000
 4641.00    0.86076   1.08859    0.000
 4642.00    0.88694   1.08867    0.000
 4643.00    0.91757   1.08415    0.000
 4644.00    0.99251   1.07505    0.000
 4645.00    1.06913   1.06333    0.000
 4646.00    0.94151   1.05249    0.000
 4647.00    0.81920   1.04677    0.000
 4648.00    0.93223   1.04872    0.000
 4649.00    1.04502   1.05765    0.000
 4650.00    1.15375   1.07015    0.000
 4651.00    1.23732   1.08163    0.000
 4652.00    1.06345   1.08876    0.000
 4653.00    0.90861   1.09064    0.000
 4654.00    0.89287   1.08892    0.000
 4655.00    0.90415   1.08757    0.000
 4656.00    1.06642   1.09040    0.000
 4657.00    1.18857   1.09867    0.000
 4658.00    1.13174   1.11042    0.000
 4659.00    1.08229   1.12084    0.000
 4660.00    1.05993   1.12498    0.000
 4661.00    1.05539   1.12048    0.000
 4662.00    1.10548   1.10796    0.000
 4663.00    1.15350   1.08980    0.000
 4664.00    1.19608   1.06888    0.000
 4665.00    1.14483   1.04768    0.000
 4666.00    0.88327   1.02906    0.000
 4667.00    0.72684   1.01729    0.000
 4668.00    0.77454   1.01609    0.000
 4669.00    0.80749   1.02536    0.000
 4670.00    0.81543   1.04134    0.000
 4671.00    0.87967   1.05920    0.000
 4672.00    1.02744   1.07513    0.000
 4673.00    1.10919   1.08762    0.000
 4674.00    1.10481   1.09681    0.000
 4675.00    1.14236   1.10281    0.000
 4676.00    1.22808   1.10507    0.000
 4677.00    1.18208   1.10297    0.000
 4678.00    1.00262   1.09740    0.000
 4679.00    0.92070   1.09114    0.000
 4680.00    0.92596   1.08712    0.000
 4681.00    0.97103   1.08686    0.000
 4682.00    1.04746   1.09037    0.000
 4683.00    1.08033   1.09621    0.000
 4684.00    1.08305   1.10201    0.000
 4685.00    1.11540   1.10600    0.000
 4686.00    1.16575   1.10767    0.000
 4687.00    1.13888   1.10723    0.000
 4688.00    1.07105   1.10540    0.000
 4689.00    1.03582   1.10323    0.000
 4690.00    1.01559   1.10159    0.000
 4691.00    0.90448   1.10129    0.000
 4692.00    0.75737   1.10306    0.000
 4693.00    0.87716   1.10655    0.000
 4694.00    1.08707   1.11015    0.000
 4695.00    1.19622   1.11169    0.000
 4696.00    1.27677   1.10924    0.000
 4697.00    1.03532   1.10210    0.000
 4698.00    0.71849   1.09158    0.000
 4699.00    0.75880   1.08040    0.000
 4700.00    0.86630   1.07087    0.000
 4701.00    0.84856   1.06400    0.000
 4702.00    0.81261   1.06021    0.000
 4703.00    0.80838   1.05980    0.000
 4704.00    0.80750   1.06236    0.000
 4705.00    0.96339   1.06605    0.000
 4706.00    1.13005   1.06900    0.000
 4707.00    1.06307   1.07102    0.000
 4708.00    0.98815   1.07355    0.000
 4709.00    1.02574   1.07780    0.000
 4710.00    1.06048   1.08362    0.000
 4711.00    0.99696   1.08937    0.000
 4712.00    0.93982   1.09333    0.000
 4713.00    0.98071   1.09558    0.000
 4714.00    1.01391   1.09831    0.000
 4715.00    0.97159   1.10421    0.000
 4716.00    0.96217   1.11416    0.000
 4717.00    1.18540   1.12643    0.000
 4718.00    1.36029   1.13844    0.000
 4719.00    1.27217   1.14824    0.000
 4720.00    1.18447   1.15474    0.000
 4721.00    1.09860   1.15788    0.000
 4722.00    1.04058   1.15836    0.000
 4723.00    1.08244   1.15670    0.000
 4724.00    1.08860   1.15240    0.000
 4725.00    0.98729   1.14412    0.000
 4726.00    0.93163   1.13122    0.000
 4727.00    0.99291   1.11525    0.000
 4728.00    1.04838   1.09983    0.000
 4729.00    1.09106   1.08869    0.000
 4730.00    1.14054   1.08380    0.000
 4731.00    1.20305   1.08519    0.000
 4732.00    1.15129   1.09137    0.000
 4733.00    0.90892   1.09957    0.000
 4734.00    0.73703   1.10712    0.000
 4735.00    0.66821   1.11279    0.000
 4736.00    0.74294   1.11676    0.000
 4737.00    1.00223   1.12047    0.000
 4738.00    1.18180   1.12504    0.000
 4739.00    1.27105   1.12976    0.000
 4740.00    1.22812   1.13372    0.000
 4741.00    1.05315   1.13694    0.000
 4742.00    1.04984   1.13983    0.000
 4743.00    1.19779   1.14249    0.000
 4744.00    1.21910   1.14489    0.000
 4745.00    1.14209   1.14716    0.000
 4746.00    1.15061   1.14940    0.000
 4747.00    1.21752   1.15114    0.000
 4748.00    1.14291   1.15173    0.000
 4749.00    0.98363   1.15088    0.000
 4750.00    0.92139   1.14815    0.000
 4751.00    0.90981   1.14319    0.000
 4752.00    1.09066   1.13649    0.000
 4753.00    1.35860   1.12951    0.000
 4754.00    1.34595   1.12389    0.000
 4755.00    1.22405   1.12098    0.000
 4756.00    1.23537   1.12129    0.000
 4757.00    1.29083   1.12406    0.000
 4758.00    1.24296   1.12720    0.000
 4759.00    1.16638   1.12801    0.000
 4760.00    1.17482   1.12443    0.000
 4761.00    1.20273   1.11601    0.012
 4762.00    1.12870   1.10454    0.012
 4763.00    1.03601   1.09328    0.012
 4764.00    1.00710   1.08532    0.012
 4765.00    0.98717   1.08272    0.012
 4766.00    1.04944   1.08620    0.012
 4767.00    1.12005   1.09474    0.012
 4768.00    1.19421   1.10576    0.012
 4769.00    1.26860   1.11645    0.012
 4770.00    1.25472   1.12499    0.012
 4771.00    1.23780   1.13135    0.012
 4772.00    1.03744   1.13706    0.012
 4773.00    0.84334   1.14354    0.012
 4774.00    0.83066   1.15070    0.012
 4775.00    0.82389   1.15725    0.012
 4776.00    0.90267   1.16191    0.012
 4777.00    0.98254   1.16403    0.012
 4778.00    1.07272   1.16328    0.012
 4779.00    1.15930   1.15984    0.012
 4780.00    1.22131   1.15461    0.012
 4781.00    1.26463   1.14849    0.012
 4782.00    1.20901   1.14195    0.012
 4783.00    1.14969   1.13552    0.012
 4784.00    1.07464   1.13003    0.012
 4785.00    1.03076   1.12581    0.012
 4786.00    1.09642   1.12296    0.012
 4787.00    1.15677   1.12217    0.012
 4788.00    1.20142   1.12395    0.012
 4789.00    1.24277   1.12832    0.012
 4790.00    1.27577   1.13554    0.012
 4791.00    1.25625   1.14550    0.012
 4792.00    1.12282   1.15708    0.012
 4793.00    1.06449   1.16838    0.012
 4794.00    1.14748   1.17691    0.012
 4795.00    1.21825   1.18036    0.012
 4796.00    1.26895   1.17804    0.012
 4797.00    1.26312   1.17136    0.012
 4798.00    1.17587   1.16321    0.012
 4799.00    1.08633   1.15666    0.012
 4800.00    0.99389   1.15355    0.012
 4801.00    0.97676   1.15357    0.012
 4802.00    1.04371   1.15450    0.012
 4803.00    1.15001   1.15384    0.012
 4804.00    1.29507   1.15056    0.012
 4805.00    1.39799   1.14565    0.012
 4806.00    1.46430   1.14111    0.012
 4807.00    1.37830   1.13833    0.012
 4808.00    1.17573   1.13779    0.012
 4809.00    1.13795   1.13931    0.012
 4810.00    1.21102   1.14219    0.012
 4811.00    1.17020   1.14582    0.012
 4812.00    1.06226   1.15007    0.012
 4813.00    1.08554   1.15505    0.012
 4814.00    1.17624   1.16080    0.012
 4815.00    1.24534   1.16700    0.012
 4816.00    1.30483   1.17295    0.012
 4817.00    1.23070   1.17753    0.012
 4818.00    1.10546   1.17930    0.012
 4819.00    1.13803   1.17685    0.012
 4820.00    1.22192   1.16927    0.012
 4821.00    1.06230   1.15710    0.012
 4822.00    0.83639   1.14265    0.012
 4823.00    0.82683   1.12945    0.012
 4824.00    0.86561   1.12108    0.012
 4825.00    1.00043   1.11884    0.012
 4826.00    1.15236   1.12077    0.012
 4827.00    1.05276   1.12366    0.012
 4828.00    0.91888   1.12510    0.012
 4829.00    1.02630   1.12440    0.012
 4830.00    1.15715   1.12223    0.012
 4831.00    1.14125   1.11968    0.012
 4832.00    1.11645   1.11781    0.012
 4833.00    1.08933   1.11711    0.012
 4834.00    1.06290   1.11685    0.013
 4835.00    1.17259   1.11569    0.013
 4836.00    1.27953   1.11264    0.013
 4837.00    1.31459   1.10751    0.013
 4838.00    1.34937   1.10072    0.013
 4839.00    1.38040   1.09327    0.013
 4840.00    1.38179   1.08657    0.013
 4841.00    1.11516   1.08151    0.012
 4842.00    0.89580   1.07794    0.012
 4843.00    0.99005   1.07504    0.012
 4844.00    1.05118   1.07164    0.012
 4845.00    0.94135   1.06633    0.012
 4846.00    0.90569   1.05804    0.013
 4847.00    1.17882   1.04687    0.013
 4848.00    1.34050   1.03417    0.000
 4849.00    1.11845   1.02133    0.000
 4850.00    0.98118   1.00829    0.000
 4851.00    1.08982   0.99323    0.000
 4852.00    1.11282   0.97412    0.000
 4853.00    0.92390   0.95001    0.000
 4854.00    0.90631   0.92125    0.000
 4855.00    1.25426   0.88927    0.000
 4856.00    1.47780   0.85526    0.000
 4857.00    1.47080   0.81935    0.000
 4858.00    1.49997   0.78157    0.000
 4859.00    1.58767   0.74454    0.000
 4860.00    1.53880   0.71410    0.000
 4861.00    1.29598   0.69760    0.000
 4862.00    1.12384   0.70012    0.000
 4863.00    1.04002   0.72140    0.000
 4864.00    0.98450   0.75596    0.000
 4865.00    0.96015   0.79635    0.000
 4866.00    0.92647   0.83551    0.000
 4867.00    0.88373   0.86830    0.000
 4868.00    0.96274   0.89235    0.000
 4869.00    1.14601   0.90806    0.000
 4870.00    1.09882   0.91805    0.000
 4871.00    0.87779   0.92648    0.000
 4872.00    0.88259   0.93746    0.000
 4873.00    1.03709   0.95288    0.000
 4874.00    1.07822   0.97194    0.000
 4875.00    1.05357   0.99273    0.013
 4876.00    1.00141   1.01361    0.013
 4877.00    0.93534   1.03338    0.012
 4878.00    1.00728   1.05088    0.012
 4879.00    1.13966   1.06481    0.013
 4880.00    1.16504   1.07369    0.012
 4881.00    1.15022   1.07692    0.012
 4882.00    1.10656   1.07542    0.012
 4883.00    1.05372   1.07100    0.012
 4884.00    1.04447   1.06559    0.012
 4885.00    1.04685   1.06085    0.012
 4886.00    0.98566   1.05771    0.012
 4887.00    0.91061   1.05608    0.012
 4888.00    1.02910   1.05555    0.012
 4889.00    1.18114   1.05656    0.012
 4890.00    1.09695   1.06103    0.012
 4891.00    0.98165   1.07176    0.012
 4892.00    1.10848   1.09031    0.012
 4893.00    1.25781   1.11483    0.012
 4894.00    1.22234   1.14057    0.012
 4895.00    1.17640   1.16224    0.012
 4896.00    1.12457   1.17602    0.012
 4897.00    1.07424   1.18085    0.012
 4898.00    1.20169   1.17831    0.012
 4899.00    1.32240   1.17155    0.012
 4900.00    1.28333   1.16423    0.012
 4901.00    1.24158   1.15923    0.012
 4902.00    1.16513   1.15784    0.012
 4903.00    1.10698   1.16001    0.012
 4904.00    1.20792   1.16465    0.012
 4905.00    1.28699   1.16948    0.012
 4906.00    1.22530   1.17152    0.012
 4907.00    1.17747   1.16863    0.012
 4908.00    1.19937   1.16103    0.012
 4909.00    1.22279   1.15151    0.012
 4910.00    1.25244   1.14410    0.012
 4911.00    1.24641   1.14214    0.012
 4912.00    1.11996   1.14621    0.012
 4913.00    1.04733   1.15360    0.012
 4914.00    1.12793   1.15946    0.012
 4915.00    1.21577   1.15877    0.012
 4916.00    1.32124   1.14834    0.012
 4917.00    1.36290   1.12852    0.012
 4918.00    1.27060   1.10353    0.012
 4919.00    1.23126   1.07999    0.012
 4920.00    1.28853   1.06410    0.012
 4921.00    1.33318   1.05917    0.012
 4922.00    1.35767   1.06500    0.012
 4923.00    1.31207   1.07918    0.012
 4924.00    1.16836   1.09902    0.012
 4925.00    1.10955   1.12235    0.012
 4926.00    1.15527   1.14677    0.012
 4927.00    1.28806   1.16933    0.012
 4928.00    1.51538   1.18702    0.012
 4929.00    1.56848   1.19740    0.012
 4930.00    1.45474   1.19920    0.012
 4931.00    1.32008   1.19297    0.012
 4932.00    1.16776   1.18104    0.012
 4933.00    1.10650   1.16671    0.012
 4934.00    1.11294   1.15317    0.012
 4935.00    1.14656   1.14225    0.012
 4936.00    1.19792   1.13438    0.012
 4937.00    1.15846   1.13001    0.012
 4938.00    1.06707   1.13053    0.012
 4939.00    1.13814   1.13743    0.012
 4940.00    1.29008   1.15068    0.000
 4941.00    1.29082   1.16779    0.000
 4942.00    1.22645   1.18486    0.000
 4943.00    1.14026   1.19855    0.000
 4944.00    1.04602   1.20742    0.000
 4945.00    1.09641   1.21213    0.000
 4946.00    1.19203   1.21465    0.000
 4947.00    1.21274   1.21674    0.000
 4948.00    1.21390   1.21896    0.000
 4949.00    1.16776   1.22069    0.000
 4950.00    1.11155   1.22075    0.000
 4951.00    1.19380   1.21787    0.000
 4952.00    1.29939   1.21107    0.000
 4953.00    1.26066   1.19990    0.000
 4954.00    1.20356   1.18480    0.000
 4955.00    1.21266   1.16772    0.000
 4956.00    1.22762   1.15239    0.000
 4957.00    1.19649   1.14354    0.000
 4958.00    1.16292   1.14473    0.000
 4959.00    1.04929   1.15575    0.000
 4960.00    0.93801   1.17231    0.000
 4961.00    1.13113   1.18838    0.000
 4962.00    1.31465   1.19908    0.000
 4963.00    1.28960   1.20229    0.000
 4964.00    1.26808   1.19882    0.000
 4965.00    1.28976   1.19139    0.000
 4966.00    1.30491   1.18340    0.000
 4967.00    1.26534   1.17770    0.000
 4968.00    1.22496   1.17593    0.000
 4969.00    1.17954   1.17846    0.000
 4970.00    1.14797   1.18469    0.000
 4971.00    1.18435   1.19327    0.000
 4972.00    1.21909   1.20239    0.000
 4973.00    1.24729   1.21000    0.000
 4974.00    1.25011   1.21419    0.000
 4975.00    1.16895   1.21355    0.000
 4976.00    1.09977   1.20744    0.000
 4977.00    1.06405   1.19595    0.000
 4978.00    1.04928   1.17967    0.000
 4979.00    1.08458   1.15962    0.000
 4980.00    1.09199   1.13749    0.000
 4981.00    1.04179   1.11603    0.000
 4982.00    1.06229   1.09904    0.000
 4983.00    1.20978   1.09043    0.000
 4984.00    1.29157   1.09244    0.000
 4985.00    1.27010   1.10431    0.000
 4986.00    1.21034   1.12225    0.000
 4987.00    1.09774   1.14107    0.000
 4988.00    1.06171   1.15630    0.000
 4989.00    1.11866   1.16585    0.000
 4990.00    1.13043   1.17026    0.000
 4991.00    1.09383   1.17176    0.000
 4992.00    1.11560   1.17274    0.000
 4993.00    1.19247   1.17456    0.000
 4994.00    1.26389   1.17712    0.000
 4995.00    1.33078   1.17901    0.000
 4996.00    1.30670   1.17823    0.000
 4997.00    1.21596   1.17317    0.000
 4998.00    1.20505   1.16350    0.000
 4999.00    1.24553   1.15050    0.000
 5000.00    1.21288   1.13648    0.000
 5001.00    1.13907   1.12369    0.000
 5002.00    1.20928   1.11334    0.000
 5003.00    1.35005   1.10568    0.000
 5004.00    1.33324   1.10076    0.000
 5005.00    1.24970   1.09918    0.000
 5006.00    1.23677   1.10176    0.000
 5007.00    1.24945   1.10827    0.000
 5008.00    1.29963   1.11644    0.000
 5009.00    1.36133   1.12257    0.000
 5010.00    1.41180   1.12341    0.000
 5011.00    1.45942   1.11807    0.000
 5012.00    1.33349   1.10836    0.000
 5013.00    1.17150   1.09751    0.000
 5014.00    1.09085   1.08837    0.000
 5015.00    1.02350   1.08220    0.000
 5016.00    1.08782   1.07893    0.000
 5017.00    1.16829   1.07821    0.000
 5018.00    1.13759   1.08020    0.000
 5019.00    1.09749   1.08544    0.000
 5020.00    1.06686   1.09401    0.000
 5021.00    1.03668   1.10514    0.000
 5022.00    1.10315   1.11743    0.000
 5023.00    1.17054   1.12929    0.000
 5024.00    1.20228   1.13919    0.000
 5025.00    1.22938   1.14628    0.000
 5026.00    1.16327   1.15091    0.000
 5027.00    1.10159   1.15460    0.000
 5028.00    1.09151   1.15931    0.000
 5029.00    1.09073   1.16615    0.011
 5030.00    1.16506   1.17454    0.011
 5031.00    1.23213   1.18239    0.011
 5032.00    1.25528   1.18710    0.012
 5033.00    1.28277   1.18652    0.012
 5034.00    1.33105   1.17996    0.012
 5035.00    1.35987   1.16824    0.012
 5036.00    1.31286   1.15324    0.012
 5037.00    1.28005   1.13684    0.012
 5038.00    1.29325   1.12070    0.012
 5039.00    1.27793   1.10716    0.012
 5040.00    1.18432   1.09956    0.012
 5041.00    1.12700   1.10128    0.011
 5042.00    1.15501   1.11354    0.012
 5043.00    1.19241   1.13371    0.012
 5044.00    1.24891   1.15591    0.012
 5045.00    1.23247   1.17357    0.012
 5046.00    1.08697   1.18222    0.012
 5047.00    1.03315   1.18101    0.012
 5048.00    1.12125   1.17281    0.012
 5049.00    1.18952   1.16259    0.012
 5050.00    1.23081   1.15511    0.012
 5051.00    1.26012   1.15317    0.012
 5052.00    1.27508   1.15720    0.012
 5053.00    1.30263   1.16578    0.012
 5054.00    1.34345   1.17666    0.012
 5055.00    1.29090   1.18789    0.012
 5056.00    1.15141   1.19848    0.012
 5057.00    1.13125   1.20816    0.012
 5058.00    1.20902   1.21664    0.011
 5059.00    1.23973   1.22304    0.012
 5060.00    1.23645   1.22601    0.012
 5061.00    1.22775   1.22416    0.012
 5062.00    1.21561   1.21686    0.011
 5063.00    1.29469   1.20497    0.011
 5064.00    1.42434   1.19090    0.011
 5065.00    1.30267   1.17788    0.012
 5066.00    1.05984   1.16845    0.012
 5067.00    1.04108   1.16335    0.012
 5068.00    1.11559   1.16175    0.011
 5069.00    1.14499   1.16211    0.012
 5070.00    1.15832   1.16282    0.012
 5071.00    1.14639   1.16278    0.012
 5072.00    1.12686   1.16185    0.011
 5073.00    1.10440   1.16046    0.011
 5074.00    1.08121   1.15854    0.011
 5075.00    1.13751   1.15529    0.011
 5076.00    1.20991   1.14969    0.011
 5077.00    1.17566   1.14115    0.011
 5078.00    1.12446   1.13027    0.011
 5079.00    1.15071   1.11939    0.011
 5080.00    1.18613   1.11199    0.011
 5081.00    1.12841   1.11067    0.011
 5082.00    1.06320   1.11582    0.011
 5083.00    1.20354   1.12587    0.011
 5084.00    1.35313   1.13849    0.011
 5085.00    1.21395   1.15138    0.011
 5086.00    1.07522   1.16293    0.011
 5087.00    1.12938   1.17264    0.011
 5088.00    1.18383   1.18094    0.011
 5089.00    1.24374   1.18842    0.011
 5090.00    1.29648   1.19524    0.011
 5091.00    1.26938   1.20092    0.011
 5092.00    1.23680   1.20430    0.011
 5093.00    1.16151   1.20367    0.011
 5094.00    1.10005   1.19760    0.011
 5095.00    1.12001   1.18595    0.011
 5096.00    1.15683   1.17041    0.011
 5097.00    1.27233   1.15436    0.011
 5098.00    1.35734   1.14184    0.011
 5099.00    1.32611   1.13606    0.011
 5100.00    1.28352   1.13798    0.011
 5101.00    1.20477   1.14574    0.011
 5102.00    1.15927   1.15552    0.011
 5103.00    1.20344   1.16348    0.011
 5104.00    1.23746   1.16735    0.011
 5105.00    1.24806   1.16679    0.011
 5106.00    1.25517   1.16305    0.011
 5107.00    1.25530   1.15834    0.011
 5108.00    1.25440   1.15511    0.011
 5109.00    1.25173   1.15511    0.011
 5110.00    1.18447   1.15896    0.011
 5111.00    1.01869   1.16636    0.011
 5112.00    0.99409   1.17602    0.011
 5113.00    1.15867   1.18629    0.011
 5114.00    1.26885   1.19592    0.012
 5115.00    1.31483   1.20400    0.012
 5116.00    1.34791   1.20974    0.012
 5117.00    1.36758   1.21224    0.012
 5118.00    1.31078   1.21039    0.012
 5119.00    1.18380   1.20351    0.012
 5120.00    1.13905   1.19191    0.012
 5121.00    1.16083   1.17695    0.012
 5122.00    1.09844   1.16078    0.011
 5123.00    0.97614   1.14579    0.011
 5124.00    0.96393   1.13407    0.011
 5125.00    1.02049   1.12673    0.012
 5126.00    1.12927   1.12359    0.012
 5127.00    1.26655   1.12383    0.012
 5128.00    1.25122   1.12670    0.012
 5129.00    1.16349   1.13167    0.012
 5130.00    1.15584   1.13832    0.012
 5131.00    1.18095   1.14591    0.011
 5132.00    1.09883   1.15326    0.011
 5133.00    0.97922   1.15914    0.011
 5134.00    1.03907   1.16249    0.011
 5135.00    1.15183   1.16248    0.011
 5136.00    1.08243   1.15870    0.011
 5137.00    0.96855   1.15218    0.011
 5138.00    1.00340   1.14502    0.011
 5139.00    1.06765   1.13917    0.011
 5140.00    1.19443   1.13586    0.011
 5141.00    1.33085   1.13480    0.011
 5142.00    1.32396   1.13484    0.011
 5143.00    1.30075   1.13543    0.011
 5144.00    1.28247   1.13608    0.011
 5145.00    1.26457   1.13611    0.011
 5146.00    1.17397   1.13562    0.011
 5147.00    1.08039   1.13529    0.011
 5148.00    1.08296   1.13553    0.011
 5149.00    1.08688   1.13613    0.011
 5150.00    1.11424   1.13647    0.011
 5151.00    1.14377   1.13639    0.011
 5152.00    1.21090   1.13671    0.011
 5153.00    1.27060   1.13882    0.011
 5154.00    1.25131   1.14411    0.011
 5155.00    1.23036   1.15312    0.011
 5156.00    1.19692   1.16461    0.011
 5157.00    1.16576   1.17607    0.011
 5158.00    1.14770   1.18464    0.011
 5159.00    1.12968   1.18811    0.011
 5160.00    1.11182   1.18530    0.011
 5161.00    1.11257   1.17570    0.011
 5162.00    1.18271   1.15915    0.011
 5163.00    1.23848   1.13600    0.011
 5164.00    1.24942   1.10693    0.011
 5165.00    1.20923   1.07381    0.011
 5166.00    1.03357   1.04067    0.011
 5167.00    0.92457   1.01264    0.011
 5168.00    0.96713   0.99393    0.011
 5169.00    0.98368   0.98601    0.011
 5170.00    0.94904   0.98733    0.011
 5171.00    0.92929   0.99559    0.011
 5172.00    0.93511   1.01032    0.011
 5173.00    1.01102   1.03247    0.011
 5174.00    1.19228   1.06100    0.011
 5175.00    1.22530   1.09145    0.011
 5176.00    1.06251   1.11812    0.011
 5177.00    0.91446   1.13647    0.011
 5178.00    0.78355   1.14362    0.011
 5179.00    0.82935   1.13848    0.011
 5180.00    1.05644   1.12254    0.011
 5181.00    1.15508   1.09985    0.011
 5182.00    1.13749   1.07656    0.011
 5183.00    1.14379   1.05980    0.011
 5184.00    1.16915   1.05555    0.011
 5185.00    1.18181   1.06492    0.011
 5186.00    1.18556   1.08324    0.011
 5187.00    1.13787   1.10336    0.011
 5188.00    1.05852   1.11938    0.011
 5189.00    1.14387   1.12833    0.011
 5190.00    1.31776   1.12996    0.000
 5191.00    1.26443   1.12612    0.000
 5192.00    1.10505   1.12081    0.000
 5193.00    1.05724   1.11810    0.000
 5194.00    1.05432   1.11946    0.000
 5195.00    0.87578   1.12453    0.000
 5196.00    0.63696   1.13271    0.000
 5197.00    0.83097   1.14287    0.000
 5198.00    1.15002   1.15312    0.000
 5199.00    1.22583   1.16122    0.000
 5200.00    1.24355   1.16481    0.000
 5201.00    1.25876   1.16209    0.000
 5202.00    1.27350   1.15265    0.000
 5203.00    1.20383   1.13771    0.000
 5204.00    1.12154   1.11991    0.000
 5205.00    1.05410   1.10318    0.000
 5206.00    0.98828   1.09187    0.000
 5207.00    1.04080   1.08858    0.000
 5208.00    1.10187   1.09374    0.000
 5209.00    1.10954   1.10668    0.000
 5210.00    1.11523   1.12496    0.000
 5211.00    1.07049   1.14447    0.011
 5212.00    1.03051   1.16113    0.011
 5213.00    1.17201   1.17223    0.011
 5214.00    1.30096   1.17738    0.011
 5215.00    1.22655   1.17897    0.011
 5216.00    1.15288   1.18092    0.011
 5217.00    1.08683   1.18615    0.011
 5218.00    1.03705   1.19479    0.011
 5219.00    1.10564   1.20418    0.011
 5220.00    1.15148   1.21029    0.011
 5221.00    1.07063   1.20951    0.011
 5222.00    1.01799   1.19982    0.011
 5223.00    1.09088   1.18160    0.011
 5224.00    1.14901   1.15811    0.011
 5225.00    1.15324   1.13487    0.011
 5226.00    1.13539   1.11801    0.011
 5227.00    1.04997   1.11229    0.011
 5228.00    0.97483   1.11851    0.011
 5229.00    0.92646   1.13199    0.011
 5230.00    0.90564   1.14611    0.011
 5231.00    0.94643   1.15635    0.011
 5232.00    1.01646   1.16150    0.011
 5233.00    1.14318   1.16393    0.011
 5234.00    1.20618   1.16779    0.011
 5235.00    1.16146   1.17565    0.011
 5236.00    1.15199   1.18757    0.011
 5237.00    1.19473   1.20153    0.011
 5238.00    1.25239   1.21493    0.011
 5239.00    1.32948   1.22592    0.011
 5240.00    1.33804   1.23370    0.011
 5241.00    1.26798   1.23837    0.011
 5242.00    1.23566   1.24025    0.011
 5243.00    1.24149   1.23966    0.011
 5244.00    1.18155   1.23668    0.011
 5245.00    1.06292   1.23082    0.011
 5246.00    1.10938   1.22201    0.011
 5247.00    1.28564   1.21188    0.011
 5248.00    1.33961   1.20285    0.011
 5249.00    1.30902   1.19620    0.011
 5250.00    1.16786   1.19238    0.011
 5251.00    0.95967   1.19188    0.011
 5252.00    0.93489   1.19437    0.011
 5253.00    1.00715   1.19880    0.011
 5254.00    1.09000   1.20464    0.011
 5255.00    1.17771   1.21196    0.011
 5256.00    1.11748   1.22028    0.011
 5257.00    0.99877   1.22705    0.011
 5258.00    0.99798   1.22840    0.011
 5259.00    1.03692   1.22120    0.011
 5260.00    1.06461   1.20419    0.011
 5261.00    1.08912   1.17872    0.011
 5262.00    1.13061   1.14833    0.011
 5263.00    1.17606   1.11774    0.012
 5264.00    1.10512   1.09135    0.011
 5265.00    1.01237   1.07189    0.011
 5266.00    0.96510   1.06014    0.011
 5267.00    0.92442   1.05524    0.012
 5268.00    1.06596   1.05497    0.012
 5269.00    1.22666   1.05826    0.012
 5270.00    1.13449   1.06670    0.012
 5271.00    1.02509   1.08102    0.011
 5272.00    1.14322   1.09858    0.011
 5273.00    1.26898   1.11639    0.011
 5274.00    1.05567   1.13346    0.011
 5275.00    0.85302   1.15001    0.011
 5276.00    1.00400   1.16668    0.011
 5277.00    1.13991   1.18266    0.011
 5278.00    1.04625   1.19491    0.011
 5279.00    0.96449   1.20105    0.011
 5280.00    0.99883   1.20137    0.011
 5281.00    1.03828   1.19855    0.011
 5282.00    1.11368   1.19646    0.011
 5283.00    1.18953   1.19868    0.011
 5284.00    1.26777   1.20764    0.011
 5285.00    1.32481   1.22330    0.011
 5286.00    1.28968   1.24231    0.011
 5287.00    1.26315   1.26018    0.011
 5288.00    1.26734   1.27413    0.011
 5289.00    1.29568   1.28322    0.011
 5290.00    1.39655   1.28731    0.011
 5291.00    1.47360   1.28628    0.011
 5292.00    1.48974   1.28032    0.011
 5293.00    1.44449   1.26999    0.011
 5294.00    1.26416   1.25624    0.010
 5295.00    1.14471   1.24022    0.010
 5296.00    1.14139   1.22377    0.011
 5297.00    1.16448   1.20988    0.011
 5298.00    1.23154   1.20192    0.011
 5299.00    1.27446   1.20152    0.011
 5300.00    1.28214   1.20735    0.011
 5301.00    1.25720   1.21707    0.011
 5302.00    1.19041   1.22915    0.011
 5303.00    1.17566   1.24234    0.011
 5304.00    1.21977   1.25485    0.011
 5305.00    1.24706   1.26500    0.011
 5306.00    1.25757   1.27226    0.011
 5307.00    1.21677   1.27730    0.011
 5308.00    1.13084   1.28110    0.011
 5309.00    1.12586   1.28381    0.011
 5310.00    1.18362   1.28459    0.011
 5311.00    1.26389   1.28255    0.011
 5312.00    1.35949   1.27736    0.011
 5313.00    1.42482   1.26949    0.011
 5314.00    1.47209   1.26032    0.011
 5315.00    1.43682   1.25146    0.011
 5316.00    1.35854   1.24455    0.011
 5317.00    1.29645   1.24123    0.011
 5318.00    1.24166   1.24142    0.011
 5319.00    1.26132   1.24264    0.011
 5320.00    1.30990   1.24202    0.011
 5321.00    1.31844   1.23746    0.011
 5322.00    1.31375   1.22771    0.011
 5323.00    1.31105   1.21276    0.010
 5324.00    1.30890   1.19421    0.010
 5325.00    1.35714   1.17498    0.010
 5326.00    1.41688   1.15752    0.010
 5327.00    1.26755   1.14405    0.011
 5328.00    1.08006   1.13843    0.011
 5329.00    1.10989   1.14446    0.011
 5330.00    1.17019   1.16108    0.010
 5331.00    1.24872   1.18278    0.010
 5332.00    1.32908   1.20404    0.010
 5333.00    1.33335   1.22144    0.010
 5334.00    1.33273   1.23325    0.010
 5335.00    1.34020   1.23856    0.010
 5336.00    1.34755   1.23758    0.010
 5337.00    1.20843   1.23202    0.010
 5338.00    1.07815   1.22448    0.010
 5339.00    1.20086   1.21746    0.010
 5340.00    1.31619   1.21348    0.010
 5341.00    1.32580   1.21471    0.010
 5342.00    1.33496   1.22053    0.010
 5343.00    1.33986   1.22776    0.010
 5344.00    1.34391   1.23355    0.010
 5345.00    1.34220   1.23665    0.010
 5346.00    1.33395   1.23777    0.010
 5347.00    1.29115   1.23868    0.010
 5348.00    1.25755   1.24069    0.010
 5349.00    1.26297   1.24521    0.010
 5350.00    1.27685   1.25346    0.010
 5351.00    1.32036   1.26499    0.010
 5352.00    1.36105   1.27799    0.010
 5353.00    1.39343   1.29098    0.010
 5354.00    1.40475   1.30321    0.010
 5355.00    1.36317   1.31364    0.010
 5356.00    1.33680   1.32085    0.010
 5357.00    1.34338   1.32395    0.010
 5358.00    1.34180   1.32251    0.010
 5359.00    1.32490   1.31645    0.010
 5360.00    1.27938   1.30621    0.010
 5361.00    1.18693   1.29274    0.010
 5362.00    1.14073   1.27775    0.010
 5363.00    1.16105   1.26327    0.010
 5364.00    1.19878   1.25022    0.010
 5365.00    1.25855   1.23852    0.010
 5366.00    1.26902   1.22786    0.011
 5367.00    1.22453   1.21752    0.012
 5368.00    1.03573   1.20753   -2.000
 5369.00    0.70505   1.19918   -2.000
 5370.00    0.52901   1.19495   -2.000
 5371.00    0.48708   1.19814   -2.000
 5372.00    0.62572   1.21020   -2.000
 5373.00    0.90229   1.22866   -2.000
 5374.00    1.02412   1.24857   -2.000
 5375.00    1.04205   1.26566   -2.000
 5376.00    1.00377   1.27745   -2.000
 5377.00    0.93242   1.28339   -2.000
 5378.00    0.98131   1.28448   -2.000
 5379.00    1.09186   1.28193   -2.000
 5380.00    1.19978   1.27719   -2.000
 5381.00    1.30653   1.27236   -2.000
 5382.00    1.37950   1.26908   -2.000
 5383.00    1.43957   1.26808    0.010
 5384.00    1.40399   1.26947    0.010
 5385.00    1.33738   1.27179    0.010
 5386.00    1.26992   1.27262    0.010
 5387.00    1.20222   1.27058    0.010
 5388.00    1.25425   1.26544    0.010
 5389.00    1.33295   1.25770    0.010
 5390.00    1.27461   1.24867    0.010
 5391.00    1.19193   1.23968    0.010
 5392.00    1.28465   1.23130    0.010
 5393.00    1.40117   1.22357    0.010
 5394.00    1.42576   1.21654    0.010
 5395.00    1.44146   1.21026    0.010
 5396.00    1.40794   1.20498    0.010
 5397.00    1.37146   1.20220    0.010
 5398.00    1.31038   1.20330    0.010
 5399.00    1.24944   1.20643    0.009
 5400.00    1.31773   1.20810    0.010
 5401.00    1.37851   1.20638    0.010
 5402.00    1.24552   1.20056    0.010
 5403.00    1.12401   1.19077    0.010
 5404.00    1.15814   1.17940    0.010
 5405.00    1.18493   1.17048    0.010
 5406.00    1.14571   1.16712    0.010
 5407.00    1.09966   1.16974    0.010
 5408.00    1.00843   1.17640    0.010
 5409.00    0.94926   1.18515    0.010
 5410.00    1.05502   1.19586    0.010
 5411.00    1.16676   1.20891    0.010
 5412.00    1.30336   1.22298    0.010
 5413.00    1.37552   1.23606    0.010
 5414.00    1.22631   1.24726    0.010
 5415.00    1.12432   1.25702    0.010
 5416.00    1.15894   1.26552    0.010
 5417.00    1.18487   1.27157    0.010
 5418.00    1.18936   1.27398    0.010
 5419.00    1.20089   1.27286    0.010
 5420.00    1.22742   1.26924    0.010
 5421.00    1.26154   1.26450    0.010
 5422.00    1.30969   1.25972    0.010
 5423.00    1.31398   1.25512    0.010
 5424.00    1.24740   1.25152    0.010
 5425.00    1.22072   1.25008    0.010
 5426.00    1.25057   1.24958    0.010
 5427.00    1.26521   1.24721    0.010
 5428.00    1.26088   1.24139    0.010
 5429.00    1.29997   1.23323    0.010
 5430.00    1.38681   1.22619    0.010
 5431.00    1.39295   1.22199    0.010
 5432.00    1.32087   1.21948    0.010
 5433.00    1.27956   1.21890    0.010
 5434.00    1.26456   1.22212    0.010
 5435.00    1.24396   1.23048    0.010
 5436.00    1.21913   1.24393    0.010
 5437.00    1.23022   1.26076    0.009
 5438.00    1.26507   1.27818    0.009
 5439.00    1.26496   1.29293    0.009
 5440.00    1.24460   1.30228    0.009
 5441.00    1.25766   1.30464    0.009
 5442.00    1.28760   1.29974    0.009
 5443.00    1.33699   1.28857    0.009
 5444.00    1.39489   1.27334    0.009
 5445.00    1.40543   1.25772    0.009
 5446.00    1.39821   1.24612    0.009
 5447.00    1.32620   1.24223    0.009
 5448.00    1.23357   1.24649    0.009
 5449.00    1.27032   1.25483    0.009
 5450.00    1.34146   1.26220    0.009
 5451.00    1.39119   1.26535    0.009
 5452.00    1.43627   1.26325    0.009
 5453.00    1.46636   1.25696    0.009
 5454.00    1.49387   1.24915    0.009
 5455.00    1.49327   1.24354    0.009
 5456.00    1.48900   1.24369    0.010
 5457.00    1.29823   1.24959    0.010
 5458.00    1.09023   1.25724    0.010
 5459.00    1.20467   1.26261    0.010
 5460.00    1.33724   1.26384    0.010
 5461.00    1.31418   1.26136    0.010
 5462.00    1.28865   1.25700    0.010
 5463.00    1.36793   1.25360    0.010
 5464.00    1.44305   1.25369    0.010
 5465.00    1.42031   1.25688    0.010
 5466.00    1.39751   1.26116    0.010
 5467.00    1.37387   1.26540    0.010
 5468.00    1.35473   1.26846    0.010
 5469.00    1.37449   1.26866    0.010
 5470.00    1.38966   1.26537    0.010
 5471.00    1.37538   1.25895    0.010
 5472.00    1.35240   1.24967    0.010
 5473.00    1.28582   1.23803    0.010
 5474.00    1.22972   1.22597    0.010
 5475.00    1.21618   1.21508    0.010
 5476.00    1.21340   1.20663    0.010
 5477.00    1.24688   1.20345    0.010
 5478.00    1.27607   1.20692   -2.000
 5479.00    1.29311   1.21445   -2.000
 5480.00    1.29055   1.22284   -2.000
 5481.00    1.24042   1.23140   -2.000
 5482.00    1.24886   1.24081   -2.000
 5483.00    1.38000   1.25048   -2.000
 5484.00    1.23718   1.25877   -2.000
 5485.00    0.59546   1.26433   -2.000
 5486.00    0.06566   1.26644   -2.000
 5487.00   -0.28600   1.26605   -2.000
 5488.00   -0.56078   1.26562   -2.000
 5489.00   -0.72817   1.26634   -2.000
 5490.00   -0.49377   1.26765   -2.000
 5491.00    0.23460   1.26908   -2.000
 5492.00    0.73047   1.27005   -2.000
 5493.00    0.97439   1.27007   -2.000
 5494.00    1.18088   1.26967   -2.000
 5495.00    1.35162   1.26927   -2.000
 5496.00    1.41501   1.26828   -2.000
 5497.00    1.38793   1.26678   -2.000
 5498.00    1.35337   1.26577   -2.000
 5499.00    1.31326   1.26471   -2.000
 5500.00    1.32400   1.26171   -2.000
 5501.00    1.36788   1.25667   -2.000
 5502.00    1.38630   1.25143    0.009
 5503.00    1.39019   1.24735    0.009
 5504.00    1.33043   1.24444    0.009
 5505.00    1.23904   1.24212    0.009
 5506.00    1.21152   1.24037    0.009
 5507.00    1.21146   1.24008    0.009
 5508.00    1.22900   1.24084    0.010
 5509.00    1.25302   1.24096    0.010
 5510.00    1.31477   1.24013    0.010
 5511.00    1.38829   1.23916    0.010
 5512.00    1.40276   1.23919    0.009
 5513.00    1.40186   1.24176    0.009
 5514.00    1.40962   1.24753    0.009
 5515.00    1.41921   1.25593    0.010
 5516.00    1.38972   1.26583    0.010
 5517.00    1.35367   1.27604    0.010
 5518.00    1.33900   1.28522    0.010
 5519.00    1.32703   1.29185    0.010
 5520.00    1.32099   1.29505    0.009
 5521.00    1.31548   1.29497    0.009
 5522.00    1.34801   1.29191    0.009
 5523.00    1.38253   1.28604    0.009
 5524.00    1.32439   1.27768    0.009
 5525.00    1.26559   1.26777    0.009
 5526.00    1.28753   1.25794    0.009
 5527.00    1.30994   1.24996    0.009
 5528.00    1.34259   1.24567    0.009
 5529.00    1.37013   1.24652    0.009
 5530.00    1.33527   1.25116    0.009
 5531.00    1.30141   1.25639    0.009
 5532.00    1.27586   1.26033    0.009
 5533.00    1.25314   1.26274    0.009
 5534.00    1.24809   1.26422    0.009
 5535.00    1.25052   1.26619    0.009
 5536.00    1.28948   1.27017    0.009
 5537.00    1.31010   1.27563    0.009
 5538.00    1.25789   1.28129    0.009
 5539.00    1.22719   1.28646    0.010
 5540.00    1.26746   1.29019    0.023
 5541.00    1.31644   1.29154   -1.000
 5542.00    1.38972   1.29053   -1.000
 5543.00    1.43811   1.28853   -1.000
 5544.00    1.42709   1.28758   -1.000
 5545.00    1.40382   1.28868   -1.000
 5546.00    1.35530   1.29181   -1.000
 5547.00    1.31005   1.29687   -1.000
 5548.00    1.27070   1.30280   -1.000
 5549.00    1.27272   1.30768   -1.000
 5550.00    1.33962   1.31028   -1.000
 5551.00    1.32884   1.31030   -1.000
 5552.00    1.21108   1.30791   -1.000
 5553.00    1.15277   1.30393    0.040
 5554.00    1.16652   1.29969    0.013
 5555.00    1.19583   1.29641    0.009
 5556.00    1.24178   1.29427    0.009
 5557.00    1.27765   1.29252    0.009
 5558.00    1.30402   1.29061    0.009
 5559.00    1.30421   1.28833    0.009
 5560.00    1.28265   1.28514    0.009
 5561.00    1.27518   1.28087    0.009
 5562.00    1.27800   1.27581    0.009
 5563.00    1.27584   1.27080    0.009
 5564.00    1.27047   1.26653    0.009
 5565.00    1.29071   1.26283    0.009
 5566.00    1.32533   1.25976    0.009
 5567.00    1.33873   1.25790    0.009
 5568.00    1.34176   1.25704    0.009
 5569.00    1.31763   1.25679    0.009
 5570.00    1.28204   1.25763    0.009
 5571.00    1.25210   1.25955    0.009
 5572.00    1.22422   1.26140    0.009
 5573.00    1.22144   1.26406    0.009
 5574.00    1.22633   1.26877    0.009
 5575.00    1.20028   1.27410    0.009
 5576.00    1.16636   1.27887    0.009
 5577.00    1.10924   1.28337    0.009
 5578.00    1.04732   1.28693    0.009
 5579.00    1.09244   1.28875    0.009
 5580.00    1.15502   1.28845    0.009
 5581.00    1.17994   1.28511    0.009
 5582.00    1.20027   1.27845    0.009
 5583.00    1.25780   1.26888    0.009
 5584.00    1.31847   1.25643    0.009
 5585.00    1.32274   1.24159    0.009
 5586.00    1.32429   1.22632    0.009
 5587.00    1.31757   1.21378    0.009
 5588.00    1.31110   1.20672    0.009
 5589.00    1.32602   1.20590    0.009
 5590.00    1.33774   1.21047    0.009
 5591.00    1.28561   1.21829    0.009
 5592.00    1.23974   1.22699    0.009
 5593.00    1.26666   1.23509    0.009
 5594.00    1.28466   1.24213    0.009
 5595.00    1.23101   1.24827    0.009
 5596.00    1.17078   1.25256    0.009
 5597.00    1.07077   1.25289    0.009
 5598.00    1.00404   1.24962    0.010
 5599.00    1.09590   1.24577    0.009
 5600.00    1.18086   1.24321    0.009
 5601.00    1.23898   1.24302    0.009
 5602.00    1.30269   1.24697    0.009
 5603.00    1.38450   1.25633    0.009
 5604.00    1.44344   1.27040    0.009
 5605.00    1.43977   1.28619    0.009
 5606.00    1.43100   1.30059    0.009
 5607.00    1.41032   1.31176    0.009
 5608.00    1.37881   1.31879    0.009
 5609.00    1.32535   1.32142    0.009
 5610.00    1.28620   1.31972    0.009
 5611.00    1.27231   1.31391    0.009
 5612.00    1.25641   1.30424    0.009
 5613.00    1.23742   1.29133    0.009
 5614.00    1.23973   1.27653    0.009
 5615.00    1.27097   1.26317    0.009
 5616.00    1.31291   1.25586    0.009
 5617.00    1.36763   1.25533    0.009
 5618.00    1.37705   1.25825    0.009
 5619.00    1.33877   1.26189    0.008
 5620.00    1.32407   1.26517    0.008
 5621.00    1.33129   1.26724    0.008
 5622.00    1.32731   1.26714    0.008
 5623.00    1.31415   1.26463    0.008
 5624.00    1.35984   1.26150    0.008
 5625.00    1.44794   1.26124    0.008
 5626.00    1.47329   1.26565    0.009
 5627.00    1.45891   1.27333    0.009
 5628.00    1.37781   1.28249    0.009
 5629.00    1.25980   1.29184    0.009
 5630.00    1.21739   1.29936    0.009
 5631.00    1.21136   1.30341    0.009
 5632.00    1.24936   1.30363    0.009
 5633.00    1.30566   1.30049    0.009
 5634.00    1.40556   1.29504    0.009
 5635.00    1.52096   1.28860    0.009
 5636.00    1.48638   1.28216    0.009
 5637.00    1.40681   1.27660    0.009
 5638.00    1.40549   1.27301    0.009
 5639.00    1.42367   1.27156    0.009
 5640.00    1.44048   1.27128    0.009
 5641.00    1.45702   1.27181    0.009
 5642.00    1.35043   1.27393    0.009
 5643.00    1.22435   1.27760    0.009
 5644.00    1.19329   1.28190    0.009
 5645.00    1.17341   1.28635    0.009
 5646.00    1.24612   1.29047    0.009
 5647.00    1.32623   1.29377    0.009
 5648.00    1.33023   1.29581    0.009
 5649.00    1.33085   1.29643    0.009
 5650.00    1.30845   1.29612    0.009
 5651.00    1.28449   1.29513    0.009
 5652.00    1.19698   1.29256    0.009
 5653.00    1.11357   1.28738    0.009
 5654.00    1.10565   1.27940    0.008
 5655.00    1.10435   1.27014    0.008
 5656.00    1.17634   1.26119    0.008
 5657.00    1.24769   1.25222    0.008
 5658.00    1.31416   1.24409    0.008
 5659.00    1.35684   1.24032    0.008
 5660.00    1.25994   1.24177    0.008
 5661.00    1.17852   1.24553    0.008
 5662.00    1.16910   1.25010    0.008
 5663.00    1.17417   1.25652    0.008
 5664.00    1.23431   1.26470    0.008
 5665.00    1.27539   1.27249    0.008
 5666.00    1.25597   1.27834    0.008
 5667.00    1.24881   1.28253    0.009
 5668.00    1.27463   1.28660    0.008
 5669.00    1.29797   1.29148    0.008
 5670.00    1.31559   1.29715    0.009
 5671.00    1.32953   1.30344    0.009
 5672.00    1.33613   1.31012    0.009
 5673.00    1.33398   1.31610    0.009
 5674.00    1.31662   1.31996    0.009
 5675.00    1.31274   1.32146    0.009
 5676.00    1.32937   1.32133    0.009
 5677.00    1.32028   1.31946    0.009
 5678.00    1.27681   1.31526    0.009
 5679.00    1.21922   1.30925    0.009
 5680.00    1.14499   1.30244    0.009
 5681.00    1.12610   1.29501    0.009
 5682.00    1.16467   1.28735    0.009
 5683.00    1.25377   1.28122    0.009
 5684.00    1.38916   1.27765    0.009
 5685.00    1.44397   1.27582    0.009
 5686.00    1.43372   1.27499    0.009
 5687.00    1.42644   1.27571    0.009
 5688.00    1.42127   1.27905    0.009
 5689.00    1.42105   1.28526    0.009
 5690.00    1.42392   1.29318    0.009
 5691.00    1.38971   1.30104    0.009
 5692.00    1.33531   1.30779    0.008
 5693.00    1.31059   1.31236    0.008
 5694.00    1.29994   1.31403    0.009
 5695.00    1.26026   1.31321    0.009
 5696.00    1.20874   1.31037    0.008
 5697.00    1.21777   1.30543    0.009
 5698.00    1.24792   1.29876    0.009
 5699.00    1.29599   1.29189    0.009
 5700.00    1.34932   1.28541    0.009
 5701.00    1.35531   1.27934    0.009
 5702.00    1.34976   1.27437    0.009
 5703.00    1.35988   1.27048    0.009
 5704.00    1.37309   1.26620    0.009
 5705.00    1.34852   1.26022    0.008
 5706.00    1.31816   1.25280    0.008
 5707.00    1.30716   1.24564    0.008
 5708.00    1.29836   1.24002    0.008
 5709.00    1.31580   1.23732    0.008
 5710.00    1.33524   1.23909    0.009
 5711.00    1.31317   1.24498    0.009
 5712.00    1.28941   1.25429    0.009
 5713.00    1.29324   1.26660    0.009
 5714.00    1.29694   1.27966    0.009
 5715.00    1.28626   1.29167    0.009
 5716.00    1.27460   1.30242    0.009
 5717.00    1.24622   1.31163    0.009
 5718.00    1.22320   1.31938    0.009
 5719.00    1.25682   1.32627    0.009
 5720.00    1.28980   1.33218    0.009
 5721.00    1.31799   1.33690    0.009
 5722.00    1.34138   1.34031    0.009
 5723.00    1.33733   1.34189    0.009
 5724.00    1.33929   1.34140    0.009
 5725.00    1.36853   1.33915    0.009
 5726.00    1.38818   1.33548    0.009
 5727.00    1.37207   1.33140    0.009
 5728.00    1.36547   1.32856    0.009
 5729.00    1.38843   1.32716    0.008
 5730.00    1.41203   1.32616    0.008
 5731.00    1.43733   1.32550    0.009
 5732.00    1.44729   1.32646    0.009
 5733.00    1.42245   1.32933    0.008
 5734.00    1.40150   1.33261    0.008
 5735.00    1.38819   1.33505    0.008
 5736.00    1.35403   1.33625    0.008
 5737.00    1.28415   1.33642    0.008
 5738.00    1.26578   1.33607    0.008
 5739.00    1.32469   1.33554    0.008
 5740.00    1.37693   1.33492    0.000
 5741.00    1.42037   1.33424    0.000
 5742.00    1.44539   1.33357    0.000
 5743.00    1.44902   1.33318    0.000
 5744.00    1.47469   1.33325    0.000
 5745.00    1.52296   1.33312    0.000
 5746.00    1.55830   1.33163    0.000
 5747.00    1.58198   1.32831    0.000
 5748.00    1.57360   1.32420    0.000
 5749.00    1.53971   1.32081    0.000
 5750.00    1.53750   1.31787    0.000
 5751.00    1.55746   1.31423    0.000
 5752.00    1.53200   1.31005    0.000
 5753.00    1.47864   1.30698    0.000
 5754.00    1.42518   1.30684    0.000
 5755.00    1.37167   1.31004    0.000
 5756.00    1.37902   1.31471    0.000
 5757.00    1.41473   1.31825    0.000
 5758.00    1.41119   1.31939    0.000
 5759.00    1.39189   1.31795    0.000
 5760.00    1.36229   1.31478    0.000
 5761.00    1.32917   1.31155    0.000
 5762.00    1.37969   1.31018    0.000
 5763.00    1.45432   1.31248    0.000
 5764.00    1.49919   1.31883    0.000
 5765.00    1.53696   1.32684    0.000
 5766.00    1.50612   1.33402    0.000
 5767.00    1.46211   1.33940    0.000
 5768.00    1.49391   1.34243    0.000
 5769.00    1.53701   1.34294    0.000
 5770.00    1.57369   1.34149    0.000
 5771.00    1.60967   1.33875    0.000
 5772.00    1.62754   1.33553    0.000
 5773.00    1.64410   1.33273    0.000
 5774.00    1.55535   1.33014    0.000
 5775.00    1.46271   1.32743    0.000
 5776.00    1.41002   1.32426    0.000
 5777.00    1.35824   1.31942    0.000
 5778.00    1.33333   1.31190    0.000
 5779.00    1.31245   1.30181    0.000
 5780.00    1.35639   1.29000    0.000
 5781.00    1.39959   1.27865    0.000
 5782.00    1.43531   1.27055    0.000
 5783.00    1.46205   1.26653    0.000
 5784.00    1.42370   1.26578    0.000
 5785.00    1.38879   1.26818    0.000
 5786.00    1.37302   1.27434    0.000
 5787.00    1.35815   1.28308    0.000
 5788.00    1.34731   1.29197    0.000
 5789.00    1.32199   1.29974    0.000
 5790.00    1.24393   1.30578    0.000
 5791.00    1.16724   1.31060   -2.000
 5792.00    1.09474   1.31551   -2.000
 5793.00    1.07100   1.32033   -2.000
 5794.00    1.17383   1.32453   -2.000
 5795.00    1.25947   1.32805   -2.000
 5796.00    1.30674   1.33055   -2.000
 5797.00    1.34524   1.33226   -2.000
 5798.00    1.36676   1.33468   -2.000
 5799.00    1.35700   1.33863   -2.000
 5800.00    1.29444   1.34265   -2.000
 5801.00    1.29436   1.34499   -2.000
 5802.00    1.38666   1.34527   -2.000
 5803.00    1.44454   1.34331   -2.000
 5804.00    1.45768   1.33969   -2.000
 5805.00    1.44195   1.33633   -2.000
 5806.00    1.39316   1.33459   -2.000
 5807.00    1.36782   1.33459   -2.000
 5808.00    1.36617   1.33578   -2.000
 5809.00    1.35676   1.33757   -2.000
 5810.00    1.34043   1.33946   -2.000
 5811.00    1.35132   1.34074    0.000
 5812.00    1.38356   1.34075    0.000
 5813.00    1.40681   1.33965    0.000
 5814.00    1.42385   1.33807    0.000
 5815.00    1.45264   1.33674    0.000
 5816.00    1.48854   1.33685    0.000
 5817.00    1.52710   1.33959    0.000
 5818.00    1.56706   1.34443    0.000
 5819.00    1.56541   1.34956    0.000
 5820.00    1.54469   1.35387    0.000
 5821.00    1.53016   1.35700    0.000
 5822.00    1.51806   1.35886    0.000
 5823.00    1.50643   1.35986    0.000
 5824.00    1.49497   1.36057    0.000
 5825.00    1.51128   1.36129    0.000
 5826.00    1.53543   1.36176    0.000
 5827.00    1.56247   1.36202    0.000
 5828.00    1.59019   1.36221    0.000
 5829.00    1.55786   1.36227    0.000
 5830.00    1.51432   1.36175    0.000
 5831.00    1.53014   1.36045    0.000
 5832.00    1.55453   1.35872    0.000
 5833.00    1.50972   1.35671    0.000
 5834.00    1.45767   1.35462    0.000
 5835.00    1.49169   1.35327    0.000
 5836.00    1.53154   1.35343    0.000
 5837.00    1.57511   1.35445    0.000
 5838.00    1.61880   1.35576    0.000
 5839.00    1.59667   1.35786    0.000
 5840.00    1.57344   1.36055    0.000
 5841.00    1.51698   1.36259    0.000
 5842.00    1.46116   1.36324    0.000
 5843.00    1.41486   1.36231    0.000
 5844.00    1.37050   1.35975    0.000
 5845.00    1.34499   1.35589    0.000
 5846.00    1.32515   1.35125    0.000
 5847.00    1.34516   1.34619    0.000
 5848.00    1.37264   1.34122    0.000
 5849.00    1.44049   1.33634    0.000
 5850.00    1.49449   1.33082    0.000
 5851.00    1.48847   1.32409    0.000
 5852.00    1.47151   1.31607    0.000
 5853.00    1.41555   1.30781    0.000
 5854.00    1.37424   1.30101    0.000
 5855.00    1.37683   1.29596    0.000
 5856.00    1.38550   1.29155    0.000
 5857.00    1.40964   1.28809    0.000
 5858.00    1.39874   1.28795    0.000
 5859.00    1.31088   1.29177    0.000
 5860.00    1.26522   1.29779    0.000
 5861.00    1.29992   1.30421    0.000
 5862.00    1.32870   1.30994    0.000
 5863.00    1.34765   1.31541    0.000
 5864.00    1.34188   1.32102    0.000
 5865.00    1.30010   1.32589    0.000
 5866.00    1.32026   1.32948    0.000
 5867.00    1.41978   1.33278    0.000
 5868.00    1.49026   1.33675    0.000
 5869.00    1.52799   1.34065    0.000
 5870.00    1.53545   1.34354    0.000
 5871.00    1.51277   1.34506    0.000
 5872.00    1.50679   1.34520    0.000
 5873.00    1.51547   1.34424    0.000
 5874.00    1.49429   1.34270    0.000
 5875.00    1.45001   1.34033    0.000
 5876.00    1.41880   1.33668    0.000
 5877.00    1.39649   1.33207    0.000
 5878.00    1.38178   1.32703    0.000
 5879.00    1.37161   1.32154    0.000
 5880.00    1.39015   1.31577    0.000
 5881.00    1.42363   1.31010    0.000
 5882.00    1.41077   1.30342    0.000
 5883.00    1.37702   1.29326    0.000
 5884.00    1.31896   1.27851    0.000
 5885.00    1.25147   1.25934    0.000
 5886.00    1.21151   1.23562    0.000
 5887.00    1.18062   1.20745    0.000
 5888.00    1.14195   1.17600    0.000
 5889.00    1.10111   1.14438    0.000
 5890.00    1.12755   1.12025    0.000
 5891.00    1.16928   1.10976    0.000
 5892.00    1.19349   1.10931    0.000
 5893.00    1.21452   1.11289    0.000
 5894.00    1.26997   1.11811    0.000
 5895.00    1.33024   1.12428    0.000
 5896.00    1.36621   1.13558    0.000
 5897.00    1.39973   1.15676    0.000
 5898.00    1.38796   1.18369    0.000
 5899.00    1.37330   1.21039    0.000
 5900.00    1.39110   1.23551    0.000
 5901.00    1.40971   1.25814    0.008
 5902.00    1.38482   1.27684    0.008
 5903.00    1.36021   1.29131    0.008
 5904.00    1.34367   1.30173    0.008
 5905.00    1.32907   1.30863    0.008
 5906.00    1.34213   1.31359    0.008
 5907.00    1.35450   1.31770    0.008
 5908.00    1.36041   1.32072    0.008
 5909.00    1.35829   1.32206    0.008
 5910.00    1.30169   1.32192    0.008
 5911.00    1.24660   1.32061    0.008
 5912.00    1.19946   1.31791    0.008
 5913.00    1.16403   1.31375    0.008
 5914.00    1.17813   1.30982    0.008
 5915.00    1.20713   1.30824    0.008
 5916.00    1.28822   1.30922    0.008
 5917.00    1.35396   1.31216    0.008
 5918.00    1.37456   1.31609    0.008
 5919.00    1.39745   1.32018    0.008
 5920.00    1.42607   1.32415    0.008
 5921.00    1.44016   1.32736    0.008
 5922.00    1.42286   1.32941    0.008
 5923.00    1.39108   1.33072    0.008
 5924.00    1.33218   1.33136    0.008
 5925.00    1.30885   1.33110    0.008
 5926.00    1.34376   1.32993    0.008
 5927.00    1.35509   1.32767    0.008
 5928.00    1.33255   1.32465    0.008
 5929.00    1.33325   1.32159    0.008
 5930.00    1.36329   1.31972    0.008
 5931.00    1.37343   1.32028    0.008
 5932.00    1.36142   1.32225    0.008
 5933.00    1.37588   1.32391    0.008
 5934.00    1.41632   1.32508    0.008
 5935.00    1.46137   1.32690    0.008
 5936.00    1.51040   1.32980    0.008
 5937.00    1.49556   1.33235    0.008
 5938.00    1.43201   1.33377    0.008
 5939.00    1.36047   1.33436    0.008
 5940.00    1.28356   1.33386    0.008
 5941.00    1.25672   1.33273    0.008
 5942.00    1.25927   1.33220    0.008
 5943.00    1.31874   1.33244    0.008
 5944.00    1.40734   1.33293    0.008
 5945.00    1.43630   1.33316    0.008
 5946.00    1.43882   1.33242    0.008
 5947.00    1.41223   1.33026    0.008
 5948.00    1.37456   1.32711    0.008
 5949.00    1.36356   1.32444    0.008
 5950.00    1.36120   1.32331    0.008
 5951.00    1.38031   1.32266    0.008
 5952.00    1.40523   1.32122    0.008
 5953.00    1.43930   1.32014    0.008
 5954.00    1.47539   1.32090    0.008
 5955.00    1.41931   1.32250    0.008
 5956.00    1.34692   1.32371    0.008
 5957.00    1.30653   1.32528    0.008
 5958.00    1.27046   1.32827    0.008
 5959.00    1.28604   1.33270    0.008
 5960.00    1.30657   1.33763    0.008
 5961.00    1.30220   1.34214    0.008
 5962.00    1.29634   1.34571    0.008
 5963.00    1.33459   1.34838    0.008
 5964.00    1.37387   1.35022    0.008
 5965.00    1.39722   1.35121    0.008
 5966.00    1.42031   1.35220    0.008
 5967.00    1.43649   1.35417    0.008
 5968.00    1.45323   1.35654    0.008
 5969.00    1.47738   1.35858    0.008
 5970.00    1.49934   1.35993    0.008
 5971.00    1.50169   1.35999    0.008
 5972.00    1.49902   1.35829    0.008
 5973.00    1.46335   1.35491    0.008
 5974.00    1.43319   1.35011    0.008
 5975.00    1.43126   1.34423    0.008
 5976.00    1.42507   1.33840    0.008
 5977.00    1.40123   1.33390    0.008
 5978.00    1.38337   1.33090    0.008
 5979.00    1.38603   1.32918    0.008
 5980.00    1.38667   1.32825    0.008
 5981.00    1.38149   1.32660    0.008
 5982.00    1.37865   1.32365    0.008
 5983.00    1.38158   1.31981    0.008
 5984.00    1.39146   1.31642    0.008
 5985.00    1.41614   1.31562    0.008
 5986.00    1.42158   1.31731    0.008
 5987.00    1.39150   1.31994    0.008
 5988.00    1.37599   1.32335    0.008
 5989.00    1.38400   1.32745    0.008
 5990.00    1.38515   1.33111    0.008
 5991.00    1.37661   1.33355    0.008
 5992.00    1.38116   1.33553    0.008
 5993.00    1.40202   1.33751    0.008
 5994.00    1.41320   1.33837    0.008
 5995.00    1.41375   1.33745    0.008
 5996.00    1.39795   1.33497    0.008
 5997.00    1.36634   1.33165    0.008
 5998.00    1.33419   1.32893    0.008
 5999.00    1.30159   1.32751    0.008
 6000.00    1.29817   1.32670    0.008
 6001.00    1.31667   1.32555    0.008
 6002.00    1.31411   1.32328    0.008
 6003.00    1.29764   1.32074    0.008
 6004.00    1.28831   1.31929    0.008
 6005.00    1.28311   1.31789    0.008
 6006.00    1.29917   1.31568    0.008
 6007.00    1.32595   1.31313    0.008
 6008.00    1.36183   1.31143    0.008
 6009.00    1.40167   1.31253    0.008
 6010.00    1.40434   1.31538    0.008
 6011.00    1.39310   1.31691    0.008
 6012.00    1.37081   1.31642    0.008
 6013.00    1.34503   1.31507    0.008
 6014.00    1.33304   1.31420    0.008
 6015.00    1.32471   1.31353    0.008
 6016.00    1.35076   1.31173    0.008
 6017.00    1.38427   1.30957    0.008
 6018.00    1.44066   1.30808    0.008
 6019.00    1.50099   1.30663    0.008
 6020.00    1.52303   1.30544    0.008
 6021.00    1.54007   1.30591    0.008
 6022.00    1.53404   1.30813    0.008
 6023.00    1.52588   1.31160    0.008
 6024.00    1.49987   1.31610    0.008
 6025.00    1.47286   1.32198    0.008
 6026.00    1.44908   1.32823    0.008
 6027.00    1.42561   1.33407    0.008
 6028.00    1.42585   1.34013    0.008
 6029.00    1.42709   1.34609    0.008
 6030.00    1.45171   1.35099    0.008
 6031.00    1.47543   1.35494    0.008
 6032.00    1.48754   1.35842    0.008
 6033.00    1.50015   1.36130    0.008
 6034.00    1.51701   1.36312    0.008
 6035.00    1.52746   1.36388    0.008
 6036.00    1.49689   1.36395    0.008
 6037.00    1.46438   1.36354    0.008
 6038.00    1.42211   1.36270    0.008
 6039.00    1.38920   1.36136    0.008
 6040.00    1.39412   1.35998    0.008
 6041.00    1.38755   1.35935    0.008
 6042.00    1.34237   1.35971    0.008
 6043.00    1.30740   1.36139    0.008
 6044.00    1.30135   1.36371    0.008
 6045.00    1.31754   1.36572    0.008
 6046.00    1.38760   1.36744    0.008
 6047.00    1.44571   1.36875    0.008
 6048.00    1.47885   1.36899    0.008
 6049.00    1.48949   1.36799    0.008
 6050.00    1.45922   1.36612    0.008
 6051.00    1.44149   1.36311    0.008
 6052.00    1.44365   1.35895    0.008
 6053.00    1.44270   1.35453    0.008
 6054.00    1.43739   1.35103    0.008
 6055.00    1.43012   1.34868    0.008
 6056.00    1.42046   1.34735    0.008
 6057.00    1.42593   1.34744    0.008
 6058.00    1.44777   1.34865    0.008
 6059.00    1.45700   1.34979    0.008
 6060.00    1.45420   1.34981    0.008
 6061.00    1.43166   1.34859    0.008
 6062.00    1.39251   1.34654    0.008
 6063.00    1.37675   1.34424    0.008
 6064.00    1.37832   1.34225    0.008
 6065.00    1.38548   1.34147    0.008
 6066.00    1.39628   1.34417    0.008
 6067.00    1.41093   1.35056    0.008
 6068.00    1.42776   1.35779    0.008
 6069.00    1.46744   1.36425    0.008
 6070.00    1.51846   1.36981    0.008
 6071.00    1.53440   1.37424    0.008
 6072.00    1.53529   1.37694    0.008
 6073.00    1.48086   1.37722    0.008
 6074.00    1.40610   1.37512    0.008
 6075.00    1.32211   1.37117    0.008
 6076.00    1.23524   1.36559    0.008
 6077.00    1.22727   1.35882    0.008
 6078.00    1.23978   1.35155    0.008
 6079.00    1.30284   1.34537    0.008
 6080.00    1.37659   1.34115    0.008
 6081.00    1.43397   1.33752    0.008
 6082.00    1.48861   1.33442    0.008
 6083.00    1.42473   1.33303    0.008
 6084.00    1.34591   1.33307    0.008
 6085.00    1.31498   1.33335    0.008
 6086.00    1.28825   1.33379    0.008
 6087.00    1.30448   1.33460    0.008
 6088.00    1.32294   1.33545    0.008
 6089.00    1.31960   1.33562    0.008
 6090.00    1.31604   1.33535    0.008
 6091.00    1.32565   1.33599    0.007
 6092.00    1.33536   1.33770    0.007
 6093.00    1.34739   1.33981    0.007
 6094.00    1.35691   1.34255    0.008
 6095.00    1.33601   1.34543    0.008
 6096.00    1.31960   1.34642    0.008
 6097.00    1.34041   1.34468    0.008
 6098.00    1.36041   1.34111    0.008
 6099.00    1.37537   1.33663    0.008
 6100.00    1.38831   1.33113    0.008
 6101.00    1.39144   1.32402    0.008
 6102.00    1.39752   1.31629    0.008
 6103.00    1.41531   1.31256    0.008
 6104.00    1.42758   1.31605    0.008
 6105.00    1.42165   1.32293    0.008
 6106.00    1.41906   1.32935    0.008
 6107.00    1.42580   1.33504    0.008
 6108.00    1.41300   1.34100    0.008
 6109.00    1.35372   1.34733    0.008
 6110.00    1.31707   1.35190    0.008
 6111.00    1.32700   1.35346    0.008
 6112.00    1.35201   1.35390    0.008
 6113.00    1.40401   1.35477    0.008
 6114.00    1.44251   1.35501    0.008
 6115.00    1.45989   1.35295    0.008
 6116.00    1.45343   1.34828    0.008
 6117.00    1.41423   1.34264    0.007
 6118.00    1.37100   1.33687    0.007
 6119.00    1.32289   1.33013    0.007
 6120.00    1.27495   1.32268    0.007
 6121.00    1.22720   1.31575    0.007
 6122.00    1.21799   1.31107    0.007
 6123.00    1.24504   1.31127    0.007
 6124.00    1.28780   1.31537    0.007
 6125.00    1.34360   1.31976    0.007
 6126.00    1.38438   1.32370    0.007
 6127.00    1.41421   1.32766    0.007
 6128.00    1.42630   1.33139    0.007
 6129.00    1.42703   1.33454    0.007
 6130.00    1.41588   1.33613    0.008
 6131.00    1.39807   1.33479    0.008
 6132.00    1.35917   1.33000    0.008
 6133.00    1.30998   1.32270    0.008
 6134.00    1.29576   1.31353    0.008
 6135.00    1.29628   1.30250    0.008
 6136.00    1.32627   1.29064    0.008
 6137.00    1.36690   1.28207    0.008
 6138.00    1.38560   1.28182    0.008
 6139.00    1.39760   1.28865    0.008
 6140.00    1.39709   1.29664    0.008
 6141.00    1.39342   1.30311    0.008
 6142.00    1.37763   1.31058    0.008
 6143.00    1.35934   1.32055    0.008
 6144.00    1.35905   1.32929    0.008
 6145.00    1.36169   1.33368    0.008
 6146.00    1.35009   1.33470    0.007
 6147.00    1.33677   1.33415    0.007
 6148.00    1.31599   1.33300    0.007
 6149.00    1.29459   1.33167    0.007
 6150.00    1.30886   1.33056    0.007
 6151.00    1.32484   1.33029    0.007
 6152.00    1.33025   1.33028    0.007
 6153.00    1.33503   1.32936    0.007
 6154.00    1.31200   1.32650    0.007
 6155.00    1.29027   1.32187    0.007
 6156.00    1.29438   1.31567    0.008
 6157.00    1.29601   1.30702    0.008
 6158.00    1.26906   1.29623    0.008
 6159.00    1.24251   1.28462    0.008
 6160.00    1.21915   1.27204    0.008
 6161.00    1.20222   1.25912    0.008
 6162.00    1.22395   1.25004    0.008
 6163.00    1.24878   1.24794    0.008
 6164.00    1.28826   1.25105    0.008
 6165.00    1.32244   1.25595    0.008
 6166.00    1.33602   1.26134    0.008
 6167.00    1.34422   1.26744    0.008
 6168.00    1.33502   1.27241    0.008
 6169.00    1.31890   1.27469    0.008
 6170.00    1.28387   1.27770    0.008
 6171.00    1.26513   1.28412    0.008
 6172.00    1.28456   1.29164    0.008
 6173.00    1.30337   1.29765    0.007
 6174.00    1.32093   1.30309    0.007
 6175.00    1.32466   1.30890    0.007
 6176.00    1.30398   1.31439    0.007
 6177.00    1.28363   1.31932    0.007
 6178.00    1.26377   1.32398    0.007
 6179.00    1.24963   1.32793    0.007
 6180.00    1.24324   1.33078    0.007
 6181.00    1.24759   1.33317    0.007
 6182.00    1.26475   1.33474    0.007
 6183.00    1.27872   1.33437    0.007
 6184.00    1.28934   1.33213    0.007
 6185.00    1.28658   1.32797    0.008
 6186.00    1.27143   1.32132    0.008
 6187.00    1.26003   1.31367    0.008
 6188.00    1.25170   1.30706    0.008
 6189.00    1.27276   1.30198    0.008
 6190.00    1.31497   1.29759    0.008
 6191.00    1.35744   1.29416    0.008
 6192.00    1.40008   1.29546    0.008
 6193.00    1.37776   1.30218    0.008
 6194.00    1.31957   1.30944    0.008
 6195.00    1.23196   1.31502    0.008
 6196.00    1.13022   1.32004   -2.000
 6197.00    1.11332   1.32492   -2.000
 6198.00    1.13159   1.32802   -2.000
 6199.00    1.18016   1.32844   -2.000
 6200.00    1.23946   1.32887   -2.000
 6201.00    1.21729   1.33177   -2.000
 6202.00    1.17075   1.33609   -2.000
 6203.00    1.12495   1.33978   -2.000
 6204.00    1.07934   1.34238   -2.000
 6205.00    1.10917   1.34453   -2.000
 6206.00    1.15418   1.34605   -2.000
 6207.00    1.22337   1.34566   -2.000
 6208.00    1.29636   1.34259    0.008
 6209.00    1.29166   1.33711    0.008
 6210.00    1.27786   1.32971    0.008
 6211.00    1.27015   1.32106    0.007
 6212.00    1.26293   1.31195    0.007
 6213.00    1.31030   1.30229    0.007
 6214.00    1.36008   1.29338    0.008
 6215.00    1.37802   1.28700    0.008
 6216.00    1.39516   1.28389    0.008
 6217.00    1.39006   1.28371    0.008
 6218.00    1.38452   1.28463    0.008
 6219.00    1.37077   1.28531    0.008
 6220.00    1.35950   1.28694    0.008
 6221.00    1.37546   1.29058    0.008
 6222.00    1.39188   1.29514    0.008
 6223.00    1.41180   1.29867    0.008
 6224.00    1.43018   1.30003    0.008
 6225.00    1.43961   1.29986    0.008
 6226.00    1.44741   1.29848    0.007
 6227.00    1.44767   1.29546    0.008
 6228.00    1.44386   1.29093    0.008
 6229.00    1.42461   1.28527    0.008
 6230.00    1.40320   1.27980    0.008
 6231.00    1.37494   1.27746    0.007
 6232.00    1.34926   1.27931    0.007
 6233.00    1.33052   1.28338    0.007
 6234.00    1.31890   1.28844    0.007
 6235.00    1.32369   1.29282    0.007
 6236.00    1.33615   1.29491    0.007
 6237.00    1.36390   1.29401    0.007
 6238.00    1.37413   1.29034    0.007
 6239.00    1.35397   1.28537    0.007
 6240.00    1.33494   1.28020    0.007
 6241.00    1.31762   1.27584    0.007
 6242.00    1.29895   1.27188    0.007
 6243.00    1.27848   1.26812    0.007
 6244.00    1.26224   1.26692    0.007
 6245.00    1.25099   1.26823    0.008
 6246.00    1.25904   1.26996    0.008
 6247.00    1.28712   1.27226    0.008
 6248.00    1.30942   1.27537    0.008
 6249.00    1.32643   1.27772    0.008
 6250.00    1.31748   1.27780    0.008
 6251.00    1.28759   1.27483    0.008
 6252.00    1.28102   1.26931    0.007
 6253.00    1.29097   1.26361    0.007
 6254.00    1.29525   1.25916    0.007
 6255.00    1.29599   1.25619    0.007
 6256.00    1.28525   1.25433    0.007
 6257.00    1.26827   1.25419    0.007
 6258.00    1.27703   1.25716    0.007
 6259.00    1.29795   1.26347    0.008
 6260.00    1.33277   1.27195    0.008
 6261.00    1.37324   1.28033    0.009
 6262.00    1.35100   1.28875    0.009
 6263.00    1.30694   1.29687    0.009
 6264.00    1.20312   1.30229    0.009
 6265.00    1.08178   1.30495    0.009
 6266.00    1.09950   1.30734    0.008
 6267.00    1.15101   1.31034    0.008
 6268.00    1.25814   1.31231    0.008
 6269.00    1.37620   1.31300    0.008
 6270.00    1.43463   1.31417    0.008
 6271.00    1.48392   1.31677    0.008
 6272.00    1.43883   1.31975    0.008
 6273.00    1.38309   1.32196    0.008
 6274.00    1.36108   1.32303    0.008
 6275.00    1.34162   1.32330    0.008
 6276.00    1.34899   1.32310    0.007
 6277.00    1.35745   1.32215    0.007
 6278.00    1.36759   1.32068    0.007
 6279.00    1.37778   1.31909    0.007
 6280.00    1.38967   1.31768    0.000
 6281.00    1.39971   1.31794    0.000
 6282.00    1.37849   1.32029    0.000
 6283.00    1.35611   1.32396    0.000
 6284.00    1.32151   1.32823    0.000
 6285.00    1.29630   1.33180    0.000
 6286.00    1.34122   1.33492    0.000
 6287.00    1.37966   1.33779    0.000
 6288.00    1.38120   1.33942    0.000
 6289.00    1.38203   1.33930    0.000
 6290.00    1.37959   1.33717    0.000
 6291.00    1.38145   1.33370    0.000
 6292.00    1.39930   1.32984    0.000
 6293.00    1.40559   1.32573    0.000
 6294.00    1.37601   1.32202    0.000
 6295.00    1.35366   1.31811    0.000
 6296.00    1.35035   1.31279    0.000
 6297.00    1.35389   1.30721    0.000
 6298.00    1.37295   1.30334    0.000
 6299.00    1.38375   1.30142    0.000
 6300.00    1.37837   1.29977    0.000
 6301.00    1.37007   1.29800    0.000
 6302.00    1.35677   1.29852    0.000
 6303.00    1.36138   1.30287    0.000
 6304.00    1.39281   1.30886    0.000
 6305.00    1.40572   1.31389    0.000
 6306.00    1.39427   1.31853    0.000
 6307.00    1.39385   1.32359    0.000
 6308.00    1.40624   1.32749    0.000
 6309.00    1.40691   1.32804    0.000
 6310.00    1.39562   1.32514    0.000
 6311.00    1.38125   1.32059    0.000
 6312.00    1.36412   1.31561    0.000
 6313.00    1.35385   1.30976    0.000
 6314.00    1.34905   1.30235    0.000
 6315.00    1.35043   1.29536    0.000
 6316.00    1.35611   1.29156    0.000
 6317.00    1.34055   1.28966    0.000
 6318.00    1.31195   1.28845    0.000
 6319.00    1.29651   1.29068    0.000
 6320.00    1.28812   1.29695    0.000
 6321.00    1.30886   1.30427    0.007
 6322.00    1.34316   1.31083    0.007
 6323.00    1.38206   1.31756    0.007
 6324.00    1.42280   1.32489    0.008
 6325.00    1.39884   1.33074    0.008
 6326.00    1.35279   1.33401    0.008
 6327.00    1.33412   1.33550    0.007
 6328.00    1.32332   1.33667    0.007
 6329.00    1.32140   1.33698    0.007
 6330.00    1.32160   1.33448    0.007
 6331.00    1.30135   1.33021    0.007
 6332.00    1.27719   1.32611    0.007
 6333.00    1.27403   1.32216    0.007
 6334.00    1.27399   1.31663    0.007
 6335.00    1.30043   1.30970    0.007
 6336.00    1.32973   1.30485    0.007
 6337.00    1.35928   1.30395    0.007
 6338.00    1.38886   1.30463    0.007
 6339.00    1.39883   1.30465    0.007
 6340.00    1.40809   1.30554    0.007
 6341.00    1.37548   1.30717    0.007
 6342.00    1.34357   1.30721    0.007
 6343.00    1.34217   1.30548    0.007
 6344.00    1.33887   1.30427    0.007
 6345.00    1.30535   1.30502    0.007
 6346.00    1.27588   1.30639    0.007
 6347.00    1.28720   1.30841    0.007
 6348.00    1.30137   1.31272    0.007
 6349.00    1.33612   1.31780    0.007
 6350.00    1.36246   1.32126    0.007
 6351.00    1.34229   1.32308    0.008
 6352.00    1.31773   1.32375    0.008
 6353.00    1.27373   1.32193    0.007
 6354.00    1.23712   1.31683    0.007
 6355.00    1.22739   1.31032    0.007
 6356.00    1.22618   1.30432    0.007
 6357.00    1.25090   1.29760    0.007
 6358.00    1.27007   1.28930    0.007
 6359.00    1.27488   1.28202    0.007
 6360.00    1.28417   1.27772    0.007
 6361.00    1.30345   1.27531    0.007
 6362.00    1.31726   1.27444    0.007
 6363.00    1.32050   1.27677    0.007
 6364.00    1.30724   1.28246    0.007
 6365.00    1.26620   1.28933    0.007
 6366.00    1.23732   1.29604    0.007
 6367.00    1.22641   1.30303    0.007
 6368.00    1.24138   1.31032    0.007
 6369.00    1.28993   1.31625    0.008
 6370.00    1.34283   1.32029    0.008
 6371.00    1.40071   1.32432    0.008
 6372.00    1.40521   1.32982    0.008
 6373.00    1.35590   1.33499    0.008
 6374.00    1.32465   1.33785    0.008
 6375.00    1.30946   1.33916    0.008
 6376.00    1.30404   1.34028    0.008
 6377.00    1.30628   1.34048    0.008
 6378.00    1.31152   1.33888    0.007
 6379.00    1.31883   1.33647    0.007
 6380.00    1.35067   1.33453    0.007
 6381.00    1.39732   1.33341    0.007
 6382.00    1.43071   1.33354    0.007
 6383.00    1.45711   1.33419    0.007
 6384.00    1.46714   1.33479    0.007
 6385.00    1.46968   1.33620    0.007
 6386.00    1.45937   1.33867    0.007
 6387.00    1.44400   1.34032    0.007
 6388.00    1.43399   1.33959    0.007
 6389.00    1.42577   1.33738    0.007
 6390.00    1.39457   1.33497    0.007
 6391.00    1.35690   1.33212    0.007
 6392.00    1.32504   1.32779    0.007
 6393.00    1.29454   1.32293    0.007
 6394.00    1.28491   1.32052    0.007
 6395.00    1.27917   1.32049    0.008
 6396.00    1.30767   1.32051    0.008
 6397.00    1.34108   1.32056    0.008
 6398.00    1.33758   1.32093    0.008
 6399.00    1.33024   1.32027    0.007
 6400.00    1.31771   1.31980    0.007
 6401.00    1.30482   1.32304    0.008
 6402.00    1.29919   1.32794    0.007
 6403.00    1.29380   1.33055    0.007
 6404.00    1.25967   1.33168    0.007
 6405.00    1.22553   1.33287    0.007
 6406.00    1.19176   1.33257    0.007
 6407.00    1.16156   1.32948    0.007
 6408.00    1.18487   1.32594    0.007
 6409.00    1.20880   1.32487    0.007
 6410.00    1.23871   1.32402    0.007
 6411.00    1.26186   1.32154    0.007
 6412.00    1.23785   1.32054    0.007
 6413.00    1.21159   1.32208    0.007
 6414.00    1.17327   1.32317    0.007
 6415.00    1.14773   1.32255    0.007
 6416.00    1.17740   1.32159    0.007
 6417.00    1.21253   1.32111    0.007
 6418.00    1.26708   1.32135    0.007
 6419.00    1.31412   1.32159    0.007
 6420.00    1.33872   1.32191    0.007
 6421.00    1.35908   1.32444    0.007
 6422.00    1.36868   1.33057    0.007
 6423.00    1.37677   1.33827    0.007
 6424.00    1.38152   1.34399    0.007
 6425.00    1.39080   1.34739    0.007
 6426.00    1.40865   1.34945    0.007
 6427.00    1.40746   1.34982    0.007
 6428.00    1.37467   1.34781    0.007
 6429.00    1.35340   1.34346    0.007
 6430.00    1.34890   1.33775    0.007
 6431.00    1.35447   1.33316    0.007
 6432.00    1.37294   1.33170    0.007
 6433.00    1.38360   1.33196    0.007
 6434.00    1.38545   1.33183    0.007
 6435.00    1.37696   1.33171    0.007
 6436.00    1.35819   1.33270    0.007
 6437.00    1.32620   1.33374    0.007
 6438.00    1.28262   1.33321    0.007
 6439.00    1.26552   1.33348    0.007
 6440.00    1.26887   1.33796    0.007
 6441.00    1.28736   1.34448    0.007
 6442.00    1.31612   1.34956    0.007
 6443.00    1.31770   1.35311    0.007
 6444.00    1.30311   1.35524    0.007
 6445.00    1.30196   1.35436    0.007
 6446.00    1.30777   1.35034    0.008
 6447.00    1.31057   1.34461    0.008
 6448.00    1.31202   1.33697    0.008
 6449.00    1.29636   1.32752    0.008
 6450.00    1.27409   1.31990    0.008
 6451.00    1.26939   1.31705    0.008
 6452.00    1.27048   1.31686    0.007
 6453.00    1.29909   1.31755    0.007
 6454.00    1.33529   1.31909    0.007
 6455.00    1.33466   1.32060    0.007
 6456.00    1.32568   1.32248    0.007
 6457.00    1.32412   1.32570    0.007
 6458.00    1.32389   1.32859    0.007
 6459.00    1.33637   1.32984    0.007
 6460.00    1.35062   1.33046    0.007
 6461.00    1.33939   1.33019    0.007
 6462.00    1.32563   1.32844    0.007
 6463.00    1.31807   1.32851    0.007
 6464.00    1.31091   1.33247    0.007
 6465.00    1.31689   1.33686    0.007
 6466.00    1.32319   1.34001    0.007
 6467.00    1.31163   1.34324    0.007
 6468.00    1.30137   1.34678    0.007
 6469.00    1.32773   1.34897    0.007
 6470.00    1.35294   1.34945    0.007
 6471.00    1.36191   1.34886    0.007
 6472.00    1.36571   1.34906    0.007
 6473.00    1.32150   1.35078    0.008
 6474.00    1.28024   1.35174    0.008
 6475.00    1.25894   1.35138    0.007
 6476.00    1.24570   1.35139    0.007
 6477.00    1.27478   1.35117    0.007
 6478.00    1.30601   1.34866    0.007
 6479.00    1.34627   1.34484    0.007
 6480.00    1.37875   1.34139    0.007
 6481.00    1.38410   1.33743    0.007
 6482.00    1.38302   1.33327    0.007
 6483.00    1.36311   1.33154    0.007
 6484.00    1.34372   1.33238    0.007
 6485.00    1.32565   1.33311    0.007
 6486.00    1.31907   1.33241    0.007
 6487.00    1.33726   1.33057    0.007
 6488.00    1.34670   1.32662    0.007
 6489.00    1.33975   1.31815    0.007
 6490.00    1.31587   1.30454    0.007
 6491.00    1.26433   1.28847    0.007
 6492.00    1.21902   1.27204    0.007
 6493.00    1.18264   1.25522    0.007
 6494.00    1.17165   1.23942    0.008
 6495.00    1.19269   1.22919    0.007
 6496.00    1.22203   1.22708    0.007
 6497.00    1.26060   1.23185    0.007
 6498.00    1.29900   1.24155    0.007
 6499.00    1.33726   1.25437    0.007
 6500.00    1.36439   1.26996    0.007
 6501.00    1.38192   1.28671    0.007
 6502.00    1.37492   1.30178    0.007
 6503.00    1.34926   1.31393    0.007
 6504.00    1.33616   1.32340    0.007
 6505.00    1.33146   1.33072    0.007
 6506.00    1.32468   1.33615    0.007
 6507.00    1.31668   1.33938    0.007
 6508.00    1.30752   1.34042    0.007
 6509.00    1.29776   1.34069    0.007
 6510.00    1.30442   1.34087    0.011
 6511.00    1.31835   1.33965    0.050
 6512.00    1.32541   1.33664   -1.000
 6513.00    1.32986   1.33338   -1.000
 6514.00    1.33549   1.32994   -1.000
 6515.00    1.34151   1.32566   -1.000
 6516.00    1.35392   1.32213   -1.000
 6517.00    1.36806   1.32092   -1.000
 6518.00    1.36067   1.32098   -1.000
 6519.00    1.34851   1.32207   -1.000
 6520.00    1.35205   1.32533   -1.000
 6521.00    1.35836   1.32933   -1.000
 6522.00    1.39764   1.33175    0.016
 6523.00    1.44136   1.33280    0.008
 6524.00    1.41881   1.33371    0.007
 6525.00    1.38992   1.33382    0.007
 6526.00    1.33626   1.33184    0.007
 6527.00    1.28114   1.32892    0.007
 6528.00    1.26959   1.32670    0.000
 6529.00    1.25933   1.32511    0.000
 6530.00    1.27762   1.32344    0.000
 6531.00    1.29569   1.32173    0.000
 6532.00    1.30820   1.32015    0.000
 6533.00    1.32068   1.31904    0.000
 6534.00    1.33290   1.31906    0.000
 6535.00    1.34468   1.32009    0.000
 6536.00    1.35260   1.32062    0.000
 6537.00    1.35892   1.31975    0.000
 6538.00    1.35474   1.31843    0.000
 6539.00    1.34883   1.31705    0.000
 6540.00    1.33412   1.31397    0.000
 6541.00    1.33418   1.30793    0.000
 6542.00    1.39526   1.29994    0.000
 6543.00    1.45156   1.29184    0.000
 6544.00    1.49150   1.28394    0.000
 6545.00    1.51772   1.27527    0.000
 6546.00    1.50441   1.26628    0.000
 6547.00    1.48424   1.25907    0.000
 6548.00    1.44720   1.25352    0.000
 6549.00    1.41263   1.24736    0.000
 6550.00    1.38330   1.23918    0.000
 6551.00    1.35636   1.22931    0.000
 6552.00    1.33382   1.21826    0.000
 6553.00    1.35347   1.20534    0.000
 6554.00    1.44101   1.18906    0.000
 6555.00    1.62357   1.16969    0.000
 6556.00    1.94032   1.14864    0.000
 6557.00    2.31148   1.12485    0.000
 6558.00    2.75027   1.09588    0.000
 6559.00    3.06539   1.06506    0.000
 6560.00    3.24508   1.03892    0.000
 6561.00    3.17703   1.01725    0.000
 6562.00    2.86965   0.99845    0.000
 6563.00    2.49546   0.99139    0.000
 6564.00    2.06437   1.00385    0.000
 6565.00    1.75330   1.02712    0.000
 6566.00    1.53229   1.05247    0.000
 6567.00    1.40413   1.08099    0.000
 6568.00    1.33717   1.11146    0.000
 6569.00    1.31225   1.13773    0.000
 6570.00    1.31159   1.15842    0.000
 6571.00    1.30730   1.17565    0.000
 6572.00    1.30119   1.18985    0.000
 6573.00    1.31195   1.20166    0.000
 6574.00    1.33005   1.21284    0.000
 6575.00    1.40411   1.22434    0.000
 6576.00    1.49908   1.23612    0.000
 6577.00    1.66865   1.24731    0.000
 6578.00    1.86185   1.25736    0.000
 6579.00    2.03334   1.26598    0.000
 6580.00    2.19908   1.27293    0.000
 6581.00    2.17480   1.27830    0.000
 6582.00    2.10944   1.28300    0.000
 6583.00    1.91970   1.28732    0.000
 6584.00    1.70861   1.29099    0.000
 6585.00    1.54758   1.29369    0.000
 6586.00    1.39304   1.29568    0.000
 6587.00    1.32774   1.29734    0.000
 6588.00    1.27058   1.29750    0.000
 6589.00    1.24956   1.29516    0.000
 6590.00    1.23053   1.29226    0.000
 6591.00    1.25216   1.28948    0.000
 6592.00    1.27467   1.28535    0.000
 6593.00    1.29843   1.28127    0.000
 6594.00    1.32053   1.28129    0.000
 6595.00    1.30457   1.28506    0.000
 6596.00    1.29166   1.28945    0.000
 6597.00    1.31741   1.29431    0.000
 6598.00    1.34187   1.30053    0.000
 6599.00    1.35526   1.30737    0.000
 6600.00    1.36580   1.31332    0.000
 6601.00    1.35820   1.31738    0.000
 6602.00    1.34320   1.31936    0.000
 6603.00    1.29139   1.31971    0.000
 6604.00    1.24709   1.31849    0.000
 6605.00    1.23308   1.31584    0.000
 6606.00    1.22855   1.31336    0.000
 6607.00    1.25574   1.31209    0.000
 6608.00    1.28540   1.31119    0.000
 6609.00    1.32203   1.31075    0.007
 6610.00    1.35050   1.31301    0.007
 6611.00    1.35925   1.31813    0.007
 6612.00    1.36343   1.32284    0.007
 6613.00    1.35807   1.32608    0.007
 6614.00    1.35602   1.32997    0.007
 6615.00    1.35998   1.33509    0.007
 6616.00    1.35910   1.33871    0.007
 6617.00    1.35057   1.34009    0.007
 6618.00    1.34696   1.34097    0.007
 6619.00    1.35021   1.34187    0.007
 6620.00    1.36382   1.34113    0.007
 6621.00    1.39011   1.33884    0.007
 6622.00    1.40271   1.33640    0.007
 6623.00    1.40053   1.33363    0.007
 6624.00    1.39267   1.32993    0.007
 6625.00    1.37940   1.32655    0.007
 6626.00    1.34403   1.32464    0.007
 6627.00    1.29011   1.32270    0.007
 6628.00    1.25339   1.31991    0.007
 6629.00    1.22940   1.31677    0.007
 6630.00    1.23476   1.31374    0.007
 6631.00    1.25917   1.31110    0.007
 6632.00    1.27091   1.30885    0.007
 6633.00    1.27544   1.30689    0.007
 6634.00    1.28492   1.30645    0.007
 6635.00    1.29685   1.30845    0.007
 6636.00    1.27045   1.31168    0.007
 6637.00    1.22765   1.31506    0.007
 6638.00    1.19598   1.31805    0.007
 6639.00    1.16838   1.31962    0.007
 6640.00    1.17878   1.32038    0.007
 6641.00    1.20099   1.32176    0.007
 6642.00    1.23951   1.32218    0.007
 6643.00    1.28226   1.32045    0.007
 6644.00    1.29301   1.31972    0.007
 6645.00    1.29702   1.32189    0.007
 6646.00    1.26658   1.32410    0.007
 6647.00    1.23040   1.32484    0.007
 6648.00    1.20862   1.32620    0.007
 6649.00    1.18866   1.32876    0.007
 6650.00    1.19517   1.33050    0.007
 6651.00    1.20398   1.33095    0.007
 6652.00    1.23010   1.33103    0.007
 6653.00    1.25710   1.33112    0.007
 6654.00    1.29217   1.33091    0.007
 6655.00    1.32670   1.33016    0.007
 6656.00    1.31339   1.32856    0.007
 6657.00    1.29989   1.32650    0.007
 6658.00    1.28280   1.32415    0.007
 6659.00    1.26613   1.32049    0.007
 6660.00    1.25461   1.31612    0.007
 6661.00    1.24517   1.31244    0.007
 6662.00    1.25283   1.30899    0.007
 6663.00    1.25841   1.30522    0.007
 6664.00    1.25109   1.30356    0.007
 6665.00    1.24844   1.30477    0.007
 6666.00    1.26847   1.30681    0.007
 6667.00    1.28810   1.30914    0.007
 6668.00    1.30615   1.31291    0.007
 6669.00    1.32611   1.31757    0.007
 6670.00    1.35230   1.32144    0.007
 6671.00    1.36520   1.32388    0.007
 6672.00    1.34117   1.32474    0.007
 6673.00    1.31609   1.32331    0.007
 6674.00    1.28850   1.31985    0.007
 6675.00    1.26682   1.31619    0.007
 6676.00    1.25728   1.31249    0.007
 6677.00    1.24909   1.30745    0.007
 6678.00    1.24329   1.30338    0.007
 6679.00    1.23917   1.30410    0.007
 6680.00    1.23766   1.30772    0.007
 6681.00    1.25524   1.31084    0.007
 6682.00    1.29902   1.31464    0.007
 6683.00    1.33839   1.32029    0.007
 6684.00    1.37247   1.32558    0.007
 6685.00    1.38319   1.32914    0.007
 6686.00    1.36904   1.33176    0.007
 6687.00    1.34860   1.33361    0.007
 6688.00    1.32226   1.33443    0.007
 6689.00    1.31991   1.33470    0.007
 6690.00    1.33744   1.33448    0.007
 6691.00    1.34339   1.33308    0.007
 6692.00    1.34090   1.33056    0.007
 6693.00    1.31877   1.32792    0.007
 6694.00    1.28408   1.32537    0.007
 6695.00    1.27983   1.32226    0.007
 6696.00    1.29261   1.31931    0.000
 6697.00    1.29779   1.31799    0.000
 6698.00    1.29927   1.31795    0.000
 6699.00    1.27571   1.31824    0.000
 6700.00    1.24162   1.31893    0.000
 6701.00    1.24227   1.32009    0.000
 6702.00    1.25544   1.32093    0.000
 6703.00    1.30414   1.32091    0.000
 6704.00    1.36366   1.32043    0.000
 6705.00    1.37663   1.32041    0.000
 6706.00    1.37782   1.32027    0.000
 6707.00    1.37648   1.31949    0.000
 6708.00    1.37461   1.31848    0.000
 6709.00    1.43927   1.31719    0.000
 6710.00    1.51471   1.31473    0.000
 6711.00    1.58436   1.31156    0.000
 6712.00    1.65332   1.30773    0.000
 6713.00    1.67862   1.30270    0.000
 6714.00    1.70031   1.29772    0.000
 6715.00    1.65480   1.29445    0.000
 6716.00    1.60611   1.29215    0.000
 6717.00    1.52258   1.29030    0.000
 6718.00    1.43942   1.29101    0.000
 6719.00    1.40460   1.29524    0.000
 6720.00    1.37160   1.30002    0.000
 6721.00    1.37400   1.30360    0.000
 6722.00    1.37775   1.30733    0.000
 6723.00    1.39685   1.31201    0.000
 6724.00    1.42154   1.31569    0.000
 6725.00    1.49074   1.31734    0.000
 6726.00    1.55178   1.31832    0.000
 6727.00    1.56384   1.32013    0.000
 6728.00    1.56911   1.32181    0.000
 6729.00    1.54216   1.32259    0.000
 6730.00    1.51064   1.32320    0.000
 6731.00    1.46142   1.32408    0.000
 6732.00    1.41210   1.32433    0.000
 6733.00    1.36240   1.32361    0.000
 6734.00    1.31573   1.32251    0.000
 6735.00    1.27726   1.32137    0.000
 6736.00    1.24227   1.32006    0.000
 6737.00    1.21541   1.31820    0.000
 6738.00    1.20441   1.31571    0.000
 6739.00    1.22547   1.31332    0.000
 6740.00    1.24040   1.31193    0.000
 6741.00    1.24454   1.31076    0.000
 6742.00    1.25561   1.30873    0.000
 6743.00    1.27734   1.30660    0.000
 6744.00    1.29504   1.30570    0.000
 6745.00    1.30729   1.30493    0.000
 6746.00    1.30310   1.30316    0.000
 6747.00    1.27933   1.30169    0.000
 6748.00    1.25901   1.30089    0.000
 6749.00    1.24232   1.30016    0.000
 6750.00    1.23402   1.29998    0.000
 6751.00    1.23350   1.30124    0.000
 6752.00    1.23433   1.30291    0.000
 6753.00    1.23627   1.30491    0.008
 6754.00    1.23538   1.30856    0.008
 6755.00    1.23247   1.31286    0.008
 6756.00    1.19529   1.31679    0.008
 6757.00    1.13651   1.32086    0.008
 6758.00    1.12843   1.32497    0.008
 6759.00    1.14829   1.32814    0.008
 6760.00    1.27144   1.33019    0.009
 6761.00    1.44409   1.33111    0.009
 6762.00    1.56073   1.33052    0.009
 6763.00    1.65420   1.32868    0.009
 6764.00    1.67727   1.32621    0.009
 6765.00    1.67544   1.32344    0.009
 6766.00    1.63176   1.32019    0.009
 6767.00    1.57560   1.31668    0.008
 6768.00    1.50361   1.31469    0.008
 6769.00    1.42771   1.31492    0.008
 6770.00    1.40765   1.31595    0.008
 6771.00    1.39879   1.31728    0.008
 6772.00    1.41882   1.32054    0.008
 6773.00    1.44338   1.32522    0.008
 6774.00    1.43924   1.32960    0.008
 6775.00    1.43174   1.33337    0.008
 6776.00    1.39889   1.33652    0.008
 6777.00    1.36405   1.33802    0.008
 6778.00    1.38435   1.33791    0.008
 6779.00    1.40705   1.33642    0.008
 6780.00    1.35739   1.33303    0.008
 6781.00    1.30842   1.32832    0.008
 6782.00    1.32669   1.32330    0.008
 6783.00    1.34431   1.31842    0.008
 6784.00    1.35013   1.31449    0.008
 6785.00    1.35470   1.31233    0.008
 6786.00    1.34546   1.31161    0.008
 6787.00    1.33425   1.31236    0.008
 6788.00    1.30786   1.31434    0.008
 6789.00    1.29197   1.31600    0.008
 6790.00    1.33726   1.31702    0.008
 6791.00    1.36633   1.31820    0.008
 6792.00    1.32036   1.31885    0.008
 6793.00    1.28457   1.31823    0.008
 6794.00    1.28725   1.31762    0.008
 6795.00    1.29326   1.31782    0.008
 6796.00    1.30975   1.31834    0.008
 6797.00    1.32795   1.31927    0.008
 6798.00    1.35074   1.32071    0.008
 6799.00    1.36328   1.32202    0.008
 6800.00    1.35226   1.32326    0.008
 6801.00    1.32847   1.32465    0.008
 6802.00    1.27930   1.32546    0.008
 6803.00    1.24945   1.32511    0.008
 6804.00    1.25309   1.32457    0.008
 6805.00    1.23664   1.32453    0.008
 6806.00    1.18972   1.32360    0.008
 6807.00    1.16999   1.32213    0.008
 6808.00    1.18652   1.32167    0.007
 6809.00    1.21840   1.32120    0.007
 6810.00    1.26830   1.31996    0.007
 6811.00    1.30442   1.31927    0.008
 6812.00    1.32627   1.31951    0.008
 6813.00    1.31821   1.31978    0.008
 6814.00    1.28285   1.31978    0.008
 6815.00    1.24457   1.32002    0.008
 6816.00    1.20394   1.32128    0.008
 6817.00    1.18165   1.32315    0.008
 6818.00    1.17235   1.32467    0.008
 6819.00    1.19758   1.32596    0.008
 6820.00    1.24426   1.32755    0.008
 6821.00    1.28108   1.32965    0.008
 6822.00    1.31253   1.33156    0.008
 6823.00    1.32940   1.33266    0.008
 6824.00    1.33939   1.33287    0.008
 6825.00    1.31579   1.33271    0.008
 6826.00    1.27852   1.33242    0.008
 6827.00    1.25591   1.33149    0.008
 6828.00    1.23839   1.32995    0.008
 6829.00    1.26401   1.32915    0.008
 6830.00    1.30224   1.32954    0.008
 6831.00    1.33383   1.32990    0.008
 6832.00    1.36381   1.32948    0.008
 6833.00    1.36165   1.32859    0.008
 6834.00    1.35320   1.32744    0.008
 6835.00    1.35916   1.32515    0.008
 6836.00    1.36733   1.32101    0.008
 6837.00    1.39031   1.31572    0.008
 6838.00    1.41495   1.31037    0.008
 6839.00    1.33883   1.30525    0.008
 6840.00    1.25518   1.30111    0.008
 6841.00    1.20893   1.29860    0.008
 6842.00    1.16416   1.29820    0.008
 6843.00    1.17064   1.30029    0.008
 6844.00    1.18053   1.30445    0.008
 6845.00    1.31220   1.30954    0.008
 6846.00    1.43184   1.31449    0.008
 6847.00    1.34834   1.31893    0.008
 6848.00    1.26793   1.32263    0.008
 6849.00    1.21992   1.32498    0.008
 6850.00    1.17946   1.32540    0.008
 6851.00    1.19509   1.32393    0.007
 6852.00    1.21236   1.32185    0.007
 6853.00    1.23891   1.31944    0.007
 6854.00    1.26012   1.31554    0.007
 6855.00    1.25722   1.31125    0.007
 6856.00    1.26236   1.30895    0.007
 6857.00    1.29728   1.30740    0.007
 6858.00    1.31989   1.30567    0.008
 6859.00    1.30434   1.30592    0.008
 6860.00    1.29186   1.30743    0.008
 6861.00    1.28745   1.30820    0.008
 6862.00    1.26293   1.30951    0.008
 6863.00    1.19299   1.31215    0.008
 6864.00    1.15031   1.31397    0.008
 6865.00    1.16102   1.31433    0.008
 6866.00    1.15819   1.31465    0.008
 6867.00    1.13228   1.31453    0.008
 6868.00    1.14065   1.31341    0.008
 6869.00    1.20027   1.31288    0.008
 6870.00    1.23078   1.31342    0.008
 6871.00    1.22307   1.31344    0.008
 6872.00    1.22680   1.31318    0.008
 6873.00    1.24376   1.31446    0.007
 6874.00    1.27342   1.31646    0.007
 6875.00    1.31605   1.31747    0.007
 6876.00    1.31829   1.31828    0.007
 6877.00    1.28419   1.31962    0.007
 6878.00    1.25118   1.32014    0.007
 6879.00    1.21904   1.31935    0.007
 6880.00    1.19387   1.31881    0.007
 6881.00    1.17357   1.31838    0.007
 6882.00    1.18516   1.31756    0.007
 6883.00    1.21627   1.31782    0.008
 6884.00    1.25492   1.32037    0.008
 6885.00    1.29758   1.32337    0.008
 6886.00    1.29161   1.32603    0.008
 6887.00    1.26307   1.33011    0.008
 6888.00    1.24053   1.33485    0.008
 6889.00    1.22040   1.33807    0.008
 6890.00    1.24631   1.34041    0.008
 6891.00    1.28789   1.34263    0.007
 6892.00    1.26746   1.34336    0.007
 6893.00    1.22925   1.34298    0.007
 6894.00    1.26486   1.34285    0.007
 6895.00    1.31795   1.34225    0.007
 6896.00    1.34379   1.34104    0.007
 6897.00    1.36443   1.34078    0.007
 6898.00    1.30926   1.34142    0.007
 6899.00    1.24289   1.34158    0.008
 6900.00    1.21765   1.34162    0.008
 6901.00    1.19684   1.34255    0.008
 6902.00    1.20005   1.34389    0.008
 6903.00    1.20497   1.34483    0.008
 6904.00    1.18002   1.34555    0.008
 6905.00    1.15400   1.34636    0.008
 6906.00    1.17590   1.34708    0.008
 6907.00    1.19757   1.34752    0.008
 6908.00    1.20568   1.34713    0.008
 6909.00    1.21361   1.34612    0.008
 6910.00    1.21850   1.34431    0.008
 6911.00    1.22452   1.34180    0.007
 6912.00    1.24172   1.33940    0.007
 6913.00    1.25094   1.33692    0.007
 6914.00    1.20275   1.33440    0.007
 6915.00    1.16860   1.33368    0.007
 6916.00    1.21184   1.33435    0.007
 6917.00    1.24697   1.33496    0.007
 6918.00    1.24632   1.33658    0.007
 6919.00    1.24370   1.33886    0.007
 6920.00    1.23398   1.34023    0.007
 6921.00    1.21361   1.34051    0.008
 6922.00    1.16091   1.34035    0.008
 6923.00    1.13537   1.33950    0.008
 6924.00    1.18008   1.33772    0.008
 6925.00    1.20579   1.33619    0.008
 6926.00    1.18930   1.33568    0.008
 6927.00    1.18960   1.33623    0.008
 6928.00    1.22227   1.33716    0.008
 6929.00    1.26739   1.33799    0.008
 6930.00    1.33341   1.33908    0.008
 6931.00    1.35993   1.34069    0.008
 6932.00    1.32827   1.34175    0.008
 6933.00    1.27598   1.34200    0.007
 6934.00    1.19699   1.34319    0.008
 6935.00    1.17735   1.34513    0.008
 6936.00    1.22544   1.34634    0.008
 6937.00    1.28013   1.34719    0.008
 6938.00    1.34148   1.34828    0.008
 6939.00    1.35434   1.34875    0.008
 6940.00    1.32417   1.34813    0.008
 6941.00    1.29052   1.34664    0.008
 6942.00    1.25413   1.34447    0.008
 6943.00    1.27639   1.34213    0.008
 6944.00    1.33896   1.33969    0.008
 6945.00    1.35965   1.33737    0.008
 6946.00    1.35509   1.33667    0.008
 6947.00    1.33581   1.33673    0.008
 6948.00    1.30878   1.33634    0.008
 6949.00    1.31488   1.33649    0.008
 6950.00    1.33609   1.33697    0.008
 6951.00    1.31086   1.33634    0.008
 6952.00    1.26739   1.33625    0.008
 6953.00    1.28045   1.33726    0.008
 6954.00    1.31242   1.33806    0.008
 6955.00    1.30223   1.33936    0.008
 6956.00    1.28018   1.34191    0.008
 6957.00    1.23032   1.34455    0.008
 6958.00    1.17402   1.34679    0.008
 6959.00    1.16836   1.34908    0.008
 6960.00    1.17210   1.35117    0.008
 6961.00    1.18151   1.35305    0.008
 6962.00    1.19172   1.35422    0.008
 6963.00    1.20464   1.35489    0.008
 6964.00    1.21783   1.35594    0.008
 6965.00    1.22198   1.35660    0.008
 6966.00    1.22553   1.35633    0.008
 6967.00    1.24393   1.35647    0.008
 6968.00    1.26282   1.35678    0.008
 6969.00    1.28570   1.35613    0.008
 6970.00    1.30747   1.35450    0.008
 6971.00    1.29502   1.35128    0.008
 6972.00    1.28255   1.34727    0.008
 6973.00    1.26959   1.34293    0.008
 6974.00    1.25519   1.33643    0.008
 6975.00    1.22682   1.32852    0.008
 6976.00    1.20110   1.32248    0.008
 6977.00    1.19373   1.31833    0.008
 6978.00    1.18404   1.31455    0.008
 6979.00    1.16183   1.31388    0.008
 6980.00    1.15309   1.31829    0.008
 6981.00    1.20239   1.32424    0.008
 6982.00    1.23498   1.33016    0.008
 6983.00    1.20824   1.33738    0.008
 6984.00    1.21020   1.34437    0.008
 6985.00    1.29771   1.34920    0.008
 6986.00    1.36331   1.35240    0.008
 6987.00    1.37324   1.35496    0.008
 6988.00    1.36839   1.35661    0.008
 6989.00    1.33123   1.35698    0.008
 6990.00    1.30668   1.35716    0.008
 6991.00    1.30606   1.35780    0.008
 6992.00    1.30279   1.35809    0.008
 6993.00    1.29514   1.35772    0.008
 6994.00    1.27357   1.35685    0.008
 6995.00    1.23180   1.35557    0.008
 6996.00    1.23625   1.35366    0.008
 6997.00    1.29972   1.35119    0.008
 6998.00    1.30652   1.34863    0.008
 6999.00    1.24959   1.34569    0.008
 7000.00    1.21745   1.34253    0.008
 7001.00    1.20991   1.34060    0.008
 7002.00    1.26087   1.33972    0.008
 7003.00    1.36300   1.33862    0.008
 7004.00    1.38810   1.33778    0.008
 7005.00    1.35382   1.33831    0.008
 7006.00    1.30438   1.33957    0.008
 7007.00    1.24467   1.34081    0.008
 7008.00    1.24186   1.34204    0.008
 7009.00    1.27284   1.34324    0.008
 7010.00    1.26295   1.34375    0.008
 7011.00    1.23190   1.34291    0.008
 7012.00    1.19576   1.34092    0.008
 7013.00    1.15735   1.33856    0.008
 7014.00    1.20631   1.33658    0.008
 7015.00    1.28899   1.33449    0.008
 7016.00    1.25224   1.33210    0.008
 7017.00    1.17630   1.33177    0.008
 7018.00    1.19774   1.33414    0.008
 7019.00    1.24597   1.33595    0.008
 7020.00    1.25604   1.33669    0.008
 7021.00    1.25747   1.33817    0.008
 7022.00    1.23670   1.33949    0.008
 7023.00    1.21192   1.33927    0.008
 7024.00    1.20758   1.33910    0.008
 7025.00    1.20606   1.34050    0.008
 7026.00    1.27493   1.34287    0.008
 7027.00    1.35080   1.34522    0.008
 7028.00    1.30743   1.34781    0.008
 7029.00    1.25660   1.35103    0.008
 7030.00    1.25256   1.35375    0.008
 7031.00    1.24972   1.35526    0.008
 7032.00    1.21295   1.35614    0.008
 7033.00    1.17805   1.35726    0.008
 7034.00    1.19418   1.35729    0.008
 7035.00    1.20619   1.35682    0.008
 7036.00    1.16044   1.35855    0.008
 7037.00    1.12869   1.36093    0.008
 7038.00    1.22614   1.36222    0.008
 7039.00    1.29903   1.36574    0.008
 7040.00    1.20653   1.37187    0.008
 7041.00    1.13892   1.37670    0.008
 7042.00    1.20146   1.38049    0.008
 7043.00    1.24998   1.38489    0.009
 7044.00    1.23946   1.38803    0.009
 7045.00    1.24499   1.38895    0.009
 7046.00    1.30630   1.38954    0.009
 7047.00    1.37587   1.38958    0.009
 7048.00    1.46962   1.38765    0.009
 7049.00    1.51045   1.38395    0.009
 7050.00    1.41919   1.37900   -2.000
 7051.00    1.34436   1.37320   -2.000
 7052.00    1.30487   1.36604   -2.000
 7053.00    1.29964   1.35852   -2.000
 7054.00    1.35838   1.35241   -2.000
 7055.00    1.37925   1.34737   -2.000
 7056.00    1.33833   1.34299   -2.000
 7057.00    1.30161   1.33986   -2.000
 7058.00    1.27090   1.33811   -2.000
 7059.00    1.25845   1.33630   -2.000
 7060.00    1.26899   1.33448   -2.000
 7061.00    1.31277   1.33419   -2.000
 7062.00    1.39342   1.33417   -2.000
 7063.00    1.42510   1.33316   -2.000
 7064.00    1.40886   1.33261   -2.000
 7065.00    1.35001   1.33216   -2.000
 7066.00    1.25442   1.33091   -2.000
 7067.00    1.22387   1.33015   -2.000
 7068.00    1.24273   1.32994   -2.000
 7069.00    1.28788   1.33079   -2.000
 7070.00    1.35059   1.33362   -2.000
 7071.00    1.42737   1.33693   -2.000
 7072.00    1.51240   1.33988   -2.000
 7073.00    1.49553   1.34329   -2.000
 7074.00    1.42672   1.34671   -2.000
 7075.00    1.37641   1.34883   -2.000
 7076.00    1.33427   1.34981   -2.000
 7077.00    1.36573   1.35026   -2.000
 7078.00    1.42509   1.34965   -2.000
 7079.00    1.43807   1.34715   -2.000
 7080.00    1.43612   1.34320   -2.000
 7081.00    1.39770   1.33796   -2.000
 7082.00    1.34945   1.33140   -2.000
 7083.00    1.34065   1.32401   -2.000
 7084.00    1.34055   1.31582   -2.000
 7085.00    1.36596   1.30857   -2.000
 7086.00    1.39585   1.30335   -2.000
 7087.00    1.40010   1.29861   -2.000
 7088.00    1.40090   1.29482   -2.000
 7089.00    1.39080   1.29300   -2.000
 7090.00    1.37965   1.29179   -2.000
 7091.00    1.34643   1.29154   -2.000
 7092.00    1.31192   1.29251   -2.000
 7093.00    1.37227   1.29360   -2.000
 7094.00    1.43401   1.29554   -2.000
 7095.00    1.36671   1.29824   -2.000
 7096.00    1.29965   1.30102   -2.000
 7097.00    1.23876   1.30410   -2.000
 7098.00    1.18754   1.30718   -2.000
 7099.00    1.26457   1.31005   -2.000
 7100.00    1.32265   1.31250   -2.000
 7101.00    1.21268   1.31434   -2.000
 7102.00    1.12775   1.31542   -2.000
 7103.00    1.20647   1.31571   -2.000
 7104.00    1.27116   1.31550   -2.000
 7105.00    1.26441   1.31499   -2.000
 7106.00    1.24440   1.31355   -2.000
 7107.00    1.16978   1.31093   -2.000
 7108.00    1.12951   1.30860   -2.000
 7109.00    1.20632   1.30699   -2.000
 7110.00    1.27250   1.30493   -2.000
 7111.00    1.30817   1.30294   -2.000
 7112.00    1.31528   1.30238   -2.000
 7113.00    1.25233   1.30295   -2.000
 7114.00    1.24183   1.30352   -2.000
 7115.00    1.34233   1.30408   -2.000
 7116.00    1.41506   1.30510   -2.000
 7117.00    1.43676   1.30587   -2.000
 7118.00    1.45230   1.30588   -2.000
 7119.00    1.45797   1.30528   -2.000
 7120.00    1.42279   1.30486   -2.000
 7121.00    1.33001   1.30445   -2.000
 7122.00    1.37311   1.30275   -2.000
 7123.00    1.58474   1.30140   -2.000
 7124.00    1.64331   1.30079   -2.000
 7125.00    1.53452   1.29911   -2.000
 7126.00    1.46950   1.29663   -2.000
 7127.00    1.44669   1.29444   -2.000
 7128.00    1.36576   1.29318   -2.000
 7129.00    1.23540   1.29217   -2.000
 7130.00    1.23753   1.29116   -2.000
 7131.00    1.33888   1.29205   -2.000
 7132.00    1.34011   1.29487   -2.000
 7133.00    1.27545   1.29810   -2.000
 7134.00    1.25300   1.30232   -2.000
 7135.00    1.25487   1.30663   -2.000
 7136.00    1.23862   1.30977   -2.000
 7137.00    1.21329   1.31309   -2.000
 7138.00    1.27399   1.31574   -2.000
 7139.00    1.37204   1.31593   -2.000
 7140.00    1.33420   1.31581   -2.000
 7141.00    1.24572   1.31608   -2.000
 7142.00    1.28287   1.31456   -2.000
 7143.00    1.35970   1.31221   -2.000
 7144.00    1.30445   1.30987   -2.000
 7145.00    1.21436   1.30675   -2.000
 7146.00    1.22991   1.30447   -2.000
 7147.00    1.26823   1.30286   -2.000
 7148.00    1.26990   1.30098   -2.000
 7149.00    1.26531   1.30193   -2.000
 7150.00    1.22338   1.30549   -2.000
 7151.00    1.17662   1.30862   -2.000
 7152.00    1.21650   1.31247   -2.000
 7153.00    1.26423   1.31793   -2.000
 7154.00    1.36267   1.32249   -2.000
 7155.00    1.46387   1.32478   -2.000
 7156.00    1.36791   1.32674   -2.000
 7157.00    1.26925   1.32855   -2.000
 7158.00    1.30151   1.32786   -2.000
 7159.00    1.33580   1.32570   -2.000
 7160.00    1.41619   1.32326   -2.000
 7161.00    1.48943   1.31980   -2.000
 7162.00    1.47252   1.31666   -2.000
 7163.00    1.44992   1.31445   -2.000
 7164.00    1.37884   1.31255   -2.000
 7165.00    1.28628   1.31257   -2.000
 7166.00    1.05760   1.31547   -2.000
 7167.00    0.92330   1.32003   -2.000
 7168.00    1.25764   1.32543   -2.000
 7169.00    1.50422   1.33121   -2.000
 7170.00    1.39754   1.33652   -2.000
 7171.00    1.29986   1.34106   -2.000
 7172.00    1.23230   1.34428   -2.000
 7173.00    1.17475   1.34538   -2.000
 7174.00    1.14545   1.34518   -2.000
 7175.00    1.15449   1.34392   -2.000
 7176.00    1.25597   1.34080   -2.000
 7177.00    1.32030   1.33721   -2.000
 7178.00    1.30726   1.33423   -2.000
 7179.00    1.34889   1.33091   -2.000
 7180.00    1.48952   1.32727   -2.000
 7181.00    1.47702   1.32407   -2.000
 7182.00    1.22213   1.32210   -2.000
 7183.00    1.07967   1.32068   -2.000
 7184.00    1.09343   1.31833   -2.000
 7185.00    1.11580   1.31596   -2.000
 7186.00    1.14869   1.31398   -2.000
 7187.00    1.15735   1.31129   -2.000
 7188.00    1.13988   1.30958   -2.000
 7189.00    1.12461   1.30904   -2.000
 7190.00    1.11143   1.30874   -2.000
 7191.00    1.14531   1.31035   -2.000
 7192.00    1.21864   1.31286   -2.000
 7193.00    1.22046   1.31456   -2.000
 7194.00    1.16949   1.31722   -2.000
 7195.00    1.15712   1.32095   -2.000
 7196.00    1.16978   1.32336   -2.000
 7197.00    1.09993   1.32480   -2.000
 7198.00    0.98329   1.32695   -2.000
 7199.00    1.09473   1.32839   -2.000
 7200.00    1.31882   1.32873   -2.000
 7201.00    1.40481   1.32874   -2.000
 7202.00    1.43183   1.32773   -2.000
 7203.00    1.27732   1.32600   -2.000
 7204.00    1.05639   1.32404   -2.000
 7205.00    0.94622   1.32194   -2.000
 7206.00    0.87037   1.31952   -2.000
 7207.00    0.92891   1.31704   -2.000
 7208.00    1.02213   1.31691   -2.000
 7209.00    1.07516   1.31820   -2.000
 7210.00    1.11973   1.31946   -2.000
 7211.00    1.12417   1.32239   -2.000
 7212.00    1.12196   1.32564   -2.000
 7213.00    1.19053   1.32778   -2.000
 7214.00    1.26796   1.33024   -2.000
 7215.00    1.27090   1.33268   -2.000
 7216.00    1.26740   1.33404   -2.000
 7217.00    1.22289   1.33525   -2.000
 7218.00    1.17630   1.33660   -2.000
