###################################################################
## OUTPUT of StarlightChains_v04.for    [Cid@UFSC - 01/Apr/2007] ##
###################################################################

## Some input info
KUG0210-078._37_37.txt                   [arq_obs]
Base.CB07.vall.4m                        [arq_base]
Masks.EmLines.NEW.gm                     [arq_masks]
StCv04.C11.config                        [arq_config]
   66                                    [N_base]
    0                                    [N_YAV_components = # of components with extra extinction!]
    0                                    [i_FitPowerLaw (1/0 = Yes/No)]
-9.99                                    [alpha_PowerLaw]
CCM                                      [red_law_option]
 1.458241                                [q_norm = A(l_norm)/A(V)]

## (Re)Sampling Parameters
 3741.00                                 [l_ini (A)]
 7218.00                                 [l_fin (A)]
    1.00                                 [dl    (A)]     (OBS: dl_cushion =    50.00 A)

## Normalization info
 4020.00                                 [l_norm (A) - for base]
 4010.00                                 [llow_norm (A) - window for f_obs]
 4060.00                                 [lupp_norm (A) - window for f_obs]
2.102498E-17                             [fobs_norm (in input units)]

## S/N
 3691.00                                 [llow_SN (A) - window for S/N]
 7268.00                                 [lupp_SN (A) - window for S/N]
   4.995                                 [S/N in S/N window]
   4.249                                 [S/N in norm. window]
   0.030                                 [S/N_err in S/N window]
   0.025                                 [S/N_err in norm. window]
  1.0000                                 [fscale_chi2]

## etc...
    -2007631                             [idum_orig]
  2432                                   [NOl_eff]
  2401                                   [Nl_eff]
    31    NSIGMA                         [Ntot_cliped & clip_method]
  5850250                                [Nglobal_steps]
   7                                     [N_chains]
   7                                     [NEX0s_base = N_base in EX0s-fits]
 0   0   1       31   2.0   4.908E+03    [Clip-Bug, RC-Crash & Burn-In warning-flags, n_censored_weights, wei_nsig_threshold & wei_limit]
    52     50.919     50.308      0.612  [idt_all, wdt_TotTime, wdt_UsrTime & wdt_SysTime (sec)]

## Synthesis Results - Best model ##

 1.38096E-05                             [chi2/Nl_eff]
     7.65556                             [adev (%)]

   109.89310                             [sum-of-x (%)]
 1.36973E-17                             [Flux_tot (units of input spectrum!)]
 1.18537E-12                             [Mini_tot (???)]
 5.99349E-13                             [Mcor_tot (???)]

  -6.53                                  [v0_min  (km/s)]
  50.76                                  [vd_min  (km/s)]
-0.3893                                  [AV_min  (mag)]
 0.0000                                  [YAV_min (mag)]

# j     x_j(%)      Mini_j(%)     Mcor_j(%)     age_j(yr)     Z_j      (L/M)_j    YAV?  Mstars   component_j        a/Fe...       SSP_chi2r SSP_adev(%)   SSP_AV   SSP_x(%)
  1      0.0000     0.0000E+00    0.0000E+00    1.000000E+06  0.00400  1.094E-02    0   1.0000   age020_m42            0.0000     3.8991E-05    13.0298   3.5729    89.5223
  2      0.0000     0.0000E+00    0.0000E+00    3.160000E+06  0.00400  4.007E-02    0   0.9999   age045_m42            0.0000     3.1346E-05    11.7057   2.8197    96.5105
  3      0.0000     0.0000E+00    0.0000E+00    5.010000E+06  0.00400  2.539E-02    0   0.9488   age055_m42            0.0000     3.5000E-05    12.3172   3.1562    93.6224
  4      0.0000     0.0000E+00    0.0000E+00    6.610000E+06  0.00400  2.620E-02    0   0.9220   age061_m42            0.0000     3.1472E-05    11.7103   2.7502    96.5578
  5      0.0000     0.0000E+00    0.0000E+00    1.000000E+07  0.00400  1.322E-02    0   0.8862   age070_m42            0.0000     3.5899E-05    12.9301   2.4826    97.5969
  6      0.0000     0.0000E+00    0.0000E+00    1.445000E+07  0.00400  7.883E-03    0   0.8571   age078_m42            0.0000     3.7693E-05    13.1741   2.8160    95.0057
  7      0.0000     0.0000E+00    0.0000E+00    2.512000E+07  0.00400  5.251E-03    0   0.8174   age090_m42            0.0000     3.6257E-05    13.1626   2.3583    97.9539
  8      0.0000     0.0000E+00    0.0000E+00    4.000000E+07  0.00400  3.649E-03    0   0.7851   age104_m42            0.0000     3.4218E-05    12.7538   2.1249    99.0695
  9      0.0000     0.0000E+00    0.0000E+00    5.500000E+07  0.00400  3.098E-03    0   0.7629   age110_m42            0.0000     3.1169E-05    11.9111   2.2683    99.7027
 10      0.0000     0.0000E+00    0.0000E+00    1.015200E+08  0.00400  2.228E-03    0   0.7207   age116_m42            0.0000     2.9145E-05    11.3296   2.2824   100.2578
 11      0.0000     0.0000E+00    0.0000E+00    2.861200E+08  0.00400  1.093E-03    0   0.6648   age125_m42            0.0000     2.8686E-05    11.5494   1.7051   103.1640
 12      0.0000     0.0000E+00    0.0000E+00    5.088000E+08  0.00400  6.597E-04    0   0.6365   age130_m42            0.0000     2.5257E-05    10.5329   1.6859   104.7452
 13      0.0000     0.0000E+00    0.0000E+00    1.434000E+09  0.00400  2.132E-04    0   0.5798   age139_m42            0.0000     2.0341E-05     9.4740   0.7074   107.3162
 14      0.0000     0.0000E+00    0.0000E+00    4.250000E+09  0.00400  5.895E-05    0   0.5377   age158_m42            0.0000     1.9061E-05     9.1125   0.2744   103.3160
 15      0.0000     0.0000E+00    0.0000E+00    7.500000E+09  0.00400  3.510E-05    0   0.5212   age171_m42            0.0000     1.8337E-05     8.8577   0.0835   102.8969
 16      0.0000     0.0000E+00    0.0000E+00    1.300000E+10  0.00400  2.005E-05    0   0.5034   age193_m42            0.0000     1.8130E-05     8.6919  -0.0825   102.4969
 17      0.0000     0.0000E+00    0.0000E+00    1.800000E+10  0.00400  1.525E-05    0   0.4967   age213_m42            0.0000     1.8380E-05     8.7803  -0.1068   102.0170
 18      0.0000     0.0000E+00    0.0000E+00    1.000000E+06  0.00800  1.238E-02    0   1.0000   age020_m52            0.0000     3.8955E-05    13.0173   3.5683    89.7284
 19      0.0000     0.0000E+00    0.0000E+00    3.160000E+06  0.00800  3.074E-02    0   0.9966   age045_m52            0.0000     3.8506E-05    12.8693   3.4893    90.5810
 20      0.0000     0.0000E+00    0.0000E+00    5.010000E+06  0.00800  2.668E-02    0   0.9443   age055_m52            0.0000     3.6213E-05    12.4930   3.2417    92.6684
 21      0.0000     0.0000E+00    0.0000E+00    6.610000E+06  0.00800  2.136E-02    0   0.9177   age061_m52            0.0000     3.4012E-05    12.6899   1.9897    98.8063
 22      0.0000     0.0000E+00    0.0000E+00    1.000000E+07  0.00800  1.215E-02    0   0.8827   age070_m52            0.0000     3.8801E-05    13.5719   2.6644    97.0427
 23      0.0000     0.0000E+00    0.0000E+00    1.445000E+07  0.00800  8.717E-03    0   0.8552   age078_m52            0.0000     3.7179E-05    13.0589   2.7767    96.3837
 24      0.0000     0.0000E+00    0.0000E+00    2.512000E+07  0.00800  5.592E-03    0   0.8162   age090_m52            0.0000     3.6429E-05    13.1352   2.4117    99.2404
 25      0.0000     0.0000E+00    0.0000E+00    4.000000E+07  0.00800  3.896E-03    0   0.7841   age104_m52            0.0000     3.3773E-05    12.6136   2.3186   100.3652
 26      0.0000     0.0000E+00    0.0000E+00    1.015200E+08  0.00800  2.148E-03    0   0.7226   age116_m52            0.0000     3.0029E-05    11.6842   2.2505   100.7892
 27      0.0000     0.0000E+00    0.0000E+00    2.861200E+08  0.00800  9.925E-04    0   0.6683   age125_m52            0.0000     2.4955E-05    10.4668   1.7503   105.7511
 28      0.0000     0.0000E+00    0.0000E+00    9.047900E+08  0.00800  3.141E-04    0   0.6138   age135_m52            0.0000     1.8855E-05     9.0257   0.9285   111.4059
 29      0.0000     0.0000E+00    0.0000E+00    1.434000E+09  0.00800  1.719E-04    0   0.5853   age139_m52            0.0000     1.8704E-05     9.2106   0.3539   108.7813
 30      0.0000     0.0000E+00    0.0000E+00    2.500000E+09  0.00800  7.872E-05    0   0.5600   age150_m52            0.0000     1.6611E-05     8.4514   0.0906   106.3502
 31      0.0000     0.0000E+00    0.0000E+00    4.250000E+09  0.00800  4.336E-05    0   0.5426   age158_m52            0.0000     1.6972E-05     8.5155   0.0781   105.3052
 32      0.0000     0.0000E+00    0.0000E+00    6.250000E+09  0.00800  3.159E-05    0   0.5319   age166_m52            0.0000     1.5820E-05     8.1085  -0.1298   105.7894
 33      0.0000     0.0000E+00    0.0000E+00    1.300000E+10  0.00800  1.361E-05    0   0.5073   age193_m52            0.0000     1.5262E-05     7.8395  -0.6030   105.6046
 34      0.0000     0.0000E+00    0.0000E+00    1.800000E+10  0.00800  9.886E-06    0   0.4990   age213_m52            0.0000     1.5024E-05     7.7125  -0.7194   105.6568
 35      0.0000     0.0000E+00    0.0000E+00    1.000000E+06  0.02000  1.544E-02    0   1.0000   age020_m62            0.0000     3.9224E-05    13.0465   3.5647    89.9338
 36      0.0000     0.0000E+00    0.0000E+00    3.160000E+06  0.02000  3.762E-02    0   0.9858   age045_m62            0.0000     3.9510E-05    12.9867   3.5026    90.7315
 37      0.0000     0.0000E+00    0.0000E+00    5.010000E+06  0.02000  3.296E-02    0   0.9342   age055_m62            0.0000     3.3136E-05    11.9181   3.1102    95.0914
 38      0.0000     0.0000E+00    0.0000E+00    8.710000E+06  0.02000  1.154E-02    0   0.8861   age067_m62            0.0000     5.4738E-05    17.4174   2.1322    97.8082
 39      0.0000     0.0000E+00    0.0000E+00    1.445000E+07  0.02000  7.663E-03    0   0.8472   age078_m62            0.0000     4.2250E-05    14.5774   2.3104    98.7670
 40      0.0000     0.0000E+00    0.0000E+00    2.512000E+07  0.02000  4.532E-03    0   0.8099   age090_m62            0.0000     4.2774E-05    14.7458   2.3016    98.3798
 41      0.0000     0.0000E+00    0.0000E+00    5.500000E+07  0.02000  2.733E-03    0   0.7595   age110_m62            0.0000     3.4074E-05    12.6564   2.3090    99.4628
 42     14.9083     1.1451E-01    1.5819E-01    1.609000E+08  0.02000  1.369E-03    0   0.6985   age120_m62            0.0000     2.8154E-05    11.1765   2.1294   103.3179
 43      0.0000     0.0000E+00    0.0000E+00    2.861200E+08  0.02000  9.013E-04    0   0.6714   age125_m62            0.0000     2.4851E-05    10.2327   1.8632   107.1333
 44      0.0000     0.0000E+00    0.0000E+00    5.088000E+08  0.02000  5.028E-04    0   0.6449   age130_m62            0.0000     2.0060E-05     8.9131   1.4643   111.2982
 45      0.0000     0.0000E+00    0.0000E+00    9.047900E+08  0.02000  2.428E-04    0   0.6179   age135_m62            0.0000     1.7058E-05     8.5347   0.8819   110.7316
 46      0.0000     0.0000E+00    0.0000E+00    1.434000E+09  0.02000  1.263E-04    0   0.5908   age139_m62            0.0000     1.6675E-05     8.5187   0.4438   108.9747
 47      0.0000     0.0000E+00    0.0000E+00    2.500000E+09  0.02000  5.985E-05    0   0.5673   age150_m62            0.0000     1.5647E-05     8.1505   0.0754   107.9784
 48      0.0000     0.0000E+00    0.0000E+00    4.250000E+09  0.02000  3.271E-05    0   0.5468   age158_m62            0.0000     1.4752E-05     7.8054  -0.2352   107.6841
 49      0.0000     0.0000E+00    0.0000E+00    1.000000E+10  0.02000  1.360E-05    0   0.5167   age181_m62            0.0000     1.4961E-05     7.7342  -0.5960   108.1082
 50     43.0687     6.3569E+01    6.3026E+01    1.800000E+10  0.02000  7.124E-06    0   0.5013   age213_m62            0.0000     1.5839E-05     7.9504  -0.8180   108.0004
 51      0.0000     0.0000E+00    0.0000E+00    1.000000E+06  0.05000  2.592E-02    0   0.9998   age020_m72            0.0000     4.0159E-05    13.1940   3.5587    89.8499
 52      0.0000     0.0000E+00    0.0000E+00    3.160000E+06  0.05000  4.845E-02    0   0.9577   age045_m72            0.0000     3.6959E-05    12.5430   3.3792    92.1828
 53      0.0000     0.0000E+00    0.0000E+00    5.010000E+06  0.05000  3.072E-02    0   0.9147   age055_m72            0.0000     4.1563E-05    14.0245   2.8891    95.4614
 54      0.0000     0.0000E+00    0.0000E+00    6.610000E+06  0.05000  1.455E-02    0   0.8877   age061_m72            0.0000     6.7191E-05    20.5984   2.1500    98.0238
 55      0.0000     0.0000E+00    0.0000E+00    1.000000E+07  0.05000  9.074E-03    0   0.8524   age070_m72            0.0000     4.3496E-05    14.7945   3.0623    95.2726
 56      0.0000     0.0000E+00    0.0000E+00    2.512000E+07  0.05000  4.250E-03    0   0.7902   age090_m72            0.0000     3.9433E-05    13.9174   2.7598    97.2095
 57      0.0000     0.0000E+00    0.0000E+00    4.000000E+07  0.05000  3.087E-03    0   0.7618   age104_m72            0.0000     3.9006E-05    13.9780   2.5232    98.9166
 58      0.0000     0.0000E+00    0.0000E+00    1.015200E+08  0.05000  1.700E-03    0   0.7096   age116_m72            0.0000     3.0849E-05    11.8186   2.2669   102.5538
 59      0.0000     0.0000E+00    0.0000E+00    2.861200E+08  0.05000  7.384E-04    0   0.6633   age125_m72            0.0000     2.1919E-05     9.4187   1.7175   109.3531
 60      0.0000     0.0000E+00    0.0000E+00    5.088000E+08  0.05000  3.819E-04    0   0.6372   age130_m72            0.0000     1.7639E-05     8.5260   1.2232   111.8906
 61     23.6563     1.4842E+00    1.7935E+00    9.047900E+08  0.05000  1.676E-04    0   0.6110   age135_m72            0.0000     1.5409E-05     8.1206   0.5293   110.3650
 62      0.0000     0.0000E+00    0.0000E+00    1.434000E+09  0.05000  8.837E-05    0   0.5874   age139_m72            0.0000     1.5658E-05     8.1526   0.0692   109.8532
 63      0.0000     0.0000E+00    0.0000E+00    2.500000E+09  0.05000  4.233E-05    0   0.5598   age150_m72            0.0000     1.4653E-05     7.8252  -0.2455   109.0749
 64     14.5146     1.0636E+01    1.1041E+01    6.250000E+09  0.05000  1.435E-05    0   0.5249   age166_m72            0.0000     1.4976E-05     7.9213  -0.6998   108.0458
 65     10.9145     1.7621E+01    1.7551E+01    1.300000E+10  0.05000  6.513E-06    0   0.5036   age193_m72            0.0000     1.6946E-05     8.3497  -0.9950   109.8901
 66      2.8308     6.5753E+00    6.4306E+00    1.800000E+10  0.05000  4.527E-06    0   0.4945   age213_m72            0.0000     2.0275E-05     8.6460  -1.0000   103.9879


## Synthesis Results - Average & Chains ##

# j      x_j: min, <> & last-chain-values for 1 ...  7 chains
  1      0.0000      0.1677      0.0048      0.0009      0.0019      0.0818      0.0000      0.0080      0.0187
  2      0.0000      0.2063      0.0109      0.0286      0.0258      0.0396      0.1538      0.0278      0.0126
  3      0.0000      0.2856      0.0000      0.0064      0.0089      0.0108      0.0568      0.0237      0.0202
  4      0.0000      0.2066      0.0006      0.0158      0.0007      0.0000      0.0000      0.0000      0.0000
  5      0.0000      0.2775      0.0004      0.0040      0.0028      0.0513      0.0982      0.0179      0.0029
  6      0.0000      0.2385      0.0000      0.0000      0.0185      0.1078      0.0000      0.0065      0.0041
  7      0.0000      0.2974      0.0000      0.0087      0.0000      0.0000      0.0617      0.0070      0.0115
  8      0.0000      0.2235      0.0012      0.0132      0.0053      0.0542      0.0000      0.0306      0.0412
  9      0.0000      0.2795      0.0026      0.0023      0.0152      0.0600      0.1242      0.0172      0.0122
 10      0.0000      0.3165      0.0000      0.0081      0.0000      0.0000      0.1730      0.0322      0.0037
 11      0.0000      0.3296      0.0003      0.0107      0.0151      0.0650      0.0245      0.0134      0.0915
 12      0.0000      0.1945      0.0023      0.0008      0.0214      0.0246      0.0528      0.0011      0.0601
 13      0.0000      0.2739      0.0022      0.0075      0.0156      0.0433      0.1390      0.0000      0.0243
 14      0.0000      0.2940      0.0000      0.0000      0.0075      0.0267      0.1446      0.0000      0.0000
 15      0.0000      0.2107      0.0000      0.0045      0.0000      0.0170      0.0318      0.0176      0.0240
 16      0.0000      0.3006      0.0038      0.0000      0.0123      0.0079      0.0678      0.0022      0.0000
 17      0.0000      0.2386      0.0000      0.0061      0.0047      0.0125      0.0000      0.0126      0.0000
 18      0.0000      0.1908      0.0050      0.0096      0.0000      0.0125      0.0000      0.0000      0.0263
 19      0.0000      0.1823      0.0027      0.0305      0.0038      0.0000      0.0534      0.0177      0.0020
 20      0.0000      0.2765      0.0000      0.0000      0.0000      0.0000      0.0399      0.0137      0.0017
 21      0.0000      0.3094      0.0141      0.0106      0.0247      0.0845      0.0003      0.0000      0.0000
 22      0.0000      0.3065      0.0074      0.0000      0.0000      0.0411      0.0982      0.0116      0.0189
 23      0.0000      0.2760      0.0000      0.0060      0.0000      0.1049      0.0717      0.0009      0.0261
 24      0.0000      0.3485      0.0000      0.0000      0.0084      0.0000      0.0666      0.0044      0.0130
 25      0.0000      0.2360      0.0000      0.0275      0.0109      0.1343      0.0565      0.0000      0.0386
 26      0.0000      0.2511      0.0160      0.0011      0.0000      0.0215      0.0403      0.0000      0.0000
 27      0.0000      0.2666      0.0088      0.0102      0.0000      0.1161      0.2038      0.0150      0.0000
 28      0.0000      0.2326      0.0019      0.0000      0.0029      0.0780      0.0035      0.0037      0.0000
 29      0.0000      0.2464      0.0160      0.0000      0.0079      0.0634      0.1964      0.0134      0.0108
 30      0.0000      0.2450      0.0000      0.0000      0.0215      0.3578      0.0334      0.0095      0.0430
 31      0.0000      0.2185      0.0039      0.0021      0.0117      0.0123      0.0101      0.0082      0.0113
 32      0.0000      0.2569      0.0029      0.0011      0.0000      0.0559      0.0565      0.0000      0.0000
 33      0.0000      0.2698      0.0011      0.0029      0.0088      0.0591      0.1249      0.0091      0.0295
 34      0.0000      0.3413      0.0010      0.0218      0.0236      0.0000      0.0802      0.0065      0.0306
 35      0.0000      0.2850      0.0000      0.0000      0.0230      0.0487      0.0155      0.0007      0.0316
 36      0.0000      0.2380      0.0023      0.0000      0.0059      0.0678      0.0596      0.0172      0.0286
 37      0.0000      0.2486      0.0000      0.0276      0.0000      0.0123      0.0440      0.0238      0.0179
 38      0.0000      0.2382      0.0000      0.0174      0.0153      0.0076      0.0771      0.0103      0.0069
 39      0.0000      0.2328      0.0000      0.0157      0.0000      0.0471      0.0154      0.0000      0.0000
 40      0.0000      0.2725      0.0008      0.0042      0.0193      0.0051      0.0000      0.0272      0.0395
 41      0.0000      0.1719      0.0108      0.0091      0.0034      0.0021      0.1289      0.0191      0.0294
 42     14.9083      0.3559      0.1024      0.0000      0.0095      0.0488      0.1346      0.0093      0.0239
 43      0.0000      0.3406      0.0044      0.0000      0.0104      0.0000      0.0178      0.0094      0.0000
 44      0.0000      0.1914      0.0035      0.0000      0.0062      0.2564      0.0473      0.0041      0.0349
 45      0.0000      0.2811      0.0081      0.0000      0.0000      0.0982      0.0479      0.0000      0.0566
 46      0.0000      0.3012      0.0138      0.0095      0.0042      0.0004      0.0340      0.0068      0.0271
 47      0.0000      0.2896      0.0111      0.0273      0.0160      0.0339      0.1455      0.0055      0.0618
 48      0.0000      0.2261      0.0000      0.0000      0.0280      0.0577      0.1556      0.0088      0.0106
 49      0.0000      0.2142      0.0007      0.0000      0.0005      0.0084      0.1124      0.0000      0.0000
 50     43.0687      2.3176      2.5381      3.6692      2.8174      2.8058      2.7848      2.1048      1.6837
 51      0.0000      0.2189      0.0000      0.0243      0.0000      0.0053      0.0370      0.0123      0.0330
 52      0.0000      0.1981      0.0022      0.0080      0.0171      0.1989      0.2844      0.0306      0.0299
 53      0.0000      0.2264      0.0000      0.0088      0.0108      0.0320      0.0400      0.0155      0.0202
 54      0.0000      0.2330      0.0064      0.0192      0.0180      0.1269      0.1127      0.0000      0.0394
 55      0.0000      0.1849      0.0002      0.0284      0.0175      0.0931      0.0233      0.0000      0.0085
 56      0.0000      0.2527      0.0000      0.0159      0.0000      0.0184      0.0625      0.0000      0.0566
 57      0.0000      0.2272      0.0011      0.0010      0.0107      0.0000      0.0000      0.0157      0.0117
 58      0.0000      0.2652      0.0000      0.0000      0.0219      0.0838      0.0000      0.0000      0.0000
 59      0.0000      0.2496      0.0031      0.0314      0.0026      0.1538      0.1492      0.0285      0.0463
 60      0.0000      0.2888      0.0000      0.0000      0.0014      0.0278      0.3795      0.0150      0.0019
 61     23.6563     54.9797     53.6501     62.9244     56.9647     64.6639     63.4123     77.3043     71.3426
 62      0.0000      5.1131      8.9217      8.6266      9.0033      6.2446      6.1719      0.3003      0.3084
 63      0.0000      0.2685      0.0003      0.0010      0.0318      0.0387      0.1284      0.0158      0.0136
 64     14.5146      1.5041      1.4349      2.2261      1.4640      1.7090      1.6444      1.7817      0.5710
 65     10.9145     10.2471      8.1408     13.2631     18.5971     10.9497     10.7858      8.1608      8.3044
 66      2.8308     27.1767     41.0815     25.3720     26.8206     27.2768     27.5198     27.1127     33.6486

# j      m_j: min, <> & last-chain-values for 1 ...  7 chains
  1  0.0000E+00  3.5671E-04  7.8516E-06  1.8452E-06  3.5422E-06  1.7094E-04  0.0000E+00  1.7943E-05  3.6273E-05
  2  0.0000E+00  1.1980E-04  4.8530E-06  1.6115E-05  1.3167E-05  2.2582E-05  8.7330E-05  1.6956E-05  6.6726E-06
  3  0.0000E+00  2.4845E-04  0.0000E+00  5.3942E-06  6.8273E-06  9.2693E-06  4.8265E-05  2.1662E-05  1.5991E-05
  4  0.0000E+00  1.6924E-04  3.9379E-07  1.2572E-05  4.9577E-07  0.0000E+00  0.0000E+00  0.0000E+00  0.0000E+00
  5  0.0000E+00  4.3296E-04  5.1189E-07  6.0258E-06  3.7859E-06  7.8689E-05  1.4979E-04  2.9271E-05  4.1630E-06
  6  0.0000E+00  6.0351E-04  0.0000E+00  0.0000E+00  4.1062E-05  2.6794E-04  0.0000E+00  1.7172E-05  9.4766E-06
  7  0.0000E+00  1.0776E-03  0.0000E+00  3.0583E-05  0.0000E+00  0.0000E+00  2.1849E-04  2.6627E-05  3.8027E-05
  8  0.0000E+00  1.1195E-03  4.5061E-06  6.4209E-05  2.3341E-05  2.6646E-04  0.0000E+00  1.6108E-04  1.8742E-04
  9  0.0000E+00  1.6023E-03  1.1347E-05  1.2738E-05  7.6622E-05  3.3781E-04  6.9615E-04  1.0344E-04  6.3500E-05
 10  0.0000E+00  2.3834E-03  0.0000E+00  5.8860E-05  0.0000E+00  0.0000E+00  1.2737E-03  2.5464E-04  2.5578E-05
 11  0.0000E+00  4.6667E-03  3.0028E-06  1.4679E-04  1.8743E-04  9.0447E-04  3.3950E-04  1.9889E-04  1.1781E-03
 12  0.0000E+00  4.3681E-03  3.9769E-05  1.7682E-05  4.2281E-04  5.4155E-04  1.1591E-03  2.6214E-05  1.2272E-03
 13  0.0000E+00  1.7340E-02  1.0690E-04  4.6059E-04  8.6470E-04  2.6904E-03  8.6040E-03  0.0000E+00  1.3986E-03
 14  0.0000E+00  6.2430E-02  0.0000E+00  0.0000E+00  1.4057E-03  5.5617E-03  3.0010E-02  0.0000E+00  0.0000E+00
 15  0.0000E+00  7.2835E-02  0.0000E+00  1.5232E-03  0.0000E+00  5.7837E-03  1.0741E-02  6.3939E-03  7.5523E-03
 16  0.0000E+00  1.7570E-01  1.6830E-03  0.0000E+00  6.2896E-03  4.5484E-03  3.8723E-02  1.3494E-03  0.0000E+00
 17  0.0000E+00  1.8091E-01  0.0000E+00  4.5034E-03  3.1223E-03  9.2715E-03  0.0000E+00  1.0022E-02  0.0000E+00
 18  0.0000E+00  3.5871E-04  7.1405E-06  1.7592E-05  0.0000E+00  2.3094E-05  0.0000E+00  0.0000E+00  4.4921E-05
 19  0.0000E+00  1.3757E-04  1.5758E-06  2.2365E-05  2.4868E-06  0.0000E+00  3.9411E-05  1.4026E-05  1.3799E-06
 20  0.0000E+00  2.2782E-04  0.0000E+00  0.0000E+00  0.0000E+00  0.0000E+00  3.2138E-05  1.1881E-05  1.2710E-06
 21  0.0000E+00  3.0942E-04  1.0815E-05  1.0311E-05  2.1726E-05  8.3026E-05  3.1814E-07  0.0000E+00  0.0000E+00
 22  0.0000E+00  5.1839E-04  9.6188E-06  0.0000E+00  0.0000E+00  6.8329E-05  1.6241E-04  2.0629E-05  2.9048E-05
 23  0.0000E+00  6.3040E-04  0.0000E+00  1.3329E-05  0.0000E+00  2.3534E-04  1.6010E-04  2.1378E-06  5.4127E-05
 24  0.0000E+00  1.1839E-03  0.0000E+00  0.0000E+00  2.5141E-05  0.0000E+00  2.2110E-04  1.5569E-05  4.0161E-05
 25  0.0000E+00  1.1057E-03  0.0000E+00  1.2515E-04  4.4659E-05  6.1772E-04  2.5869E-04  0.0000E+00  1.6436E-04
 26  0.0000E+00  1.9660E-03  9.6228E-05  8.0929E-06  0.0000E+00  1.6511E-04  3.0839E-04  0.0000E+00  0.0000E+00
 27  0.0000E+00  4.1792E-03  1.0522E-04  1.5481E-04  0.0000E+00  1.7880E-03  3.1223E-03  2.4624E-04  0.0000E+00
 28  0.0000E+00  1.0581E-02  6.5932E-05  0.0000E+00  1.1557E-04  3.4841E-03  1.5506E-04  1.7731E-04  0.0000E+00
 29  0.0000E+00  1.9527E-02  9.7250E-04  0.0000E+00  5.4683E-04  4.9374E-03  1.5220E-02  1.1187E-03  7.7879E-04
 30  0.0000E+00  4.0571E-02  0.0000E+00  0.0000E+00  3.1287E-03  5.8190E-02  5.4017E-03  1.6444E-03  6.4778E-03
 31  0.0000E+00  6.3650E-02  8.7624E-04  5.9022E-04  2.9923E-03  3.5187E-03  2.8692E-03  2.4957E-03  2.9869E-03
 32  0.0000E+00  1.0068E-01  8.5934E-04  4.2700E-04  0.0000E+00  2.1504E-02  2.1630E-02  0.0000E+00  0.0000E+00
 33  0.0000E+00  2.3411E-01  7.6481E-04  2.4016E-03  6.7099E-03  5.0384E-02  1.0596E-01  8.3319E-03  2.3247E-02
 34  0.0000E+00  4.0095E-01  9.2358E-04  2.4868E-02  2.4334E-02  0.0000E+00  9.2130E-02  8.0419E-03  3.2719E-02
 35  0.0000E+00  4.2962E-04  0.0000E+00  0.0000E+00  3.0421E-05  7.2154E-05  2.2845E-05  1.0876E-06  4.3268E-05
 36  0.0000E+00  1.4517E-04  1.0739E-06  0.0000E+00  3.1721E-06  4.0601E-05  3.5556E-05  1.1017E-05  1.5853E-05
 37  0.0000E+00  1.6402E-04  0.0000E+00  1.7686E-05  0.0000E+00  7.9762E-06  2.8350E-05  1.6463E-05  1.0753E-05
 38  0.0000E+00  4.2573E-04  0.0000E+00  3.0159E-05  2.4057E-05  1.3383E-05  1.3470E-04  1.9348E-05  1.1250E-05
 39  0.0000E+00  5.9915E-04  0.0000E+00  3.9209E-05  0.0000E+00  1.1907E-04  3.8797E-05  0.0000E+00  0.0000E+00
 40  0.0000E+00  1.1335E-03  2.4882E-06  1.7099E-05  7.0421E-05  2.0928E-05  0.0000E+00  1.1877E-04  1.4950E-04
 41  0.0000E+00  1.1120E-03  5.3692E-05  5.7156E-05  1.9481E-05  1.3623E-05  8.1538E-04  1.2999E-04  1.7306E-04
 42  1.5819E-01  4.2263E-03  9.3246E-04  0.0000E+00  9.9611E-05  5.6926E-04  1.5629E-03  1.1565E-04  2.5843E-04
 43  0.0000E+00  5.9064E-03  5.8931E-05  0.0000E+00  1.5780E-04  0.0000E+00  3.0153E-04  1.7031E-04  0.0000E+00
 44  0.0000E+00  5.7151E-03  8.0509E-05  0.0000E+00  1.6238E-04  7.5185E-03  1.3818E-03  1.2826E-04  9.4697E-04
 45  0.0000E+00  1.6654E-02  3.6577E-04  0.0000E+00  0.0000E+00  5.7138E-03  2.7768E-03  0.0000E+00  3.0508E-03
 46  0.0000E+00  3.2801E-02  1.1488E-03  9.9933E-04  4.0359E-04  4.1043E-05  3.6181E-03  7.7168E-04  2.6786E-03
 47  0.0000E+00  6.3886E-02  1.8720E-03  5.8410E-03  3.0947E-03  7.3432E-03  3.1391E-02  1.2765E-03  1.2396E-02
 48  0.0000E+00  8.7987E-02  0.0000E+00  6.6144E-06  9.5795E-03  2.2063E-02  5.9174E-02  3.6143E-03  3.7458E-03
 49  0.0000E+00  1.8942E-01  5.0583E-04  0.0000E+00  4.1119E-04  7.3256E-03  9.7177E-02  0.0000E+00  0.0000E+00
 50  6.3026E+01  3.7961E+00  3.1872E+00  5.8344E+00  4.0537E+00  4.5139E+00  4.4592E+00  3.6196E+00  2.5079E+00
 51  0.0000E+00  1.9652E-04  0.0000E+00  2.1190E-05  0.0000E+00  4.6703E-06  3.2477E-05  1.1601E-05  2.6965E-05
 52  0.0000E+00  9.1171E-05  7.7323E-07  3.5788E-06  6.9247E-06  8.9880E-05  1.2791E-04  1.4804E-05  1.2528E-05
 53  0.0000E+00  1.5688E-04  0.0000E+00  5.9400E-06  6.5621E-06  2.1800E-05  2.7123E-05  1.1296E-05  1.2739E-05
 54  0.0000E+00  3.3085E-04  6.9703E-06  2.6456E-05  2.2466E-05  1.7701E-04  1.5641E-04  0.0000E+00  5.0859E-05
 55  0.0000E+00  4.0440E-04  3.6561E-07  6.0235E-05  3.3533E-05  1.9989E-04  4.9816E-05  0.0000E+00  1.6933E-05
 56  0.0000E+00  1.0935E-03  0.0000E+00  6.6844E-05  0.0000E+00  7.8079E-05  2.6430E-04  0.0000E+00  2.2259E-04
 57  0.0000E+00  1.3051E-03  4.8098E-06  5.6568E-06  5.4065E-05  0.0000E+00  0.0000E+00  9.4385E-05  6.0968E-05
 58  0.0000E+00  2.5765E-03  0.0000E+00  0.0000E+00  1.8697E-04  7.9956E-04  0.0000E+00  0.0000E+00  0.0000E+00
 59  0.0000E+00  5.2181E-03  5.0434E-05  6.3737E-04  4.7881E-05  3.1584E-03  3.0507E-03  6.2652E-04  8.7958E-04
 60  0.0000E+00  1.1214E-02  0.0000E+00  0.0000E+00  4.7722E-05  1.0589E-03  1.4409E-02  6.1245E-04  6.6252E-05
 61  1.7935E+00  4.6655E+00  3.4904E+00  5.1838E+00  4.2463E+00  5.3895E+00  5.2605E+00  6.8872E+00  5.5054E+00
 62  0.0000E+00  7.9113E-01  1.0583E+00  1.2958E+00  1.2237E+00  9.4897E-01  9.3354E-01  4.8775E-02  4.3387E-02
 63  0.0000E+00  8.2638E-02  8.1806E-05  3.0012E-04  8.6062E-03  1.1699E-02  3.8649E-02  5.1111E-03  3.8048E-03
 64  1.1041E+01  1.2806E+00  9.3665E-01  1.8400E+00  1.0950E+00  1.4292E+00  1.3688E+00  1.5927E+00  4.4209E-01
 65  1.7551E+01  1.8443E+01  1.1233E+01  2.3174E+01  2.9403E+01  1.9356E+01  1.8978E+01  1.5421E+01  1.3592E+01
 66  6.4306E+00  6.9101E+01  8.0082E+01  6.2628E+01  5.9905E+01  6.8119E+01  6.8405E+01  7.2377E+01  7.7802E+01

# AV, chi2 & Mass for <> & i_chain = 1 ...  7 solutions
AV      -0.3893     -0.3872     -0.5247     -0.3808     -0.4528     -0.3515     -0.3499     -0.3007     -0.3822
chi2 1.3810E-05  1.8000E-05  1.4692E-05  1.4923E-05  1.4771E-05  1.5085E-05  1.5099E-05  1.5184E-05  1.4964E-05
Mass 5.9935E-13  5.3697E-13  5.8233E-13  5.5791E-13  5.5970E-13  5.7357E-13  5.7750E-13  5.7447E-13  5.9451E-13
  -6.53                                  [v0_min (km/s) before EX0s...]
  50.76                                  [vd_min (km/s) before EX0s...]


## Synthetic spectrum (Best Model) ##l_obs f_obs f_syn wei
 3478    [Nl_obs]
 3741.00    0.68593   0.60011    0.000
 3742.00    0.66922   0.56018    0.000
 3743.00    0.59426   0.50232    0.000
 3744.00    0.49522   0.45461    0.000
 3745.00    0.38215   0.41835    0.054
 3746.00    0.33005   0.39004    0.051
 3747.00    0.30890   0.36122    0.047
 3748.00    0.25130   0.32273    0.047
 3749.00    0.17767   0.30529    0.048
 3750.00    0.26317   0.34739    0.049
 3751.00    0.40873   0.43264    0.049
 3752.00    0.43562   0.51555    0.048
 3753.00    0.42447   0.58517    0.047
 3754.00    0.47543   0.64922    0.046
 3755.00    0.54303   0.68106    0.046
 3756.00    0.55920   0.64237    0.045
 3757.00    0.56409   0.54759    0.045
 3758.00    0.41805   0.47216    0.044
 3759.00    0.24566   0.46975    0.043
 3760.00    0.25503   0.51295    0.060
 3761.00    0.28855   0.54659    0.106
 3762.00    0.28144   0.54966    0.065
 3763.00    0.27051   0.53666    0.044
 3764.00    0.39885   0.53396    0.044
 3765.00    0.53522   0.53575    0.046
 3766.00    0.42975   0.51487    0.046
 3767.00    0.32094   0.49522    0.046
 3768.00    0.50256   0.51261    0.049
 3769.00    0.67574   0.54119    0.052
 3770.00    0.64403   0.55337    0.050
 3771.00    0.61168   0.57446    0.049
 3772.00    0.57101   0.61561    0.047
 3773.00    0.52813   0.64534    0.046
 3774.00    0.46582   0.64746    0.044
 3775.00    0.41055   0.64406    0.042
 3776.00    0.40093   0.65512    0.042
 3777.00    0.40413   0.67424    0.043
 3778.00    0.47231   0.69580    0.043
 3779.00    0.54187   0.72779    0.044
 3780.00    0.61706   0.75900    0.046
 3781.00    0.67954   0.76959    0.048
 3782.00    0.69893   0.76943    0.047
 3783.00    0.69629   0.77651    0.047
 3784.00    0.63068   0.77277    0.046
 3785.00    0.55529   0.72196    0.045
 3786.00    0.45603   0.63837    0.045
 3787.00    0.40237   0.57504    0.046
 3788.00    0.44480   0.54562    0.051
 3789.00    0.50425   0.53826    0.053
 3790.00    0.59488   0.55471    0.049
 3791.00    0.61119   0.58240    0.046
 3792.00    0.50855   0.58295    0.045
 3793.00    0.44784   0.54464    0.044
 3794.00    0.44602   0.49754    0.045
 3795.00    0.42373   0.46944    0.044
 3796.00    0.37613   0.45271    0.043
 3797.00    0.30690   0.42355    0.043
 3798.00    0.21411   0.39753    0.043
 3799.00    0.20203   0.41657    0.043
 3800.00    0.26752   0.48193    0.045
 3801.00    0.23927   0.55573    0.044
 3802.00    0.13159   0.61704    0.043
 3803.00    0.15473   0.66396    0.043
 3804.00    0.27551   0.68535    0.045
 3805.00    0.40263   0.67122    0.045
 3806.00    0.53392   0.63415    0.045
 3807.00    0.61887   0.61406    0.046
 3808.00    0.67722   0.63892    0.049
 3809.00    0.68076   0.68671    0.051
 3810.00    0.65689   0.71877    0.053
 3811.00    0.52480   0.71444    0.051
 3812.00    0.34592   0.67026    0.047
 3813.00    0.38598   0.60481    0.045
 3814.00    0.50724   0.54880    0.044
 3815.00    0.60511   0.51953    0.044
 3816.00    0.69562   0.52549    0.044
 3817.00    0.56180   0.55377    0.047
 3818.00    0.36913   0.55816    0.049
 3819.00    0.40187   0.51829    0.046
 3820.00    0.48290   0.47703    0.043
 3821.00    0.45045   0.48188    0.042
 3822.00    0.39874   0.51400    0.042
 3823.00    0.30811   0.51484    0.041
 3824.00    0.21249   0.47232    0.040
 3825.00    0.23373   0.42922    0.040
 3826.00    0.26546   0.41441    0.040
 3827.00    0.29430   0.41984    0.044
 3828.00    0.32298   0.43048    0.048
 3829.00    0.36209   0.44000    0.047
 3830.00    0.40137   0.43940    0.046
 3831.00    0.43678   0.41489    0.045
 3832.00    0.47054   0.37110    0.044
 3833.00    0.46757   0.33543    0.044
 3834.00    0.46702   0.32758    0.043
 3835.00    0.49646   0.34503    0.045
 3836.00    0.52476   0.36652    0.047
 3837.00    0.54345   0.37142    0.058
 3838.00    0.55228   0.36464    0.070
 3839.00    0.49906   0.36566    0.055
 3840.00    0.43805   0.38748    0.046
 3841.00    0.33864   0.43862    0.045
 3842.00    0.25437   0.50717    0.043
 3843.00    0.23075   0.55925    0.043
 3844.00    0.23750   0.58080    0.043
 3845.00    0.34520   0.58440    0.045
 3846.00    0.43255   0.58869    0.046
 3847.00    0.46281   0.59853    0.000
 3848.00    0.47438   0.59349    0.000
 3849.00    0.44109   0.56663    0.000
 3850.00    0.43560   0.55399    0.000
 3851.00    0.48773   0.57803    0.000
 3852.00    0.52799   0.60471    0.000
 3853.00    0.54684   0.60259    0.000
 3854.00    0.52762   0.58297    0.000
 3855.00    0.44838   0.56144    0.000
 3856.00    0.35613   0.54527    0.000
 3857.00    0.24586   0.53491    0.000
 3858.00    0.18270   0.51382    0.000
 3859.00    0.17693   0.48709    0.000
 3860.00    0.27059   0.49163    0.000
 3861.00    0.47105   0.53973    0.000
 3862.00    0.63484   0.59844    0.000
 3863.00    0.76387   0.62969    0.000
 3864.00    0.77914   0.62748    0.000
 3865.00    0.69936   0.61170    0.000
 3866.00    0.69077   0.60216    0.000
 3867.00    0.73453   0.60093    0.000
 3868.00    0.73595   0.59708    0.000
 3869.00    0.71002   0.58122    0.000
 3870.00    0.64065   0.55269    0.000
 3871.00    0.54672   0.52305    0.000
 3872.00    0.52739   0.51336    0.000
 3873.00    0.54476   0.54319    0.000
 3874.00    0.52005   0.60092    0.000
 3875.00    0.47744   0.64018    0.000
 3876.00    0.47454   0.62731    0.000
 3877.00    0.48611   0.57374    0.000
 3878.00    0.45806   0.52740    0.000
 3879.00    0.41779   0.52525    0.000
 3880.00    0.35720   0.54002    0.000
 3881.00    0.29140   0.53105    0.041
 3882.00    0.44793   0.52167    0.042
 3883.00    0.65094   0.54483    0.045
 3884.00    0.60181   0.55988    0.047
 3885.00    0.51111   0.51641    0.050
 3886.00    0.52236   0.45090    0.048
 3887.00    0.54625   0.42339    0.046
 3888.00    0.47805   0.43319    0.044
 3889.00    0.40198   0.46587    0.043
 3890.00    0.39126   0.52620    0.043
 3891.00    0.38380   0.59977    0.044
 3892.00    0.30678   0.65400    0.043
 3893.00    0.23095   0.67032    0.042
 3894.00    0.30591   0.65656    0.042
 3895.00    0.37608   0.64197    0.043
 3896.00    0.34807   0.65419    0.042
 3897.00    0.33736   0.67627    0.041
 3898.00    0.53132   0.67244    0.042
 3899.00    0.69477   0.65701    0.042
 3900.00    0.60973   0.66915    0.040
 3901.00    0.54588   0.70099    0.040
 3902.00    0.61147   0.70737    0.039
 3903.00    0.66799   0.68767    0.039
 3904.00    0.68084   0.66646    0.037
 3905.00    0.69189   0.64389    0.036
 3906.00    0.69587   0.64195    0.037
 3907.00    0.70347   0.68644    0.038
 3908.00    0.72289   0.74986    0.039
 3909.00    0.74594   0.79222    0.040
 3910.00    0.77903   0.81058    0.042
 3911.00    0.78838   0.82233    0.043
 3912.00    0.74171   0.82817    0.042
 3913.00    0.69489   0.82024    0.041
 3914.00    0.64779   0.80686    0.041
 3915.00    0.62360   0.79282    0.042
 3916.00    0.64013   0.77178    0.043
 3917.00    0.67502   0.74907    0.043
 3918.00    0.73844   0.72326    0.044
 3919.00    0.77263   0.68327    0.044
 3920.00    0.76692   0.64012    0.045
 3921.00    0.70549   0.61957    0.044
 3922.00    0.57713   0.62776    0.043
 3923.00    0.51709   0.64966    0.042
 3924.00    0.52939   0.66407    0.043
 3925.00    0.51047   0.65046    0.043
 3926.00    0.46240   0.60938    0.045
 3927.00    0.39585   0.55506    0.044
 3928.00    0.31410   0.49807    0.043
 3929.00    0.38291   0.44623    0.044
 3930.00    0.56087   0.40028    0.046
 3931.00    0.64142   0.35840    0.048
 3932.00    0.66000   0.32204    0.049
 3933.00    0.60628   0.29732    0.048
 3934.00    0.51234   0.29432    0.046
 3935.00    0.45659   0.31857    0.045
 3936.00    0.41934   0.36572    0.045
 3937.00    0.56741   0.42486    0.045
 3938.00    0.79296   0.48704    0.046
 3939.00    0.83584   0.54378    0.047
 3940.00    0.81339   0.58141    0.048
 3941.00    0.68516   0.59414    0.047
 3942.00    0.52497   0.58896    0.046
 3943.00    0.56810   0.57709    0.046
 3944.00    0.66229   0.58676    0.046
 3945.00    0.63726   0.64018    0.045
 3946.00    0.58791   0.70116    0.045
 3947.00    0.65947   0.72082    0.045
 3948.00    0.75039   0.71730    0.046
 3949.00    0.69600   0.73691    0.045
 3950.00    0.62427   0.77381    0.045
 3951.00    0.72610   0.78542    0.046
 3952.00    0.84207   0.76989    0.047
 3953.00    0.73619   0.77421    0.046
 3954.00    0.62011   0.80137    0.045
 3955.00    0.59911   0.79624    0.045
 3956.00    0.58111   0.75440    0.045
 3957.00    0.65692   0.73032    0.045
 3958.00    0.72810   0.73895    0.045
 3959.00    0.71146   0.73416    0.045
 3960.00    0.69720   0.67364    0.000
 3961.00    0.70957   0.57831    0.000
 3962.00    0.71425   0.50838    0.000
 3963.00    0.65839   0.48008    0.000
 3964.00    0.59234   0.45651    0.000
 3965.00    0.46575   0.40887    0.000
 3966.00    0.35569   0.34257    0.000
 3967.00    0.32328   0.28019    0.000
 3968.00    0.31367   0.24060    0.000
 3969.00    0.39148   0.23373    0.000
 3970.00    0.44907   0.26150    0.000
 3971.00    0.44207   0.31500    0.000
 3972.00    0.48106   0.37845    0.000
 3973.00    0.64462   0.44284    0.000
 3974.00    0.78959   0.51057    0.000
 3975.00    0.89141   0.57864    0.000
 3976.00    0.90088   0.63705    0.000
 3977.00    0.72486   0.69091    0.000
 3978.00    0.61548   0.75038    0.000
 3979.00    0.62266   0.80779    0.000
 3980.00    0.67452   0.84165    0.000
 3981.00    0.79479   0.83956    0.046
 3982.00    0.81192   0.82145    0.046
 3983.00    0.69031   0.81799    0.046
 3984.00    0.73304   0.83685    0.046
 3985.00    0.97037   0.86533    0.048
 3986.00    1.04093   0.88952    0.049
 3987.00    0.93734   0.91407    0.048
 3988.00    0.92285   0.93467    0.047
 3989.00    0.99041   0.92954    0.048
 3990.00    1.02672   0.91642    0.047
 3991.00    1.03765   0.92843    0.046
 3992.00    0.95185   0.95588    0.046
 3993.00    0.79694   0.97019    0.046
 3994.00    0.83874   0.95948    0.046
 3995.00    1.00387   0.93198    0.046
 3996.00    1.04911   0.89909    0.047
 3997.00    1.02866   0.87812    0.047
 3998.00    1.01480   0.89844    0.046
 3999.00    1.00408   0.95932    0.045
 4000.00    1.09362   1.01242    0.046
 4001.00    1.22435   1.03265    0.046
 4002.00    1.19175   1.04051    0.046
 4003.00    1.10179   1.02732    0.046
 4004.00    1.06897   0.95987    0.046
 4005.00    1.05310   0.87399    0.047
 4006.00    1.08527   0.85549    0.047
 4007.00    1.12924   0.91384    0.047
 4008.00    1.12903   0.98077    0.047
 4009.00    1.12005   1.01423    0.047
 4010.00    1.18195   1.02384    0.046
 4011.00    1.25485   1.02698    0.046
 4012.00    1.19887   1.03075    0.045
 4013.00    1.12806   1.03873    0.045
 4014.00    1.06289   1.05222    0.045
 4015.00    0.99817   1.06674    0.045
 4016.00    0.96578   1.06359    0.046
 4017.00    0.93476   1.04547    0.047
 4018.00    0.86113   1.05033    0.046
 4019.00    0.79126   1.07792    0.045
 4020.00    0.90350   1.08550    0.044
 4021.00    1.01533   1.06718    0.044
 4022.00    1.12004   1.04764    0.045
 4023.00    1.19588   1.02905    0.045
 4024.00    0.96106   1.00859    0.044
 4025.00    0.77494   1.01153    0.044
 4026.00    0.95863   1.05073    0.044
 4027.00    1.11417   1.09718    0.045
 4028.00    1.10738   1.10943    0.047
 4029.00    1.07054   1.05440    0.048
 4030.00    0.89600   0.94603    0.046
 4031.00    0.79751   0.85439    0.045
 4032.00    0.98435   0.81634    0.045
 4033.00    1.13838   0.81464    0.045
 4034.00    1.18955   0.84608    0.045
 4035.00    1.18529   0.91776    0.045
 4036.00    1.03353   1.01473    0.045
 4037.00    0.93334   1.09775    0.045
 4038.00    0.95090   1.13018    0.045
 4039.00    0.96977   1.11026    0.045
 4040.00    0.99121   1.07168    0.045
 4041.00    1.00000   1.05503    0.046
 4042.00    0.98699   1.05379    0.046
 4043.00    1.00730   1.00355    0.047
 4044.00    1.07787   0.87840    0.047
 4045.00    1.04321   0.75798    0.047
 4046.00    0.86906   0.74970    0.047
 4047.00    0.76594   0.85685    0.047
 4048.00    0.74574   0.97847    0.046
 4049.00    0.83110   1.05034    0.047
 4050.00    1.02514   1.08331    0.047
 4051.00    1.10641   1.08644    0.047
 4052.00    1.08527   1.06086    0.047
 4053.00    1.00410   1.02212    0.047
 4054.00    0.87488   0.98404    0.046
 4055.00    0.88538   0.95892    0.047
 4056.00    0.99426   0.94494    0.047
 4057.00    1.07643   0.92438    0.047
 4058.00    1.14210   0.91686    0.047
 4059.00    1.09532   0.95348    0.046
 4060.00    0.98786   1.00219    0.046
 4061.00    0.91854   0.99287    0.046
 4062.00    0.86708   0.90355    0.046
 4063.00    0.84498   0.80656    0.046
 4064.00    0.83473   0.79828    0.045
 4065.00    0.82830   0.86769    0.045
 4066.00    0.82318   0.92247    0.045
 4067.00    0.80545   0.94750    0.045
 4068.00    0.78406   0.99128    0.045
 4069.00    0.78738   1.03056    0.045
 4070.00    0.79662   0.99580    0.044
 4071.00    0.90297   0.91239    0.044
 4072.00    1.02813   0.89066    0.044
 4073.00    1.12209   0.95358    0.045
 4074.00    1.21136   1.00201    0.045
 4075.00    1.15202   0.96729    0.044
 4076.00    1.07625   0.88018    0.044
 4077.00    1.01072   0.81915    0.044
 4078.00    0.94595   0.83893    0.044
 4079.00    0.81808   0.92678    0.044
 4080.00    0.68779   1.02914    0.044
 4081.00    0.72998   1.09206    0.044
 4082.00    0.77732   1.08709    0.043
 4083.00    0.98240   1.03999    0.044
 4084.00    1.17394   1.00195    0.044
 4085.00    1.14238   0.99862    0.044
 4086.00    1.10792   1.03432    0.044
 4087.00    1.04371   1.09667    0.044
 4088.00    0.97773   1.14852    0.044
 4089.00    0.89869   1.15817    0.044
 4090.00    0.84392   1.13135    0.043
 4091.00    0.92529   1.09481    0.043
 4092.00    1.00106   1.07064    0.000
 4093.00    1.05181   1.06514    0.000
 4094.00    1.05186   1.04571    0.000
 4095.00    0.86573   0.98384    0.000
 4096.00    0.74064   0.91695    0.000
 4097.00    0.80326   0.88689    0.000
 4098.00    0.83487   0.87891    0.000
 4099.00    0.78541   0.85108    0.000
 4100.00    0.76550   0.78535    0.000
 4101.00    0.81193   0.72232    0.000
 4102.00    0.82172   0.72259    0.000
 4103.00    0.76020   0.78250    0.000
 4104.00    0.77869   0.85593    0.000
 4105.00    0.93295   0.92445    0.000
 4106.00    1.07572   0.97940    0.000
 4107.00    1.20142   1.00210    0.000
 4108.00    1.27638   0.99285    0.000
 4109.00    1.28506   0.96814    0.000
 4110.00    1.19277   0.94586    0.000
 4111.00    0.98428   0.94223    0.000
 4112.00    0.90559   0.96499    0.000
 4113.00    0.95866   1.00616    0.044
 4114.00    1.07360   1.04372    0.044
 4115.00    1.24395   1.06648    0.045
 4116.00    1.27180   1.07371    0.045
 4117.00    1.18723   1.05132    0.045
 4118.00    1.10896   1.00129    0.064
 4119.00    1.03507   0.96978    0.234
 4120.00    0.95289   0.98082   -1.000
 4121.00    0.86567   0.99698   -1.000
 4122.00    0.88935   0.99486   -1.000
 4123.00    0.97193   0.99938   -1.000
 4124.00    1.01937   1.02743   -1.000
 4125.00    1.05061   1.05119   -1.000
 4126.00    0.98871   1.03987    0.120
 4127.00    0.88984   1.00454    0.050
 4128.00    0.95411   0.97541    0.044
 4129.00    1.07360   0.96204    0.044
 4130.00    1.01701   0.94453    0.045
 4131.00    0.91032   0.90518    0.045
 4132.00    0.84901   0.86359    0.044
 4133.00    0.79835   0.85800    0.042
 4134.00    0.91385   0.89868    0.043
 4135.00    1.06072   0.96894    0.044
 4136.00    1.01514   1.02935    0.044
 4137.00    0.94145   1.05388    0.045
 4138.00    0.96024   1.06521    0.044
 4139.00    0.98885   1.07881    0.043
 4140.00    1.08219   1.07408    0.044
 4141.00    1.18001   1.02077    0.045
 4142.00    1.12724   0.91483    0.044
 4143.00    1.06927   0.81919    0.044
 4144.00    1.15587   0.81513    0.044
 4145.00    1.23936   0.89296    0.043
 4146.00    1.21099   0.97044    0.044
 4147.00    1.18564   1.00211    0.044
 4148.00    1.20711   0.99417    0.044
 4149.00    1.21137   0.96580    0.044
 4150.00    1.04590   0.94367    0.044
 4151.00    0.89931   0.94069    0.043
 4152.00    0.88663   0.94190    0.043
 4153.00    0.89123   0.93349    0.043
 4154.00    0.99012   0.91896    0.042
 4155.00    1.02926   0.91025    0.042
 4156.00    0.80724   0.91213    0.041
 4157.00    0.62265   0.93326    0.041
 4158.00    0.57266   0.97727    0.041
 4159.00    0.60583   1.01850    0.041
 4160.00    0.88992   1.03584    0.041
 4161.00    1.06664   1.04634    0.041
 4162.00    0.96759   1.06872    0.041
 4163.00    0.91438   1.07989    0.041
 4164.00    0.96243   1.06111    0.041
 4165.00    1.01402   1.03040    0.041
 4166.00    1.07240   0.99840    0.042
 4167.00    1.11643   0.97395    0.042
 4168.00    1.13647   0.98234    0.041
 4169.00    1.13195   1.01368    0.041
 4170.00    1.09145   1.01592    0.041
 4171.00    1.06831   0.96036    0.041
 4172.00    1.06753   0.87982    0.042
 4173.00    0.97298   0.83945    0.042
 4174.00    0.77200   0.85889    0.042
 4175.00    0.76663   0.89713    0.042
 4176.00    0.95703   0.91355    0.042
 4177.00    1.07053   0.90765    0.043
 4178.00    1.11614   0.90951    0.043
 4179.00    1.07320   0.93366    0.043
 4180.00    0.96138   0.95394    0.042
 4181.00    0.93937   0.94900    0.041
 4182.00    0.97879   0.94132    0.042
 4183.00    0.96300   0.96169    0.042
 4184.00    0.91411   1.00473    0.042
 4185.00    0.81574   1.02860    0.042
 4186.00    0.69147   0.99453    0.041
 4187.00    0.74868   0.93742    0.041
 4188.00    0.88820   0.93347    0.042
 4189.00    0.97760   0.97777    0.042
 4190.00    1.04745   1.00440    0.041
 4191.00    0.90811   1.00705    0.041
 4192.00    0.69928   1.03077    0.041
 4193.00    0.70387   1.06505    0.041
 4194.00    0.76794   1.05171    0.041
 4195.00    0.82272   0.98680    0.042
 4196.00    0.87537   0.92068    0.043
 4197.00    0.91181   0.88104    0.043
 4198.00    0.94528   0.86539    0.043
 4199.00    0.93461   0.87564    0.043
 4200.00    0.91769   0.89416    0.043
 4201.00    1.03203   0.89125    0.043
 4202.00    1.15976   0.88817    0.042
 4203.00    1.09963   0.91748    0.042
 4204.00    1.02726   0.96125    0.041
 4205.00    0.92128   0.99945    0.040
 4206.00    0.81459   1.03679    0.040
 4207.00    0.91911   1.06935    0.041
 4208.00    1.02015   1.08043    0.042
 4209.00    1.01884   1.06327    0.042
 4210.00    1.02326   1.04406    0.042
 4211.00    1.11111   1.05274    0.046
 4212.00    1.17004   1.06952    0.051
 4213.00    0.95554   1.04931    0.050
 4214.00    0.79929   0.98349    0.050
 4215.00    1.04335   0.92251    0.050
 4216.00    1.22889   0.93928    0.050
 4217.00    1.10334   1.03235    0.049
 4218.00    1.01905   1.12081    0.048
 4219.00    1.11100   1.16086    0.044
 4220.00    1.16790   1.17001    0.041
 4221.00    1.10134   1.15345    0.041
 4222.00    1.00519   1.09551    0.041
 4223.00    0.82142   1.00312    0.040
 4224.00    0.71516   0.88975    0.040
 4225.00    0.80453   0.76037    0.040
 4226.00    0.88556   0.65820    0.040
 4227.00    0.94848   0.66565    0.040
 4228.00    1.01727   0.79745    0.039
 4229.00    1.09713   0.95984    0.039
 4230.00    1.10977   1.06898    0.039
 4231.00    1.01175   1.10513    0.039
 4232.00    0.95388   1.07300    0.038
 4233.00    0.95398   1.01749    0.038
 4234.00    0.99147   0.98888    0.038
 4235.00    1.07643   0.97489    0.038
 4236.00    1.11091   0.96289    0.037
 4237.00    1.08893   0.97301    0.037
 4238.00    1.13781   0.99530    0.037
 4239.00    1.25664   1.01433    0.038
 4240.00    1.26314   1.04623    0.038
 4241.00    1.17189   1.08959    0.038
 4242.00    1.10960   1.12051    0.038
 4243.00    1.06949   1.15049    0.038
 4244.00    1.08796   1.19204    0.039
 4245.00    1.14591   1.20242    0.039
 4246.00    1.19649   1.15265    0.040
 4247.00    1.24273   1.07844    0.040
 4248.00    1.22616   1.01966    0.041
 4249.00    1.17726   0.97241    0.041
 4250.00    1.13768   0.93824    0.041
 4251.00    1.10226   0.95192    0.041
 4252.00    1.08324   0.99497    0.041
 4253.00    1.07051   0.99587    0.041
 4254.00    1.01025   0.95924    0.040
 4255.00    0.93450   0.96687    0.039
 4256.00    0.90270   1.03913    0.038
 4257.00    0.88289   1.09409    0.038
 4258.00    0.89940   1.06277    0.038
 4259.00    0.92403   0.97462    0.039
 4260.00    0.86330   0.91015    0.039
 4261.00    0.78730   0.93074    0.039
 4262.00    0.92475   1.03143    0.039
 4263.00    1.09141   1.13979    0.040
 4264.00    1.15655   1.20226    0.040
 4265.00    1.21178   1.22506    0.039
 4266.00    1.04727   1.21544    0.039
 4267.00    0.86933   1.16758    0.040
 4268.00    0.90748   1.10014    0.039
 4269.00    0.95098   1.02487    0.038
 4270.00    0.90007   0.92559    0.038
 4271.00    0.84870   0.82528    0.038
 4272.00    0.78496   0.78959    0.038
 4273.00    0.73544   0.81871    0.038
 4274.00    0.88141   0.85503    0.038
 4275.00    1.01671   0.90429    0.039
 4276.00    1.05518   0.99778    0.039
 4277.00    1.08880   1.09991    0.039
 4278.00    1.09012   1.14984    0.039
 4279.00    1.10465   1.12598    0.039
 4280.00    1.18757   1.06876    0.039
 4281.00    1.25170   1.03929    0.040
 4282.00    1.23743   1.04591   -2.000
 4283.00    1.20063   1.06108   -2.000
 4284.00    1.08606   1.06007   -2.000
 4285.00    0.94100   1.03736   -2.000
 4286.00    0.70730   1.01913   -2.000
 4287.00    0.59970   1.00806   -2.000
 4288.00    0.80486   0.96274   -2.000
 4289.00    0.99730   0.88222   -2.000
 4290.00    1.16253   0.84015   -2.000
 4291.00    1.25672   0.88609   -2.000
 4292.00    1.21903   0.97480   -2.000
 4293.00    1.16797   1.02453   -2.000
 4294.00    1.09525   1.01705   -2.000
 4295.00    1.03822   1.00078   -2.000
 4296.00    1.00350   0.98881   -2.000
 4297.00    0.95790   0.94827   -2.000
 4298.00    0.89870   0.86633    0.040
 4299.00    0.85076   0.77470    0.040
 4300.00    0.81526   0.73217    0.040
 4301.00    0.80238   0.74849    0.040
 4302.00    0.81150   0.77570    0.040
 4303.00    0.90145   0.79551    0.040
 4304.00    1.06075   0.81236    0.041
 4305.00    1.03631   0.80775    0.043
 4306.00    0.87301   0.77178    0.046
 4307.00    0.81164   0.71872    0.048
 4308.00    0.81795   0.68252    0.048
 4309.00    0.91152   0.69933    0.048
 4310.00    1.05584   0.76467    0.048
 4311.00    1.06921   0.84299    0.045
 4312.00    1.01623   0.90865    0.040
 4313.00    0.94542   0.95798    0.039
 4314.00    0.86680   1.01321    0.039
 4315.00    0.93488   1.11331    0.039
 4316.00    1.05822   1.24254    0.040
 4317.00    1.16790   1.32336    0.040
 4318.00    1.27322   1.32755    0.040
 4319.00    1.32706   1.29241    0.040
 4320.00    1.36715   1.24832    0.040
 4321.00    1.28638   1.20500    0.040
 4322.00    1.17915   1.14958    0.040
 4323.00    1.03882   1.04748    0.040
 4324.00    0.89274   0.90784    0.040
 4325.00    1.00450   0.80649    0.040
 4326.00    1.15037   0.82836    0.039
 4327.00    1.10343   0.97716    0.039
 4328.00    1.03848   1.14548    0.040
 4329.00    1.25406   1.22508    0.040
 4330.00    1.48568   1.21735    0.000
 4331.00    1.37633   1.19950    0.000
 4332.00    1.25938   1.21087    0.000
 4333.00    1.18098   1.23494    0.000
 4334.00    1.10580   1.25786    0.000
 4335.00    1.10785   1.25565    0.000
 4336.00    1.10858   1.17908    0.000
 4337.00    1.09215   1.03423    0.000
 4338.00    1.07821   0.90020    0.000
 4339.00    1.08605   0.82013    0.000
 4340.00    1.08777   0.79699    0.000
 4341.00    1.04991   0.85123    0.000
 4342.00    1.04677   0.95597    0.000
 4343.00    1.21876   1.03594    0.000
 4344.00    1.33888   1.08222    0.000
 4345.00    1.24722   1.12824    0.000
 4346.00    1.19586   1.16401    0.000
 4347.00    1.28080   1.18996    0.000
 4348.00    1.33158   1.23447    0.000
 4349.00    1.28489   1.26207    0.000
 4350.00    1.24244   1.19541    0.000
 4351.00    1.21037   1.05944    0.039
 4352.00    1.19765   0.98276    0.047
 4353.00    1.22563   1.02027    0.120
 4354.00    1.28108   1.09984   -1.000
 4355.00    1.38674   1.16223   -1.000
 4356.00    1.40710   1.21146   -1.000
 4357.00    1.29114   1.23262   -1.000
 4358.00    1.19906   1.20197   -1.000
 4359.00    1.14046   1.16373   -1.000
 4360.00    1.12895   1.18259    0.172
 4361.00    1.17556   1.24300    0.053
 4362.00    1.26530   1.28476    0.039
 4363.00    1.40194   1.30409    0.039
 4364.00    1.36086   1.33365    0.039
 4365.00    1.14929   1.35148    0.038
 4366.00    1.11108   1.31014    0.038
 4367.00    1.21952   1.23066    0.039
 4368.00    1.21213   1.18085    0.039
 4369.00    1.11848   1.18087    0.038
 4370.00    1.11099   1.19842    0.038
 4371.00    1.15990   1.21010    0.039
 4372.00    1.18414   1.19823    0.039
 4373.00    1.19426   1.14148    0.039
 4374.00    1.20154   1.06166    0.038
 4375.00    1.20741   1.02819    0.038
 4376.00    1.20067   1.08158    0.038
 4377.00    1.18849   1.17914    0.039
 4378.00    1.15663   1.24165    0.039
 4379.00    1.11748   1.23821    0.039
 4380.00    1.04986   1.19148    0.038
 4381.00    0.97329   1.10899    0.038
 4382.00    0.96749   0.96754    0.038
 4383.00    0.98019   0.80623    0.038
 4384.00    1.06696   0.74422    0.038
 4385.00    1.16955   0.83340    0.038
 4386.00    1.20453   0.98178    0.037
 4387.00    1.22808   1.07362    0.037
 4388.00    1.16547   1.09106    0.037
 4389.00    1.09186   1.07781    0.037
 4390.00    1.16359   1.06955    0.038
 4391.00    1.24829   1.08751    0.038
 4392.00    1.24582   1.12336    0.038
 4393.00    1.23871   1.13849    0.037
 4394.00    1.23857   1.12370    0.037
 4395.00    1.23713   1.12993    0.037
 4396.00    1.11862   1.19372    0.037
 4397.00    1.00901   1.26492    0.036
 4398.00    1.09476   1.27021    0.037
 4399.00    1.17179   1.20721    0.037
 4400.00    1.14096   1.14017    0.037
 4401.00    1.11782   1.13325    0.037
 4402.00    1.15934   1.15584    0.038
 4403.00    1.20216   1.10576    0.038
 4404.00    1.25314   0.98909    0.037
 4405.00    1.28379   0.93260    0.037
 4406.00    1.21444   0.97434    0.037
 4407.00    1.17044   1.02727    0.037
 4408.00    1.22764   1.05929    0.037
 4409.00    1.25924   1.12129    0.037
 4410.00    1.20589   1.21567    0.037
 4411.00    1.17115   1.29099    0.037
 4412.00    1.18855   1.31694    0.038
 4413.00    1.21584   1.27318    0.038
 4414.00    1.26685   1.16194    0.037
 4415.00    1.28600   1.06557    0.037
 4416.00    1.23922   1.06553    0.037
 4417.00    1.24969   1.14002    0.037
 4418.00    1.36323   1.22986    0.037
 4419.00    1.42489   1.29906    0.037
 4420.00    1.40485   1.31345    0.037
 4421.00    1.37707   1.26167    0.037
 4422.00    1.33859   1.19121    0.037
 4423.00    1.31257   1.16707    0.037
 4424.00    1.30171   1.19032    0.036
 4425.00    1.27149   1.21129    0.036
 4426.00    1.22050   1.21364    0.037
 4427.00    1.24734   1.22038    0.037
 4428.00    1.34779   1.23358    0.037
 4429.00    1.35003   1.22226    0.037
 4430.00    1.27036   1.19285    0.037
 4431.00    1.27903   1.19453    0.037
 4432.00    1.35256   1.21321    0.037
 4433.00    1.43051   1.18473    0.037
 4434.00    1.51130   1.11093    0.037
 4435.00    1.37967   1.06651    0.037
 4436.00    1.12823   1.10900    0.037
 4437.00    1.10709   1.21554    0.037
 4438.00    1.19901   1.31484    0.037
 4439.00    1.27892   1.35177    0.037
 4440.00    1.35374   1.30896    0.038
 4441.00    1.31420   1.21589    0.038
 4442.00    1.23310   1.13540    0.038
 4443.00    1.18148   1.12191    0.037
 4444.00    1.13893   1.18650    0.037
 4445.00    1.14641   1.27987    0.037
 4446.00    1.16670   1.33119    0.037
 4447.00    1.24604   1.33339    0.037
 4448.00    1.33769   1.32968    0.037
 4449.00    1.45236   1.32246    0.037
 4450.00    1.57082   1.30143    0.037
 4451.00    1.49424   1.28832    0.037
 4452.00    1.39363   1.27599    0.037
 4453.00    1.38373   1.22598    0.037
 4454.00    1.38155   1.14104    0.036
 4455.00    1.27512   1.07790    0.036
 4456.00    1.16356   1.07507    0.036
 4457.00    1.19451   1.09886    0.036
 4458.00    1.22825   1.10286    0.036
 4459.00    1.29413   1.08886    0.036
 4460.00    1.35602   1.07056    0.036
 4461.00    1.33722   1.05616    0.000
 4462.00    1.31793   1.08201    0.000
 4463.00    1.29294   1.15836    0.000
 4464.00    1.27243   1.22224    0.000
 4465.00    1.28821   1.23503    0.000
 4466.00    1.30974   1.22696    0.000
 4467.00    1.36625   1.22042    0.000
 4468.00    1.39891   1.20480    0.000
 4469.00    1.31719   1.18552    0.000
 4470.00    1.26681   1.19291    0.000
 4471.00    1.33887   1.23490    0.000
 4472.00    1.38968   1.29313    0.000
 4473.00    1.37138   1.34466    0.000
 4474.00    1.37189   1.36845    0.000
 4475.00    1.42416   1.37236    0.000
 4476.00    1.41479   1.39192    0.000
 4477.00    1.26020   1.42509    0.000
 4478.00    1.19234   1.41772    0.000
 4479.00    1.30115   1.33996    0.000
 4480.00    1.38484   1.23190    0.000
 4481.00    1.42400   1.16238    0.000
 4482.00    1.38830   1.17300    0.036
 4483.00    1.23650   1.25299    0.036
 4484.00    1.19559   1.34894    0.036
 4485.00    1.30572   1.41406    0.036
 4486.00    1.37850   1.42979    0.036
 4487.00    1.40652   1.38913    0.035
 4488.00    1.40123   1.30764    0.036
 4489.00    1.36074   1.23558    0.036
 4490.00    1.36445   1.22300    0.036
 4491.00    1.40938   1.26882    0.036
 4492.00    1.43829   1.31374    0.036
 4493.00    1.45404   1.29813    0.035
 4494.00    1.41862   1.23347    0.035
 4495.00    1.34617   1.19017    0.036
 4496.00    1.32051   1.20874    0.036
 4497.00    1.32455   1.27217    0.035
 4498.00    1.35018   1.34112    0.036
 4499.00    1.38781   1.37737    0.036
 4500.00    1.31246   1.36538    0.036
 4501.00    1.18253   1.34122    0.035
 4502.00    1.20122   1.37012    0.035
 4503.00    1.28191   1.45133    0.036
 4504.00    1.36082   1.51258    0.036
 4505.00    1.43909   1.51443    0.036
 4506.00    1.49073   1.47772    0.036
 4507.00    1.53435   1.43892    0.036
 4508.00    1.50412   1.42421    0.036
 4509.00    1.45540   1.43828    0.036
 4510.00    1.42705   1.45841    0.035
 4511.00    1.40283   1.45117    0.035
 4512.00    1.41843   1.40933    0.035
 4513.00    1.44039   1.35928    0.036
 4514.00    1.38643   1.33019    0.036
 4515.00    1.32346   1.33184    0.036
 4516.00    1.33995   1.34405    0.036
 4517.00    1.36286   1.34085    0.036
 4518.00    1.32564   1.33793    0.036
 4519.00    1.28568   1.36524    0.035
 4520.00    1.30168   1.40848    0.035
 4521.00    1.31809   1.42308    0.035
 4522.00    1.32008   1.38938    0.035
 4523.00    1.32514   1.34157    0.035
 4524.00    1.38801   1.30763    0.035
 4525.00    1.43234   1.26570    0.036
 4526.00    1.26899   1.20303    0.035
 4527.00    1.12325   1.14071    0.035
 4528.00    1.11538   1.10352    0.035
 4529.00    1.12510   1.10457    0.035
 4530.00    1.23881   1.13774    0.035
 4531.00    1.32534   1.18449    0.035
 4532.00    1.28467   1.21785    0.035
 4533.00    1.25783   1.20589    0.035
 4534.00    1.28386   1.16198    0.035
 4535.00    1.30336   1.15433    0.035
 4536.00    1.30209   1.23030    0.035
 4537.00    1.29488   1.34312    0.035
 4538.00    1.27164   1.39766    0.035
 4539.00    1.26159   1.37041    0.035
 4540.00    1.28211   1.31610    0.035
 4541.00    1.31242   1.29389    0.035
 4542.00    1.36236   1.31700    0.035
 4543.00    1.34855   1.34077    0.036
 4544.00    1.22343   1.32514    0.035
 4545.00    1.18024   1.29631    0.035
 4546.00    1.26225   1.29353    0.035
 4547.00    1.37666   1.30027    0.035
 4548.00    1.53457   1.28148    0.036
 4549.00    1.55880   1.25236    0.036
 4550.00    1.42501   1.25805    0.000
 4551.00    1.34862   1.28774    0.000
 4552.00    1.33206   1.29137    0.000
 4553.00    1.37657   1.26308    0.000
 4554.00    1.47722   1.23414    0.000
 4555.00    1.48912   1.23812    0.000
 4556.00    1.42912   1.29108    0.000
 4557.00    1.38301   1.36615    0.000
 4558.00    1.34681   1.41753    0.000
 4559.00    1.38479   1.43214    0.000
 4560.00    1.46918   1.42996    0.000
 4561.00    1.49016   1.42756    0.000
 4562.00    1.47645   1.40859    0.000
 4563.00    1.44124   1.35235    0.000
 4564.00    1.39582   1.28707    0.000
 4565.00    1.34558   1.26818    0.000
 4566.00    1.29338   1.31681    0.000
 4567.00    1.38034   1.39442    0.000
 4568.00    1.51606   1.44115    0.000
 4569.00    1.54355   1.43489    0.000
 4570.00    1.53905   1.38629    0.000
 4571.00    1.47571   1.33103    0.000
 4572.00    1.39795   1.33034    0.000
 4573.00    1.28913   1.38441    0.000
 4574.00    1.17416   1.42184    0.000
 4575.00    1.27130   1.41981    0.000
 4576.00    1.40127   1.41084    0.000
 4577.00    1.42743   1.39886    0.000
 4578.00    1.44170   1.36087    0.000
 4579.00    1.33255   1.29757    0.000
 4580.00    1.21392   1.24712    0.000
 4581.00    1.26239   1.24463    0.000
 4582.00    1.31781   1.27517    0.000
 4583.00    1.44763   1.29465    0.000
 4584.00    1.57232   1.28945    0.000
 4585.00    1.44889   1.27888    0.000
 4586.00    1.33453   1.28856    0.000
 4587.00    1.37856   1.33302    0.000
 4588.00    1.41870   1.39154    0.000
 4589.00    1.41726   1.42245    0.000
 4590.00    1.40303   1.40438    0.000
 4591.00    1.29204   1.35447    0.000
 4592.00    1.20414   1.31180    0.000
 4593.00    1.24900   1.29457    0.000
 4594.00    1.29330   1.28702    0.000
 4595.00    1.33510   1.27901    0.000
 4596.00    1.36270   1.27988    0.000
 4597.00    1.33719   1.29277    0.000
 4598.00    1.32096   1.31062    0.000
 4599.00    1.33378   1.31756    0.000
 4600.00    1.32835   1.30531    0.000
 4601.00    1.27449   1.29882    0.000
 4602.00    1.26401   1.31124    0.000
 4603.00    1.35234   1.32022    0.000
 4604.00    1.39392   1.31316    0.000
 4605.00    1.34327   1.30635    0.000
 4606.00    1.32620   1.32919    0.000
 4607.00    1.36688   1.39087    0.000
 4608.00    1.36781   1.46372    0.000
 4609.00    1.30888   1.50194    0.000
 4610.00    1.30415   1.48508    0.000
 4611.00    1.37110   1.43978    0.000
 4612.00    1.41604   1.40244    0.000
 4613.00    1.43532   1.39016    0.000
 4614.00    1.48137   1.40664    0.000
 4615.00    1.55493   1.43233    0.000
 4616.00    1.53818   1.44535    0.000
 4617.00    1.43959   1.44732    0.000
 4618.00    1.36866   1.43461    0.000
 4619.00    1.31983   1.41542    0.000
 4620.00    1.34306   1.42099    0.000
 4621.00    1.41692   1.44407    0.000
 4622.00    1.45707   1.45192    0.000
 4623.00    1.47642   1.44774    0.000
 4624.00    1.46998   1.44067    0.000
 4625.00    1.44964   1.42546    0.000
 4626.00    1.46249   1.41537    0.000
 4627.00    1.49087   1.41997    0.000
 4628.00    1.47345   1.41875    0.000
 4629.00    1.43756   1.40842    0.000
 4630.00    1.40469   1.41838    0.000
 4631.00    1.37286   1.44205    0.000
 4632.00    1.39320   1.43375    0.000
 4633.00    1.42865   1.39349    0.000
 4634.00    1.42844   1.36501    0.000
 4635.00    1.41969   1.35979    0.000
 4636.00    1.37590   1.35187    0.000
 4637.00    1.32534   1.32700    0.000
 4638.00    1.32340   1.29885    0.000
 4639.00    1.32875   1.28407    0.000
 4640.00    1.30472   1.29519    0.000
 4641.00    1.27745   1.33326    0.000
 4642.00    1.30268   1.36394    0.000
 4643.00    1.33173   1.35581    0.000
 4644.00    1.33304   1.31638    0.000
 4645.00    1.33329   1.25869    0.000
 4646.00    1.30531   1.19764    0.000
 4647.00    1.27873   1.16892    0.000
 4648.00    1.30917   1.19227    0.000
 4649.00    1.33952   1.24935    0.000
 4650.00    1.36818   1.31025    0.000
 4651.00    1.39552   1.35549    0.000
 4652.00    1.40932   1.37809    0.000
 4653.00    1.41799   1.36890    0.000
 4654.00    1.38919   1.32720    0.000
 4655.00    1.35966   1.28560    0.000
 4656.00    1.32608   1.28223    0.000
 4657.00    1.29849   1.32998    0.000
 4658.00    1.29763   1.41077    0.000
 4659.00    1.31895   1.47890    0.000
 4660.00    1.42150   1.49381    0.000
 4661.00    1.47988   1.45258    0.000
 4662.00    1.40271   1.38677    0.000
 4663.00    1.34895   1.33523    0.000
 4664.00    1.35623   1.30847    0.000
 4665.00    1.36585   1.27056    0.000
 4666.00    1.38070   1.19144    0.000
 4667.00    1.36462   1.11453    0.000
 4668.00    1.28844   1.11097    0.000
 4669.00    1.23609   1.18469    0.000
 4670.00    1.22410   1.27784    0.000
 4671.00    1.26018   1.33842    0.000
 4672.00    1.36758   1.35060    0.000
 4673.00    1.44157   1.33545    0.000
 4674.00    1.47196   1.33006    0.000
 4675.00    1.47109   1.35371    0.000
 4676.00    1.43430   1.38624    0.000
 4677.00    1.41228   1.38682    0.000
 4678.00    1.40523   1.34820    0.000
 4679.00    1.40559   1.30145    0.000
 4680.00    1.41258   1.27016    0.000
 4681.00    1.38916   1.26167    0.000
 4682.00    1.34178   1.28217    0.000
 4683.00    1.33613   1.32211    0.000
 4684.00    1.35938   1.35214    0.000
 4685.00    1.39972   1.35900    0.000
 4686.00    1.45043   1.35004    0.000
 4687.00    1.44470   1.33301    0.000
 4688.00    1.40904   1.32118    0.000
 4689.00    1.38427   1.32047    0.000
 4690.00    1.36451   1.31695    0.000
 4691.00    1.38850   1.30759    0.000
 4692.00    1.42982   1.30860    0.000
 4693.00    1.36275   1.32624    0.000
 4694.00    1.25908   1.35569    0.000
 4695.00    1.27579   1.38739    0.000
 4696.00    1.32665   1.39597    0.000
 4697.00    1.35696   1.35893    0.000
 4698.00    1.38246   1.29645    0.000
 4699.00    1.32649   1.25797    0.000
 4700.00    1.25519   1.25506    0.000
 4701.00    1.26020   1.25373    0.000
 4702.00    1.27631   1.23936    0.000
 4703.00    1.32178   1.23752    0.000
 4704.00    1.37036   1.26556    0.000
 4705.00    1.36771   1.29568    0.000
 4706.00    1.36153   1.29307    0.000
 4707.00    1.28484   1.26433    0.000
 4708.00    1.20574   1.24187    0.000
 4709.00    1.32463   1.24855    0.000
 4710.00    1.43960   1.28859    0.000
 4711.00    1.41667   1.33625    0.000
 4712.00    1.39348   1.34916    0.000
 4713.00    1.36604   1.31849    0.000
 4714.00    1.33947   1.28300    0.000
 4715.00    1.32142   1.29135    0.000
 4716.00    1.30488   1.34455    0.000
 4717.00    1.29910   1.39909    0.000
 4718.00    1.29787   1.43431    0.000
 4719.00    1.32139   1.45918    0.000
 4720.00    1.34237   1.47031    0.000
 4721.00    1.35225   1.45807    0.000
 4722.00    1.36622   1.43597    0.000
 4723.00    1.39487   1.43366    0.000
 4724.00    1.41714   1.45499    0.000
 4725.00    1.42019   1.46143    0.000
 4726.00    1.42110   1.41317    0.000
 4727.00    1.41650   1.32194    0.000
 4728.00    1.38603   1.24556    0.000
 4729.00    1.29852   1.22102    0.000
 4730.00    1.25388   1.23605    0.000
 4731.00    1.29118   1.26916    0.000
 4732.00    1.33529   1.30843    0.000
 4733.00    1.39074   1.34094    0.000
 4734.00    1.39903   1.35983    0.000
 4735.00    1.33834   1.35938    0.000
 4736.00    1.33094   1.34028    0.000
 4737.00    1.39204   1.33877    0.000
 4738.00    1.41840   1.37350    0.000
 4739.00    1.40540   1.40021    0.000
 4740.00    1.41057   1.39051    0.000
 4741.00    1.43389   1.37551    0.000
 4742.00    1.44325   1.38377    0.000
 4743.00    1.44031   1.40109    0.000
 4744.00    1.45376   1.40465    0.000
 4745.00    1.47995   1.40505    0.000
 4746.00    1.42335   1.42166    0.000
 4747.00    1.31025   1.44001    0.000
 4748.00    1.31462   1.44269    0.000
 4749.00    1.38928   1.43960    0.000
 4750.00    1.40165   1.43669    0.000
 4751.00    1.38150   1.42186    0.000
 4752.00    1.40861   1.39291    0.000
 4753.00    1.45710   1.36399    0.000
 4754.00    1.45013   1.34495    0.000
 4755.00    1.42157   1.33842    0.000
 4756.00    1.40643   1.34269    0.000
 4757.00    1.39573   1.35498    0.000
 4758.00    1.38483   1.37350    0.000
 4759.00    1.37387   1.39229    0.000
 4760.00    1.32960   1.39282    0.000
 4761.00    1.27770   1.36005    0.032
 4762.00    1.33321   1.31312    0.032
 4763.00    1.40840   1.28001    0.033
 4764.00    1.37054   1.25614    0.032
 4765.00    1.31677   1.23227    0.032
 4766.00    1.30909   1.22781    0.032
 4767.00    1.30608   1.26053    0.032
 4768.00    1.29231   1.31746    0.032
 4769.00    1.27784   1.36882    0.031
 4770.00    1.43213   1.38563    0.032
 4771.00    1.59101   1.36588    0.032
 4772.00    1.49604   1.35005    0.032
 4773.00    1.40524   1.37229    0.032
 4774.00    1.43530   1.41470    0.032
 4775.00    1.46306   1.43780    0.032
 4776.00    1.45764   1.44009    0.032
 4777.00    1.44568   1.44440    0.032
 4778.00    1.37224   1.44597    0.032
 4779.00    1.31012   1.43270    0.032
 4780.00    1.32547   1.41452    0.031
 4781.00    1.34392   1.39462    0.031
 4782.00    1.37875   1.36339    0.031
 4783.00    1.39844   1.33486    0.030
 4784.00    1.35359   1.33131    0.031
 4785.00    1.31861   1.33438    0.031
 4786.00    1.31830   1.32373    0.031
 4787.00    1.33188   1.31937    0.031
 4788.00    1.38648   1.32642    0.031
 4789.00    1.43329   1.32778    0.031
 4790.00    1.46046   1.33150    0.031
 4791.00    1.47923   1.35169    0.031
 4792.00    1.47980   1.38870    0.031
 4793.00    1.46513   1.43977    0.031
 4794.00    1.42176   1.48834    0.032
 4795.00    1.41527   1.50580    0.032
 4796.00    1.46938   1.48328    0.032
 4797.00    1.52584   1.43677    0.032
 4798.00    1.58568   1.38558    0.032
 4799.00    1.59046   1.35113    0.032
 4800.00    1.52547   1.35586    0.032
 4801.00    1.44764   1.39950    0.032
 4802.00    1.35547   1.44791    0.032
 4803.00    1.38232   1.46135    0.032
 4804.00    1.52640   1.43324    0.032
 4805.00    1.54362   1.39304    0.032
 4806.00    1.45064   1.36566    0.031
 4807.00    1.38332   1.34820    0.031
 4808.00    1.33564   1.34303    0.031
 4809.00    1.36788   1.36031    0.031
 4810.00    1.45387   1.38694    0.032
 4811.00    1.48729   1.40110    0.031
 4812.00    1.48974   1.40137    0.031
 4813.00    1.47355   1.39987    0.031
 4814.00    1.44778   1.40541    0.031
 4815.00    1.41224   1.41990    0.031
 4816.00    1.37234   1.44096    0.031
 4817.00    1.41223   1.46248    0.031
 4818.00    1.48264   1.48003    0.031
 4819.00    1.42723   1.49018    0.031
 4820.00    1.33091   1.48492    0.031
 4821.00    1.38081   1.45653    0.031
 4822.00    1.47050   1.40142    0.031
 4823.00    1.46738   1.34108    0.031
 4824.00    1.44352   1.32451    0.031
 4825.00    1.41716   1.36115    0.031
 4826.00    1.39035   1.40117    0.031
 4827.00    1.42767   1.40661    0.031
 4828.00    1.47374   1.38995    0.031
 4829.00    1.48983   1.37934    0.031
 4830.00    1.50300   1.37316    0.031
 4831.00    1.44183   1.35296    0.030
 4832.00    1.37615   1.33531    0.030
 4833.00    1.37826   1.35117    0.030
 4834.00    1.38230   1.38611    0.030
 4835.00    1.40766   1.40551    0.030
 4836.00    1.43086   1.40577    0.030
 4837.00    1.39768   1.39701    0.030
 4838.00    1.36634   1.37371    0.030
 4839.00    1.36023   1.33944    0.030
 4840.00    1.35102   1.32067    0.030
 4841.00    1.31387   1.32614    0.030
 4842.00    1.29044   1.33210    0.029
 4843.00    1.35808   1.33284    0.030
 4844.00    1.40266   1.35365    0.030
 4845.00    1.32826   1.39185    0.030
 4846.00    1.27692   1.40770    0.030
 4847.00    1.32163   1.38088    0.030
 4848.00    1.36624   1.33891    0.000
 4849.00    1.41055   1.32732    0.000
 4850.00    1.40629   1.34997    0.000
 4851.00    1.26117   1.36908    0.000
 4852.00    1.15928   1.36531    0.000
 4853.00    1.16438   1.33661    0.000
 4854.00    1.18233   1.27802    0.000
 4855.00    1.22769   1.21903    0.000
 4856.00    1.24353   1.20757    0.000
 4857.00    1.20469   1.22878    0.000
 4858.00    1.18601   1.21557    0.000
 4859.00    1.19996   1.13591    0.000
 4860.00    1.20116   1.02512    0.000
 4861.00    1.18426   0.96043    0.000
 4862.00    1.17376   0.99169    0.000
 4863.00    1.17125   1.07872    0.000
 4864.00    1.16545   1.15374    0.000
 4865.00    1.15600   1.20632    0.000
 4866.00    1.17553   1.24687    0.000
 4867.00    1.22322   1.27002    0.000
 4868.00    1.19865   1.27595    0.000
 4869.00    1.11220   1.26015    0.000
 4870.00    1.11047   1.20519    0.000
 4871.00    1.17266   1.13844    0.000
 4872.00    1.23673   1.12885    0.000
 4873.00    1.30204   1.18375    0.000
 4874.00    1.35855   1.24100    0.000
 4875.00    1.40993   1.26985    0.030
 4876.00    1.38400   1.29050    0.030
 4877.00    1.31896   1.31752    0.030
 4878.00    1.28199   1.35280    0.029
 4879.00    1.25731   1.38648    0.029
 4880.00    1.33602   1.38474    0.029
 4881.00    1.45359   1.34710    0.030
 4882.00    1.47867   1.32239    0.030
 4883.00    1.47425   1.32081    0.030
 4884.00    1.38701   1.30164    0.030
 4885.00    1.27769   1.25756    0.030
 4886.00    1.27154   1.22836    0.030
 4887.00    1.28789   1.23508    0.030
 4888.00    1.29944   1.25055    0.030
 4889.00    1.31016   1.23498    0.030
 4890.00    1.30049   1.18611    0.030
 4891.00    1.28814   1.16291    0.031
 4892.00    1.31444   1.22376    0.031
 4893.00    1.34433   1.33933    0.031
 4894.00    1.42212   1.43896    0.031
 4895.00    1.50261   1.49271    0.030
 4896.00    1.42209   1.50705    0.031
 4897.00    1.33938   1.49768    0.031
 4898.00    1.41879   1.47050    0.031
 4899.00    1.49553   1.42855    0.031
 4900.00    1.50901   1.39638    0.031
 4901.00    1.51560   1.38891    0.031
 4902.00    1.43314   1.38205    0.030
 4903.00    1.36151   1.36762    0.030
 4904.00    1.38410   1.37800    0.030
 4905.00    1.40199   1.42219    0.031
 4906.00    1.38957   1.45757    0.031
 4907.00    1.37607   1.44456    0.031
 4908.00    1.35714   1.38938    0.031
 4909.00    1.33244   1.32456    0.031
 4910.00    1.28427   1.28422    0.031
 4911.00    1.26191   1.28957    0.031
 4912.00    1.32664   1.32882    0.031
 4913.00    1.35785   1.37331    0.030
 4914.00    1.29363   1.41182    0.030
 4915.00    1.27228   1.43881    0.030
 4916.00    1.35526   1.42883    0.030
 4917.00    1.39525   1.35736    0.031
 4918.00    1.34501   1.23768    0.031
 4919.00    1.29617   1.12497    0.031
 4920.00    1.24987   1.08053    0.031
 4921.00    1.24242   1.12341    0.030
 4922.00    1.29691   1.20627    0.030
 4923.00    1.33261   1.25961    0.030
 4924.00    1.34202   1.27400    0.030
 4925.00    1.38261   1.29725    0.030
 4926.00    1.46159   1.34925    0.030
 4927.00    1.48751   1.40318    0.030
 4928.00    1.45583   1.44390    0.030
 4929.00    1.44085   1.47288    0.030
 4930.00    1.44188   1.48266    0.030
 4931.00    1.44102   1.46608    0.030
 4932.00    1.43856   1.41732    0.030
 4933.00    1.41345   1.35329    0.030
 4934.00    1.37149   1.32545    0.030
 4935.00    1.35873   1.34229    0.030
 4936.00    1.36504   1.34132    0.030
 4937.00    1.39692   1.28607    0.030
 4938.00    1.44343   1.22091    0.030
 4939.00    1.39151   1.21550    0.030
 4940.00    1.29059   1.28342    0.000
 4941.00    1.30439   1.37009    0.000
 4942.00    1.36759   1.42729    0.000
 4943.00    1.46529   1.45483    0.000
 4944.00    1.57573   1.45778    0.000
 4945.00    1.56391   1.43824    0.000
 4946.00    1.51384   1.42398    0.000
 4947.00    1.50908   1.43699    0.000
 4948.00    1.51615   1.46062    0.000
 4949.00    1.46048   1.47575    0.000
 4950.00    1.39145   1.48510    0.000
 4951.00    1.41308   1.48767    0.000
 4952.00    1.44999   1.47236    0.000
 4953.00    1.44238   1.44493    0.000
 4954.00    1.42911   1.41811    0.000
 4955.00    1.36285   1.37307    0.000
 4956.00    1.29189   1.28047    0.000
 4957.00    1.33574   1.18197    0.000
 4958.00    1.38564   1.17761    0.000
 4959.00    1.35694   1.27836    0.000
 4960.00    1.32838   1.38347    0.000
 4961.00    1.42837   1.42703    0.000
 4962.00    1.52352   1.43040    0.000
 4963.00    1.51351   1.42109    0.000
 4964.00    1.49728   1.38972    0.000
 4965.00    1.40454   1.33867    0.000
 4966.00    1.32656   1.30243    0.000
 4967.00    1.37215   1.29728    0.000
 4968.00    1.41525   1.30858    0.000
 4969.00    1.44286   1.32471    0.000
 4970.00    1.45351   1.34532    0.000
 4971.00    1.38100   1.37315    0.000
 4972.00    1.32926   1.40383    0.000
 4973.00    1.36021   1.42738    0.000
 4974.00    1.36540   1.43816    0.000
 4975.00    1.28540   1.43249    0.000
 4976.00    1.23922   1.41045    0.000
 4977.00    1.28759   1.37477    0.000
 4978.00    1.31605   1.33374    0.000
 4979.00    1.29690   1.30361    0.000
 4980.00    1.27717   1.27833    0.000
 4981.00    1.25625   1.22917    0.000
 4982.00    1.26263   1.16199    0.000
 4983.00    1.31807   1.12578    0.000
 4984.00    1.34557   1.14507    0.000
 4985.00    1.32920   1.19887    0.000
 4986.00    1.32927   1.26475    0.000
 4987.00    1.35202   1.32492    0.000
 4988.00    1.37175   1.35436    0.000
 4989.00    1.38781   1.34715    0.000
 4990.00    1.35679   1.32535    0.000
 4991.00    1.27536   1.31597    0.000
 4992.00    1.25958   1.32385    0.000
 4993.00    1.30577   1.32945    0.000
 4994.00    1.35399   1.33141    0.000
 4995.00    1.40390   1.34432    0.000
 4996.00    1.39860   1.35778    0.000
 4997.00    1.35282   1.35285    0.000
 4998.00    1.30435   1.32353    0.000
 4999.00    1.25416   1.27626    0.000
 5000.00    1.24648   1.23479    0.000
 5001.00    1.26274   1.21872    0.000
 5002.00    1.29058   1.22291    0.000
 5003.00    1.32410   1.22649    0.000
 5004.00    1.35431   1.20655    0.000
 5005.00    1.38313   1.16378    0.000
 5006.00    1.33269   1.14108    0.000
 5007.00    1.25351   1.17815    0.000
 5008.00    1.25703   1.25024    0.000
 5009.00    1.28593   1.29648    0.000
 5010.00    1.28074   1.29141    0.000
 5011.00    1.26684   1.24640    0.000
 5012.00    1.29720   1.18251    0.000
 5013.00    1.33676   1.13008    0.000
 5014.00    1.37311   1.11699    0.000
 5015.00    1.40894   1.14467    0.000
 5016.00    1.35435   1.17863    0.000
 5017.00    1.28866   1.18707    0.000
 5018.00    1.22607   1.18506    0.000
 5019.00    1.16374   1.19918    0.000
 5020.00    1.19758   1.21695    0.000
 5021.00    1.23612   1.21531    0.000
 5022.00    1.27936   1.20822    0.000
 5023.00    1.32058   1.22583    0.000
 5024.00    1.23428   1.26168    0.000
 5025.00    1.15457   1.28189    0.000
 5026.00    1.20718   1.27019    0.000
 5027.00    1.26004   1.24495    0.000
 5028.00    1.31591   1.24543    0.000
 5029.00    1.36645   1.28010    0.029
 5030.00    1.37398   1.31934    0.029
 5031.00    1.37907   1.35193    0.029
 5032.00    1.36929   1.38559    0.029
 5033.00    1.35299   1.40420    0.029
 5034.00    1.30547   1.37623    0.029
 5035.00    1.26335   1.30788    0.029
 5036.00    1.24227   1.25374    0.029
 5037.00    1.23164   1.24139    0.029
 5038.00    1.25491   1.22707    0.029
 5039.00    1.27241   1.16869    0.029
 5040.00    1.27409   1.08983    0.028
 5041.00    1.28498   1.05955    0.028
 5042.00    1.31753   1.12051    0.028
 5043.00    1.34053   1.23339    0.028
 5044.00    1.34413   1.33191    0.028
 5045.00    1.33321   1.39358    0.028
 5046.00    1.29660   1.41136    0.027
 5047.00    1.28664   1.37256    0.027
 5048.00    1.31792   1.29715    0.028
 5049.00    1.33351   1.23668    0.028
 5050.00    1.32776   1.21719    0.028
 5051.00    1.33617   1.22479    0.028
 5052.00    1.36154   1.24785    0.028
 5053.00    1.39621   1.28776    0.028
 5054.00    1.44067   1.33273    0.028
 5055.00    1.46594   1.36170    0.028
 5056.00    1.47334   1.37108    0.028
 5057.00    1.45875   1.37605    0.028
 5058.00    1.42611   1.38525    0.028
 5059.00    1.37416   1.39648    0.028
 5060.00    1.30826   1.41187    0.027
 5061.00    1.31653   1.42729    0.027
 5062.00    1.37181   1.41969    0.027
 5063.00    1.38394   1.36870    0.027
 5064.00    1.37215   1.29200    0.028
 5065.00    1.36902   1.24298    0.028
 5066.00    1.37007   1.24327    0.028
 5067.00    1.35626   1.25690    0.028
 5068.00    1.33628   1.26274    0.028
 5069.00    1.32655   1.27823    0.028
 5070.00    1.32048   1.29861    0.028
 5071.00    1.30116   1.29422    0.028
 5072.00    1.27786   1.27444    0.028
 5073.00    1.24443   1.27499    0.028
 5074.00    1.20847   1.29009    0.028
 5075.00    1.22129   1.29422    0.028
 5076.00    1.24400   1.29262    0.028
 5077.00    1.24058   1.28569    0.028
 5078.00    1.23301   1.24220    0.028
 5079.00    1.23338   1.16537    0.028
 5080.00    1.23468   1.11883    0.028
 5081.00    1.22350   1.13517    0.028
 5082.00    1.21131   1.17526    0.028
 5083.00    1.23823   1.20457    0.027
 5084.00    1.26690   1.23281    0.027
 5085.00    1.30361   1.26707    0.027
 5086.00    1.33972   1.29114    0.027
 5087.00    1.34158   1.29906    0.027
 5088.00    1.34444   1.30485    0.027
 5089.00    1.36586   1.31595    0.027
 5090.00    1.38533   1.32652    0.027
 5091.00    1.38316   1.33837    0.028
 5092.00    1.37408   1.35892    0.028
 5093.00    1.31128   1.37734    0.028
 5094.00    1.26513   1.37235    0.028
 5095.00    1.31712   1.34042    0.028
 5096.00    1.35159   1.29275    0.028
 5097.00    1.30428   1.23661    0.028
 5098.00    1.25428   1.18387    0.028
 5099.00    1.19403   1.16613    0.028
 5100.00    1.16436   1.20385    0.027
 5101.00    1.23194   1.26574    0.027
 5102.00    1.27716   1.30159    0.027
 5103.00    1.26209   1.29889    0.027
 5104.00    1.24647   1.28040    0.028
 5105.00    1.22959   1.26371    0.027
 5106.00    1.21512   1.24456    0.027
 5107.00    1.20544   1.22065    0.028
 5108.00    1.22138   1.20398    0.028
 5109.00    1.28199   1.19916    0.028
 5110.00    1.32497   1.20678    0.028
 5111.00    1.34109   1.23378    0.028
 5112.00    1.34578   1.26959    0.028
 5113.00    1.33514   1.29578    0.028
 5114.00    1.34628   1.31295    0.028
 5115.00    1.38310   1.32855    0.028
 5116.00    1.39428   1.34757    0.028
 5117.00    1.37878   1.36831    0.028
 5118.00    1.36240   1.37596    0.028
 5119.00    1.34523   1.35963    0.028
 5120.00    1.32404   1.32447    0.028
 5121.00    1.29961   1.28041    0.027
 5122.00    1.27244   1.23052    0.027
 5123.00    1.24333   1.18103    0.027
 5124.00    1.21492   1.15345    0.027
 5125.00    1.18695   1.15797    0.027
 5126.00    1.19814   1.17382    0.027
 5127.00    1.23071   1.17979    0.027
 5128.00    1.27852   1.17758    0.027
 5129.00    1.33355   1.18110    0.027
 5130.00    1.29964   1.20089    0.027
 5131.00    1.22932   1.23158    0.027
 5132.00    1.25091   1.25599    0.027
 5133.00    1.30463   1.27073    0.027
 5134.00    1.29878   1.28801    0.027
 5135.00    1.27536   1.30145    0.027
 5136.00    1.26409   1.28621    0.027
 5137.00    1.25578   1.24340    0.027
 5138.00    1.21507   1.20132    0.027
 5139.00    1.16797   1.18689    0.027
 5140.00    1.17579   1.20327    0.027
 5141.00    1.19209   1.21345    0.027
 5142.00    1.21032   1.19688    0.027
 5143.00    1.22876   1.18927    0.027
 5144.00    1.22129   1.20446    0.027
 5145.00    1.21184   1.20798    0.027
 5146.00    1.23477   1.18957    0.027
 5147.00    1.25904   1.17630    0.027
 5148.00    1.19635   1.18561    0.027
 5149.00    1.13521   1.20344    0.027
 5150.00    1.16898   1.20468    0.027
 5151.00    1.20031   1.18793    0.027
 5152.00    1.18940   1.17179    0.027
 5153.00    1.18406   1.16835    0.027
 5154.00    1.23805   1.18316    0.028
 5155.00    1.28872   1.21874    0.028
 5156.00    1.31442   1.26555    0.027
 5157.00    1.32418   1.30500    0.027
 5158.00    1.24261   1.32350    0.028
 5159.00    1.18836   1.32481    0.028
 5160.00    1.25858   1.31914    0.028
 5161.00    1.29978   1.30119    0.028
 5162.00    1.23273   1.26796    0.028
 5163.00    1.16768   1.22901    0.028
 5164.00    1.10886   1.17290    0.028
 5165.00    1.05243   1.07664    0.028
 5166.00    1.00232   0.95465    0.027
 5167.00    0.98049   0.86470    0.027
 5168.00    1.02299   0.86050    0.028
 5169.00    1.02002   0.92730    0.028
 5170.00    0.92752   0.97515    0.028
 5171.00    0.88177   0.93511    0.028
 5172.00    0.91624   0.85920    0.027
 5173.00    0.97859   0.86488    0.027
 5174.00    1.08283   0.97815    0.027
 5175.00    1.13970   1.11054    0.027
 5176.00    1.13400   1.18910    0.028
 5177.00    1.14056   1.22072    0.028
 5178.00    1.16141   1.23102    0.027
 5179.00    1.16432   1.22040    0.027
 5180.00    1.14883   1.17877    0.027
 5181.00    1.12379   1.09435    0.027
 5182.00    1.09010   0.96943    0.027
 5183.00    1.07188   0.86237    0.027
 5184.00    1.06599   0.86315    0.027
 5185.00    1.09599   0.98200    0.027
 5186.00    1.15118   1.12614    0.026
 5187.00    1.18472   1.21348    0.026
 5188.00    1.20493   1.24639    0.026
 5189.00    1.23264   1.26103    0.026
 5190.00    1.26440   1.24880    0.000
 5191.00    1.26765   1.18756    0.000
 5192.00    1.25759   1.12284    0.000
 5193.00    1.24963   1.11509    0.000
 5194.00    1.24251   1.14651    0.000
 5195.00    1.23090   1.17280    0.000
 5196.00    1.21774   1.19603    0.000
 5197.00    1.17565   1.22984    0.000
 5198.00    1.12520   1.26652    0.000
 5199.00    1.14826   1.29403    0.000
 5200.00    1.18888   1.30410    0.000
 5201.00    1.16176   1.29442    0.000
 5202.00    1.12160   1.26947    0.000
 5203.00    1.09852   1.22573    0.000
 5204.00    1.07799   1.15672    0.000
 5205.00    1.09669   1.08614    0.000
 5206.00    1.11969   1.04934    0.000
 5207.00    1.09044   1.04033    0.000
 5208.00    1.05743   1.04001    0.000
 5209.00    1.13330   1.06437    0.000
 5210.00    1.21323   1.12698    0.000
 5211.00    1.28257   1.20853    0.027
 5212.00    1.34799   1.27929    0.027
 5213.00    1.27268   1.31298    0.027
 5214.00    1.20340   1.29768    0.027
 5215.00    1.23190   1.25373    0.027
 5216.00    1.25941   1.22573    0.027
 5217.00    1.27688   1.24113    0.027
 5218.00    1.29517   1.28697    0.027
 5219.00    1.31941   1.33106    0.027
 5220.00    1.34255   1.35521    0.027
 5221.00    1.35961   1.35861    0.027
 5222.00    1.36019   1.33777    0.027
 5223.00    1.28737   1.28618    0.027
 5224.00    1.23239   1.20819    0.027
 5225.00    1.24253   1.12081    0.027
 5226.00    1.25268   1.05665    0.027
 5227.00    1.26288   1.06127    0.027
 5228.00    1.28434   1.14329    0.027
 5229.00    1.33509   1.24377    0.027
 5230.00    1.37201   1.30300    0.027
 5231.00    1.37802   1.30758    0.027
 5232.00    1.37095   1.27042    0.027
 5233.00    1.33853   1.22798    0.028
 5234.00    1.33178   1.22137    0.028
 5235.00    1.36839   1.25727    0.028
 5236.00    1.38217   1.31295    0.028
 5237.00    1.36214   1.35846    0.028
 5238.00    1.34736   1.37603    0.027
 5239.00    1.33942   1.37298    0.027
 5240.00    1.34699   1.36787    0.027
 5241.00    1.37235   1.36646    0.027
 5242.00    1.38380   1.36533    0.027
 5243.00    1.38118   1.37098    0.027
 5244.00    1.36518   1.38294    0.027
 5245.00    1.33724   1.37074    0.027
 5246.00    1.34404   1.31639    0.027
 5247.00    1.37815   1.25865    0.026
 5248.00    1.35157   1.23767    0.026
 5249.00    1.28302   1.23459    0.026
 5250.00    1.23911   1.22596    0.026
 5251.00    1.21012   1.23119    0.026
 5252.00    1.24176   1.25837    0.026
 5253.00    1.30549   1.27635    0.027
 5254.00    1.31475   1.26838    0.027
 5255.00    1.29900   1.26669    0.027
 5256.00    1.30288   1.30695    0.027
 5257.00    1.31453   1.37117    0.026
 5258.00    1.31645   1.41266    0.027
 5259.00    1.31510   1.40880    0.027
 5260.00    1.33186   1.36311    0.027
 5261.00    1.35375   1.28752    0.027
 5262.00    1.36068   1.19855    0.027
 5263.00    1.36411   1.11615    0.027
 5264.00    1.27579   1.05468    0.027
 5265.00    1.17026   1.02389    0.027
 5266.00    1.12448   1.03499    0.027
 5267.00    1.08736   1.06677    0.027
 5268.00    1.10852   1.05546    0.027
 5269.00    1.13581   0.99616    0.027
 5270.00    1.17903   0.98253    0.027
 5271.00    1.22333   1.06333    0.027
 5272.00    1.22186   1.16737    0.028
 5273.00    1.21885   1.22020    0.028
 5274.00    1.23602   1.22416    0.028
 5275.00    1.25464   1.22330    0.028
 5276.00    1.31865   1.25881    0.027
 5277.00    1.37365   1.32780    0.027
 5278.00    1.29145   1.38025    0.027
 5279.00    1.21830   1.38029    0.027
 5280.00    1.23334   1.33930    0.027
 5281.00    1.25353   1.28837    0.027
 5282.00    1.30988   1.24766    0.027
 5283.00    1.35741   1.23038    0.027
 5284.00    1.35714   1.25712    0.027
 5285.00    1.36131   1.32993    0.027
 5286.00    1.38475   1.40552    0.027
 5287.00    1.40140   1.43928    0.027
 5288.00    1.39376   1.43788    0.027
 5289.00    1.39263   1.43692    0.027
 5290.00    1.41108   1.44785    0.027
 5291.00    1.42124   1.45207    0.027
 5292.00    1.41020   1.43735    0.027
 5293.00    1.37939   1.41463    0.027
 5294.00    1.30511   1.39276    0.027
 5295.00    1.25895   1.35521    0.027
 5296.00    1.26647   1.28579    0.027
 5297.00    1.27150   1.21186    0.027
 5298.00    1.27239   1.18867    0.027
 5299.00    1.27549   1.22703    0.027
 5300.00    1.28181   1.27519    0.027
 5301.00    1.29155   1.29775    0.027
 5302.00    1.30565   1.31848    0.026
 5303.00    1.33598   1.36361    0.026
 5304.00    1.38468   1.41732    0.027
 5305.00    1.42063   1.44667    0.027
 5306.00    1.44385   1.44163    0.027
 5307.00    1.43322   1.42516    0.026
 5308.00    1.39280   1.42620    0.026
 5309.00    1.37047   1.44535    0.026
 5310.00    1.36217   1.45996    0.026
 5311.00    1.37762   1.45647    0.026
 5312.00    1.40926   1.44011    0.026
 5313.00    1.42124   1.42239    0.026
 5314.00    1.42147   1.40816    0.026
 5315.00    1.42447   1.39203    0.026
 5316.00    1.42890   1.37387    0.026
 5317.00    1.42156   1.36623    0.025
 5318.00    1.40892   1.37235    0.025
 5319.00    1.41735   1.37959    0.025
 5320.00    1.43397   1.38024    0.025
 5321.00    1.39308   1.37275    0.025
 5322.00    1.33317   1.34964    0.025
 5323.00    1.30634   1.30933    0.025
 5324.00    1.28869   1.27366    0.025
 5325.00    1.24152   1.25614    0.025
 5326.00    1.18763   1.21974    0.025
 5327.00    1.16898   1.13388    0.025
 5328.00    1.15676   1.05879    0.025
 5329.00    1.21765   1.08156    0.025
 5330.00    1.28880   1.18676    0.025
 5331.00    1.30283   1.28237    0.026
 5332.00    1.31109   1.32470    0.026
 5333.00    1.29405   1.34455    0.026
 5334.00    1.27539   1.37325    0.025
 5335.00    1.26884   1.39918    0.025
 5336.00    1.26273   1.40300    0.025
 5337.00    1.28445   1.38821    0.025
 5338.00    1.30548   1.35751    0.025
 5339.00    1.30691   1.30448    0.026
 5340.00    1.30377   1.25269    0.026
 5341.00    1.23528   1.24976    0.026
 5342.00    1.17948   1.29818    0.025
 5343.00    1.24248   1.34779    0.025
 5344.00    1.29002   1.36204    0.025
 5345.00    1.23205   1.34791    0.025
 5346.00    1.19256   1.33130    0.025
 5347.00    1.25063   1.32026    0.025
 5348.00    1.29933   1.30522    0.025
 5349.00    1.30825   1.29794    0.025
 5350.00    1.32483   1.32274    0.025
 5351.00    1.36824   1.37016    0.025
 5352.00    1.39857   1.40845    0.026
 5353.00    1.39031   1.43130    0.026
 5354.00    1.40036   1.45488    0.025
 5355.00    1.45641   1.48037    0.026
 5356.00    1.47303   1.49522    0.026
 5357.00    1.40430   1.49789    0.025
 5358.00    1.36343   1.49485    0.025
 5359.00    1.37489   1.48606    0.025
 5360.00    1.37860   1.46524    0.025
 5361.00    1.36959   1.43248    0.025
 5362.00    1.34708   1.40094    0.025
 5363.00    1.30517   1.37982    0.025
 5364.00    1.28520   1.36273    0.025
 5365.00    1.29297   1.34741    0.025
 5366.00    1.29156   1.34009    0.025
 5367.00    1.27992   1.33523    0.025
 5368.00    1.28279   1.31434   -2.000
 5369.00    1.29993   1.26344   -2.000
 5370.00    1.30989   1.19913   -2.000
 5371.00    1.31361   1.17358   -2.000
 5372.00    1.33901   1.22235   -2.000
 5373.00    1.38096   1.31616   -2.000
 5374.00    1.39598   1.39452   -2.000
 5375.00    1.39291   1.42782   -2.000
 5376.00    1.39445   1.42566   -2.000
 5377.00    1.39869   1.41521   -2.000
 5378.00    1.40218   1.41483   -2.000
 5379.00    1.40526   1.41640   -2.000
 5380.00    1.42678   1.40615   -2.000
 5381.00    1.45647   1.38703   -2.000
 5382.00    1.43770   1.36886   -2.000
 5383.00    1.40042   1.36185    0.025
 5384.00    1.36533   1.37381    0.025
 5385.00    1.33094   1.39415    0.025
 5386.00    1.35295   1.40251    0.025
 5387.00    1.39028   1.39313    0.025
 5388.00    1.36404   1.37025    0.024
 5389.00    1.32363   1.33911    0.024
 5390.00    1.35754   1.31061    0.024
 5391.00    1.40465   1.29474    0.025
 5392.00    1.36993   1.29029    0.025
 5393.00    1.32410   1.29001    0.024
 5394.00    1.24459   1.28595    0.024
 5395.00    1.16182   1.26534    0.025
 5396.00    1.16871   1.22602    0.025
 5397.00    1.18098   1.20261    0.025
 5398.00    1.20342   1.22886    0.025
 5399.00    1.22620   1.28009    0.025
 5400.00    1.26409   1.31387    0.025
 5401.00    1.30086   1.32683    0.024
 5402.00    1.30888   1.32137    0.025
 5403.00    1.31375   1.27877    0.025
 5404.00    1.27590   1.20322    0.024
 5405.00    1.24264   1.14273    0.024
 5406.00    1.25064   1.14102    0.024
 5407.00    1.25700   1.18601    0.025
 5408.00    1.25249   1.22335    0.025
 5409.00    1.25115   1.22663    0.024
 5410.00    1.26605   1.22976    0.024
 5411.00    1.27632   1.26815    0.024
 5412.00    1.26742   1.32298    0.024
 5413.00    1.26852   1.35492    0.024
 5414.00    1.30400   1.36063    0.024
 5415.00    1.33865   1.36796    0.024
 5416.00    1.37090   1.39125    0.024
 5417.00    1.38545   1.41266    0.024
 5418.00    1.35632   1.41014    0.024
 5419.00    1.34067   1.38592    0.024
 5420.00    1.35370   1.36225    0.024
 5421.00    1.34633   1.35641    0.023
 5422.00    1.30125   1.35673    0.024
 5423.00    1.29211   1.34096    0.024
 5424.00    1.34102   1.32406    0.023
 5425.00    1.37182   1.34147    0.023
 5426.00    1.37695   1.38405    0.024
 5427.00    1.37739   1.39789    0.024
 5428.00    1.37198   1.34968    0.024
 5429.00    1.35403   1.27696    0.024
 5430.00    1.32228   1.24977    0.024
 5431.00    1.27859   1.27184    0.024
 5432.00    1.22333   1.28322    0.023
 5433.00    1.21246   1.25917    0.023
 5434.00    1.23956   1.23051    0.023
 5435.00    1.27666   1.22884    0.023
 5436.00    1.32129   1.26147    0.024
 5437.00    1.34788   1.31893    0.024
 5438.00    1.36254   1.38253    0.024
 5439.00    1.35976   1.43130    0.024
 5440.00    1.34688   1.45557    0.023
 5441.00    1.34712   1.46129    0.024
 5442.00    1.35398   1.45694    0.024
 5443.00    1.35037   1.43801    0.024
 5444.00    1.34219   1.39011    0.024
 5445.00    1.35485   1.31264    0.024
 5446.00    1.37534   1.23962    0.024
 5447.00    1.39312   1.22234    0.024
 5448.00    1.41004   1.27238    0.024
 5449.00    1.37599   1.34257    0.024
 5450.00    1.32839   1.38422    0.024
 5451.00    1.31414   1.38949    0.024
 5452.00    1.30713   1.37038    0.024
 5453.00    1.30525   1.33069    0.024
 5454.00    1.30424   1.27361    0.024
 5455.00    1.28991   1.22858    0.024
 5456.00    1.27382   1.23819    0.024
 5457.00    1.29855   1.30128    0.024
 5458.00    1.32705   1.36619    0.024
 5459.00    1.36570   1.39069    0.024
 5460.00    1.40493   1.37436    0.024
 5461.00    1.40039   1.33728    0.024
 5462.00    1.39461   1.29891    0.024
 5463.00    1.36308   1.28171    0.023
 5464.00    1.33332   1.29846    0.023
 5465.00    1.34532   1.32916    0.023
 5466.00    1.35654   1.34792    0.023
 5467.00    1.35792   1.35599    0.023
 5468.00    1.35612   1.35899    0.023
 5469.00    1.32670   1.35036    0.023
 5470.00    1.30220   1.33400    0.023
 5471.00    1.30928   1.32262    0.023
 5472.00    1.31325   1.31286    0.023
 5473.00    1.30166   1.29652    0.023
 5474.00    1.29319   1.27546    0.023
 5475.00    1.29741   1.24402    0.023
 5476.00    1.30142   1.20579    0.023
 5477.00    1.30475   1.19984    0.023
 5478.00    1.31173   1.24406   -2.000
 5479.00    1.32908   1.28939   -2.000
 5480.00    1.34214   1.28782   -2.000
 5481.00    1.34477   1.26018   -2.000
 5482.00    1.36889   1.25746   -2.000
 5483.00    1.43802   1.29346   -2.000
 5484.00    1.44501   1.34209   -2.000
 5485.00    1.33882   1.36864   -2.000
 5486.00    1.28203   1.35530   -2.000
 5487.00    1.30387   1.32084   -2.000
 5488.00    1.34588   1.30242   -2.000
 5489.00    1.41606   1.31029   -2.000
 5490.00    1.42315   1.32780   -2.000
 5491.00    1.35269   1.34163   -2.000
 5492.00    1.29300   1.34406   -2.000
 5493.00    1.24497   1.33568   -2.000
 5494.00    1.25791   1.33136   -2.000
 5495.00    1.32915   1.33417   -2.000
 5496.00    1.36800   1.32896   -2.000
 5497.00    1.37956   1.32066   -2.000
 5498.00    1.37895   1.33234   -2.000
 5499.00    1.36931   1.35473   -2.000
 5500.00    1.34784   1.35248   -2.000
 5501.00    1.31864   1.32316   -2.000
 5502.00    1.31645   1.29944    0.023
 5503.00    1.32966   1.29747    0.023
 5504.00    1.34387   1.30024    0.023
 5505.00    1.35858   1.28870    0.023
 5506.00    1.36079   1.27343    0.023
 5507.00    1.35763   1.28099    0.023
 5508.00    1.34599   1.30853    0.023
 5509.00    1.33121   1.32514    0.023
 5510.00    1.30630   1.31421    0.023
 5511.00    1.27823   1.28285    0.022
 5512.00    1.26959   1.24983    0.022
 5513.00    1.26601   1.23588    0.023
 5514.00    1.25137   1.24650    0.023
 5515.00    1.23437   1.27037    0.022
 5516.00    1.22985   1.29873    0.022
 5517.00    1.22743   1.33207    0.022
 5518.00    1.26917   1.36624    0.022
 5519.00    1.31650   1.38665    0.022
 5520.00    1.32459   1.38718    0.022
 5521.00    1.32922   1.37930    0.022
 5522.00    1.31332   1.37447    0.022
 5523.00    1.29636   1.37189    0.022
 5524.00    1.29217   1.36371    0.022
 5525.00    1.28826   1.34326    0.022
 5526.00    1.28772   1.30877    0.022
 5527.00    1.28795   1.26883    0.022
 5528.00    1.30479   1.24866    0.022
 5529.00    1.32096   1.26901    0.022
 5530.00    1.32883   1.31299    0.022
 5531.00    1.33342   1.34332    0.022
 5532.00    1.31061   1.34703    0.022
 5533.00    1.29488   1.33587    0.022
 5534.00    1.32318   1.32181    0.022
 5535.00    1.34475   1.31409    0.022
 5536.00    1.33344   1.31812    0.022
 5537.00    1.32054   1.32804    0.022
 5538.00    1.30133   1.33946    0.022
 5539.00    1.28767   1.35743    0.022
 5540.00    1.29227   1.37854    0.023
 5541.00    1.30573   1.38654    0.026
 5542.00    1.34391   1.37369    0.064
 5543.00    1.36656   1.35341   -1.000
 5544.00    1.35214   1.34285   -1.000
 5545.00    1.34018   1.34234   -1.000
 5546.00    1.33330   1.34786   -1.000
 5547.00    1.33116   1.36471   -1.000
 5548.00    1.33756   1.39053   -1.000
 5549.00    1.35358   1.41012   -1.000
 5550.00    1.38468   1.41565   -1.000
 5551.00    1.39340   1.40925   -1.000
 5552.00    1.37130   1.39213   -1.000
 5553.00    1.34133   1.36891    0.096
 5554.00    1.30183   1.35254    0.030
 5555.00    1.27098   1.35130    0.022
 5556.00    1.24937   1.35717    0.022
 5557.00    1.23801   1.35896    0.022
 5558.00    1.23632   1.35812    0.022
 5559.00    1.26143   1.35891    0.022
 5560.00    1.30882   1.35620    0.022
 5561.00    1.33412   1.34418    0.022
 5562.00    1.34326   1.32732    0.022
 5563.00    1.33971   1.31637    0.021
 5564.00    1.32801   1.31257    0.021
 5565.00    1.33848   1.30636    0.022
 5566.00    1.36141   1.29733    0.022
 5567.00    1.35184   1.29393    0.021
 5568.00    1.32636   1.29511    0.021
 5569.00    1.30441   1.29799    0.021
 5570.00    1.28395   1.30640    0.021
 5571.00    1.29013   1.31189    0.022
 5572.00    1.30595   1.30374    0.022
 5573.00    1.30816   1.29951    0.022
 5574.00    1.30621   1.31559    0.022
 5575.00    1.32712   1.33495    0.022
 5576.00    1.35384   1.34315    0.022
 5577.00    1.36377   1.34728    0.022
 5578.00    1.37022   1.35147    0.022
 5579.00    1.37635   1.35477    0.022
 5580.00    1.38243   1.35644    0.022
 5581.00    1.36810   1.35236    0.022
 5582.00    1.35127   1.34392    0.023
 5583.00    1.35909   1.33491    0.023
 5584.00    1.36899   1.31684    0.023
 5585.00    1.35380   1.27853    0.023
 5586.00    1.33740   1.22522    0.022
 5587.00    1.29289   1.17906    0.022
 5588.00    1.24824   1.16143    0.023
 5589.00    1.22068   1.17641    0.022
 5590.00    1.19421   1.21084    0.022
 5591.00    1.18930   1.24358    0.022
 5592.00    1.18733   1.25949    0.022
 5593.00    1.21940   1.26218    0.023
 5594.00    1.24894   1.27151    0.023
 5595.00    1.25816   1.30065    0.023
 5596.00    1.26408   1.33017    0.023
 5597.00    1.25006   1.32768    0.023
 5598.00    1.23465   1.29645    0.023
 5599.00    1.21264   1.26616    0.023
 5600.00    1.19853   1.24591    0.023
 5601.00    1.21507   1.22880    0.023
 5602.00    1.23565   1.22330    0.022
 5603.00    1.26927   1.24718    0.022
 5604.00    1.30216   1.29947    0.022
 5605.00    1.33300   1.35558    0.022
 5606.00    1.35717   1.39167    0.022
 5607.00    1.36568   1.40319    0.022
 5608.00    1.35011   1.39994    0.022
 5609.00    1.28567   1.39436    0.021
 5610.00    1.24505   1.39476    0.021
 5611.00    1.24647   1.40109    0.021
 5612.00    1.24456   1.39976    0.021
 5613.00    1.23750   1.36674    0.021
 5614.00    1.22403   1.29598    0.021
 5615.00    1.20188   1.22769    0.021
 5616.00    1.18764   1.21362    0.021
 5617.00    1.18284   1.24901    0.021
 5618.00    1.18135   1.28465    0.021
 5619.00    1.18335   1.29855    0.021
 5620.00    1.19593   1.30802    0.021
 5621.00    1.21833   1.32334    0.021
 5622.00    1.24996   1.32589    0.021
 5623.00    1.28916   1.29661    0.022
 5624.00    1.29745   1.25250    0.022
 5625.00    1.28345   1.23398    0.022
 5626.00    1.27140   1.25417    0.022
 5627.00    1.26058   1.28989    0.022
 5628.00    1.29832   1.32268    0.022
 5629.00    1.36294   1.35159    0.022
 5630.00    1.37750   1.37310    0.022
 5631.00    1.36796   1.38028    0.022
 5632.00    1.35881   1.37335    0.022
 5633.00    1.34981   1.35764    0.022
 5634.00    1.33576   1.33803    0.021
 5635.00    1.31992   1.31719    0.021
 5636.00    1.27767   1.29732    0.021
 5637.00    1.22751   1.28545    0.021
 5638.00    1.19446   1.28793    0.021
 5639.00    1.16567   1.29621    0.021
 5640.00    1.15565   1.29457    0.021
 5641.00    1.14942   1.28471    0.021
 5642.00    1.18006   1.28239    0.021
 5643.00    1.21654   1.29158    0.021
 5644.00    1.24907   1.30409    0.021
 5645.00    1.28113   1.31561    0.021
 5646.00    1.29228   1.32571    0.021
 5647.00    1.30177   1.33126    0.021
 5648.00    1.27173   1.32872    0.021
 5649.00    1.23993   1.32248    0.021
 5650.00    1.23114   1.32463    0.021
 5651.00    1.22288   1.33890    0.021
 5652.00    1.22758   1.35100    0.021
 5653.00    1.23155   1.34405    0.021
 5654.00    1.22214   1.32215    0.021
 5655.00    1.21494   1.30499    0.021
 5656.00    1.23206   1.29164    0.021
 5657.00    1.24294   1.26002    0.021
 5658.00    1.20535   1.22010    0.021
 5659.00    1.17794   1.21306    0.021
 5660.00    1.21026   1.23993    0.021
 5661.00    1.23669   1.25972    0.021
 5662.00    1.23567   1.26135    0.021
 5663.00    1.23282   1.27158    0.021
 5664.00    1.22299   1.29983    0.021
 5665.00    1.22196   1.32387    0.021
 5666.00    1.24889   1.32459    0.021
 5667.00    1.26928   1.30927    0.021
 5668.00    1.27211   1.29825    0.021
 5669.00    1.27320   1.30023    0.021
 5670.00    1.27030   1.31109    0.021
 5671.00    1.28025   1.32949    0.021
 5672.00    1.31584   1.35551    0.021
 5673.00    1.33313   1.37814    0.021
 5674.00    1.31858   1.38471    0.022
 5675.00    1.30702   1.38079    0.022
 5676.00    1.30003   1.38025    0.022
 5677.00    1.29313   1.38121    0.022
 5678.00    1.28634   1.37391    0.021
 5679.00    1.28542   1.36103    0.021
 5680.00    1.29142   1.34762    0.021
 5681.00    1.28461   1.32818    0.021
 5682.00    1.26450   1.30444    0.021
 5683.00    1.24422   1.29408    0.021
 5684.00    1.22379   1.30279    0.021
 5685.00    1.22543   1.31072    0.021
 5686.00    1.24489   1.30128    0.021
 5687.00    1.27134   1.28443    0.021
 5688.00    1.30276   1.28153    0.021
 5689.00    1.30452   1.29956    0.021
 5690.00    1.28779   1.32804    0.021
 5691.00    1.28970   1.35431    0.021
 5692.00    1.30178   1.37167    0.021
 5693.00    1.33533   1.37650    0.021
 5694.00    1.37906   1.37128    0.021
 5695.00    1.37098   1.36482    0.021
 5696.00    1.34175   1.35841    0.021
 5697.00    1.32719   1.34367    0.021
 5698.00    1.31775   1.32087    0.022
 5699.00    1.30798   1.30009    0.022
 5700.00    1.29810   1.28292    0.022
 5701.00    1.27062   1.26815    0.022
 5702.00    1.23885   1.26568    0.021
 5703.00    1.23343   1.27986    0.021
 5704.00    1.23320   1.29384    0.021
 5705.00    1.23221   1.28766    0.021
 5706.00    1.23110   1.26157    0.021
 5707.00    1.22123   1.22994    0.021
 5708.00    1.21037   1.20426    0.021
 5709.00    1.23227   1.19261    0.021
 5710.00    1.25665   1.19687    0.021
 5711.00    1.28007   1.21117    0.021
 5712.00    1.30346   1.23661    0.021
 5713.00    1.31566   1.27509    0.021
 5714.00    1.32694   1.31275    0.021
 5715.00    1.30351   1.33665    0.021
 5716.00    1.28259   1.34833    0.021
 5717.00    1.30464   1.35370    0.021
 5718.00    1.32513   1.35880    0.021
 5719.00    1.32925   1.36756    0.021
 5720.00    1.33070   1.37869    0.021
 5721.00    1.31222   1.39090    0.021
 5722.00    1.30167   1.40276    0.021
 5723.00    1.33638   1.40899    0.021
 5724.00    1.36829   1.40504    0.020
 5725.00    1.38744   1.38929    0.020
 5726.00    1.40248   1.36490    0.021
 5727.00    1.40217   1.34699    0.020
 5728.00    1.40416   1.35009    0.020
 5729.00    1.41329   1.36254    0.021
 5730.00    1.41251   1.35961    0.021
 5731.00    1.38555   1.34370    0.021
 5732.00    1.35908   1.34100    0.021
 5733.00    1.33375   1.35979    0.021
 5734.00    1.32120   1.38132    0.021
 5735.00    1.33377   1.38888    0.021
 5736.00    1.35838   1.38314    0.021
 5737.00    1.40359   1.37362    0.021
 5738.00    1.42181   1.36800    0.021
 5739.00    1.39954   1.36728    0.021
 5740.00    1.38971   1.36745    0.000
 5741.00    1.39626   1.36418    0.000
 5742.00    1.38927   1.35838    0.000
 5743.00    1.36657   1.35888    0.000
 5744.00    1.35838   1.37195    0.000
 5745.00    1.36504   1.38704    0.000
 5746.00    1.36639   1.38428    0.000
 5747.00    1.36293   1.36097    0.000
 5748.00    1.35417   1.34117    0.000
 5749.00    1.34118   1.34614    0.000
 5750.00    1.35506   1.36312    0.000
 5751.00    1.38776   1.36104    0.000
 5752.00    1.40932   1.33014    0.000
 5753.00    1.42402   1.29329    0.000
 5754.00    1.39693   1.28336    0.000
 5755.00    1.34741   1.31118    0.000
 5756.00    1.32481   1.35535    0.000
 5757.00    1.31473   1.38615    0.000
 5758.00    1.33445   1.39000    0.000
 5759.00    1.36613   1.36913    0.000
 5760.00    1.35444   1.33360    0.000
 5761.00    1.32790   1.29805    0.000
 5762.00    1.32069   1.28059    0.000
 5763.00    1.31903   1.29596    0.000
 5764.00    1.34048   1.33798    0.000
 5765.00    1.36743   1.37946    0.000
 5766.00    1.37552   1.40158    0.000
 5767.00    1.38000   1.40700    0.000
 5768.00    1.38746   1.40383    0.000
 5769.00    1.39536   1.39608    0.000
 5770.00    1.39215   1.38581    0.000
 5771.00    1.38773   1.37420    0.000
 5772.00    1.39762   1.36358    0.000
 5773.00    1.40853   1.35649    0.000
 5774.00    1.42915   1.35361    0.000
 5775.00    1.45013   1.35714    0.000
 5776.00    1.40498   1.36686    0.000
 5777.00    1.36028   1.37369    0.000
 5778.00    1.34119   1.36530    0.000
 5779.00    1.32307   1.33392    0.000
 5780.00    1.32059   1.28425    0.000
 5781.00    1.31568   1.23945    0.000
 5782.00    1.28618   1.22138    0.000
 5783.00    1.26203   1.22296    0.000
 5784.00    1.27657   1.22336    0.000
 5785.00    1.29476   1.22522    0.000
 5786.00    1.33314   1.24691    0.000
 5787.00    1.36408   1.28599    0.000
 5788.00    1.36206   1.31985    0.000
 5789.00    1.35317   1.33230    0.000
 5790.00    1.31922   1.32567    0.000
 5791.00    1.29647   1.31866   -2.000
 5792.00    1.30790   1.32785   -2.000
 5793.00    1.32540   1.35020   -2.000
 5794.00    1.35867   1.37197   -2.000
 5795.00    1.38139   1.38044   -2.000
 5796.00    1.38057   1.36777   -2.000
 5797.00    1.43379   1.34417   -2.000
 5798.00    1.59154   1.33740   -2.000
 5799.00    1.70993   1.36056   -2.000
 5800.00    1.76193   1.39506   -2.000
 5801.00    1.74200   1.41632   -2.000
 5802.00    1.61576   1.41486   -2.000
 5803.00    1.50199   1.39270   -2.000
 5804.00    1.40445   1.36251   -2.000
 5805.00    1.35830   1.34291   -2.000
 5806.00    1.37097   1.34131   -2.000
 5807.00    1.39996   1.34999   -2.000
 5808.00    1.44541   1.35979   -2.000
 5809.00    1.45280   1.36894   -2.000
 5810.00    1.42629   1.37855   -2.000
 5811.00    1.39122   1.38597    0.000
 5812.00    1.34944   1.38701    0.000
 5813.00    1.32446   1.37938    0.000
 5814.00    1.31108   1.36183    0.000
 5815.00    1.31273   1.33958    0.000
 5816.00    1.32347   1.32908    0.000
 5817.00    1.33590   1.34341    0.000
 5818.00    1.34923   1.37407    0.000
 5819.00    1.35440   1.40033    0.000
 5820.00    1.35583   1.41160    0.000
 5821.00    1.37683   1.41010    0.000
 5822.00    1.40555   1.40205    0.000
 5823.00    1.41769   1.39475    0.000
 5824.00    1.42426   1.39359    0.000
 5825.00    1.41964   1.39689    0.000
 5826.00    1.41187   1.39895    0.000
 5827.00    1.40847   1.39888    0.000
 5828.00    1.40609   1.40070    0.000
 5829.00    1.39317   1.40466    0.000
 5830.00    1.37828   1.40586    0.000
 5831.00    1.37349   1.40233    0.000
 5832.00    1.37015   1.39594    0.000
 5833.00    1.37486   1.38637    0.000
 5834.00    1.38041   1.37545    0.000
 5835.00    1.39392   1.37113    0.000
 5836.00    1.40797   1.37477    0.000
 5837.00    1.39870   1.37633    0.000
 5838.00    1.38866   1.37372    0.000
 5839.00    1.36685   1.37806    0.000
 5840.00    1.34629   1.39326    0.000
 5841.00    1.36525   1.40952    0.000
 5842.00    1.38167   1.41762    0.000
 5843.00    1.35980   1.41570    0.000
 5844.00    1.34030   1.40514    0.000
 5845.00    1.34367   1.38812    0.000
 5846.00    1.34862   1.36868    0.000
 5847.00    1.36465   1.35383    0.000
 5848.00    1.37895   1.34970    0.000
 5849.00    1.38391   1.35417    0.000
 5850.00    1.38527   1.35626    0.000
 5851.00    1.37104   1.34540    0.000
 5852.00    1.35677   1.32291    0.000
 5853.00    1.34233   1.30403    0.000
 5854.00    1.32938   1.30012    0.000
 5855.00    1.32086   1.29985    0.000
 5856.00    1.30556   1.28419    0.000
 5857.00    1.27295   1.25884    0.000
 5858.00    1.23612   1.25035    0.000
 5859.00    1.18999   1.26961    0.000
 5860.00    1.16139   1.29971    0.000
 5861.00    1.16614   1.31891    0.000
 5862.00    1.18687   1.32344    0.000
 5863.00    1.23416   1.32530    0.000
 5864.00    1.26735   1.33028    0.000
 5865.00    1.28001   1.32980    0.000
 5866.00    1.29188   1.32164    0.000
 5867.00    1.30271   1.32015    0.000
 5868.00    1.30733   1.33506    0.000
 5869.00    1.30493   1.35666    0.000
 5870.00    1.32076   1.36973    0.000
 5871.00    1.35473   1.36900    0.000
 5872.00    1.38286   1.36015    0.000
 5873.00    1.40588   1.35394    0.000
 5874.00    1.39373   1.35568    0.000
 5875.00    1.35437   1.35874    0.000
 5876.00    1.32789   1.35455    0.000
 5877.00    1.31017   1.34291    0.000
 5878.00    1.30052   1.32686    0.000
 5879.00    1.29568   1.30874    0.000
 5880.00    1.27964   1.29609    0.000
 5881.00    1.25778   1.29619    0.000
 5882.00    1.25535   1.30223    0.000
 5883.00    1.26167   1.30190    0.000
 5884.00    1.23619   1.29659    0.000
 5885.00    1.19838   1.29197    0.000
 5886.00    1.15785   1.27484    0.000
 5887.00    1.11642   1.21503    0.000
 5888.00    1.09309   1.09753    0.000
 5889.00    1.07477   0.96208    0.000
 5890.00    1.06869   0.89218    0.000
 5891.00    1.06539   0.92852    0.000
 5892.00    1.08170   1.01819    0.000
 5893.00    1.10158   1.07668    0.000
 5894.00    1.10461   1.06274    0.000
 5895.00    1.10528   1.00340    0.000
 5896.00    1.12997   0.97553    0.000
 5897.00    1.15708   1.02585    0.000
 5898.00    1.17786   1.11842    0.000
 5899.00    1.19823   1.19645    0.000
 5900.00    1.20519   1.24646    0.000
 5901.00    1.21176   1.27793    0.020
 5902.00    1.21915   1.29583    0.020
 5903.00    1.22690   1.30353    0.020
 5904.00    1.24481   1.30402    0.020
 5905.00    1.26124   1.30048    0.020
 5906.00    1.25647   1.30028    0.020
 5907.00    1.25076   1.30803    0.020
 5908.00    1.23640   1.31847    0.020
 5909.00    1.22725   1.32549    0.020
 5910.00    1.25356   1.33041    0.020
 5911.00    1.27609   1.33328    0.020
 5912.00    1.27874   1.32554    0.020
 5913.00    1.27493   1.30253    0.020
 5914.00    1.24378   1.27611    0.020
 5915.00    1.22311   1.26316    0.020
 5916.00    1.23902   1.26897    0.020
 5917.00    1.25719   1.28681    0.020
 5918.00    1.28201   1.30621    0.020
 5919.00    1.29663   1.32048    0.020
 5920.00    1.28567   1.32698    0.020
 5921.00    1.27046   1.32504    0.020
 5922.00    1.24610   1.31993    0.020
 5923.00    1.22876   1.32010    0.020
 5924.00    1.22461   1.32707    0.020
 5925.00    1.23469   1.33566    0.020
 5926.00    1.26810   1.33915    0.019
 5927.00    1.28891   1.33195    0.019
 5928.00    1.29166   1.31440    0.019
 5929.00    1.28893   1.29636    0.019
 5930.00    1.27928   1.29267    0.019
 5931.00    1.27588   1.30713    0.019
 5932.00    1.27945   1.32277    0.019
 5933.00    1.28164   1.32076    0.019
 5934.00    1.28246   1.30598    0.019
 5935.00    1.28526   1.29997    0.019
 5936.00    1.28977   1.31104    0.019
 5937.00    1.28517   1.32798    0.020
 5938.00    1.27362   1.33933    0.020
 5939.00    1.26283   1.33932    0.020
 5940.00    1.25254   1.32561    0.019
 5941.00    1.26690   1.30721    0.019
 5942.00    1.29572   1.30000    0.019
 5943.00    1.31764   1.30902    0.019
 5944.00    1.33604   1.32639    0.020
 5945.00    1.32552   1.34135    0.020
 5946.00    1.30218   1.34443    0.020
 5947.00    1.29387   1.33100    0.020
 5948.00    1.29129   1.30929    0.020
 5949.00    1.29777   1.29775    0.020
 5950.00    1.30718   1.30285    0.020
 5951.00    1.31084   1.30835    0.020
 5952.00    1.31294   1.30160    0.020
 5953.00    1.30067   1.29460    0.020
 5954.00    1.28520   1.29961    0.020
 5955.00    1.28209   1.30576    0.020
 5956.00    1.28117   1.30039    0.020
 5957.00    1.28352   1.29165    0.019
 5958.00    1.28631   1.29461    0.019
 5959.00    1.28130   1.31143    0.019
 5960.00    1.27555   1.33283    0.019
 5961.00    1.29489   1.34890    0.019
 5962.00    1.31573   1.35515    0.019
 5963.00    1.33081   1.35267    0.019
 5964.00    1.34546   1.34413    0.019
 5965.00    1.31671   1.33383    0.019
 5966.00    1.28859   1.33013    0.019
 5967.00    1.27657   1.33729    0.019
 5968.00    1.26603   1.34936    0.019
 5969.00    1.27551   1.35965    0.019
 5970.00    1.28424   1.36701    0.019
 5971.00    1.28627   1.37104    0.019
 5972.00    1.28673   1.37036    0.019
 5973.00    1.27685   1.36326    0.019
 5974.00    1.27022   1.34723    0.019
 5975.00    1.28023   1.32316    0.019
 5976.00    1.29103   1.29997    0.019
 5977.00    1.30509   1.28870    0.019
 5978.00    1.31514   1.29362    0.019
 5979.00    1.31146   1.31078    0.020
 5980.00    1.30756   1.32899    0.020
 5981.00    1.30302   1.33391    0.020
 5982.00    1.30218   1.31758    0.020
 5983.00    1.31049   1.28703    0.019
 5984.00    1.31437   1.26378    0.019
 5985.00    1.30884   1.26485    0.019
 5986.00    1.30465   1.28380    0.019
 5987.00    1.30293   1.30345    0.019
 5988.00    1.30119   1.31753    0.020
 5989.00    1.29943   1.32649    0.019
 5990.00    1.29594   1.32759    0.019
 5991.00    1.28999   1.32339    0.019
 5992.00    1.28230   1.32569    0.019
 5993.00    1.27244   1.33863    0.019
 5994.00    1.26870   1.34999    0.019
 5995.00    1.27168   1.34618    0.019
 5996.00    1.27994   1.32689    0.019
 5997.00    1.29330   1.30482    0.019
 5998.00    1.29891   1.29479    0.019
 5999.00    1.29790   1.30057    0.019
 6000.00    1.28342   1.31195    0.019
 6001.00    1.25881   1.31488    0.019
 6002.00    1.23905   1.30718    0.019
 6003.00    1.22249   1.30127    0.019
 6004.00    1.22284   1.30381    0.019
 6005.00    1.23296   1.30354    0.019
 6006.00    1.24063   1.28856    0.019
 6007.00    1.24708   1.26534    0.019
 6008.00    1.27091   1.25604    0.020
 6009.00    1.30233   1.27438    0.020
 6010.00    1.31981   1.30415    0.020
 6011.00    1.33207   1.31601    0.020
 6012.00    1.32728   1.30322    0.020
 6013.00    1.31708   1.28583    0.020
 6014.00    1.30016   1.28092    0.020
 6015.00    1.28147   1.28320    0.020
 6016.00    1.26305   1.28225    0.020
 6017.00    1.24469   1.28015    0.020
 6018.00    1.23793   1.27911    0.020
 6019.00    1.23316   1.27384    0.020
 6020.00    1.24186   1.26599    0.019
 6021.00    1.25233   1.26477    0.019
 6022.00    1.25324   1.27223    0.019
 6023.00    1.25328   1.28292    0.019
 6024.00    1.27199   1.29479    0.019
 6025.00    1.29174   1.30731    0.019
 6026.00    1.30962   1.31649    0.019
 6027.00    1.32736   1.32302    0.019
 6028.00    1.33626   1.33203    0.019
 6029.00    1.34505   1.34169    0.019
 6030.00    1.35145   1.34664    0.019
 6031.00    1.35751   1.34901    0.019
 6032.00    1.35917   1.35369    0.019
 6033.00    1.36062   1.35918    0.019
 6034.00    1.36020   1.36160    0.020
 6035.00    1.35966   1.36158    0.020
 6036.00    1.35839   1.36193    0.019
 6037.00    1.35661   1.36215    0.019
 6038.00    1.35224   1.35884    0.019
 6039.00    1.34765   1.35104    0.020
 6040.00    1.34213   1.34275    0.020
 6041.00    1.33520   1.33888    0.020
 6042.00    1.32357   1.34246    0.020
 6043.00    1.31464   1.35286    0.020
 6044.00    1.31338   1.36435    0.019
 6045.00    1.31286   1.37158    0.019
 6046.00    1.31411   1.37442    0.019
 6047.00    1.32090   1.37431    0.019
 6048.00    1.33926   1.37237    0.019
 6049.00    1.34642   1.37163    0.019
 6050.00    1.33321   1.37282    0.019
 6051.00    1.32010   1.37061    0.019
 6052.00    1.30715   1.36064    0.019
 6053.00    1.30622   1.34622    0.019
 6054.00    1.32205   1.33310    0.019
 6055.00    1.33847   1.32275    0.019
 6056.00    1.35562   1.31640    0.019
 6057.00    1.35506   1.31815    0.019
 6058.00    1.33533   1.32913    0.019
 6059.00    1.30750   1.34342    0.019
 6060.00    1.27192   1.35213    0.019
 6061.00    1.25436   1.34959    0.019
 6062.00    1.25198   1.33566    0.019
 6063.00    1.26619   1.31370    0.019
 6064.00    1.29269   1.29006    0.019
 6065.00    1.31320   1.27904    0.019
 6066.00    1.32980   1.29485    0.019
 6067.00    1.33767   1.33058    0.019
 6068.00    1.34056   1.36286    0.019
 6069.00    1.35020   1.37868    0.019
 6070.00    1.36319   1.38302    0.019
 6071.00    1.35988   1.38479    0.019
 6072.00    1.34958   1.38698    0.020
 6073.00    1.32461   1.38803    0.020
 6074.00    1.29424   1.38568    0.020
 6075.00    1.27441   1.37800    0.020
 6076.00    1.25785   1.36332    0.019
 6077.00    1.27818   1.34211    0.019
 6078.00    1.30808   1.32136    0.019
 6079.00    1.32179   1.31053    0.019
 6080.00    1.33206   1.30734    0.019
 6081.00    1.32057   1.30153    0.019
 6082.00    1.30544   1.29457    0.019
 6083.00    1.29433   1.29512    0.019
 6084.00    1.28373   1.30074    0.019
 6085.00    1.28792   1.30448    0.019
 6086.00    1.29341   1.30836    0.019
 6087.00    1.29502   1.31502    0.019
 6088.00    1.29642   1.31700    0.019
 6089.00    1.29379   1.30687    0.019
 6090.00    1.29115   1.29156    0.019
 6091.00    1.29438   1.28384    0.019
 6092.00    1.29753   1.28656    0.019
 6093.00    1.29883   1.29695    0.019
 6094.00    1.30037   1.31330    0.019
 6095.00    1.30471   1.32803    0.019
 6096.00    1.30734   1.33199    0.019
 6097.00    1.29580   1.32901    0.019
 6098.00    1.28272   1.33040    0.019
 6099.00    1.26009   1.33515    0.019
 6100.00    1.24057   1.32533    0.019
 6101.00    1.23619   1.28638    0.019
 6102.00    1.23261   1.23634    0.019
 6103.00    1.23222   1.21826    0.019
 6104.00    1.23305   1.24712    0.019
 6105.00    1.23791   1.29108    0.019
 6106.00    1.24289   1.31585    0.019
 6107.00    1.24824   1.31972    0.019
 6108.00    1.25683   1.32076    0.019
 6109.00    1.27316   1.32699    0.019
 6110.00    1.29011   1.32980    0.019
 6111.00    1.30835   1.32588    0.019
 6112.00    1.32118   1.32653    0.019
 6113.00    1.32436   1.33736    0.019
 6114.00    1.32092   1.34675    0.019
 6115.00    1.30710   1.34277    0.019
 6116.00    1.29090   1.33086    0.019
 6117.00    1.27144   1.32350    0.019
 6118.00    1.25835   1.31798    0.019
 6119.00    1.25295   1.30071    0.019
 6120.00    1.25362   1.26815    0.019
 6121.00    1.26076   1.23356    0.019
 6122.00    1.26722   1.22099    0.019
 6123.00    1.27306   1.24323    0.019
 6124.00    1.27528   1.28078    0.019
 6125.00    1.27450   1.30294    0.019
 6126.00    1.27096   1.30204    0.019
 6127.00    1.26540   1.29114    0.019
 6128.00    1.26604   1.28521    0.019
 6129.00    1.27065   1.29250    0.019
 6130.00    1.26833   1.31042    0.019
 6131.00    1.26212   1.32817    0.019
 6132.00    1.25303   1.33641    0.019
 6133.00    1.24253   1.32832    0.019
 6134.00    1.24192   1.29560    0.019
 6135.00    1.24547   1.23619    0.019
 6136.00    1.25663   1.17064    0.019
 6137.00    1.27053   1.14118    0.019
 6138.00    1.28822   1.17264    0.019
 6139.00    1.30705   1.23617    0.019
 6140.00    1.32456   1.27825    0.019
 6141.00    1.34174   1.28341    0.019
 6142.00    1.35101   1.28222    0.019
 6143.00    1.35864   1.29949    0.018
 6144.00    1.35471   1.32498    0.019
 6145.00    1.34890   1.33846    0.019
 6146.00    1.33299   1.33499    0.019
 6147.00    1.31585   1.32016    0.019
 6148.00    1.30125   1.30079    0.019
 6149.00    1.28686   1.28474    0.019
 6150.00    1.29370   1.27973    0.019
 6151.00    1.30155   1.28745    0.019
 6152.00    1.28818   1.29948    0.019
 6153.00    1.27403   1.30243    0.019
 6154.00    1.23331   1.29278    0.019
 6155.00    1.19354   1.28182    0.019
 6156.00    1.17253   1.27898    0.019
 6157.00    1.15299   1.28033    0.020
 6158.00    1.15050   1.27552    0.019
 6159.00    1.14922   1.25165    0.019
 6160.00    1.15773   1.19903    0.020
 6161.00    1.16461   1.13189    0.020
 6162.00    1.16160   1.08897    0.019
 6163.00    1.15772   1.09611    0.019
 6164.00    1.14971   1.13998    0.019
 6165.00    1.14735   1.18776    0.019
 6166.00    1.16684   1.21917    0.019
 6167.00    1.18739   1.22690    0.019
 6168.00    1.21136   1.20731    0.019
 6169.00    1.23006   1.17590    0.019
 6170.00    1.23439   1.16744    0.018
 6171.00    1.23770   1.19405    0.018
 6172.00    1.23859   1.22954    0.018
 6173.00    1.23769   1.24953    0.019
 6174.00    1.23317   1.25540    0.019
 6175.00    1.22645   1.25570    0.018
 6176.00    1.21587   1.25459    0.018
 6177.00    1.20396   1.25768    0.018
 6178.00    1.18998   1.26647    0.019
 6179.00    1.17799   1.27406    0.019
 6180.00    1.16869   1.27838    0.018
 6181.00    1.17644   1.28468    0.019
 6182.00    1.20455   1.29253    0.019
 6183.00    1.22310   1.29599    0.019
 6184.00    1.23161   1.29190    0.019
 6185.00    1.23999   1.27878    0.019
 6186.00    1.24823   1.25851    0.019
 6187.00    1.25234   1.23941    0.019
 6188.00    1.25309   1.22691    0.019
 6189.00    1.23558   1.21360    0.019
 6190.00    1.20492   1.19002    0.019
 6191.00    1.19244   1.16847    0.019
 6192.00    1.19144   1.17508    0.019
 6193.00    1.20090   1.21101    0.019
 6194.00    1.21615   1.25038    0.019
 6195.00    1.21277   1.27575    0.019
 6196.00    1.20046   1.28786   -2.000
 6197.00    1.26870   1.28677   -2.000
 6198.00    1.37034   1.26847   -2.000
 6199.00    1.39507   1.24186   -2.000
 6200.00    1.39254   1.22970   -2.000
 6201.00    1.29718   1.24324   -2.000
 6202.00    1.17405   1.26896   -2.000
 6203.00    1.11634   1.28693   -2.000
 6204.00    1.07489   1.29202   -2.000
 6205.00    1.08975   1.29199   -2.000
 6206.00    1.11596   1.29286   -2.000
 6207.00    1.16644   1.29390   -2.000
 6208.00    1.22076   1.29233    0.019
 6209.00    1.23073   1.28634    0.019
 6210.00    1.23551   1.27533    0.019
 6211.00    1.22219   1.25823    0.019
 6212.00    1.20743   1.23159    0.019
 6213.00    1.20089   1.19704    0.019
 6214.00    1.19471   1.16767    0.018
 6215.00    1.19216   1.15786    0.018
 6216.00    1.18973   1.16968    0.018
 6217.00    1.19090   1.18936    0.018
 6218.00    1.19225   1.19758    0.018
 6219.00    1.19674   1.18984    0.018
 6220.00    1.20112   1.18168    0.018
 6221.00    1.20430   1.18756    0.018
 6222.00    1.20628   1.20345    0.018
 6223.00    1.19892   1.21575    0.018
 6224.00    1.19254   1.22070    0.018
 6225.00    1.19189   1.22461    0.018
 6226.00    1.19458   1.22966    0.018
 6227.00    1.21277   1.22956    0.019
 6228.00    1.22875   1.21453    0.019
 6229.00    1.23640   1.18069    0.019
 6230.00    1.24304   1.14272    0.019
 6231.00    1.24651   1.12660    0.019
 6232.00    1.24816   1.14299    0.019
 6233.00    1.24497   1.18141    0.019
 6234.00    1.23815   1.22387    0.018
 6235.00    1.22297   1.25300    0.018
 6236.00    1.21219   1.25868    0.018
 6237.00    1.21017   1.24370    0.019
 6238.00    1.20746   1.21842    0.018
 6239.00    1.20355   1.19360    0.018
 6240.00    1.19824   1.17856    0.018
 6241.00    1.19081   1.17298    0.019
 6242.00    1.18405   1.16571    0.019
 6243.00    1.17822   1.15462    0.018
 6244.00    1.17825   1.14981    0.018
 6245.00    1.18519   1.15578    0.018
 6246.00    1.19112   1.17162    0.018
 6247.00    1.19600   1.19658    0.018
 6248.00    1.19324   1.22235    0.019
 6249.00    1.18349   1.23512    0.019
 6250.00    1.17457   1.22704    0.018
 6251.00    1.16630   1.20032    0.018
 6252.00    1.16381   1.16806    0.018
 6253.00    1.16541   1.14704    0.018
 6254.00    1.17571   1.14163    0.018
 6255.00    1.19143   1.14010    0.019
 6256.00    1.18453   1.13025    0.019
 6257.00    1.16533   1.11442    0.019
 6258.00    1.16704   1.10844    0.019
 6259.00    1.17862   1.12486    0.020
 6260.00    1.23701   1.15764    0.021
 6261.00    1.31448   1.19226    0.023
 6262.00    1.32538   1.22059    0.023
 6263.00    1.31312   1.23549    0.023
 6264.00    1.26926   1.23122    0.023
 6265.00    1.21612   1.21818    0.022
 6266.00    1.20363   1.21438    0.021
 6267.00    1.20102   1.22066    0.020
 6268.00    1.20728   1.22432    0.020
 6269.00    1.21528   1.22154    0.019
 6270.00    1.24334   1.22011    0.019
 6271.00    1.27446   1.22571    0.019
 6272.00    1.28726   1.23542    0.019
 6273.00    1.29799   1.24231    0.018
 6274.00    1.26058   1.24396    0.018
 6275.00    1.21955   1.24369    0.018
 6276.00    1.20473   1.24366    0.018
 6277.00    1.19096   1.24192    0.018
 6278.00    1.20884   1.23477    0.018
 6279.00    1.22670   1.22072    0.018
 6280.00    1.23400   1.20630    0.000
 6281.00    1.24066   1.20286    0.000
 6282.00    1.23659   1.21410    0.000
 6283.00    1.23411   1.23234    0.000
 6284.00    1.24826   1.24653    0.000
 6285.00    1.25964   1.25388    0.000
 6286.00    1.25046   1.26099    0.000
 6287.00    1.23974   1.27207    0.000
 6288.00    1.22032   1.28197    0.000
 6289.00    1.20627   1.28167    0.000
 6290.00    1.21653   1.26893    0.000
 6291.00    1.22780   1.25167    0.000
 6292.00    1.24284   1.24001    0.000
 6293.00    1.25395   1.23783    0.000
 6294.00    1.25282   1.23912    0.000
 6295.00    1.24961   1.23223    0.000
 6296.00    1.24091   1.21478    0.000
 6297.00    1.23518   1.19988    0.000
 6298.00    1.23619   1.19891    0.000
 6299.00    1.23736   1.20498    0.000
 6300.00    1.23886   1.20276    0.000
 6301.00    1.24257   1.19150    0.000
 6302.00    1.25004   1.18670    0.000
 6303.00    1.25522   1.19731    0.000
 6304.00    1.25697   1.21464    0.000
 6305.00    1.25453   1.22943    0.000
 6306.00    1.24658   1.24452    0.000
 6307.00    1.23893   1.26205    0.000
 6308.00    1.23162   1.27335    0.000
 6309.00    1.22029   1.26956    0.000
 6310.00    1.20483   1.25335    0.000
 6311.00    1.20315   1.23677    0.000
 6312.00    1.21390   1.22806    0.000
 6313.00    1.22470   1.22194    0.000
 6314.00    1.23554   1.20997    0.000
 6315.00    1.23756   1.19607    0.000
 6316.00    1.23340   1.18635    0.000
 6317.00    1.22140   1.17707    0.000
 6318.00    1.20459   1.17016    0.000
 6319.00    1.20812   1.17720    0.000
 6320.00    1.22254   1.19754    0.000
 6321.00    1.24448   1.21670    0.018
 6322.00    1.26992   1.22865    0.018
 6323.00    1.27695   1.23992    0.018
 6324.00    1.27661   1.25294    0.018
 6325.00    1.26111   1.26209    0.018
 6326.00    1.24043   1.26388    0.018
 6327.00    1.23695   1.26259    0.018
 6328.00    1.23842   1.26294    0.018
 6329.00    1.25725   1.26251    0.018
 6330.00    1.28019   1.26008    0.018
 6331.00    1.28013   1.26144    0.018
 6332.00    1.27568   1.26722    0.018
 6333.00    1.26363   1.26461    0.018
 6334.00    1.25045   1.24142    0.018
 6335.00    1.24504   1.20676    0.018
 6336.00    1.24047   1.18566    0.018
 6337.00    1.24950   1.18992    0.018
 6338.00    1.25950   1.20863    0.019
 6339.00    1.24712   1.22881    0.018
 6340.00    1.23392   1.24506    0.018
 6341.00    1.21250   1.25042    0.018
 6342.00    1.19179   1.23886    0.018
 6343.00    1.19747   1.21753    0.018
 6344.00    1.20299   1.20471    0.019
 6345.00    1.20596   1.20996    0.018
 6346.00    1.20938   1.22579    0.018
 6347.00    1.21740   1.24176    0.018
 6348.00    1.22585   1.25451    0.018
 6349.00    1.23737   1.26366    0.018
 6350.00    1.24854   1.26890    0.018
 6351.00    1.25774   1.27013    0.018
 6352.00    1.26524   1.26494    0.018
 6353.00    1.26523   1.25021    0.018
 6354.00    1.25781   1.23040    0.018
 6355.00    1.22341   1.21688    0.018
 6356.00    1.19157   1.21168    0.018
 6357.00    1.16748   1.20276    0.018
 6358.00    1.15566   1.18408    0.018
 6359.00    1.17564   1.16481    0.018
 6360.00    1.19508   1.15222    0.018
 6361.00    1.21332   1.14385    0.018
 6362.00    1.22588   1.14009    0.019
 6363.00    1.22749   1.14708    0.019
 6364.00    1.22387   1.16576    0.019
 6365.00    1.21146   1.18956    0.019
 6366.00    1.20773   1.21294    0.019
 6367.00    1.21680   1.23404    0.018
 6368.00    1.22877   1.24898    0.018
 6369.00    1.24450   1.25393    0.019
 6370.00    1.25179   1.25365    0.018
 6371.00    1.24943   1.25844    0.018
 6372.00    1.25392   1.27041    0.018
 6373.00    1.26531   1.28091    0.018
 6374.00    1.27895   1.28363    0.018
 6375.00    1.29459   1.28146    0.018
 6376.00    1.29097   1.27773    0.018
 6377.00    1.27226   1.27003    0.018
 6378.00    1.24682   1.25788    0.018
 6379.00    1.21673   1.24721    0.018
 6380.00    1.21099   1.24349    0.018
 6381.00    1.21995   1.24719    0.018
 6382.00    1.22785   1.25377    0.018
 6383.00    1.23520   1.25695    0.018
 6384.00    1.24682   1.25649    0.018
 6385.00    1.26041   1.25877    0.018
 6386.00    1.27597   1.26611    0.018
 6387.00    1.29231   1.27340    0.018
 6388.00    1.28303   1.27693    0.018
 6389.00    1.26517   1.27730    0.018
 6390.00    1.24830   1.27200    0.018
 6391.00    1.23170   1.25357    0.018
 6392.00    1.24564   1.22208    0.018
 6393.00    1.26667   1.19626    0.019
 6394.00    1.28122   1.19828    0.019
 6395.00    1.29456   1.22660    0.019
 6396.00    1.28894   1.25736    0.019
 6397.00    1.28058   1.26741    0.019
 6398.00    1.23995   1.24749    0.036
 6399.00    1.19595   1.20993    0.601
 6400.00    1.16280   1.18812   -1.000
 6401.00    1.13038   1.20457   -1.000
 6402.00    1.15003   1.24380   -1.000
 6403.00    1.17138   1.27533   -1.000
 6404.00    1.18554   1.28590   -1.000
 6405.00    1.19966   1.27850   -1.000
 6406.00    1.21302   1.25933   -1.000
 6407.00    1.22535   1.23829   -1.000
 6408.00    1.22221   1.22910   -1.000
 6409.00    1.22017   1.23308    0.376
 6410.00    1.22868   1.23514    0.032
 6411.00    1.23603   1.22863    0.018
 6412.00    1.23526   1.22441    0.018
 6413.00    1.23306   1.22961    0.018
 6414.00    1.22325   1.23978    0.018
 6415.00    1.21647   1.25025    0.018
 6416.00    1.22281   1.25779    0.018
 6417.00    1.22654   1.25692    0.018
 6418.00    1.22100   1.24326    0.018
 6419.00    1.21591   1.21964    0.018
 6420.00    1.21221   1.19943    0.018
 6421.00    1.21378   1.20006    0.018
 6422.00    1.22881   1.22504    0.018
 6423.00    1.23853   1.25655    0.018
 6424.00    1.23661   1.27563    0.018
 6425.00    1.23457   1.28239    0.018
 6426.00    1.23234   1.28722    0.018
 6427.00    1.23975   1.29104    0.018
 6428.00    1.26319   1.28329    0.018
 6429.00    1.27566   1.25664    0.018
 6430.00    1.27219   1.22194    0.018
 6431.00    1.25910   1.20333    0.019
 6432.00    1.23372   1.21292    0.018
 6433.00    1.22726   1.23911    0.018
 6434.00    1.24211   1.26327    0.018
 6435.00    1.25234   1.27550    0.018
 6436.00    1.25796   1.27214    0.018
 6437.00    1.25920   1.25158    0.019
 6438.00    1.25658   1.22399    0.019
 6439.00    1.26048   1.21332    0.019
 6440.00    1.26943   1.23234    0.018
 6441.00    1.27899   1.26573    0.018
 6442.00    1.28896   1.29058    0.019
 6443.00    1.27915   1.30051    0.018
 6444.00    1.25757   1.30343    0.018
 6445.00    1.24215   1.30599    0.018
 6446.00    1.22993   1.30405    0.018
 6447.00    1.22565   1.28430    0.018
 6448.00    1.22494   1.23855    0.018
 6449.00    1.23337   1.18375    0.018
 6450.00    1.24533   1.15643    0.018
 6451.00    1.24653   1.17402    0.018
 6452.00    1.24420   1.21592    0.018
 6453.00    1.24520   1.24841    0.018
 6454.00    1.24713   1.25468    0.018
 6455.00    1.26198   1.24409    0.018
 6456.00    1.27976   1.23968    0.018
 6457.00    1.28639   1.25412    0.018
 6458.00    1.29099   1.27862    0.018
 6459.00    1.28207   1.29441    0.018
 6460.00    1.27126   1.28655    0.018
 6461.00    1.26310   1.25302    0.018
 6462.00    1.25520   1.21367    0.018
 6463.00    1.23979   1.19872    0.018
 6464.00    1.22390   1.21637    0.018
 6465.00    1.22265   1.24746    0.018
 6466.00    1.22189   1.27182    0.018
 6467.00    1.24459   1.28277    0.018
 6468.00    1.26701   1.28092    0.018
 6469.00    1.28128   1.26981    0.018
 6470.00    1.29483   1.25611    0.018
 6471.00    1.29821   1.24828    0.018
 6472.00    1.30229   1.25132    0.018
 6473.00    1.31284   1.25927    0.018
 6474.00    1.31924   1.26174    0.018
 6475.00    1.29763   1.25949    0.018
 6476.00    1.27744   1.26135    0.018
 6477.00    1.26476   1.26818    0.018
 6478.00    1.25409   1.27279    0.018
 6479.00    1.25186   1.26916    0.018
 6480.00    1.24882   1.25363    0.018
 6481.00    1.24293   1.22833    0.018
 6482.00    1.23777   1.20707    0.018
 6483.00    1.23474   1.20478    0.018
 6484.00    1.23323   1.22076    0.018
 6485.00    1.23553   1.24156    0.018
 6486.00    1.23398   1.25686    0.018
 6487.00    1.22414   1.26447    0.018
 6488.00    1.21649   1.26394    0.018
 6489.00    1.21297   1.25433    0.018
 6490.00    1.20926   1.23771    0.018
 6491.00    1.20524   1.21582    0.018
 6492.00    1.19436   1.18244    0.018
 6493.00    1.17363   1.13150    0.018
 6494.00    1.15854   1.07631    0.018
 6495.00    1.15058   1.04404    0.018
 6496.00    1.15683   1.04731    0.018
 6497.00    1.17886   1.07438    0.018
 6498.00    1.20342   1.10605    0.018
 6499.00    1.23044   1.13471    0.018
 6500.00    1.24611   1.16287    0.018
 6501.00    1.25198   1.19038    0.018
 6502.00    1.24972   1.21292    0.018
 6503.00    1.24127   1.22895    0.018
 6504.00    1.23417   1.24074    0.018
 6505.00    1.22798   1.24977    0.018
 6506.00    1.22641   1.25379    0.018
 6507.00    1.22755   1.25027    0.018
 6508.00    1.23894   1.24301    0.018
 6509.00    1.25557   1.24046    0.019
 6510.00    1.28117   1.24565    0.019
 6511.00    1.31075   1.25322    0.019
 6512.00    1.31645   1.25738    0.019
 6513.00    1.31306   1.25598    0.019
 6514.00    1.29780   1.24808    0.018
 6515.00    1.27871   1.23476    0.018
 6516.00    1.26280   1.22035    0.018
 6517.00    1.24775   1.20902    0.018
 6518.00    1.24410   1.20478    0.018
 6519.00    1.24298   1.21217    0.018
 6520.00    1.25178   1.22926    0.018
 6521.00    1.26233   1.24618    0.018
 6522.00    1.28026   1.25571    0.018
 6523.00    1.29920   1.25924    0.018
 6524.00    1.29804   1.25937    0.018
 6525.00    1.29496   1.25354    0.018
 6526.00    1.26719   1.24135    0.018
 6527.00    1.23795   1.23169    0.018
 6528.00    1.23634   1.23309    0.000
 6529.00    1.23546   1.24169    0.000
 6530.00    1.23944   1.24568    0.000
 6531.00    1.24258   1.23896    0.000
 6532.00    1.22444   1.22759    0.000
 6533.00    1.20752   1.22354    0.000
 6534.00    1.20685   1.23203    0.000
 6535.00    1.20870   1.24572    0.000
 6536.00    1.23304   1.25352    0.000
 6537.00    1.25683   1.25447    0.000
 6538.00    1.27704   1.25685    0.000
 6539.00    1.29187   1.26378    0.000
 6540.00    1.27915   1.26809    0.000
 6541.00    1.26697   1.26307    0.000
 6542.00    1.25701   1.25055    0.000
 6543.00    1.25172   1.23552    0.000
 6544.00    1.26239   1.21847    0.000
 6545.00    1.27243   1.19928    0.000
 6546.00    1.28060   1.18588    0.000
 6547.00    1.28239   1.18796    0.000
 6548.00    1.26848   1.20241    0.000
 6549.00    1.25667   1.21518    0.000
 6550.00    1.24933   1.21658    0.000
 6551.00    1.24292   1.20845    0.000
 6552.00    1.23822   1.19635    0.000
 6553.00    1.22690   1.18132    0.000
 6554.00    1.20490   1.16378    0.000
 6555.00    1.18709   1.15015    0.000
 6556.00    1.17518   1.14767    0.000
 6557.00    1.16948   1.15400    0.000
 6558.00    1.17150   1.15731    0.000
 6559.00    1.18811   1.14306    0.000
 6560.00    1.22071   1.09553    0.000
 6561.00    1.24335   1.00912    0.000
 6562.00    1.25636   0.91762    0.000
 6563.00    1.25096   0.88692    0.000
 6564.00    1.22986   0.94433    0.000
 6565.00    1.22456   1.04538    0.000
 6566.00    1.23112   1.12936    0.000
 6567.00    1.24497   1.17198    0.000
 6568.00    1.26363   1.18100    0.000
 6569.00    1.26219   1.17524    0.000
 6570.00    1.24914   1.16995    0.000
 6571.00    1.24128   1.16655    0.000
 6572.00    1.23601   1.15832    0.000
 6573.00    1.23268   1.14586    0.000
 6574.00    1.23020   1.13995    0.000
 6575.00    1.22964   1.15098    0.000
 6576.00    1.22979   1.17755    0.000
 6577.00    1.23289   1.20604    0.000
 6578.00    1.23692   1.22189    0.000
 6579.00    1.25825   1.22026    0.000
 6580.00    1.28416   1.20813    0.000
 6581.00    1.30936   1.19898    0.000
 6582.00    1.33440   1.20103    0.000
 6583.00    1.34174   1.21011    0.000
 6584.00    1.34605   1.21651    0.000
 6585.00    1.32229   1.21689    0.000
 6586.00    1.29488   1.21709    0.000
 6587.00    1.27779   1.22331    0.000
 6588.00    1.26165   1.23319    0.000
 6589.00    1.23926   1.23807    0.000
 6590.00    1.21653   1.22905    0.000
 6591.00    1.21720   1.20096    0.000
 6592.00    1.21825   1.16153    0.000
 6593.00    1.20852   1.13466    0.000
 6594.00    1.19903   1.13886    0.000
 6595.00    1.19504   1.16493    0.000
 6596.00    1.19245   1.18801    0.000
 6597.00    1.20756   1.19590    0.000
 6598.00    1.22268   1.19644    0.000
 6599.00    1.23784   1.20284    0.000
 6600.00    1.25078   1.21772    0.000
 6601.00    1.24962   1.23210    0.000
 6602.00    1.24703   1.23660    0.000
 6603.00    1.23725   1.22975    0.000
 6604.00    1.22662   1.21646    0.000
 6605.00    1.21251   1.20255    0.000
 6606.00    1.20214   1.19005    0.000
 6607.00    1.20429   1.17719    0.000
 6608.00    1.20769   1.16546    0.000
 6609.00    1.21461   1.16421    0.018
 6610.00    1.22473   1.17995    0.018
 6611.00    1.24258   1.20333    0.018
 6612.00    1.25770   1.21817    0.018
 6613.00    1.26717   1.22144    0.018
 6614.00    1.27545   1.22349    0.018
 6615.00    1.28162   1.22975    0.018
 6616.00    1.27940   1.23482    0.018
 6617.00    1.26391   1.23503    0.018
 6618.00    1.24736   1.23465    0.018
 6619.00    1.22935   1.23777    0.018
 6620.00    1.22066   1.24216    0.018
 6621.00    1.22339   1.24187    0.018
 6622.00    1.23099   1.23205    0.018
 6623.00    1.24386   1.21327    0.019
 6624.00    1.24833   1.19445    0.019
 6625.00    1.24481   1.18731    0.019
 6626.00    1.23893   1.19371    0.018
 6627.00    1.23109   1.20385    0.018
 6628.00    1.21977   1.20859    0.018
 6629.00    1.20586   1.20645    0.018
 6630.00    1.20105   1.19918    0.018
 6631.00    1.20215   1.18674    0.018
 6632.00    1.21165   1.16937    0.018
 6633.00    1.22592   1.15363    0.018
 6634.00    1.23301   1.15096    0.018
 6635.00    1.23655   1.16544    0.018
 6636.00    1.23462   1.18747    0.018
 6637.00    1.23035   1.20316    0.018
 6638.00    1.21396   1.20658    0.018
 6639.00    1.19311   1.20292    0.018
 6640.00    1.18695   1.20074    0.018
 6641.00    1.18534   1.19981    0.018
 6642.00    1.20181   1.19283    0.018
 6643.00    1.22296   1.18153    0.018
 6644.00    1.23536   1.17774    0.018
 6645.00    1.24592   1.18494    0.018
 6646.00    1.25345   1.19377    0.019
 6647.00    1.26047   1.19779    0.019
 6648.00    1.24329   1.20006    0.018
 6649.00    1.22306   1.20330    0.018
 6650.00    1.20708   1.20494    0.018
 6651.00    1.19146   1.20302    0.018
 6652.00    1.17363   1.19982    0.018
 6653.00    1.15568   1.19843    0.018
 6654.00    1.16193   1.19941    0.018
 6655.00    1.16870   1.20075    0.018
 6656.00    1.18111   1.20083    0.018
 6657.00    1.19236   1.20036    0.018
 6658.00    1.17880   1.19969    0.018
 6659.00    1.16645   1.19663    0.018
 6660.00    1.16860   1.18896    0.018
 6661.00    1.17104   1.17592    0.018
 6662.00    1.17592   1.15917    0.018
 6663.00    1.18046   1.14588    0.018
 6664.00    1.18287   1.14387    0.018
 6665.00    1.18570   1.15097    0.018
 6666.00    1.19057   1.15838    0.018
 6667.00    1.19299   1.16367    0.018
 6668.00    1.18574   1.17156    0.018
 6669.00    1.18122   1.18433    0.018
 6670.00    1.18565   1.19767    0.018
 6671.00    1.18762   1.20604    0.018
 6672.00    1.18279   1.20860    0.018
 6673.00    1.17959   1.20831    0.018
 6674.00    1.18023   1.20625    0.018
 6675.00    1.18131   1.19749    0.018
 6676.00    1.18326   1.17566    0.018
 6677.00    1.18197   1.14595    0.018
 6678.00    1.17488   1.12800    0.018
 6679.00    1.16261   1.13458    0.018
 6680.00    1.14227   1.15559    0.018
 6681.00    1.13573   1.17376    0.018
 6682.00    1.14814   1.18436    0.018
 6683.00    1.16200   1.19144    0.018
 6684.00    1.17759   1.19682    0.018
 6685.00    1.18235   1.19925    0.018
 6686.00    1.17557   1.19818    0.018
 6687.00    1.18173   1.19524    0.018
 6688.00    1.20004   1.19350    0.018
 6689.00    1.21546   1.19470    0.018
 6690.00    1.22848   1.19738    0.018
 6691.00    1.23899   1.19889    0.018
 6692.00    1.24768   1.19809    0.018
 6693.00    1.23207   1.19416    0.018
 6694.00    1.20091   1.18470    0.018
 6695.00    1.18601   1.16931    0.018
 6696.00    1.18020   1.15451    0.000
 6697.00    1.17491   1.14925    0.000
 6698.00    1.16988   1.15625    0.000
 6699.00    1.16437   1.17080    0.000
 6700.00    1.15866   1.18468    0.000
 6701.00    1.16116   1.19019    0.000
 6702.00    1.16661   1.18469    0.000
 6703.00    1.17173   1.17300    0.000
 6704.00    1.17675   1.16439    0.000
 6705.00    1.17292   1.16488    0.000
 6706.00    1.16684   1.17198    0.000
 6707.00    1.18658   1.17865    0.000
 6708.00    1.21164   1.18039    0.000
 6709.00    1.23665   1.17710    0.000
 6710.00    1.26165   1.17167    0.000
 6711.00    1.26151   1.16674    0.000
 6712.00    1.25833   1.16138    0.000
 6713.00    1.25757   1.15303    0.000
 6714.00    1.25701   1.14084    0.000
 6715.00    1.26688   1.12549    0.000
 6716.00    1.27724   1.11046    0.000
 6717.00    1.29039   1.10428    0.000
 6718.00    1.30303   1.11415    0.000
 6719.00    1.28443   1.13509    0.000
 6720.00    1.26609   1.15343    0.000
 6721.00    1.25291   1.16260    0.000
 6722.00    1.24029   1.16734    0.000
 6723.00    1.23401   1.17187    0.000
 6724.00    1.22713   1.17294    0.000
 6725.00    1.21548   1.16791    0.000
 6726.00    1.20562   1.16189    0.000
 6727.00    1.20653   1.16169    0.000
 6728.00    1.20726   1.16772    0.000
 6729.00    1.20721   1.17567    0.000
 6730.00    1.20823   1.18139    0.000
 6731.00    1.21339   1.18234    0.000
 6732.00    1.21421   1.17865    0.000
 6733.00    1.20106   1.17407    0.000
 6734.00    1.18617   1.17283    0.000
 6735.00    1.16653   1.17437    0.000
 6736.00    1.14539   1.17308    0.000
 6737.00    1.12077   1.16497    0.000
 6738.00    1.10702   1.15377    0.000
 6739.00    1.11524   1.14758    0.000
 6740.00    1.12617   1.14881    0.000
 6741.00    1.14187   1.15138    0.000
 6742.00    1.14327   1.15012    0.000
 6743.00    1.12267   1.14795    0.000
 6744.00    1.11348   1.14906    0.000
 6745.00    1.11973   1.15125    0.000
 6746.00    1.13049   1.15029    0.000
 6747.00    1.14663   1.14609    0.000
 6748.00    1.15251   1.14094    0.000
 6749.00    1.14762   1.13688    0.000
 6750.00    1.14235   1.13556    0.000
 6751.00    1.13673   1.13649    0.000
 6752.00    1.14940   1.13756    0.000
 6753.00    1.17699   1.13982    0.020
 6754.00    1.18376   1.14605    0.021
 6755.00    1.17558   1.15576    0.021
 6756.00    1.16239   1.16671    0.021
 6757.00    1.14604   1.17748    0.021
 6758.00    1.13187   1.18641    0.021
 6759.00    1.11890   1.19163    0.021
 6760.00    1.16310   1.19229    0.021
 6761.00    1.23470   1.18936    0.021
 6762.00    1.28397   1.18576    0.022
 6763.00    1.32401   1.18351    0.022
 6764.00    1.32308   1.18026    0.022
 6765.00    1.30767   1.17159    0.021
 6766.00    1.31698   1.15786    0.021
 6767.00    1.33367   1.14620    0.021
 6768.00    1.32399   1.14295    0.021
 6769.00    1.30778   1.14548    0.021
 6770.00    1.28106   1.14695    0.021
 6771.00    1.25223   1.14755    0.020
 6772.00    1.24519   1.15353    0.020
 6773.00    1.24158   1.16651    0.020
 6774.00    1.24060   1.18089    0.020
 6775.00    1.23992   1.19069    0.020
 6776.00    1.20776   1.19460    0.020
 6777.00    1.17311   1.19551    0.020
 6778.00    1.19833   1.19691    0.020
 6779.00    1.22615   1.19808    0.020
 6780.00    1.22053   1.19423    0.020
 6781.00    1.21375   1.18154    0.021
 6782.00    1.16878   1.16110    0.020
 6783.00    1.12830   1.13945    0.020
 6784.00    1.16902   1.12517    0.020
 6785.00    1.20840   1.12317    0.020
 6786.00    1.23307   1.13220    0.020
 6787.00    1.25366   1.14670    0.020
 6788.00    1.24291   1.15959    0.020
 6789.00    1.23513   1.16670    0.020
 6790.00    1.24465   1.16906    0.020
 6791.00    1.25116   1.16837    0.020
 6792.00    1.24371   1.16369    0.020
 6793.00    1.24320   1.15583    0.020
 6794.00    1.26894   1.14939    0.020
 6795.00    1.27919   1.14785    0.020
 6796.00    1.24051   1.15074    0.020
 6797.00    1.21770   1.15570    0.020
 6798.00    1.23738   1.16070    0.020
 6799.00    1.24949   1.16524    0.020
 6800.00    1.24423   1.16966    0.020
 6801.00    1.23478   1.17284    0.020
 6802.00    1.21701   1.17254    0.020
 6803.00    1.20200   1.16884    0.020
 6804.00    1.19177   1.16493    0.020
 6805.00    1.18376   1.16285    0.020
 6806.00    1.17912   1.16174    0.019
 6807.00    1.17848   1.16105    0.019
 6808.00    1.18319   1.16075    0.019
 6809.00    1.19071   1.15999    0.019
 6810.00    1.20153   1.15957    0.019
 6811.00    1.22756   1.16109    0.020
 6812.00    1.26933   1.16235    0.020
 6813.00    1.28273   1.15960    0.020
 6814.00    1.27024   1.15448    0.021
 6815.00    1.23432   1.15403    0.021
 6816.00    1.17956   1.16143    0.020
 6817.00    1.15506   1.17032    0.020
 6818.00    1.15198   1.17216    0.020
 6819.00    1.17444   1.16678    0.019
 6820.00    1.21276   1.16221    0.019
 6821.00    1.22837   1.16528    0.019
 6822.00    1.23166   1.17467    0.019
 6823.00    1.24324   1.18375    0.019
 6824.00    1.25874   1.18779    0.019
 6825.00    1.25734   1.18585    0.019
 6826.00    1.24907   1.17808    0.019
 6827.00    1.23891   1.16621    0.019
 6828.00    1.22808   1.15637    0.020
 6829.00    1.22745   1.15540    0.020
 6830.00    1.22981   1.16260    0.020
 6831.00    1.23780   1.17027    0.020
 6832.00    1.24716   1.17350    0.020
 6833.00    1.24627   1.17481    0.020
 6834.00    1.24336   1.17756    0.019
 6835.00    1.23647   1.17964    0.020
 6836.00    1.22897   1.17646    0.020
 6837.00    1.24219   1.16645    0.021
 6838.00    1.25773   1.15101    0.021
 6839.00    1.25475   1.13239    0.021
 6840.00    1.25039   1.11423    0.021
 6841.00    1.21103   1.10232    0.021
 6842.00    1.17029   1.10256    0.021
 6843.00    1.16752   1.11612    0.020
 6844.00    1.16658   1.13684    0.019
 6845.00    1.22774   1.15531    0.019
 6846.00    1.28426   1.16614    0.019
 6847.00    1.26252   1.17012    0.019
 6848.00    1.24175   1.17025    0.019
 6849.00    1.23118   1.16862    0.019
 6850.00    1.22244   1.16680    0.019
 6851.00    1.22741   1.16578    0.019
 6852.00    1.23210   1.16346    0.019
 6853.00    1.23518   1.15506    0.019
 6854.00    1.23430   1.13969    0.019
 6855.00    1.21547   1.12520    0.019
 6856.00    1.20241   1.12052    0.020
 6857.00    1.21063   1.12531    0.020
 6858.00    1.20512   1.13188    0.020
 6859.00    1.15706   1.13301    0.020
 6860.00    1.12595   1.12695    0.020
 6861.00    1.13944   1.12079    0.019
 6862.00    1.15205   1.12548    0.019
 6863.00    1.16271   1.14201    0.019
 6864.00    1.16746   1.15807    0.019
 6865.00    1.16069   1.16098    0.019
 6866.00    1.15447   1.14929    0.019
 6867.00    1.14923   1.13250    0.019
 6868.00    1.15960   1.12332    0.020
 6869.00    1.19331   1.12660    0.020
 6870.00    1.20743   1.13433    0.020
 6871.00    1.19581   1.13630    0.019
 6872.00    1.18721   1.13285    0.019
 6873.00    1.18213   1.13105    0.019
 6874.00    1.17424   1.13332    0.019
 6875.00    1.16350   1.13784    0.019
 6876.00    1.16065   1.14468    0.019
 6877.00    1.16489   1.15385    0.020
 6878.00    1.16029   1.16113    0.020
 6879.00    1.14868   1.16115    0.020
 6880.00    1.14607   1.15245    0.020
 6881.00    1.14974   1.13883    0.020
 6882.00    1.16728   1.12833    0.020
 6883.00    1.19330   1.12797    0.019
 6884.00    1.20110   1.13642    0.019
 6885.00    1.19916   1.14600    0.019
 6886.00    1.18700   1.15329    0.019
 6887.00    1.17008   1.16106    0.019
 6888.00    1.15810   1.17043    0.019
 6889.00    1.14809   1.17890    0.019
 6890.00    1.16587   1.18430    0.019
 6891.00    1.19313   1.18545    0.019
 6892.00    1.20375   1.18230    0.019
 6893.00    1.20960   1.17693    0.019
 6894.00    1.21613   1.17149    0.019
 6895.00    1.22283   1.16708    0.020
 6896.00    1.21330   1.16564    0.020
 6897.00    1.20068   1.16795    0.019
 6898.00    1.19593   1.17051    0.020
 6899.00    1.19234   1.16996    0.020
 6900.00    1.19958   1.16891    0.020
 6901.00    1.20799   1.17186    0.020
 6902.00    1.18927   1.17717    0.020
 6903.00    1.16864   1.17944    0.020
 6904.00    1.14527   1.17796    0.019
 6905.00    1.12180   1.17730    0.019
 6906.00    1.11745   1.18049    0.019
 6907.00    1.11338   1.18556    0.019
 6908.00    1.11712   1.18898    0.019
 6909.00    1.12288   1.18915    0.019
 6910.00    1.16074   1.18555    0.019
 6911.00    1.19286   1.17764    0.019
 6912.00    1.16746   1.16613    0.019
 6913.00    1.14511   1.15405    0.019
 6914.00    1.14466   1.14621    0.019
 6915.00    1.14450   1.14521    0.019
 6916.00    1.14598   1.14876    0.020
 6917.00    1.14866   1.15417    0.020
 6918.00    1.15665   1.16197    0.020
 6919.00    1.16594   1.17230    0.020
 6920.00    1.17998   1.18195    0.020
 6921.00    1.19153   1.18622    0.020
 6922.00    1.19551   1.18122    0.020
 6923.00    1.19348   1.16631    0.019
 6924.00    1.17589   1.14725    0.019
 6925.00    1.16099   1.13469    0.019
 6926.00    1.15205   1.13563    0.020
 6927.00    1.14686   1.14705    0.020
 6928.00    1.14891   1.15983    0.019
 6929.00    1.14865   1.16749    0.019
 6930.00    1.14450   1.16870    0.019
 6931.00    1.14648   1.16414    0.019
 6932.00    1.15749   1.15634    0.019
 6933.00    1.16007   1.15140    0.020
 6934.00    1.15174   1.15430    0.020
 6935.00    1.15823   1.16215    0.020
 6936.00    1.18164   1.16797    0.020
 6937.00    1.19972   1.17004    0.020
 6938.00    1.21244   1.17226    0.020
 6939.00    1.21613   1.17709    0.020
 6940.00    1.21180   1.18179    0.020
 6941.00    1.20221   1.18091    0.020
 6942.00    1.18850   1.17134    0.020
 6943.00    1.16269   1.15516    0.020
 6944.00    1.12857   1.13934    0.020
 6945.00    1.11407   1.13269    0.020
 6946.00    1.11139   1.13922    0.020
 6947.00    1.11692   1.15360    0.020
 6948.00    1.12677   1.16595    0.019
 6949.00    1.11967   1.16960    0.019
 6950.00    1.10483   1.16363    0.020
 6951.00    1.12231   1.15267    0.020
 6952.00    1.15249   1.14364    0.020
 6953.00    1.15508   1.14033    0.020
 6954.00    1.14845   1.14309    0.020
 6955.00    1.12278   1.15116    0.020
 6956.00    1.09177   1.16154    0.020
 6957.00    1.11488   1.16951    0.020
 6958.00    1.15050   1.17294    0.020
 6959.00    1.16937   1.17381    0.020
 6960.00    1.18512   1.17497    0.020
 6961.00    1.19464   1.17750    0.020
 6962.00    1.20328   1.18054    0.020
 6963.00    1.20098   1.18216    0.020
 6964.00    1.19754   1.18055    0.020
 6965.00    1.18906   1.17679    0.020
 6966.00    1.18023   1.17604    0.020
 6967.00    1.16140   1.18168    0.020
 6968.00    1.14225   1.18904    0.020
 6969.00    1.17133   1.19031    0.020
 6970.00    1.19960   1.18455    0.020
 6971.00    1.20309   1.17899    0.020
 6972.00    1.20237   1.17921    0.020
 6973.00    1.13898   1.18082    0.020
 6974.00    1.08289   1.17493    0.020
 6975.00    1.09678   1.15843    0.020
 6976.00    1.11537   1.13379    0.020
 6977.00    1.16666   1.10560    0.021
 6978.00    1.20651   1.08403    0.021
 6979.00    1.18502   1.08289    0.021
 6980.00    1.16119   1.10518    0.021
 6981.00    1.12726   1.13798    0.021
 6982.00    1.10148   1.16609    0.020
 6983.00    1.10464   1.18336    0.020
 6984.00    1.11647   1.19087    0.020
 6985.00    1.15416   1.19178    0.020
 6986.00    1.17860   1.18862    0.020
 6987.00    1.16937   1.18221    0.020
 6988.00    1.16065   1.17350    0.020
 6989.00    1.15307   1.16668    0.020
 6990.00    1.15231   1.16710    0.020
 6991.00    1.16452   1.17471    0.020
 6992.00    1.17304   1.18289    0.020
 6993.00    1.17546   1.18553    0.020
 6994.00    1.18815   1.18320    0.021
 6995.00    1.21573   1.18087    0.021
 6996.00    1.22321   1.18033    0.021
 6997.00    1.20502   1.17721    0.021
 6998.00    1.18787   1.16691    0.021
 6999.00    1.17189   1.15267    0.021
 7000.00    1.17141   1.14462    0.021
 7001.00    1.18633   1.14813    0.021
 7002.00    1.18357   1.15615    0.021
 7003.00    1.16536   1.15777    0.021
 7004.00    1.14872   1.15140    0.021
 7005.00    1.13331   1.14461    0.021
 7006.00    1.11980   1.14415    0.021
 7007.00    1.10760   1.15042    0.021
 7008.00    1.10601   1.15940    0.021
 7009.00    1.11072   1.16592    0.021
 7010.00    1.11874   1.16720    0.021
 7011.00    1.12848   1.16556    0.021
 7012.00    1.13109   1.16458    0.021
 7013.00    1.13050   1.16129    0.022
 7014.00    1.15083   1.14757    0.022
 7015.00    1.17922   1.12332    0.022
 7016.00    1.16346   1.10428    0.022
 7017.00    1.13322   1.10821    0.022
 7018.00    1.12932   1.13405    0.022
 7019.00    1.13266   1.16348    0.022
 7020.00    1.13930   1.18013    0.022
 7021.00    1.14668   1.17891    0.022
 7022.00    1.13282   1.16302    0.022
 7023.00    1.11513   1.14209    0.022
 7024.00    1.10592   1.12915    0.021
 7025.00    1.09788   1.13113    0.021
 7026.00    1.08520   1.14309    0.021
 7027.00    1.07205   1.15535    0.021
 7028.00    1.09391   1.16354    0.021
 7029.00    1.11796   1.16875    0.021
 7030.00    1.11390   1.17191    0.021
 7031.00    1.10901   1.17229    0.021
 7032.00    1.09854   1.17031    0.022
 7033.00    1.09040   1.16862    0.022
 7034.00    1.14653   1.16960    0.022
 7035.00    1.19684   1.17178    0.022
 7036.00    1.16549   1.16877    0.022
 7037.00    1.13717   1.15679    0.023
 7038.00    1.13684   1.14530    0.023
 7039.00    1.13540   1.15068    0.023
 7040.00    1.12654   1.17560    0.022
 7041.00    1.12547   1.20479    0.022
 7042.00    1.16509   1.22166    0.022
 7043.00    1.19779   1.22106    0.022
 7044.00    1.20133   1.20952    0.022
 7045.00    1.19957   1.19972    0.022
 7046.00    1.17935   1.20110    0.022
 7047.00    1.15737   1.21241    0.022
 7048.00    1.13023   1.22437    0.022
 7049.00    1.11345   1.22802    0.022
 7050.00    1.12249   1.21867   -2.000
 7051.00    1.13273   1.19558   -2.000
 7052.00    1.14553   1.16347   -2.000
 7053.00    1.15927   1.13354   -2.000
 7054.00    1.17476   1.11729   -2.000
 7055.00    1.18123   1.11787   -2.000
 7056.00    1.17301   1.12827   -2.000
 7057.00    1.18125   1.13641   -2.000
 7058.00    1.21301   1.13321   -2.000
 7059.00    1.23415   1.11975   -2.000
 7060.00    1.24193   1.10639   -2.000
 7061.00    1.24260   1.10240   -2.000
 7062.00    1.23540   1.10797   -2.000
 7063.00    1.24188   1.11727   -2.000
 7064.00    1.26176   1.12353   -2.000
 7065.00    1.27074   1.12057   -2.000
 7066.00    1.27032   1.10654   -2.000
 7067.00    1.25106   1.08809   -2.000
 7068.00    1.21750   1.07782   -2.000
 7069.00    1.20779   1.08450   -2.000
 7070.00    1.21402   1.10456   -2.000
 7071.00    1.25892   1.12528   -2.000
 7072.00    1.32644   1.13757   -2.000
 7073.00    1.31884   1.14176   -2.000
 7074.00    1.27293   1.14194   -2.000
 7075.00    1.27877   1.14099   -2.000
 7076.00    1.30746   1.14093   -2.000
 7077.00    1.34319   1.14308   -2.000
 7078.00    1.38158   1.14710   -2.000
 7079.00    1.31133   1.15154   -2.000
 7080.00    1.20610   1.15376   -2.000
 7081.00    1.24535   1.14859   -2.000
 7082.00    1.32352   1.13094   -2.000
 7083.00    1.28311   1.10288   -2.000
 7084.00    1.21651   1.07605   -2.000
 7085.00    1.20732   1.06235   -2.000
 7086.00    1.20822   1.06181   -2.000
 7087.00    1.20539   1.06427   -2.000
 7088.00    1.20207   1.06229   -2.000
 7089.00    1.20304   1.05673   -2.000
 7090.00    1.20442   1.05209   -2.000
 7091.00    1.23182   1.05108   -2.000
 7092.00    1.26075   1.05267   -2.000
 7093.00    1.18208   1.05457   -2.000
 7094.00    1.10150   1.05606   -2.000
 7095.00    1.12247   1.05781   -2.000
 7096.00    1.14178   1.06105   -2.000
 7097.00    1.12001   1.06732   -2.000
 7098.00    1.09752   1.07681   -2.000
 7099.00    1.06550   1.08609   -2.000
 7100.00    1.03655   1.08990   -2.000
 7101.00    1.03483   1.08682   -2.000
 7102.00    1.03312   1.08173   -2.000
 7103.00    1.03139   1.08128   -2.000
 7104.00    1.03702   1.08645   -2.000
 7105.00    1.08015   1.09101   -2.000
 7106.00    1.11456   1.08942   -2.000
 7107.00    1.11308   1.08367   -2.000
 7108.00    1.10790   1.07855   -2.000
 7109.00    1.09005   1.07372   -2.000
 7110.00    1.07766   1.06655   -2.000
 7111.00    1.08091   1.06001   -2.000
 7112.00    1.08522   1.06042   -2.000
 7113.00    1.09213   1.06856   -2.000
 7114.00    1.09497   1.07900   -2.000
 7115.00    1.08916   1.08671   -2.000
 7116.00    1.10265   1.09029   -2.000
 7117.00    1.15164   1.09024   -2.000
 7118.00    1.16601   1.08767   -2.000
 7119.00    1.12475   1.08370   -2.000
 7120.00    1.10996   1.07888   -2.000
 7121.00    1.13251   1.07407   -2.000
 7122.00    1.17037   1.07170   -2.000
 7123.00    1.22725   1.07273   -2.000
 7124.00    1.26574   1.07292   -2.000
 7125.00    1.28414   1.06768   -2.000
 7126.00    1.26847   1.05936   -2.000
 7127.00    1.21992   1.05325   -2.000
 7128.00    1.20577   1.04851   -2.000
 7129.00    1.22088   1.04001   -2.000
 7130.00    1.18482   1.02897   -2.000
 7131.00    1.11043   1.02460   -2.000
 7132.00    1.12679   1.03296   -2.000
 7133.00    1.20285   1.04975   -2.000
 7134.00    1.14825   1.06598   -2.000
 7135.00    1.01839   1.07665   -2.000
 7136.00    1.03832   1.08209   -2.000
 7137.00    1.13340   1.08295   -2.000
 7138.00    1.16018   1.07891   -2.000
 7139.00    1.15730   1.07347   -2.000
 7140.00    1.17274   1.07270   -2.000
 7141.00    1.19500   1.07705   -2.000
 7142.00    1.14776   1.08106   -2.000
 7143.00    1.07857   1.08147   -2.000
 7144.00    1.08716   1.07924   -2.000
 7145.00    1.11626   1.07467   -2.000
 7146.00    1.13205   1.06542   -2.000
 7147.00    1.14497   1.05146   -2.000
 7148.00    1.14968   1.03986   -2.000
 7149.00    1.15298   1.03924   -2.000
 7150.00    1.11281   1.05028   -2.000
 7151.00    1.06702   1.06696   -2.000
 7152.00    1.07936   1.08293   -2.000
 7153.00    1.09697   1.09258   -2.000
 7154.00    1.12120   1.09348   -2.000
 7155.00    1.14579   1.09085   -2.000
 7156.00    1.14220   1.09238   -2.000
 7157.00    1.13814   1.09722   -2.000
 7158.00    1.14434   1.09766   -2.000
 7159.00    1.15331   1.09162   -2.000
 7160.00    1.22507   1.08535   -2.000
 7161.00    1.29593   1.08295   -2.000
 7162.00    1.35555   1.07909   -2.000
 7163.00    1.39039   1.06625   -2.000
 7164.00    1.21394   1.04821   -2.000
 7165.00    1.05833   1.03981   -2.000
 7166.00    1.03477   1.05021   -2.000
 7167.00    1.03767   1.07213   -2.000
 7168.00    1.17196   1.09073   -2.000
 7169.00    1.26766   1.09905   -2.000
 7170.00    1.20801   1.10184   -2.000
 7171.00    1.15110   1.10627   -2.000
 7172.00    1.10334   1.11261   -2.000
 7173.00    1.07076   1.11508   -2.000
 7174.00    1.08100   1.10954   -2.000
 7175.00    1.10604   1.09891   -2.000
 7176.00    1.16680   1.09144   -2.000
 7177.00    1.19570   1.09147   -2.000
 7178.00    1.15829   1.09208   -2.000
 7179.00    1.13970   1.08287   -2.000
 7180.00    1.15521   1.06569   -2.000
 7181.00    1.14249   1.05555   -2.000
 7182.00    1.08509   1.06331   -2.000
 7183.00    1.06521   1.08248   -2.000
 7184.00    1.09744   1.09616   -2.000
 7185.00    1.07452   1.09332   -2.000
 7186.00    0.98413   1.07548   -2.000
 7187.00    0.97998   1.05333   -2.000
 7188.00    1.06878   1.03940   -2.000
 7189.00    1.11823   1.03981   -2.000
 7190.00    1.13026   1.05031   -2.000
 7191.00    1.11396   1.06085   -2.000
 7192.00    1.07391   1.06510   -2.000
 7193.00    1.06356   1.06601   -2.000
 7194.00    1.07513   1.06950   -2.000
 7195.00    1.09802   1.07482   -2.000
 7196.00    1.12823   1.07709   -2.000
 7197.00    1.12845   1.07680   -2.000
 7198.00    1.11167   1.07872   -2.000
 7199.00    1.14713   1.08293   -2.000
 7200.00    1.20838   1.08495   -2.000
 7201.00    1.20000   1.08413   -2.000
 7202.00    1.16188   1.08567   -2.000
 7203.00    1.09698   1.09244   -2.000
 7204.00    1.02228   1.09764   -2.000
 7205.00    0.96965   1.09001   -2.000
 7206.00    0.92386   1.06765   -2.000
 7207.00    0.92760   1.04398   -2.000
 7208.00    0.94411   1.03634   -2.000
 7209.00    0.97530   1.04948   -2.000
 7210.00    1.00959   1.07315   -2.000
 7211.00    1.03186   1.09196   -2.000
 7212.00    1.05213   1.09682   -2.000
 7213.00    1.06523   1.09011   -2.000
 7214.00    1.07742   1.08144   -2.000
 7215.00    1.04941   1.07907   -2.000
 7216.00    1.01791   1.08536   -2.000
 7217.00    1.03355   1.09658   -2.000
 7218.00    1.05160   1.10528   -2.000
