###################################################################
## OUTPUT of StarlightChains_v04.for    [Cid@UFSC - 01/Apr/2007] ##
###################################################################

## Some input info
KUG0210-078._25_40.txt                   [arq_obs]
Base.CB07.vall.4m                        [arq_base]
Masks.EmLines.NEW.gm                     [arq_masks]
StCv04.C11.config                        [arq_config]
   66                                    [N_base]
    0                                    [N_YAV_components = # of components with extra extinction!]
    0                                    [i_FitPowerLaw (1/0 = Yes/No)]
-9.99                                    [alpha_PowerLaw]
CCM                                      [red_law_option]
 1.458241                                [q_norm = A(l_norm)/A(V)]

## (Re)Sampling Parameters
 3741.00                                 [l_ini (A)]
 7218.00                                 [l_fin (A)]
    1.00                                 [dl    (A)]     (OBS: dl_cushion =    50.00 A)

## Normalization info
 4020.00                                 [l_norm (A) - for base]
 4010.00                                 [llow_norm (A) - window for f_obs]
 4060.00                                 [lupp_norm (A) - window for f_obs]
7.841870E-18                             [fobs_norm (in input units)]

## S/N
 3691.00                                 [llow_SN (A) - window for S/N]
 7268.00                                 [lupp_SN (A) - window for S/N]
   2.477                                 [S/N in S/N window]
   3.230                                 [S/N in norm. window]
   0.008                                 [S/N_err in S/N window]
   0.010                                 [S/N_err in norm. window]
  1.0000                                 [fscale_chi2]

## etc...
    -2007313                             [idum_orig]
  2370                                   [NOl_eff]
  2352                                   [Nl_eff]
    18    NSIGMA                         [Ntot_cliped & clip_method]
  1048110                                [Nglobal_steps]
   7                                     [N_chains]
  42                                     [NEX0s_base = N_base in EX0s-fits]
 0   0   1       18   2.0   1.399E+03    [Clip-Bug, RC-Crash & Burn-In warning-flags, n_censored_weights, wei_nsig_threshold & wei_limit]
    30     29.601     29.166      0.436  [idt_all, wdt_TotTime, wdt_UsrTime & wdt_SysTime (sec)]

## Synthesis Results - Best model ##

 4.10165E-05                             [chi2/Nl_eff]
    47.11772                             [adev (%)]

   112.86818                             [sum-of-x (%)]
 1.33164E-17                             [Flux_tot (units of input spectrum!)]
 1.74426E-13                             [Mini_tot (???)]
 8.93956E-14                             [Mcor_tot (???)]

   0.00                                  [v0_min  (km/s)]
 496.28                                  [vd_min  (km/s)]
 0.3041                                  [AV_min  (mag)]
 0.0000                                  [YAV_min (mag)]

# j     x_j(%)      Mini_j(%)     Mcor_j(%)     age_j(yr)     Z_j      (L/M)_j    YAV?  Mstars   component_j        a/Fe...       SSP_chi2r SSP_adev(%)   SSP_AV   SSP_x(%)
  1      0.0000     0.0000E+00    0.0000E+00    1.000000E+06  0.00400  1.094E-02    0   1.0000   age020_m42            0.0000     4.1890E-05    51.2801   1.6667   106.3861
  2      0.0000     0.0000E+00    0.0000E+00    3.160000E+06  0.00400  4.007E-02    0   0.9999   age045_m42            0.0000     4.4347E-05    51.9279   0.8610   114.5794
  3      0.0000     0.0000E+00    0.0000E+00    5.010000E+06  0.00400  2.539E-02    0   0.9488   age055_m42            0.0000     4.3235E-05    51.5560   1.2218   111.2926
  4      0.0000     0.0000E+00    0.0000E+00    6.610000E+06  0.00400  2.620E-02    0   0.9220   age061_m42            0.0000     4.4646E-05    51.6802   0.7983   114.5752
  5      1.2693     6.4941E-03    1.1229E-02    1.000000E+07  0.00400  1.322E-02    0   0.8862   age070_m42            0.0000     4.3677E-05    49.8652   0.6391   114.5336
  6      0.0000     0.0000E+00    0.0000E+00    1.445000E+07  0.00400  7.883E-03    0   0.8571   age078_m42            0.0000     4.3052E-05    50.0149   0.9674   111.7949
  7      0.0000     0.0000E+00    0.0000E+00    2.512000E+07  0.00400  5.251E-03    0   0.8174   age090_m42            0.0000     4.3788E-05    49.5759   0.5253   114.7990
  8      0.0000     0.0000E+00    0.0000E+00    4.000000E+07  0.00400  3.649E-03    0   0.7851   age104_m42            0.0000     4.4317E-05    49.8927   0.2676   116.2499
  9      0.0000     0.0000E+00    0.0000E+00    5.500000E+07  0.00400  3.098E-03    0   0.7629   age110_m42            0.0000     4.5484E-05    50.7109   0.3607   117.4000
 10      0.0000     0.0000E+00    0.0000E+00    1.015200E+08  0.00400  2.228E-03    0   0.7207   age116_m42            0.0000     4.6577E-05    51.2106   0.3384   118.3358
 11      0.0000     0.0000E+00    0.0000E+00    2.861200E+08  0.00400  1.093E-03    0   0.6648   age125_m42            0.0000     4.7326E-05    50.6569  -0.2064   120.9849
 12      0.0000     0.0000E+00    0.0000E+00    5.088000E+08  0.00400  6.597E-04    0   0.6365   age130_m42            0.0000     4.8949E-05    51.3781  -0.2808   123.2088
 13      0.0000     0.0000E+00    0.0000E+00    1.434000E+09  0.00400  2.132E-04    0   0.5798   age139_m42            0.0000     4.9534E-05    48.3289  -1.0000   122.7511
 14      0.0000     0.0000E+00    0.0000E+00    4.250000E+09  0.00400  5.895E-05    0   0.5377   age158_m42            0.0000     4.9918E-05    46.6803  -1.0000   112.1299
 15      0.0000     0.0000E+00    0.0000E+00    7.500000E+09  0.00400  3.510E-05    0   0.5212   age171_m42            0.0000     5.1703E-05    46.7187  -1.0000   107.9740
 16      0.0000     0.0000E+00    0.0000E+00    1.300000E+10  0.00400  2.005E-05    0   0.5034   age193_m42            0.0000     5.3610E-05    47.1218  -1.0000   104.0589
 17      0.0000     0.0000E+00    0.0000E+00    1.800000E+10  0.00400  1.525E-05    0   0.4967   age213_m42            0.0000     5.3509E-05    47.2722  -1.0000   103.1499
 18      0.0000     0.0000E+00    0.0000E+00    1.000000E+06  0.00800  1.238E-02    0   1.0000   age020_m52            0.0000     4.1851E-05    51.2726   1.6636   106.6027
 19      0.0000     0.0000E+00    0.0000E+00    3.160000E+06  0.00800  3.074E-02    0   0.9966   age045_m52            0.0000     4.2070E-05    51.4066   1.5735   107.7267
 20      3.9607     1.0041E-02    1.8501E-02    5.010000E+06  0.00800  2.668E-02    0   0.9443   age055_m52            0.0000     4.2828E-05    51.3529   1.3200   110.1153
 21      0.0000     0.0000E+00    0.0000E+00    6.610000E+06  0.00800  2.136E-02    0   0.9177   age061_m52            0.0000     4.2914E-05    49.9096   0.1338   116.1052
 22      0.0000     0.0000E+00    0.0000E+00    1.000000E+07  0.00800  1.215E-02    0   0.8827   age070_m52            0.0000     4.2943E-05    49.3677   0.8550   113.5904
 23      0.0000     0.0000E+00    0.0000E+00    1.445000E+07  0.00800  8.717E-03    0   0.8552   age078_m52            0.0000     4.3234E-05    49.9734   0.9304   113.3214
 24      0.0004     4.2534E-06    6.7738E-06    2.512000E+07  0.00800  5.592E-03    0   0.8162   age090_m52            0.0000     4.3919E-05    49.5276   0.5886   116.0956
 25      0.0308     5.3438E-04    8.1756E-04    4.000000E+07  0.00800  3.896E-03    0   0.7841   age104_m52            0.0000     4.4747E-05    50.0112   0.4618   117.6540
 26      0.0655     2.0636E-03    2.9095E-03    1.015200E+08  0.00800  2.148E-03    0   0.7226   age116_m52            0.0000     4.6040E-05    50.8357   0.3342   118.7100
 27      0.0000     0.0000E+00    0.0000E+00    2.861200E+08  0.00800  9.925E-04    0   0.6683   age125_m52            0.0000     4.9066E-05    51.3300  -0.2173   124.3743
 28      0.0000     0.0000E+00    0.0000E+00    9.047900E+08  0.00800  3.141E-04    0   0.6138   age135_m52            0.0000     5.1064E-05    51.0302  -1.0000   130.1403
 29      0.0000     0.0000E+00    0.0000E+00    1.434000E+09  0.00800  1.719E-04    0   0.5853   age139_m52            0.0000     5.0699E-05    46.2599  -1.0000   118.9955
 30      0.0000     0.0000E+00    0.0000E+00    2.500000E+09  0.00800  7.872E-05    0   0.5600   age150_m52            0.0000     5.2911E-05    46.5769  -1.0000   111.3302
 31      0.0000     0.0000E+00    0.0000E+00    4.250000E+09  0.00800  4.336E-05    0   0.5426   age158_m52            0.0000     5.2852E-05    46.6831  -1.0000   110.0589
 32      2.3242     4.9765E+00    5.1648E+00    6.250000E+09  0.00800  3.159E-05    0   0.5319   age166_m52            0.0000     5.5981E-05    47.1533  -1.0000   105.7104
 33      0.0000     0.0000E+00    0.0000E+00    1.300000E+10  0.00800  1.361E-05    0   0.5073   age193_m52            0.0000     6.3387E-05    50.8517  -1.0000    93.5466
 34      0.3674     2.5141E+00    2.4478E+00    1.800000E+10  0.00800  9.886E-06    0   0.4990   age213_m52            0.0000     6.6699E-05    51.4988  -1.0000    89.9783
 35      1.6561     7.2552E-03    1.4156E-02    1.000000E+06  0.02000  1.544E-02    0   1.0000   age020_m62            0.0000     4.1790E-05    51.3031   1.6571   106.8671
 36     38.5776     6.9362E-02    1.3341E-01    3.160000E+06  0.02000  3.762E-02    0   0.9858   age045_m62            0.0000     4.1923E-05    51.3084   1.5950   107.8566
 37      0.0000     0.0000E+00    0.0000E+00    5.010000E+06  0.02000  3.296E-02    0   0.9342   age055_m62            0.0000     4.3863E-05    51.7722   1.1565   113.1317
 38      4.9076     2.8765E-02    4.9733E-02    8.710000E+06  0.02000  1.154E-02    0   0.8861   age067_m62            0.0000     4.0884E-05    46.1102   0.5211   112.3477
 39      0.0000     0.0000E+00    0.0000E+00    1.445000E+07  0.02000  7.663E-03    0   0.8472   age078_m62            0.0000     4.2405E-05    48.3716   0.5654   114.8214
 40      0.6200     9.2529E-03    1.4622E-02    2.512000E+07  0.02000  4.532E-03    0   0.8099   age090_m62            0.0000     4.2692E-05    48.2181   0.5626   114.3278
 41      0.0000     0.0000E+00    0.0000E+00    5.500000E+07  0.02000  2.733E-03    0   0.7595   age110_m62            0.0000     4.4521E-05    49.8962   0.4527   116.7379
 42      0.0000     0.0000E+00    0.0000E+00    1.609000E+08  0.02000  1.369E-03    0   0.6985   age120_m62            0.0000     4.7631E-05    50.8904   0.1957   121.5563
 43      0.0000     0.0000E+00    0.0000E+00    2.861200E+08  0.02000  9.013E-04    0   0.6714   age125_m62            0.0000     5.0126E-05    51.2888  -0.1082   125.8434
 44      0.0000     0.0000E+00    0.0000E+00    5.088000E+08  0.02000  5.028E-04    0   0.6449   age130_m62            0.0000     5.2230E-05    52.8377  -0.6130   131.5901
 45      0.0031     8.5897E-04    1.0356E-03    9.047900E+08  0.02000  2.428E-04    0   0.6179   age135_m62            0.0000     5.0972E-05    50.6114  -1.0000   129.1936
 46      0.0000     0.0000E+00    0.0000E+00    1.434000E+09  0.02000  1.263E-04    0   0.5908   age139_m62            0.0000     5.1310E-05    47.2734  -1.0000   120.7630
 47      0.0000     0.0000E+00    0.0000E+00    2.500000E+09  0.02000  5.985E-05    0   0.5673   age150_m62            0.0000     5.4315E-05    46.9478  -1.0000   112.3941
 48      0.0000     0.0000E+00    0.0000E+00    4.250000E+09  0.02000  3.271E-05    0   0.5468   age158_m62            0.0000     5.9242E-05    47.7223  -1.0000   104.4549
 49      0.0000     0.0000E+00    0.0000E+00    1.000000E+10  0.02000  1.360E-05    0   0.5167   age181_m62            0.0000     6.6738E-05    49.7585  -1.0000    94.7328
 50      0.0000     0.0000E+00    0.0000E+00    1.800000E+10  0.02000  7.124E-06    0   0.5013   age213_m62            0.0000     7.2264E-05    50.9589  -1.0000    87.8679
 51      9.6145     2.5090E-02    4.8944E-02    1.000000E+06  0.05000  2.592E-02    0   0.9998   age020_m72            0.0000     4.1581E-05    51.1127   1.6672   106.6575
 52     22.9346     3.2018E-02    5.9831E-02    3.160000E+06  0.05000  4.845E-02    0   0.9577   age045_m72            0.0000     4.2703E-05    51.6676   1.4425   109.8192
 53      0.0000     0.0000E+00    0.0000E+00    5.010000E+06  0.05000  3.072E-02    0   0.9147   age055_m72            0.0000     4.2207E-05    49.5324   1.0916   111.7822
 54      3.6502     1.6969E-02    2.9391E-02    6.610000E+06  0.05000  1.455E-02    0   0.8877   age061_m72            0.0000     4.0412E-05    45.2945   0.6349   111.6114
 55      7.2046     5.3705E-02    8.9321E-02    1.000000E+07  0.05000  9.074E-03    0   0.8524   age070_m72            0.0000     4.2304E-05    49.6809   1.2684   111.4178
 56      2.0525     3.2666E-02    5.0364E-02    2.512000E+07  0.05000  4.250E-03    0   0.7902   age090_m72            0.0000     4.3567E-05    49.6624   0.9502   113.7699
 57      0.0000     0.0000E+00    0.0000E+00    4.000000E+07  0.05000  3.087E-03    0   0.7618   age104_m72            0.0000     4.4154E-05    49.4243   0.7286   115.4044
 58      0.4062     1.6163E-02    2.2378E-02    1.015200E+08  0.05000  1.700E-03    0   0.7096   age116_m72            0.0000     4.6970E-05    50.3701   0.3798   120.2319
 59      0.0000     0.0000E+00    0.0000E+00    2.861200E+08  0.05000  7.384E-04    0   0.6633   age125_m72            0.0000     5.1475E-05    52.0757  -0.3050   128.8175
 60      0.0000     0.0000E+00    0.0000E+00    5.088000E+08  0.05000  3.819E-04    0   0.6372   age130_m72            0.0000     5.1544E-05    53.9200  -0.9381   133.9686
 61      0.0000     0.0000E+00    0.0000E+00    9.047900E+08  0.05000  1.676E-04    0   0.6110   age135_m72            0.0000     5.2265E-05    48.2250  -1.0000   123.6189
 62      0.0000     0.0000E+00    0.0000E+00    1.434000E+09  0.05000  8.837E-05    0   0.5874   age139_m72            0.0000     5.5107E-05    46.9308  -1.0000   114.0146
 63      0.0000     0.0000E+00    0.0000E+00    2.500000E+09  0.05000  4.233E-05    0   0.5598   age150_m72            0.0000     6.0182E-05    47.7632  -1.0000   105.3184
 64     10.2820     4.8465E+01    4.9636E+01    6.250000E+09  0.05000  1.435E-05    0   0.5249   age166_m72            0.0000     6.8614E-05    50.6424  -1.0000    91.7513
 65      0.0461     4.7909E-01    4.7076E-01    1.300000E+10  0.05000  6.513E-06    0   0.5036   age193_m72            0.0000     7.5950E-05    52.0740  -1.0000    84.1837
 66      2.8949     4.3254E+01    4.1734E+01    1.800000E+10  0.05000  4.527E-06    0   0.4945   age213_m72            0.0000     8.0249E-05    52.6462  -1.0000    79.0876


## Synthesis Results - Average & Chains ##

# j      x_j: min, <> & last-chain-values for 1 ...  7 chains
  1      0.0000      0.6822      0.5468      0.0000      0.9422      1.2221      1.1112      0.0000      0.6455
  2      0.0000      0.7735      0.0000      1.3904      1.6201      0.4375      0.0000      0.0000      1.8135
  3      0.0000      0.6784      0.3182      0.2900      0.8187      0.2036      1.9417      1.9823      0.0000
  4      0.0000      0.6521      0.6915      0.0000      2.6521      0.4635      1.1803      0.7237      0.0379
  5      1.2693      0.6751      0.0000      0.1807      0.9571      1.2026      0.0000      5.0377      0.3474
  6      0.0000      0.6923      0.0000      0.0000      1.7526      0.0063      0.2758      0.6728      0.3424
  7      0.0000      0.9940      0.0355      2.5896      0.3605      0.0000      1.5980      0.7326      1.3015
  8      0.0000      0.5684      0.1780      1.5050      0.6436      0.0131      1.2895      0.0000      1.0461
  9      0.0000      0.7115      0.0000      1.1910      0.0000      0.1206      0.0000      1.4553      2.1693
 10      0.0000      0.6099      0.0000      0.6138      1.7424      0.1588      2.3880      0.0000      0.0000
 11      0.0000      0.5804      0.5532      0.0000      0.0000      0.0000      0.0000      0.2730      0.0000
 12      0.0000      0.6825      0.0103      0.5396      1.5183      0.6688      0.0000      1.3090      0.9309
 13      0.0000      0.3628      0.0878      0.0235      0.0000      0.0000      1.7815      0.1791      0.1444
 14      0.0000      0.5839      0.0000      1.0970      0.0000      0.5549      0.9198      0.1056      0.9216
 15      0.0000      0.6425      0.1253      0.5847      0.0537      0.0000      1.2561      3.5311      1.2211
 16      0.0000      0.6923      0.0000      2.2033      0.0000      0.0350      2.2699      2.9584      0.2521
 17      0.0000      0.7211      0.2529      0.7072      0.0000      0.4361      0.7634      1.1752      2.3041
 18      0.0000      0.5501      0.4449      1.4490      1.0299      0.2021      1.6195      0.0000      1.0369
 19      0.0000      0.4141      0.7830      0.3883      1.5507      0.3886      0.1325      0.0000      0.0000
 20      3.9607      0.5903      0.0007      1.1968      0.2141      0.2082      1.0411      0.9127      0.5301
 21      0.0000      0.7427      0.0908      0.6097      0.2542      0.0000      1.2557      2.1768      0.0661
 22      0.0000      0.5430      0.3164      1.2415      0.7102      0.0000      0.7281      1.3897      0.0000
 23      0.0000      0.8024      0.5371      1.6301      1.1033      0.0054      0.3984      0.0935      0.0000
 24      0.0004      0.7017      0.0000      0.7186      1.5406      0.0000      0.0000      1.3881      1.2733
 25      0.0308      0.7561      0.0849      0.7207      0.0000      0.4250      2.1767      2.6564      0.3965
 26      0.0655      0.5829      0.3162      0.0000      0.1393      0.6096      0.8297      1.0880      0.0000
 27      0.0000      0.5004      0.3918      0.1932      0.8678      0.1957      0.0000      0.4921      0.4356
 28      0.0000      0.5411      0.5428      0.0000      0.3103      0.1254      0.7589      0.1663      0.3617
 29      0.0000      0.5594      0.4418      0.1141      1.6126      0.1232      1.5778      0.0000      0.1926
 30      0.0000      0.5982      0.0000      0.6733      0.1511      0.6869      0.6573      0.0000      0.2730
 31      0.0000      0.7325      0.0000      0.4610      0.5858      0.0304      0.0000      0.6878      1.2702
 32      2.3242      0.7445      0.0000      1.8506      0.6163      0.0000      3.0143      1.7723      0.0000
 33      0.0000      0.5851      0.1555      1.0628      1.0946      0.1474      0.4149      1.0005      1.7487
 34      0.3674      0.5471      0.6543      0.2827      1.5462      0.0000      0.0000      1.5474      0.1035
 35      1.6561      0.6180      0.2948      0.5645      0.0000      0.4226      0.0000      0.5667      1.7529
 36     38.5776      0.5785      0.5387      1.5539      0.0000      0.0740      1.7492      0.6024      0.1540
 37      0.0000      0.6466      0.2934      0.3960      0.9439      0.0000      0.4258      2.7031      0.0000
 38      4.9076      0.6555      0.5204      2.2744      0.5273      0.3961      1.5597      2.8888      1.2778
 39      0.0000      0.8040      0.7147      1.7474      1.0583      0.4509      1.0353      1.3172      1.0790
 40      0.6200      0.6420      0.7044      0.8978      1.3540      0.4165      2.2984      0.5141      0.2932
 41      0.0000      0.5378      0.0469      0.8881      1.3394      0.7764      0.5778      0.0000      0.0024
 42      0.0000      0.4729      0.4033      0.2571      0.4894      0.0000      1.1552      0.0000      0.0000
 43      0.0000      0.5447      0.0090      0.9567      0.0000      0.2932      1.0106      0.1049      0.2546
 44      0.0000      0.4952      0.0000      0.0000      1.1025      0.1810      1.2920      0.2630      0.1175
 45      0.0031      0.6245      0.0412      0.0000      0.0000      0.1223      0.0000      0.3937      0.1640
 46      0.0000      0.4435      0.1509      0.0339      0.0000      0.0630      2.2165      0.0000      0.0000
 47      0.0000      0.4951      0.0000      0.7690      0.0000      0.0795      0.0000      0.5930      1.4863
 48      0.0000      0.3529      0.0000      0.0000      0.0000      0.0000      0.6881      0.1752      0.6167
 49      0.0000      0.7380      0.3422      1.5730      1.3401      0.0968      0.6702      0.9279      0.9149
 50      0.0000      3.0966      4.5671      3.0379      2.4736      3.8226      0.0156      3.1284      3.5612
 51      9.6145      0.4732      0.5429      0.3745      2.1964      0.0612      2.0500      0.7586      0.5187
 52     22.9346      0.5909      0.4070      1.3399      0.0000      0.0159      1.6741      1.5568      1.0545
 53      0.0000      0.6810      0.3603      0.0000      0.0000      0.0829      0.0000      0.5891      0.1975
 54      3.6502     18.9597     30.7128     18.4334     18.6769     30.9457     11.9831     10.2302     21.2455
 55      7.2046      0.6880      0.5138      0.2746      1.0155      1.4218      0.0000      0.9282      0.0560
 56      2.0525      0.4474      0.0040      0.0780      0.0000      0.1538      0.0000      0.6002      1.5984
 57      0.0000      0.6148      0.0000      0.5900      0.0545      0.2973      0.3275      0.8737      0.0622
 58      0.4062      0.4200      0.0000      0.4258      1.6757      0.4997      3.0052      0.3234      0.3811
 59      0.0000      1.0159      0.0473      0.5605      0.6542      0.0000      0.0000      0.1994      0.0000
 60      0.0000      0.5234      0.0000      0.4878      0.3405      0.0000      1.6824      0.0470      0.5531
 61      0.0000      0.8394      0.1463      0.6092      0.0000      0.1455      0.1995      0.0000      0.0000
 62      0.0000      0.4286      0.1010      0.5655      0.1606      0.0484      0.9101      0.0000      0.3493
 63      0.0000      0.8156      0.1579      0.8038      0.2294      0.1690      0.1000      0.0000      0.6587
 64     10.2820      0.4876      0.0736      0.1584      0.0000      0.0000      0.0000      1.1282      1.4963
 65      0.0461      1.1508      1.4673      0.8240      0.6137      0.9285      1.7316      2.6369      0.0000
 66      2.8949     17.9411     29.1580     13.7279     17.3339     29.1153     10.8980     11.4534     19.3627

# j      m_j: min, <> & last-chain-values for 1 ...  7 chains
  1  0.0000E+00  2.5076E-03  1.3528E-03  0.0000E+00  3.7059E-03  3.1331E-03  6.4134E-03  0.0000E+00  2.1893E-03
  2  0.0000E+00  7.7618E-04  0.0000E+00  1.6787E-03  1.7395E-03  3.0621E-04  0.0000E+00  0.0000E+00  1.6792E-03
  3  0.0000E+00  1.0194E-03  3.2185E-04  5.2424E-04  1.3165E-03  2.1336E-04  4.5814E-03  3.5471E-03  0.0000E+00
  4  0.0000E+00  9.2276E-04  6.5863E-04  0.0000E+00  4.0158E-03  4.5744E-04  2.6226E-03  1.2194E-03  4.9522E-05
  5  1.1229E-02  1.8199E-03  0.0000E+00  5.8615E-04  2.7606E-03  2.2610E-03  0.0000E+00  1.6170E-02  8.6418E-04
  6  0.0000E+00  3.0270E-03  0.0000E+00  0.0000E+00  8.1994E-03  1.9201E-05  1.8934E-03  3.5030E-03  1.3812E-03
  7  0.0000E+00  6.2227E-03  1.4976E-04  1.9503E-02  2.4150E-03  0.0000E+00  1.5706E-02  5.4607E-03  7.5172E-03
  8  0.0000E+00  4.9180E-03  1.0366E-03  1.5666E-02  5.9580E-03  7.8811E-05  1.7517E-02  0.0000E+00  8.3514E-03
  9  0.0000E+00  7.0463E-03  0.0000E+00  1.4190E-02  0.0000E+00  8.3302E-04  0.0000E+00  1.7161E-02  1.9821E-02
 10  0.0000E+00  7.9335E-03  0.0000E+00  9.6065E-03  2.4252E-02  1.4406E-03  4.8773E-02  0.0000E+00  0.0000E+00
 11  0.0000E+00  1.4197E-02  9.1068E-03  0.0000E+00  0.0000E+00  0.0000E+00  0.0000E+00  7.9520E-03  0.0000E+00
 12  0.0000E+00  2.6483E-02  2.6967E-04  2.5187E-02  6.3032E-02  1.8099E-02  0.0000E+00  6.0476E-02  3.3325E-02
 13  0.0000E+00  3.9674E-02  6.4604E-03  3.0934E-03  0.0000E+00  0.0000E+00  3.0590E-01  2.3329E-02  1.4569E-02
 14  0.0000E+00  2.1417E-01  0.0000E+00  4.8411E-01  0.0000E+00  1.4196E-01  5.2976E-01  4.6112E-02  3.1192E-01
 15  0.0000E+00  3.8363E-01  5.0366E-02  4.2006E-01  3.4304E-02  0.0000E+00  1.1777E+00  2.5107E+00  6.7277E-01
 16  0.0000E+00  6.9897E-01  0.0000E+00  2.6764E+00  0.0000E+00  2.4637E-02  3.5985E+00  3.5567E+00  2.3490E-01
 17  0.0000E+00  9.4446E-01  2.2295E-01  1.1144E+00  0.0000E+00  3.9838E-01  1.5699E+00  1.8329E+00  2.7846E+00
 18  0.0000E+00  1.7867E-03  9.7271E-04  5.6629E-03  3.5797E-03  4.5780E-04  8.2599E-03  0.0000E+00  3.1079E-03
 19  0.0000E+00  5.3992E-04  6.8702E-04  6.0899E-04  2.1632E-03  3.5337E-04  2.7122E-04  0.0000E+00  0.0000E+00
 20  1.8501E-02  8.4022E-04  6.4408E-07  2.0493E-03  3.2600E-04  2.0668E-04  2.3267E-03  1.5469E-03  6.9619E-04
 21  0.0000E+00  1.2833E-03  1.0558E-04  1.2673E-03  4.6997E-04  0.0000E+00  3.4064E-03  4.4781E-03  1.0532E-04
 22  0.0000E+00  1.5863E-03  6.2218E-04  4.3637E-03  2.2200E-03  0.0000E+00  3.3397E-03  4.8344E-03  0.0000E+00
 23  0.0000E+00  3.1658E-03  1.4261E-03  7.7373E-03  4.6573E-03  1.4903E-05  2.4676E-03  4.3942E-04  0.0000E+00
 24  6.7738E-06  4.1186E-03  0.0000E+00  5.0746E-03  9.6754E-03  0.0000E+00  0.0000E+00  9.7016E-03  6.8958E-03
 25  8.1756E-04  6.1191E-03  4.6261E-04  7.0177E-03  0.0000E+00  2.3993E-03  2.7660E-02  2.5599E-02  2.9610E-03
 26  2.9095E-03  7.8856E-03  2.8787E-03  0.0000E+00  2.0159E-03  5.7514E-03  1.7624E-02  1.7525E-02  0.0000E+00
 27  0.0000E+00  1.3549E-02  7.1404E-03  6.2931E-03  2.5144E-02  3.6960E-03  0.0000E+00  1.5868E-02  1.0884E-02
 28  0.0000E+00  4.2520E-02  2.8707E-02  0.0000E+00  2.6091E-02  6.8708E-03  9.3643E-02  1.5561E-02  2.6226E-02
 29  0.0000E+00  7.6595E-02  4.0709E-02  1.8802E-02  2.3626E-01  1.1769E-02  3.3920E-01  0.0000E+00  2.4330E-02
 30  0.0000E+00  1.7113E-01  0.0000E+00  2.3173E-01  4.6260E-02  1.3706E-01  2.9524E-01  0.0000E+00  7.2060E-02
 31  0.0000E+00  3.6862E-01  0.0000E+00  2.7908E-01  3.1542E-01  1.0677E-02  0.0000E+00  4.1215E-01  5.8977E-01
 32  5.1648E+00  5.0409E-01  0.0000E+00  1.5075E+00  4.4653E-01  0.0000E+00  3.2046E+00  1.4289E+00  0.0000E+00
 33  0.0000E+00  8.7701E-01  1.5684E-01  1.9166E+00  1.7556E+00  1.5414E-01  9.7650E-01  1.7858E+00  2.4186E+00
 34  2.4478E+00  1.1104E+00  8.9383E-01  6.9033E-01  3.3581E+00  0.0000E+00  0.0000E+00  3.7400E+00  1.9376E-01
 35  1.4156E-02  1.6095E-03  5.1669E-04  1.7689E-03  0.0000E+00  7.6761E-04  0.0000E+00  1.7574E-03  4.2125E-03
 36  1.3341E-01  6.0966E-04  3.8203E-04  1.9701E-03  0.0000E+00  5.4386E-05  2.8941E-03  7.5587E-04  1.4970E-04
 37  0.0000E+00  7.3704E-04  2.2510E-04  5.4300E-04  1.1511E-03  0.0000E+00  7.6203E-04  3.6686E-03  0.0000E+00
 38  4.9733E-02  2.0242E-03  1.0815E-03  8.4492E-03  1.7422E-03  8.5300E-04  7.5617E-03  1.0621E-02  3.6406E-03
 39  0.0000E+00  3.5746E-03  2.1385E-03  9.3467E-03  5.0346E-03  1.3983E-03  7.2268E-03  6.9734E-03  4.4264E-03
 40  1.4622E-02  4.6135E-03  3.4071E-03  7.7623E-03  1.0411E-02  2.0877E-03  2.5935E-02  4.3994E-03  1.9441E-03
 41  0.0000E+00  6.0102E-03  3.5263E-04  1.1941E-02  1.6016E-02  6.0511E-03  1.0139E-02  0.0000E+00  2.5192E-05
 42  0.0000E+00  9.7026E-03  5.5685E-03  6.3471E-03  1.0744E-02  0.0000E+00  3.7217E-02  0.0000E+00  0.0000E+00
 43  0.0000E+00  1.6316E-02  1.8190E-04  3.4481E-02  0.0000E+00  6.1266E-03  4.7532E-02  3.7422E-03  7.0364E-03
 44  0.0000E+00  2.5543E-02  0.0000E+00  0.0000E+00  6.0844E-02  6.5107E-03  1.0463E-01  1.6152E-02  5.5924E-03
 45  1.0356E-03  6.3916E-02  2.8385E-03  0.0000E+00  0.0000E+00  8.7285E-03  0.0000E+00  4.7972E-02  1.5486E-02
 46  0.0000E+00  8.3429E-02  1.9100E-02  7.6649E-03  0.0000E+00  8.2655E-03  6.5467E-01  0.0000E+00  0.0000E+00
 47  0.0000E+00  1.8871E-01  0.0000E+00  3.5265E-01  0.0000E+00  2.1135E-02  0.0000E+00  2.6916E-01  5.2274E-01
 48  0.0000E+00  2.3722E-01  0.0000E+00  0.0000E+00  0.0000E+00  0.0000E+00  7.2625E-01  1.4028E-01  3.8249E-01
 49  0.0000E+00  1.1276E+00  3.5189E-01  2.8914E+00  2.1908E+00  1.0318E-01  1.6077E+00  1.6880E+00  1.2898E+00
 50  0.0000E+00  8.7628E+00  8.6979E+00  1.0342E+01  7.4897E+00  7.5443E+00  6.9419E-02  1.0541E+01  9.2983E+00
 51  4.8944E-02  7.3397E-04  5.6674E-04  6.9880E-04  3.6454E-03  6.6192E-05  4.9927E-03  1.4011E-03  7.4236E-04
 52  5.9831E-02  4.6969E-04  2.1774E-04  1.2814E-03  0.0000E+00  8.8146E-06  2.0894E-03  1.4736E-03  7.7341E-04
 53  0.0000E+00  8.1548E-04  2.9034E-04  0.0000E+00  0.0000E+00  6.9194E-05  0.0000E+00  8.3985E-04  2.1816E-04
 54  2.9391E-02  4.6517E-02  5.0713E-02  5.4411E-02  4.9030E-02  5.2953E-02  4.6162E-02  2.9886E-02  4.8095E-02
 55  8.9321E-02  2.5989E-03  1.3062E-03  1.2482E-03  4.1047E-03  3.7461E-03  0.0000E+00  4.1751E-03  1.9506E-04
 56  5.0364E-02  3.3454E-03  2.0248E-05  7.0138E-04  0.0000E+00  8.0182E-04  0.0000E+00  5.3432E-03  1.1027E-02
 57  0.0000E+00  6.1011E-03  0.0000E+00  7.0438E-03  5.7866E-04  2.0577E-03  5.1027E-03  1.0324E-02  5.6975E-04
 58  2.2378E-02  7.0502E-03  0.0000E+00  8.5988E-03  3.0097E-02  5.8506E-03  7.9204E-02  6.4632E-03  5.9028E-03
 59  0.0000E+00  3.6698E-02  1.1495E-03  2.4359E-02  2.5288E-02  0.0000E+00  0.0000E+00  8.5785E-03  0.0000E+00
 60  0.0000E+00  3.5116E-02  0.0000E+00  3.9375E-02  2.4443E-02  0.0000E+00  1.7725E-01  3.7574E-03  3.4243E-02
 61  0.0000E+00  1.2306E-01  1.4435E-02  1.0745E-01  0.0000E+00  1.4873E-02  4.5921E-02  0.0000E+00  0.0000E+00
 62  0.0000E+00  1.1457E-01  1.8166E-02  1.8186E-01  4.5929E-02  9.0313E-03  3.8197E-01  0.0000E+00  8.6155E-02
 63  0.0000E+00  4.3377E-01  5.6503E-02  5.1428E-01  1.3054E-01  6.2675E-02  8.3519E-02  0.0000E+00  3.2324E-01
 64  4.9636E+01  7.1729E-01  7.2844E-02  2.8037E-01  0.0000E+00  0.0000E+00  0.0000E+00  1.9760E+00  2.0309E+00
 65  4.7076E-01  3.5784E+00  3.0705E+00  3.0826E+00  2.0418E+00  2.0135E+00  8.4537E+00  9.7629E+00  0.0000E+00
 66  4.1734E+01  7.8810E+01  8.6201E+01  7.2550E+01  8.1472E+01  8.9200E+01  7.5164E+01  5.9907E+01  7.8479E+01

# AV, chi2 & Mass for <> & i_chain = 1 ...  7 solutions
AV       0.3041     -0.6803     -0.5897     -0.5665     -0.5578     -0.5873     -0.5622     -0.5418     -0.5976
chi2 4.1017E-05  5.8203E-05  5.7646E-05  5.6998E-05  5.7038E-05  5.7516E-05  5.7396E-05  5.6425E-05  5.6987E-05
Mass 8.9396E-14  7.8206E-14  1.3123E-13  7.5734E-14  8.6159E-14  1.2704E-13  5.8371E-14  7.9101E-14  9.4713E-14
   0.00                                  [v0_min (km/s) before EX0s...]
 496.28                                  [vd_min (km/s) before EX0s...]


## Synthetic spectrum (Best Model) ##l_obs f_obs f_syn wei
 3478    [Nl_obs]
 3741.00    2.04659   1.04335    0.000
 3742.00    2.15905   1.04371    0.000
 3743.00    0.52213   1.04236    0.000
 3744.00    0.52741   1.03947    0.000
 3745.00    1.48949   1.03611    0.037
 3746.00    2.26041   1.03431    0.037
 3747.00    2.93425   1.03254    0.035
 3748.00    2.20966   1.03052    0.034
 3749.00    0.87013   1.02812    0.033
 3750.00    1.17759   1.02761    0.033
 3751.00    2.10683   1.03143    0.033
 3752.00    1.91517   1.03578    0.032
 3753.00    1.36428   1.04108    0.030
 3754.00    0.15492   1.04583    0.030
 3755.00   -1.23089   1.05132    0.000
 3756.00   -0.95427   1.05980    0.000
 3757.00   -0.31277   1.06546    0.000
 3758.00    0.08893   1.07063    0.030
 3759.00    0.44877   1.07370    0.030
 3760.00   -0.44581   1.07435    0.000
 3761.00   -1.50703   1.07583    0.000
 3762.00   -0.38194   1.07358    0.000
 3763.00    0.94861   1.07019    0.031
 3764.00    0.72295   1.06563    0.030
 3765.00    0.40752   1.05896    0.029
 3766.00   -0.13094   1.05400    0.000
 3767.00   -0.67405   1.04981    0.000
 3768.00   -1.13970   1.04633    0.000
 3769.00   -1.50024   1.04411    0.000
 3770.00    0.69232   1.04287    0.031
 3771.00    2.62684   1.04486    0.031
 3772.00    1.17990   1.05112    0.029
 3773.00   -0.17843   1.05868    0.000
 3774.00   -0.75877   1.06724    0.000
 3775.00   -1.19196   1.07738    0.000
 3776.00   -0.67110   1.08845    0.000
 3777.00   -0.10112   1.10126    0.000
 3778.00    0.71743   1.11325    0.028
 3779.00    1.22238   1.12347    0.028
 3780.00    0.44371   1.13274    0.028
 3781.00    0.05374   1.13955    0.028
 3782.00    0.98209   1.14451    0.028
 3783.00    1.89963   1.14701    0.029
 3784.00    2.78621   1.14642    0.029
 3785.00    2.93234   1.14329    0.029
 3786.00    1.26936   1.13692    0.029
 3787.00    0.12131   1.12838    0.028
 3788.00    0.05857   1.11798    0.028
 3789.00    0.19611   1.10587    0.027
 3790.00    0.70052   1.09250    0.027
 3791.00    0.78901   1.07785    0.028
 3792.00    0.21171   1.06312    0.028
 3793.00    0.17161   1.04933    0.028
 3794.00    0.88607   1.03795    0.028
 3795.00    1.29322   1.02854    0.028
 3796.00    1.32052   1.02058    0.027
 3797.00    1.42677   1.01496    0.028
 3798.00    1.61903   1.01267    0.029
 3799.00    1.35276   1.01583    0.029
 3800.00    0.64585   1.02197    0.028
 3801.00   -0.29747   1.02874    0.000
 3802.00   -1.44112   1.03786    0.000
 3803.00   -1.09043   1.04901    0.000
 3804.00    0.37534   1.06229    0.029
 3805.00    1.91586   1.07590    0.029
 3806.00    3.50536   1.08693    0.030
 3807.00    3.50074   1.09820    0.030
 3808.00    2.58133   1.10902    0.029
 3809.00    1.98384   1.11694    0.028
 3810.00    1.54724   1.12364    0.028
 3811.00    0.86058   1.12756    0.027
 3812.00    0.06578   1.13032    0.026
 3813.00    0.60055   1.13208    0.026
 3814.00    1.62841   1.12900    0.027
 3815.00    0.98176   1.12629    0.027
 3816.00   -0.19127   1.12412    0.000
 3817.00   -0.43509   1.12030    0.000
 3818.00   -0.43515   1.11622    0.000
 3819.00    0.37014   1.10730    0.027
 3820.00    1.34798   1.09991    0.026
 3821.00    1.42649   1.09619    0.026
 3822.00    1.35237   1.08926    0.026
 3823.00    1.75358   1.08148    0.027
 3824.00    2.21578   1.07056    0.028
 3825.00    1.42218   1.05941    0.027
 3826.00    0.51586   1.05095    0.025
 3827.00   -0.02542   1.03961    0.000
 3828.00   -0.54708   1.02751    0.000
 3829.00   -0.10232   1.01467    0.000
 3830.00    0.35240   1.00137    0.026
 3831.00    0.01362   0.99167    0.026
 3832.00   -0.26121   0.98271    0.000
 3833.00    0.88456   0.97486    0.027
 3834.00    1.88925   0.96966    0.027
 3835.00    1.13946   0.96576    0.027
 3836.00    0.41436   0.96755    0.027
 3837.00   -0.10214   0.97337    0.000
 3838.00   -0.61032   0.97988    0.000
 3839.00   -1.06613   0.98979    0.000
 3840.00   -1.27881   1.00079    0.000
 3841.00   -0.29185   1.01409    0.000
 3842.00    0.59655   1.02965    0.027
 3843.00    1.09041   1.04365    0.027
 3844.00    1.50106   1.05816    0.028
 3845.00    1.63502   1.07133    0.029
 3846.00    1.52029   1.08328    0.029
 3847.00    0.70721   1.09524    0.000
 3848.00    0.13457   1.10425    0.000
 3849.00    0.13945   1.11228    0.000
 3850.00    0.53540   1.11823    0.000
 3851.00    1.74238   1.12243    0.000
 3852.00    2.39180   1.12739    0.000
 3853.00    2.03558   1.12970    0.000
 3854.00    1.70172   1.13092    0.000
 3855.00    1.40313   1.13172    0.000
 3856.00    1.17975   1.13126    0.000
 3857.00    1.06047   1.13201    0.000
 3858.00    0.83279   1.13176    0.000
 3859.00    0.47304   1.13004    0.000
 3860.00    0.49721   1.12893    0.000
 3861.00    0.93377   1.12793    0.000
 3862.00    1.02744   1.12633    0.000
 3863.00    0.79622   1.12495    0.000
 3864.00    0.75909   1.12307    0.000
 3865.00    0.88411   1.12109    0.000
 3866.00    1.19388   1.11957    0.000
 3867.00    1.63954   1.11590    0.000
 3868.00    1.30895   1.11325    0.000
 3869.00    0.47696   1.11190    0.000
 3870.00    0.46665   1.10827    0.000
 3871.00    0.92070   1.10371    0.000
 3872.00    0.82125   1.09840    0.000
 3873.00    0.44953   1.09359    0.000
 3874.00    0.30045   1.08921    0.000
 3875.00    0.24605   1.08186    0.000
 3876.00    0.51994   1.07251    0.000
 3877.00    0.91342   1.06349    0.000
 3878.00    1.24628   1.05365    0.000
 3879.00    1.56045   1.04308    0.000
 3880.00    0.99986   1.03118    0.000
 3881.00    0.21470   1.01767    0.024
 3882.00    0.65122   1.00516    0.025
 3883.00    1.34316   0.99281    0.025
 3884.00    0.53309   0.98133    0.025
 3885.00   -0.52466   0.97180    0.000
 3886.00    0.56525   0.96313    0.026
 3887.00    1.92111   0.95767    0.026
 3888.00    1.45615   0.95377    0.025
 3889.00    0.83536   0.95195    0.024
 3890.00    0.61028   0.95604    0.024
 3891.00    0.40492   0.96284    0.024
 3892.00    1.08424   0.97133    0.024
 3893.00    1.76694   0.98154    0.025
 3894.00    1.73281   0.99282    0.024
 3895.00    1.70253   1.00647    0.024
 3896.00    1.75098   1.02127    0.024
 3897.00    1.78847   1.03561    0.024
 3898.00    1.69619   1.04905    0.023
 3899.00    1.55799   1.06191    0.022
 3900.00    1.04568   1.07416    0.022
 3901.00    0.59908   1.08562    0.021
 3902.00    0.55375   1.09556    0.020
 3903.00    0.48988   1.10339    0.020
 3904.00    0.33676   1.11093    0.019
 3905.00    0.22319   1.11716    0.019
 3906.00    0.26455   1.12135    0.020
 3907.00    0.36140   1.12531    0.020
 3908.00    0.63915   1.12809    0.021
 3909.00    0.81916   1.13006    0.021
 3910.00    0.72967   1.13112    0.022
 3911.00    0.63952   1.13015    0.022
 3912.00    0.54782   1.12926    0.023
 3913.00    0.41876   1.12791    0.023
 3914.00    0.21344   1.12546    0.023
 3915.00   -0.06187   1.12237    0.000
 3916.00   -0.46148   1.11833    0.000
 3917.00   -0.54864   1.11501    0.000
 3918.00   -0.15029   1.11037    0.000
 3919.00   -0.18147   1.10506    0.000
 3920.00   -0.79875   1.10030    0.000
 3921.00   -1.09366   1.09516    0.000
 3922.00   -1.00134   1.09196    0.000
 3923.00   -0.26408   1.08720    0.000
 3924.00    1.15622   1.08226    0.025
 3925.00    1.69221   1.07930    0.026
 3926.00    1.40209   1.07474    0.025
 3927.00    1.50903   1.07225    0.025
 3928.00    1.94298   1.07004    0.025
 3929.00    1.54269   1.06733    0.024
 3930.00    0.53765   1.06686    0.024
 3931.00    0.66673   1.06536    0.024
 3932.00    1.51755   1.06511    0.024
 3933.00    1.27724   1.06534    0.024
 3934.00    0.42969   1.06539    0.023
 3935.00    0.64592   1.06765    0.023
 3936.00    1.37711   1.06912    0.024
 3937.00    1.78724   1.07129    0.024
 3938.00    2.06314   1.07427    0.024
 3939.00    1.21952   1.07616    0.023
 3940.00   -0.02455   1.07929    0.000
 3941.00    0.03604   1.08222    0.022
 3942.00    0.49097   1.08465    0.022
 3943.00    0.99206   1.08763    0.022
 3944.00    1.50475   1.08908    0.023
 3945.00    1.15194   1.09066    0.023
 3946.00    0.62263   1.09306    0.024
 3947.00    0.86640   1.09348    0.023
 3948.00    1.23395   1.09284    0.023
 3949.00    1.36809   1.09220    0.023
 3950.00    1.47436   1.09081    0.024
 3951.00    0.90729   1.08832    0.023
 3952.00    0.28539   1.08402    0.023
 3953.00   -0.02065   1.07798    0.000
 3954.00   -0.31217   1.07153    0.000
 3955.00    0.31218   1.06414    0.023
 3956.00    0.94932   1.05322    0.023
 3957.00    1.64457   1.04137    0.024
 3958.00    2.25005   1.02948    0.024
 3959.00    1.15488   1.01497    0.024
 3960.00    0.20827   0.99985    0.000
 3961.00    0.93600   0.98241    0.000
 3962.00    1.43160   0.96469    0.000
 3963.00    0.10267   0.95072    0.000
 3964.00   -0.92389   0.93406    0.000
 3965.00   -0.15628   0.91822    0.000
 3966.00    0.44757   0.90759    0.000
 3967.00    0.28257   0.89729    0.000
 3968.00    0.31241   0.89032    0.000
 3969.00    1.08895   0.88564    0.000
 3970.00    1.58690   0.88319    0.000
 3971.00    1.19443   0.88868    0.000
 3972.00    0.99407   0.89665    0.000
 3973.00    1.31401   0.90499    0.000
 3974.00    1.55316   0.91758    0.000
 3975.00    1.60472   0.93206    0.000
 3976.00    1.79650   0.94775    0.000
 3977.00    2.26992   0.96443    0.000
 3978.00    2.34366   0.98053    0.000
 3979.00    1.71831   0.99736    0.000
 3980.00    1.20051   1.01439    0.000
 3981.00    0.84736   1.02900    0.023
 3982.00    0.77579   1.04191    0.023
 3983.00    1.08289   1.05428    0.023
 3984.00    1.20531   1.06520    0.023
 3985.00    1.10901   1.07501    0.023
 3986.00    1.10283   1.08268    0.023
 3987.00    1.19075   1.08871    0.022
 3988.00    1.09443   1.09528    0.022
 3989.00    0.82841   1.09953    0.022
 3990.00    0.51410   1.10214    0.022
 3991.00    0.16059   1.10548    0.021
 3992.00    0.17460   1.10752    0.021
 3993.00    0.45120   1.10926    0.022
 3994.00    0.63430   1.11003    0.022
 3995.00    0.75878   1.10967    0.021
 3996.00    1.13542   1.11079    0.021
 3997.00    1.65026   1.11040    0.022
 3998.00    1.76460   1.10888    0.021
 3999.00    1.68816   1.10927    0.021
 4000.00    1.28160   1.10848    0.021
 4001.00    0.73935   1.10663    0.021
 4002.00    1.00720   1.10586    0.022
 4003.00    1.55959   1.10491    0.022
 4004.00    1.37788   1.10398    0.022
 4005.00    0.97867   1.10269    0.022
 4006.00    1.05498   1.10124    0.022
 4007.00    1.24811   1.10187    0.022
 4008.00    1.55514   1.10185    0.022
 4009.00    1.88481   1.09965    0.022
 4010.00    1.76207   1.09997    0.022
 4011.00    1.56902   1.10135    0.023
 4012.00    1.22835   1.10069    0.023
 4013.00    0.87070   1.10022    0.022
 4014.00    0.43579   1.09939    0.023
 4015.00   -0.00509   1.09856    0.000
 4016.00    0.26995   1.09811    0.023
 4017.00    0.57513   1.09440    0.023
 4018.00    0.98353   1.09060    0.023
 4019.00    1.38835   1.08985    0.023
 4020.00    1.59506   1.08680    0.023
 4021.00    1.72291   1.08236    0.023
 4022.00    0.46024   1.07901    0.023
 4023.00   -0.62005   1.07510    0.000
 4024.00    0.26201   1.07292    0.023
 4025.00    0.99929   1.06962    0.023
 4026.00    0.63750   1.06500    0.023
 4027.00    0.40379   1.06583    0.023
 4028.00    0.90881   1.06754    0.023
 4029.00    1.35600   1.06703    0.023
 4030.00    1.53820   1.06777    0.022
 4031.00    1.50195   1.06949    0.022
 4032.00    0.64625   1.07203    0.021
 4033.00    0.04538   1.07415    0.021
 4034.00    0.24342   1.07607    0.021
 4035.00    0.54754   1.07909    0.021
 4036.00    1.13382   1.08268    0.021
 4037.00    1.45579   1.08524    0.021
 4038.00    1.17418   1.08616    0.021
 4039.00    1.10924   1.08814    0.021
 4040.00    1.47266   1.08958    0.021
 4041.00    1.78174   1.08924    0.021
 4042.00    1.99722   1.09058    0.021
 4043.00    1.97518   1.09099    0.022
 4044.00    1.59485   1.09030    0.021
 4045.00    1.30395   1.09036    0.021
 4046.00    1.13160   1.08934    0.021
 4047.00    1.29665   1.08937    0.021
 4048.00    1.85559   1.08949    0.021
 4049.00    2.04361   1.08775    0.021
 4050.00    1.84975   1.08739    0.021
 4051.00    1.49702   1.08704    0.021
 4052.00    1.00000   1.08502    0.021
 4053.00    0.49831   1.08382    0.021
 4054.00   -0.00713   1.08241    0.000
 4055.00   -0.30559   1.08007    0.000
 4056.00   -0.45831   1.07871    0.000
 4057.00   -0.27552   1.07683    0.000
 4058.00    0.11451   1.07405    0.021
 4059.00    0.17163   1.07203    0.021
 4060.00    0.04911   1.06941    0.021
 4061.00    0.25929   1.06655    0.021
 4062.00    0.62540   1.06467    0.021
 4063.00    0.66670   1.06122    0.021
 4064.00    0.57677   1.05779    0.021
 4065.00    0.48280   1.05718    0.021
 4066.00    0.38744   1.05485    0.021
 4067.00    0.16181   1.05129    0.021
 4068.00   -0.10165   1.05003    0.000
 4069.00    0.46029   1.04808    0.022
 4070.00    1.22048   1.04660    0.022
 4071.00    0.47394   1.04566    0.022
 4072.00   -0.56456   1.04331    0.000
 4073.00    0.10424   1.04417    0.021
 4074.00    1.03032   1.04514    0.022
 4075.00    1.13623   1.04290    0.022
 4076.00    1.15143   1.04304    0.022
 4077.00    0.87185   1.04413    0.021
 4078.00    0.57068   1.04380    0.021
 4079.00    0.85746   1.04432    0.021
 4080.00    1.16674   1.04414    0.021
 4081.00    0.57046   1.04352    0.021
 4082.00   -0.02091   1.04338    0.000
 4083.00   -0.23816   1.04117    0.000
 4084.00   -0.43807   1.03803    0.000
 4085.00   -0.35197   1.03509    0.000
 4086.00   -0.22109   1.03046    0.000
 4087.00    0.37049   1.02529    0.021
 4088.00    0.87217   1.01851    0.022
 4089.00    0.71405   1.00900    0.021
 4090.00    0.70652   1.00041    0.020
 4091.00    1.54372   0.99098    0.021
 4092.00    2.16749   0.97829    0.000
 4093.00    1.83618   0.96581    0.000
 4094.00    1.43600   0.95419    0.000
 4095.00    0.78289   0.94192    0.000
 4096.00    0.40635   0.92945    0.000
 4097.00    0.88042   0.91797    0.000
 4098.00    1.34297   0.90857    0.000
 4099.00    1.77537   0.90128    0.000
 4100.00    2.05741   0.89535    0.000
 4101.00    2.00175   0.88992    0.000
 4102.00    2.04647   0.88865    0.000
 4103.00    2.28650   0.89252    0.000
 4104.00    2.21037   0.89598    0.000
 4105.00    1.59779   0.90140    0.000
 4106.00    1.01226   0.91084    0.000
 4107.00    0.46694   0.91939    0.000
 4108.00    0.35580   0.92886    0.000
 4109.00    0.81197   0.93967    0.000
 4110.00    1.00291   0.94923    0.000
 4111.00    0.88856   0.96004    0.000
 4112.00    0.68302   0.96964    0.000
 4113.00    0.38492   0.97740    0.019
 4114.00    0.50691   0.98688    0.020
 4115.00    1.00503   0.99328    0.020
 4116.00    1.39738   0.99754    0.020
 4117.00    1.70629   1.00421    0.020
 4118.00    1.74001   1.00804    0.020
 4119.00    1.58277   1.01027    0.020
 4120.00    1.09047   1.01351    0.020
 4121.00    0.39428   1.01512    0.020
 4122.00    0.47975   1.01761    0.020
 4123.00    0.98050   1.01971    0.020
 4124.00    1.36293   1.02007    0.020
 4125.00    1.69080   1.02188    0.020
 4126.00    1.57429   1.02296    0.020
 4127.00    1.28133   1.02269    0.020
 4128.00    1.18450   1.02314    0.020
 4129.00    1.15405   1.02371    0.020
 4130.00    0.95218   1.02393    0.020
 4131.00    0.70153   1.02357    0.020
 4132.00    1.16679   1.02252    0.020
 4133.00    1.80014   1.02251    0.020
 4134.00    1.02573   1.02223    0.020
 4135.00   -0.01438   1.02084    0.000
 4136.00    0.03178   1.02025    0.020
 4137.00    0.23657   1.01899    0.020
 4138.00    0.52529   1.01712    0.020
 4139.00    0.82294   1.01622    0.020
 4140.00    1.01469   1.01429    0.020
 4141.00    1.19912   1.01273    0.020
 4142.00    0.81923   1.01243    0.020
 4143.00    0.41988   1.00948    0.020
 4144.00    0.41166   1.00774    0.020
 4145.00    0.40920   1.00958    0.020
 4146.00    0.57156   1.00882    0.020
 4147.00    0.75889   1.00787    0.021
 4148.00    1.33228   1.00957    0.020
 4149.00    1.88068   1.00955    0.020
 4150.00    2.18270   1.00947    0.020
 4151.00    2.38335   1.01139    0.020
 4152.00    1.86431   1.01231    0.020
 4153.00    1.32162   1.01283    0.020
 4154.00    0.64981   1.01427    0.019
 4155.00    0.16384   1.01565    0.019
 4156.00    0.49015   1.01658    0.019
 4157.00    0.84506   1.01747    0.022
 4158.00    1.30281   1.01849    0.050
 4159.00    1.65250   1.01927   -1.000
 4160.00    1.67610   1.01958   -1.000
 4161.00    1.55125   1.01924   -1.000
 4162.00    1.04517   1.01916   -1.000
 4163.00    0.60073   1.01922   -1.000
 4164.00    0.29246   1.01810   -1.000
 4165.00    0.07316   1.01699   -1.000
 4166.00    0.02429   1.01653   -1.000
 4167.00    0.05265   1.01520   -1.000
 4168.00    0.21006   1.01349   -1.000
 4169.00    0.44144   1.01228   -1.000
 4170.00    0.78116   1.01142   -1.000
 4171.00    0.95559   1.01033    0.082
 4172.00    0.91715   1.00852    0.025
 4173.00    0.99441   1.00736    0.018
 4174.00    1.20297   1.00712    0.018
 4175.00    1.17413   1.00613    0.018
 4176.00    0.90770   1.00513    0.019
 4177.00    0.86176   1.00518    0.018
 4178.00    1.01045   1.00452    0.018
 4179.00    1.43395   1.00394    0.018
 4180.00    2.07119   1.00431    0.018
 4181.00    2.10681   1.00362    0.018
 4182.00    1.73099   1.00331    0.019
 4183.00    1.26802   1.00350    0.019
 4184.00    0.75280   1.00238    0.018
 4185.00    0.34661   1.00248    0.018
 4186.00   -0.00256   1.00232    0.000
 4187.00    0.15391   1.00045    0.018
 4188.00    0.53972   1.00053    0.018
 4189.00    0.65437   1.00008    0.018
 4190.00    0.66319   0.99836    0.018
 4191.00    0.71159   0.99809    0.018
 4192.00    0.77315   0.99698    0.018
 4193.00    0.77295   0.99574    0.018
 4194.00    0.75553   0.99551    0.019
 4195.00    1.22736   0.99394    0.019
 4196.00    1.81144   0.99269    0.019
 4197.00    1.38241   0.99301    0.019
 4198.00    0.76720   0.99218    0.019
 4199.00    0.87756   0.99131    0.019
 4200.00    1.09051   0.99235    0.019
 4201.00    1.14582   0.99260    0.019
 4202.00    1.18506   0.99263    0.019
 4203.00    1.18358   0.99440    0.019
 4204.00    1.17945   0.99526    0.019
 4205.00    0.66768   0.99609    0.018
 4206.00    0.14146   0.99791    0.018
 4207.00    0.35080   0.99857    0.018
 4208.00    0.56838   0.99992    0.018
 4209.00    1.02767   1.00117    0.018
 4210.00    1.46122   1.00104    0.019
 4211.00    1.52008   1.00220    0.019
 4212.00    1.56466   1.00249    0.019
 4213.00    1.47418   1.00163    0.019
 4214.00    1.38713   1.00237    0.019
 4215.00    1.32364   1.00138    0.019
 4216.00    1.14642   0.99944    0.018
 4217.00    0.36474   0.99973    0.018
 4218.00   -0.22650   0.99841    0.000
 4219.00   -0.00438   0.99575    0.000
 4220.00    0.21593   0.99491    0.018
 4221.00    0.42986   0.99320    0.018
 4222.00    0.72286   0.99058    0.018
 4223.00    1.25005   0.98925    0.018
 4224.00    1.57081   0.98725    0.019
 4225.00    1.37064   0.98567    0.018
 4226.00    1.01786   0.98475    0.018
 4227.00    0.33348   0.98251    0.018
 4228.00    0.10732   0.98263    0.018
 4229.00    0.74530   0.98341    0.018
 4230.00    1.05922   0.98161    0.017
 4231.00    0.83964   0.98261    0.017
 4232.00    0.67514   0.98413    0.017
 4233.00    0.59015   0.98256    0.017
 4234.00    0.57814   0.98403    0.017
 4235.00    0.65880   0.98622    0.017
 4236.00    0.79064   0.98507    0.017
 4237.00    0.97975   0.98628    0.016
 4238.00    1.10206   0.98839    0.016
 4239.00    1.15845   0.98775    0.016
 4240.00    1.40605   0.98834    0.017
 4241.00    1.82005   0.98960    0.017
 4242.00    1.77868   0.98893    0.017
 4243.00    1.38818   0.98890    0.017
 4244.00    0.94244   0.98904    0.017
 4245.00    0.45948   0.98815    0.017
 4246.00    0.46856   0.98763    0.017
 4247.00    0.76817   0.98604    0.017
 4248.00    0.65551   0.98467    0.018
 4249.00    0.33060   0.98464    0.018
 4250.00    0.25840   0.98216    0.017
 4251.00    0.29895   0.98043    0.017
 4252.00    0.60025   0.98088    0.017
 4253.00    1.00151   0.97869    0.017
 4254.00    1.14158   0.97693    0.017
 4255.00    1.19653   0.97675    0.017
 4256.00    0.93571   0.97561    0.017
 4257.00    0.58870   0.97497    0.017
 4258.00    0.51366   0.97366    0.017
 4259.00    0.49957   0.97275    0.017
 4260.00    0.53810   0.97236    0.017
 4261.00    0.58603   0.96993    0.017
 4262.00    0.80705   0.96964    0.017
 4263.00    1.05174   0.96949    0.017
 4264.00    1.10003   0.96601    0.017
 4265.00    1.12913   0.96566    0.017
 4266.00    1.04571   0.96508    0.017
 4267.00    0.95541   0.96101    0.017
 4268.00    0.79600   0.96033    0.017
 4269.00    0.63577   0.96005    0.016
 4270.00    0.67914   0.95763    0.016
 4271.00    0.73316   0.95639    0.017
 4272.00    1.06874   0.95538    0.017
 4273.00    1.34211   0.95514    0.017
 4274.00    0.76030   0.95443    0.017
 4275.00    0.23156   0.95345    0.017
 4276.00    0.18498   0.95415    0.017
 4277.00    0.14538   0.95365    0.017
 4278.00    0.15219   0.95365    0.017
 4279.00    0.15256   0.95441    0.017
 4280.00    0.11957   0.95311    0.017
 4281.00    0.20435   0.95347    0.017
 4282.00    0.78079   0.95350   -2.000
 4283.00    1.16460   0.95169   -2.000
 4284.00    0.88346   0.95230   -2.000
 4285.00    0.76947   0.95115   -2.000
 4286.00    1.14130   0.94875   -2.000
 4287.00    1.26184   0.94930   -2.000
 4288.00    0.75911   0.94728   -2.000
 4289.00    0.25647   0.94451   -2.000
 4290.00   -0.24597   0.94430   -2.000
 4291.00   -0.31622   0.94135   -2.000
 4292.00    0.41600   0.93918   -2.000
 4293.00    0.83604   0.93877   -2.000
 4294.00    0.74981   0.93458   -2.000
 4295.00    0.59120   0.93244   -2.000
 4296.00    0.32964   0.93155   -2.000
 4297.00    0.42098   0.92719   -2.000
 4298.00    0.95399   0.92560    0.018
 4299.00    1.40673   0.92404    0.018
 4300.00    1.77092   0.91991    0.018
 4301.00    1.57889   0.91948    0.018
 4302.00    0.84568   0.91847    0.018
 4303.00    0.52654   0.91546    0.018
 4304.00    0.56268   0.91605    0.017
 4305.00    0.48327   0.91616    0.017
 4306.00    0.31655   0.91535    0.017
 4307.00    0.27973   0.91722    0.017
 4308.00    0.32918   0.91831    0.017
 4309.00    0.36883   0.91949    0.017
 4310.00    0.40277   0.92284    0.017
 4311.00    0.33001   0.92494    0.017
 4312.00    0.20317   0.92720    0.017
 4313.00    0.39849   0.93102    0.017
 4314.00    0.73517   0.93294    0.016
 4315.00    1.09270   0.93503    0.017
 4316.00    1.45807   0.93838    0.017
 4317.00    1.44480   0.93925    0.017
 4318.00    1.31048   0.94007    0.017
 4319.00    1.14673   0.94137    0.017
 4320.00    0.97512   0.94027    0.017
 4321.00    0.94979   0.93949    0.017
 4322.00    0.95648   0.93842    0.017
 4323.00    0.84929   0.93507    0.017
 4324.00    0.72230   0.93233    0.017
 4325.00    0.56460   0.92832    0.017
 4326.00    0.40285   0.92271    0.017
 4327.00    0.76744   0.91827    0.017
 4328.00    1.18122   0.91196    0.017
 4329.00    1.26072   0.90453    0.017
 4330.00    1.32110   0.89780    0.000
 4331.00    1.29963   0.88865    0.000
 4332.00    1.27625   0.88006    0.000
 4333.00    1.25305   0.87270    0.000
 4334.00    1.23056   0.86217    0.000
 4335.00    1.22515   0.85394    0.000
 4336.00    1.23828   0.84842    0.000
 4337.00    1.49265   0.83882    0.000
 4338.00    1.68569   0.83279    0.000
 4339.00    1.34297   0.83171    0.000
 4340.00    1.00771   0.82633    0.000
 4341.00    0.72065   0.82470    0.000
 4342.00    0.51688   0.82965    0.000
 4343.00    0.73333   0.83109    0.000
 4344.00    0.86878   0.83428    0.000
 4345.00    0.67360   0.84261    0.000
 4346.00    0.56742   0.84902    0.000
 4347.00    0.76232   0.85628    0.000
 4348.00    0.90860   0.86591    0.000
 4349.00    0.91618   0.87440    0.000
 4350.00    0.96435   0.88370    0.000
 4351.00    1.11146   0.89260    0.016
 4352.00    1.27560   0.90014    0.016
 4353.00    1.47555   0.90917    0.017
 4354.00    1.46900   0.91709    0.017
 4355.00    1.08492   0.92285    0.016
 4356.00    0.72519   0.92965    0.016
 4357.00    0.40434   0.93569    0.016
 4358.00    0.38348   0.93954    0.016
 4359.00    0.78320   0.94379    0.016
 4360.00    0.87871   0.94750    0.016
 4361.00    0.59888   0.94959    0.016
 4362.00    0.46191   0.95207    0.016
 4363.00    0.48030   0.95354    0.016
 4364.00    0.68345   0.95361    0.015
 4365.00    1.06383   0.95464    0.016
 4366.00    1.02460   0.95446    0.016
 4367.00    0.63043   0.95279    0.016
 4368.00    0.39071   0.95227    0.016
 4369.00    0.26602   0.95105    0.016
 4370.00    0.22728   0.94866    0.016
 4371.00    0.24478   0.94695    0.015
 4372.00    0.26387   0.94472    0.015
 4373.00    0.28387   0.94185    0.016
 4374.00    0.66670   0.93944    0.016
 4375.00    1.23051   0.93649    0.016
 4376.00    1.30694   0.93325    0.016
 4377.00    1.17305   0.93088    0.016
 4378.00    0.86739   0.92778    0.016
 4379.00    0.49817   0.92429    0.015
 4380.00    0.33830   0.92220    0.015
 4381.00    0.24408   0.91927    0.016
 4382.00    0.32577   0.91627    0.015
 4383.00    0.45348   0.91546    0.015
 4384.00    0.62787   0.91297    0.015
 4385.00    0.81223   0.91097    0.015
 4386.00    0.62743   0.91276    0.015
 4387.00    0.38020   0.91171    0.015
 4388.00    0.34661   0.91045    0.015
 4389.00    0.34032   0.91373    0.015
 4390.00    0.44879   0.91473    0.015
 4391.00    0.56751   0.91493    0.015
 4392.00    0.46162   0.91810    0.015
 4393.00    0.34378   0.92013    0.015
 4394.00    0.43974   0.92147    0.015
 4395.00    0.53693   0.92326    0.015
 4396.00    0.39344   0.92519    0.015
 4397.00    0.25779   0.92712    0.015
 4398.00    0.29439   0.92749    0.015
 4399.00    0.34901   0.92850    0.015
 4400.00    0.62618   0.93001    0.015
 4401.00    0.85982   0.92924    0.015
 4402.00    0.72719   0.92938    0.015
 4403.00    0.58652   0.93081    0.015
 4404.00    0.39552   0.92988    0.015
 4405.00    0.19449   0.92867    0.015
 4406.00   -0.05595   0.93000    0.000
 4407.00   -0.16023   0.93058    0.000
 4408.00    0.31895   0.92869    0.015
 4409.00    0.71107   0.92941    0.015
 4410.00    0.81443   0.93155    0.015
 4411.00    0.86315   0.92974    0.016
 4412.00    0.75880   0.92986    0.016
 4413.00    0.71077   0.93291    0.015
 4414.00    0.79773   0.93148    0.015
 4415.00    0.79040   0.93102    0.015
 4416.00    0.58794   0.93399    0.015
 4417.00    0.43384   0.93339    0.016
 4418.00    0.36683   0.93306    0.015
 4419.00    0.38633   0.93516    0.015
 4420.00    0.54201   0.93493    0.015
 4421.00    0.58429   0.93459    0.015
 4422.00    0.46987   0.93547    0.016
 4423.00    0.49457   0.93539    0.016
 4424.00    0.68847   0.93488    0.015
 4425.00    0.96014   0.93492    0.015
 4426.00    1.31521   0.93500    0.015
 4427.00    1.19742   0.93393    0.015
 4428.00    0.63240   0.93335    0.015
 4429.00    0.32649   0.93378    0.015
 4430.00    0.23667   0.93249    0.016
 4431.00    0.30990   0.93152    0.016
 4432.00    0.50285   0.93212    0.016
 4433.00    0.66766   0.93141    0.016
 4434.00    0.81432   0.93051    0.016
 4435.00    0.72725   0.93081    0.016
 4436.00    0.50835   0.93104    0.016
 4437.00    0.53517   0.93067    0.016
 4438.00    0.68260   0.93060    0.016
 4439.00    0.77462   0.93170    0.016
 4440.00    0.84311   0.93177    0.016
 4441.00    0.65191   0.93095    0.016
 4442.00    0.36634   0.93235    0.016
 4443.00    0.36433   0.93263    0.016
 4444.00    0.44953   0.93104    0.016
 4445.00    0.53773   0.93242    0.016
 4446.00    0.62671   0.93256    0.016
 4447.00    0.80204   0.92997    0.016
 4448.00    0.99537   0.93070    0.016
 4449.00    1.13678   0.93033    0.016
 4450.00    1.26967   0.92714    0.016
 4451.00    0.92251   0.92722    0.016
 4452.00    0.51616   0.92598    0.016
 4453.00    0.31574   0.92245    0.016
 4454.00    0.13284   0.92227    0.016
 4455.00    0.42563   0.92040    0.016
 4456.00    0.74190   0.91659    0.016
 4457.00    0.69078   0.91661    0.016
 4458.00    0.63426   0.91492    0.016
 4459.00    0.60509   0.91077    0.016
 4460.00    0.58147   0.91099    0.016
 4461.00    0.67010   0.91020    0.000
 4462.00    0.75786   0.90588    0.000
 4463.00    0.83550   0.90618    0.000
 4464.00    0.91350   0.90691    0.000
 4465.00    0.99443   0.90286    0.000
 4466.00    1.08183   0.90295    0.000
 4467.00    1.20865   0.90538    0.000
 4468.00    1.21212   0.90219    0.000
 4469.00    0.62390   0.90219    0.000
 4470.00    0.17674   0.90623    0.000
 4471.00    0.28045   0.90428    0.000
 4472.00    0.44308   0.90425    0.000
 4473.00    0.79728   0.90947    0.000
 4474.00    0.99818   0.90930    0.000
 4475.00    0.77730   0.90925    0.000
 4476.00    0.71616   0.91429    0.000
 4477.00    1.03146   0.91543    0.000
 4478.00    1.17808   0.91552    0.000
 4479.00    0.98113   0.91964    0.000
 4480.00    0.92648   0.92135    0.000
 4481.00    1.12411   0.92138    0.000
 4482.00    1.04925   0.92425    0.016
 4483.00    0.55176   0.92619    0.015
 4484.00    0.51676   0.92630    0.015
 4485.00    1.11168   0.92788    0.015
 4486.00    1.52525   0.92950    0.015
 4487.00    1.72136   0.92978    0.015
 4488.00    1.52609   0.93050    0.015
 4489.00    0.91705   0.93169    0.015
 4490.00    0.73258   0.93226    0.015
 4491.00    0.94404   0.93280    0.015
 4492.00    0.86078   0.93378    0.015
 4493.00    0.53523   0.93472    0.016
 4494.00    0.40401   0.93552    0.016
 4495.00    0.41340   0.93637    0.015
 4496.00    0.67866   0.93756    0.015
 4497.00    1.10646   0.93899    0.016
 4498.00    1.10450   0.93982    0.015
 4499.00    0.86383   0.94089    0.015
 4500.00    0.89442   0.94268    0.015
 4501.00    1.05604   0.94337    0.015
 4502.00    0.85539   0.94383    0.015
 4503.00    0.50359   0.94543    0.015
 4504.00    0.53234   0.94591    0.015
 4505.00    0.69690   0.94544    0.015
 4506.00    0.81500   0.94611    0.015
 4507.00    0.91909   0.94624    0.015
 4508.00    0.95468   0.94484    0.015
 4509.00    0.97312   0.94432    0.015
 4510.00    0.96848   0.94413    0.015
 4511.00    0.95915   0.94198    0.015
 4512.00    0.94910   0.94042    0.015
 4513.00    0.93894   0.93990    0.015
 4514.00    0.63720   0.93724    0.015
 4515.00    0.30081   0.93508    0.015
 4516.00    0.19741   0.93418    0.015
 4517.00    0.11286   0.93113    0.015
 4518.00    0.34352   0.92882    0.015
 4519.00    0.58850   0.92739    0.015
 4520.00    0.44122   0.92401    0.015
 4521.00    0.29598   0.92192    0.015
 4522.00    0.50082   0.92001    0.015
 4523.00    0.69696   0.91643    0.015
 4524.00    0.72959   0.91480    0.015
 4525.00    0.74744   0.91279    0.015
 4526.00    0.59968   0.90939    0.015
 4527.00    0.47892   0.90840    0.015
 4528.00    0.56938   0.90689    0.015
 4529.00    0.67185   0.90409    0.015
 4530.00    0.84521   0.90380    0.015
 4531.00    0.91791   0.90331    0.015
 4532.00    0.51938   0.90132    0.015
 4533.00    0.30011   0.90158    0.015
 4534.00    0.76598   0.90222    0.015
 4535.00    1.08985   0.90096    0.015
 4536.00    0.96095   0.90144    0.015
 4537.00    0.90016   0.90284    0.015
 4538.00    1.02342   0.90210    0.015
 4539.00    1.10196   0.90254    0.015
 4540.00    1.07688   0.90400    0.015
 4541.00    1.08250   0.90359    0.015
 4542.00    1.14969   0.90407    0.015
 4543.00    1.13336   0.90494    0.015
 4544.00    0.97123   0.90481    0.015
 4545.00    0.90315   0.90570    0.015
 4546.00    0.97877   0.90561    0.015
 4547.00    0.92665   0.90577    0.015
 4548.00    0.70306   0.90755    0.014
 4549.00    0.74552   0.90665    0.014
 4550.00    1.10248   0.90701    0.000
 4551.00    1.27528   0.90983    0.000
 4552.00    1.25611   0.90864    0.000
 4553.00    1.16522   0.90908    0.000
 4554.00    1.00838   0.91250    0.000
 4555.00    0.91129   0.91156    0.000
 4556.00    0.86263   0.91193    0.000
 4557.00    0.96653   0.91525    0.000
 4558.00    1.17924   0.91483    0.000
 4559.00    1.20384   0.91488    0.000
 4560.00    1.11073   0.91741    0.000
 4561.00    0.87118   0.91759    0.000
 4562.00    0.55153   0.91708    0.000
 4563.00    0.43141   0.91847    0.000
 4564.00    0.40616   0.91931    0.000
 4565.00    0.51582   0.91806    0.000
 4566.00    0.68081   0.91822    0.000
 4567.00    0.93830   0.91985    0.000
 4568.00    1.22821   0.91798    0.000
 4569.00    1.30898   0.91690    0.000
 4570.00    1.32795   0.91916    0.000
 4571.00    1.14749   0.91697    0.000
 4572.00    0.91818   0.91483    0.000
 4573.00    0.67887   0.91733    0.000
 4574.00    0.43758   0.91524    0.000
 4575.00    0.88810   0.91243    0.000
 4576.00    1.44570   0.91459    0.000
 4577.00    1.18916   0.91279    0.000
 4578.00    0.83945   0.90990    0.000
 4579.00    0.80103   0.91144    0.000
 4580.00    0.78651   0.90993    0.000
 4581.00    0.80015   0.90734    0.000
 4582.00    0.81497   0.90831    0.000
 4583.00    0.76866   0.90712    0.000
 4584.00    0.73365   0.90503    0.000
 4585.00    1.20623   0.90541    0.000
 4586.00    1.62544   0.90441    0.000
 4587.00    1.11162   0.90296    0.000
 4588.00    0.63678   0.90288    0.000
 4589.00    0.57903   0.90195    0.000
 4590.00    0.50890   0.90115    0.000
 4591.00    0.34520   0.90070    0.000
 4592.00    0.27160   0.89963    0.000
 4593.00    0.71589   0.89959    0.000
 4594.00    1.04029   0.89925    0.000
 4595.00    0.81690   0.89806    0.000
 4596.00    0.65040   0.89869    0.000
 4597.00    0.69671   0.89875    0.000
 4598.00    0.73748   0.89766    0.000
 4599.00    0.76088   0.89904    0.000
 4600.00    0.80667   0.89969    0.000
 4601.00    0.91186   0.89868    0.000
 4602.00    1.03415   0.90062    0.000
 4603.00    1.19541   0.90202    0.000
 4604.00    1.37340   0.90113    0.000
 4605.00    1.58438   0.90332    0.000
 4606.00    1.60029   0.90531    0.000
 4607.00    1.28076   0.90419    0.000
 4608.00    1.03162   0.90641    0.000
 4609.00    0.88844   0.90898    0.000
 4610.00    0.83720   0.90724    0.000
 4611.00    0.90759   0.90898    0.000
 4612.00    0.99529   0.91197    0.000
 4613.00    1.10316   0.90952    0.000
 4614.00    1.19728   0.91058    0.000
 4615.00    1.27728   0.91382    0.000
 4616.00    1.08151   0.91086    0.000
 4617.00    0.63575   0.91103    0.000
 4618.00    0.45302   0.91412    0.000
 4619.00    0.48042   0.91102    0.000
 4620.00    0.58052   0.91017    0.000
 4621.00    0.73172   0.91277    0.000
 4622.00    0.87840   0.91010    0.000
 4623.00    1.02229   0.90829    0.000
 4624.00    1.06278   0.90971    0.000
 4625.00    1.04759   0.90766    0.000
 4626.00    0.93573   0.90522    0.000
 4627.00    0.77864   0.90506    0.000
 4628.00    0.83792   0.90343    0.000
 4629.00    0.98443   0.90086    0.000
 4630.00    0.84396   0.89914    0.000
 4631.00    0.60477   0.89729    0.000
 4632.00    0.72932   0.89495    0.000
 4633.00    0.95923   0.89245    0.000
 4634.00    0.87130   0.88983    0.000
 4635.00    0.70725   0.88744    0.000
 4636.00    0.73556   0.88511    0.000
 4637.00    0.80102   0.88194    0.000
 4638.00    0.80660   0.87923    0.000
 4639.00    0.80320   0.87747    0.000
 4640.00    0.94530   0.87437    0.000
 4641.00    1.10340   0.87155    0.000
 4642.00    1.04185   0.87065    0.000
 4643.00    0.96433   0.86837    0.000
 4644.00    0.74746   0.86576    0.000
 4645.00    0.52533   0.86557    0.000
 4646.00    0.76598   0.86470    0.000
 4647.00    0.99924   0.86282    0.000
 4648.00    0.87145   0.86295    0.000
 4649.00    0.76094   0.86386    0.000
 4650.00    0.93287   0.86351    0.000
 4651.00    1.07296   0.86347    0.000
 4652.00    0.88702   0.86536    0.000
 4653.00    0.73382   0.86665    0.000
 4654.00    0.81989   0.86625    0.000
 4655.00    0.88839   0.86785    0.000
 4656.00    0.85864   0.86992    0.000
 4657.00    0.85496   0.86943    0.000
 4658.00    0.96758   0.87013    0.000
 4659.00    1.00803   0.87210    0.000
 4660.00    0.78412   0.87148    0.000
 4661.00    0.63017   0.87088    0.000
 4662.00    0.69084   0.87206    0.000
 4663.00    0.77475   0.87133    0.000
 4664.00    0.91923   0.86997    0.000
 4665.00    1.00095   0.87066    0.000
 4666.00    0.94201   0.87000    0.000
 4667.00    0.87379   0.86819    0.000
 4668.00    0.78753   0.86854    0.000
 4669.00    0.77458   0.86822    0.000
 4670.00    0.88577   0.86677    0.000
 4671.00    0.87916   0.86722    0.000
 4672.00    0.69774   0.86689    0.000
 4673.00    0.68609   0.86553    0.000
 4674.00    0.89585   0.86613    0.000
 4675.00    1.02312   0.86581    0.000
 4676.00    1.05562   0.86450    0.000
 4677.00    0.92648   0.86540    0.000
 4678.00    0.63355   0.86510    0.000
 4679.00    0.79640   0.86327    0.000
 4680.00    1.36660   0.86435    0.000
 4681.00    1.51897   0.86452    0.000
 4682.00    1.34228   0.86214    0.000
 4683.00    1.07195   0.86318    0.000
 4684.00    0.73675   0.86420    0.000
 4685.00    0.74804   0.86149    0.000
 4686.00    0.96976   0.86194    0.000
 4687.00    0.99684   0.86367    0.000
 4688.00    0.92071   0.86146    0.000
 4689.00    0.91135   0.86128    0.000
 4690.00    0.93272   0.86293    0.000
 4691.00    0.72488   0.86130    0.000
 4692.00    0.42623   0.86047    0.000
 4693.00    0.64615   0.86147    0.000
 4694.00    1.04116   0.86058    0.000
 4695.00    0.95397   0.85932    0.000
 4696.00    0.72992   0.85927    0.000
 4697.00    0.79046   0.85886    0.000
 4698.00    0.91763   0.85750    0.000
 4699.00    0.84533   0.85647    0.000
 4700.00    0.73551   0.85610    0.000
 4701.00    0.95849   0.85543    0.000
 4702.00    1.22988   0.85456    0.000
 4703.00    1.09131   0.85369    0.000
 4704.00    0.90940   0.85338    0.000
 4705.00    1.13938   0.85379    0.000
 4706.00    1.39764   0.85293    0.000
 4707.00    1.12575   0.85255    0.000
 4708.00    0.83582   0.85447    0.000
 4709.00    0.94532   0.85423    0.000
 4710.00    1.04550   0.85356    0.000
 4711.00    0.82252   0.85678    0.000
 4712.00    0.60982   0.85771    0.000
 4713.00    0.55473   0.85672    0.000
 4714.00    0.51910   0.85975    0.000
 4715.00    0.67438   0.86189    0.000
 4716.00    0.83867   0.86154    0.000
 4717.00    1.06670   0.86383    0.000
 4718.00    1.20673   0.86580    0.000
 4719.00    0.86799   0.86586    0.000
 4720.00    0.62799   0.86718    0.000
 4721.00    0.81838   0.86833    0.000
 4722.00    0.94711   0.86831    0.000
 4723.00    0.85465   0.86884    0.000
 4724.00    0.84892   0.86891    0.000
 4725.00    1.10431   0.86866    0.000
 4726.00    1.20136   0.86912    0.000
 4727.00    0.89272   0.86813    0.000
 4728.00    0.66729   0.86707    0.000
 4729.00    0.62529   0.86802    0.000
 4730.00    0.56139   0.86717    0.000
 4731.00    0.45561   0.86568    0.000
 4732.00    0.39436   0.86720    0.000
 4733.00    0.40737   0.86691    0.000
 4734.00    0.48795   0.86521    0.000
 4735.00    0.66731   0.86713    0.000
 4736.00    0.72445   0.86751    0.000
 4737.00    0.62443   0.86593    0.000
 4738.00    0.62990   0.86774    0.000
 4739.00    0.75486   0.86872    0.000
 4740.00    0.78983   0.86783    0.000
 4741.00    0.73490   0.86887    0.000
 4742.00    0.75060   0.86943    0.000
 4743.00    0.82854   0.86937    0.000
 4744.00    0.97530   0.87014    0.000
 4745.00    1.17550   0.86970    0.000
 4746.00    1.02372   0.86954    0.000
 4747.00    0.63167   0.87026    0.000
 4748.00    0.56652   0.86925    0.000
 4749.00    0.69696   0.86826    0.000
 4750.00    0.67097   0.86862    0.000
 4751.00    0.56331   0.86758    0.000
 4752.00    0.50090   0.86573    0.000
 4753.00    0.45897   0.86538    0.000
 4754.00    0.54806   0.86458    0.000
 4755.00    0.68816   0.86250    0.000
 4756.00    0.81057   0.86130    0.000
 4757.00    0.92713   0.86092    0.000
 4758.00    1.11265   0.85918    0.000
 4759.00    1.31735   0.85726    0.000
 4760.00    1.12745   0.85722    0.000
 4761.00    0.84729   0.85642    0.013
 4762.00    0.85002   0.85418    0.013
 4763.00    0.90457   0.85399    0.013
 4764.00    0.77674   0.85444    0.013
 4765.00    0.62322   0.85290    0.013
 4766.00    0.66323   0.85239    0.013
 4767.00    0.72286   0.85352    0.013
 4768.00    0.77465   0.85324    0.013
 4769.00    0.82592   0.85281    0.013
 4770.00    0.89932   0.85379    0.013
 4771.00    0.97323   0.85438    0.013
 4772.00    0.96522   0.85416    0.013
 4773.00    0.95400   0.85413    0.013
 4774.00    0.84976   0.85526    0.013
 4775.00    0.75565   0.85597    0.013
 4776.00    0.80800   0.85479    0.013
 4777.00    0.84891   0.85503    0.013
 4778.00    0.78228   0.85655    0.013
 4779.00    0.72977   0.85533    0.013
 4780.00    0.77401   0.85400    0.013
 4781.00    0.84614   0.85566    0.012
 4782.00    1.06607   0.85558    0.012
 4783.00    1.20917   0.85294    0.012
 4784.00    1.02503   0.85401    0.012
 4785.00    0.89206   0.85561    0.012
 4786.00    0.93893   0.85281    0.012
 4787.00    0.99384   0.85289    0.012
 4788.00    1.07249   0.85546    0.012
 4789.00    1.10148   0.85355    0.012
 4790.00    1.00537   0.85292    0.012
 4791.00    0.92945   0.85548    0.012
 4792.00    0.89729   0.85472    0.012
 4793.00    0.88498   0.85371    0.012
 4794.00    0.91002   0.85571    0.012
 4795.00    0.88498   0.85590    0.012
 4796.00    0.77765   0.85455    0.012
 4797.00    0.72387   0.85540    0.012
 4798.00    0.74725   0.85593    0.012
 4799.00    0.78360   0.85456    0.012
 4800.00    0.83637   0.85457    0.012
 4801.00    0.81735   0.85518    0.012
 4802.00    0.71816   0.85407    0.012
 4803.00    0.67513   0.85375    0.012
 4804.00    0.68744   0.85397    0.012
 4805.00    0.61802   0.85279    0.012
 4806.00    0.47761   0.85248    0.012
 4807.00    0.56480   0.85258    0.012
 4808.00    0.82615   0.85163    0.012
 4809.00    0.84382   0.85137    0.012
 4810.00    0.69756   0.85142    0.012
 4811.00    0.80681   0.85102    0.012
 4812.00    1.06663   0.85069    0.012
 4813.00    1.10820   0.85032    0.012
 4814.00    1.03763   0.85019    0.012
 4815.00    0.94481   0.85004    0.012
 4816.00    0.84209   0.84943    0.012
 4817.00    0.98227   0.84911    0.012
 4818.00    1.21538   0.84908    0.012
 4819.00    1.04005   0.84840    0.012
 4820.00    0.73191   0.84727    0.012
 4821.00    0.73647   0.84721    0.012
 4822.00    0.82615   0.84686    0.012
 4823.00    0.78513   0.84491    0.012
 4824.00    0.71492   0.84441    0.012
 4825.00    0.71546   0.84434    0.012
 4826.00    0.72861   0.84250    0.012
 4827.00    0.67146   0.84203    0.012
 4828.00    0.60472   0.84161    0.012
 4829.00    0.70113   0.83933    0.012
 4830.00    0.81339   0.83897    0.012
 4831.00    0.78484   0.83903    0.012
 4832.00    0.74776   0.83654    0.012
 4833.00    0.84355   0.83531    0.012
 4834.00    0.94137   0.83569    0.012
 4835.00    0.77013   0.83394    0.012
 4836.00    0.60340   0.83148    0.012
 4837.00    0.55467   0.83104    0.012
 4838.00    0.52334   0.82985    0.012
 4839.00    0.72958   0.82658    0.012
 4840.00    0.90262   0.82449    0.012
 4841.00    0.77561   0.82311    0.012
 4842.00    0.67695   0.81944    0.011
 4843.00    0.76636   0.81563    0.011
 4844.00    0.84085   0.81292    0.011
 4845.00    0.83831   0.80803    0.012
 4846.00    0.85180   0.80283    0.012
 4847.00    0.93198   0.79899    0.012
 4848.00    0.98118   0.79191    0.000
 4849.00    0.92376   0.78460    0.000
 4850.00    0.88405   0.78046    0.000
 4851.00    0.89572   0.77276    0.000
 4852.00    0.89464   0.76346    0.000
 4853.00    0.86200   0.75889    0.000
 4854.00    0.79921   0.75201    0.000
 4855.00    0.67210   0.74171    0.000
 4856.00    0.63091   0.73736    0.000
 4857.00    0.74891   0.73353    0.000
 4858.00    0.90725   0.72448    0.000
 4859.00    1.13088   0.72131    0.000
 4860.00    1.19925   0.72128    0.000
 4861.00    1.04715   0.71464    0.000
 4862.00    0.89646   0.71324    0.000
 4863.00    0.74752   0.71921    0.000
 4864.00    0.61868   0.71831    0.000
 4865.00    0.51196   0.71764    0.000
 4866.00    0.49521   0.72580    0.000
 4867.00    0.56583   0.73047    0.000
 4868.00    0.55542   0.73062    0.000
 4869.00    0.47560   0.73860    0.000
 4870.00    0.43611   0.74744    0.000
 4871.00    0.42705   0.74868    0.000
 4872.00    0.54928   0.75387    0.000
 4873.00    0.75852   0.76429    0.000
 4874.00    0.94971   0.76794    0.000
 4875.00    1.13042   0.76999    0.012
 4876.00    1.11188   0.77866    0.012
 4877.00    0.99256   0.78393    0.012
 4878.00    0.90499   0.78358    0.012
 4879.00    0.83131   0.78929    0.012
 4880.00    0.83594   0.79546    0.012
 4881.00    0.87000   0.79427    0.012
 4882.00    0.77504   0.79634    0.012
 4883.00    0.63893   0.80209    0.012
 4884.00    0.65847   0.80214    0.012
 4885.00    0.71951   0.80198    0.013
 4886.00    0.67609   0.80615    0.012
 4887.00    0.60988   0.80750    0.012
 4888.00    0.71086   0.80698    0.012
 4889.00    0.84082   0.81052    0.013
 4890.00    0.95211   0.81245    0.012
 4891.00    1.06095   0.81115    0.012
 4892.00    1.00865   0.81443    0.012
 4893.00    0.94139   0.81745    0.012
 4894.00    0.94739   0.81658    0.013
 4895.00    0.95753   0.81904    0.013
 4896.00    0.76970   0.82142    0.013
 4897.00    0.58051   0.82033    0.013
 4898.00    0.73647   0.82203    0.013
 4899.00    0.88777   0.82408    0.012
 4900.00    0.92836   0.82230    0.012
 4901.00    0.97165   0.82257    0.012
 4902.00    1.04989   0.82479    0.012
 4903.00    1.11345   0.82299    0.013
 4904.00    1.04944   0.82086    0.012
 4905.00    1.00926   0.82215    0.012
 4906.00    1.12242   0.82138    0.012
 4907.00    1.20841   0.81801    0.012
 4908.00    1.15774   0.81699    0.012
 4909.00    1.09892   0.81650    0.012
 4910.00    1.00694   0.81317    0.012
 4911.00    0.91452   0.81049    0.013
 4912.00    0.82059   0.80992    0.012
 4913.00    0.75074   0.80810    0.012
 4914.00    0.74942   0.80466    0.012
 4915.00    0.78065   0.80303    0.013
 4916.00    0.89108   0.80294    0.013
 4917.00    0.94303   0.80040    0.013
 4918.00    0.87222   0.79728    0.013
 4919.00    0.91749   0.79804    0.013
 4920.00    1.17457   0.79782    0.012
 4921.00    1.22635   0.79441    0.012
 4922.00    0.95073   0.79562    0.012
 4923.00    0.86990   0.79842    0.012
 4924.00    1.06168   0.79659    0.012
 4925.00    1.09086   0.79642    0.012
 4926.00    0.91977   0.80074    0.012
 4927.00    0.91841   0.80096    0.012
 4928.00    1.10132   0.80023    0.012
 4929.00    1.02220   0.80403    0.012
 4930.00    0.69217   0.80531    0.012
 4931.00    0.55469   0.80474    0.012
 4932.00    0.57978   0.80750    0.012
 4933.00    0.74907   0.80877    0.012
 4934.00    1.02559   0.80831    0.012
 4935.00    1.18650   0.81032    0.012
 4936.00    1.27190   0.81198    0.012
 4937.00    1.14993   0.81209    0.012
 4938.00    0.90941   0.81284    0.012
 4939.00    0.83895   0.81343    0.012
 4940.00    0.85314   0.81413    0.000
 4941.00    0.79031   0.81590    0.000
 4942.00    0.69431   0.81592    0.000
 4943.00    0.73605   0.81562    0.000
 4944.00    0.82864   0.81711    0.000
 4945.00    0.88995   0.81747    0.000
 4946.00    0.94148   0.81651    0.000
 4947.00    1.03747   0.81685    0.000
 4948.00    1.14506   0.81727    0.000
 4949.00    1.28403   0.81655    0.000
 4950.00    1.42967   0.81593    0.000
 4951.00    1.23005   0.81563    0.000
 4952.00    0.97224   0.81471    0.000
 4953.00    0.85326   0.81380    0.000
 4954.00    0.75194   0.81237    0.000
 4955.00    0.95021   0.81107    0.000
 4956.00    1.17505   0.81105    0.000
 4957.00    0.97603   0.80869    0.000
 4958.00    0.75464   0.80619    0.000
 4959.00    0.77872   0.80725    0.000
 4960.00    0.80897   0.80700    0.000
 4961.00    0.95416   0.80447    0.000
 4962.00    1.09104   0.80368    0.000
 4963.00    1.04725   0.80435    0.000
 4964.00    0.99910   0.80329    0.000
 4965.00    0.89740   0.80120    0.000
 4966.00    0.78660   0.80151    0.000
 4967.00    0.59953   0.80168    0.000
 4968.00    0.46873   0.79962    0.000
 4969.00    0.68931   0.79920    0.000
 4970.00    0.88804   0.79966    0.000
 4971.00    0.97963   0.79844    0.000
 4972.00    1.02097   0.79674    0.000
 4973.00    0.86229   0.79627    0.000
 4974.00    0.74141   0.79633    0.000
 4975.00    0.74555   0.79401    0.000
 4976.00    0.71702   0.79210    0.000
 4977.00    0.59712   0.79264    0.000
 4978.00    0.52102   0.79079    0.000
 4979.00    0.54963   0.78805    0.000
 4980.00    0.62099   0.78809    0.000
 4981.00    0.78062   0.78751    0.000
 4982.00    0.83202   0.78498    0.000
 4983.00    0.68895   0.78368    0.000
 4984.00    0.67314   0.78403    0.000
 4985.00    0.85728   0.78302    0.000
 4986.00    0.94004   0.78147    0.000
 4987.00    0.88297   0.78169    0.000
 4988.00    0.88088   0.78128    0.000
 4989.00    0.94552   0.78008    0.000
 4990.00    0.92723   0.77941    0.000
 4991.00    0.82016   0.77840    0.000
 4992.00    0.76137   0.77805    0.000
 4993.00    0.74816   0.77724    0.000
 4994.00    0.79168   0.77545    0.000
 4995.00    0.88242   0.77494    0.000
 4996.00    0.77966   0.77383    0.000
 4997.00    0.53510   0.77174    0.000
 4998.00    0.59429   0.77083    0.000
 4999.00    0.84897   0.76928    0.000
 5000.00    0.85791   0.76682    0.000
 5001.00    0.72851   0.76506    0.000
 5002.00    0.68633   0.76327    0.000
 5003.00    0.68688   0.76159    0.000
 5004.00    0.82480   0.75984    0.000
 5005.00    1.02089   0.75767    0.000
 5006.00    0.89281   0.75565    0.000
 5007.00    0.64717   0.75457    0.000
 5008.00    0.57782   0.75374    0.000
 5009.00    0.56254   0.75187    0.000
 5010.00    0.56245   0.75115    0.000
 5011.00    0.56623   0.75080    0.000
 5012.00    0.65317   0.74856    0.000
 5013.00    0.75739   0.74882    0.000
 5014.00    0.72684   0.74977    0.000
 5015.00    0.67424   0.74763    0.000
 5016.00    0.74337   0.74831    0.000
 5017.00    0.82745   0.75053    0.000
 5018.00    0.81465   0.74996    0.000
 5019.00    0.79365   0.75020    0.000
 5020.00    0.73700   0.75306    0.000
 5021.00    0.67859   0.75378    0.000
 5022.00    0.69292   0.75293    0.000
 5023.00    0.70849   0.75571    0.000
 5024.00    0.73095   0.75804    0.000
 5025.00    0.75017   0.75690    0.000
 5026.00    0.70454   0.75864    0.000
 5027.00    0.66699   0.76093    0.000
 5028.00    0.72379   0.76015    0.000
 5029.00    0.78183   0.76102    0.011
 5030.00    0.84980   0.76290    0.011
 5031.00    0.92291   0.76189    0.012
 5032.00    1.02717   0.76130    0.011
 5033.00    1.07443   0.76323    0.011
 5034.00    0.84910   0.76305    0.011
 5035.00    0.67343   0.76119    0.011
 5036.00    0.69123   0.76183    0.011
 5037.00    0.71938   0.76215    0.011
 5038.00    0.78107   0.76011    0.011
 5039.00    0.81432   0.76064    0.011
 5040.00    0.76948   0.76163    0.011
 5041.00    0.70557   0.75889    0.011
 5042.00    0.59680   0.75893    0.011
 5043.00    0.53279   0.76230    0.011
 5044.00    0.55973   0.76147    0.011
 5045.00    0.55239   0.76000    0.011
 5046.00    0.48437   0.76254    0.011
 5047.00    0.51531   0.76386    0.011
 5048.00    0.69947   0.76213    0.011
 5049.00    0.74604   0.76324    0.011
 5050.00    0.60557   0.76628    0.011
 5051.00    0.52922   0.76562    0.011
 5052.00    0.52961   0.76550    0.011
 5053.00    0.59363   0.76866    0.011
 5054.00    0.72482   0.76965    0.011
 5055.00    0.71796   0.76835    0.011
 5056.00    0.58260   0.76965    0.011
 5057.00    0.56506   0.77122    0.011
 5058.00    0.64422   0.77023    0.011
 5059.00    0.71202   0.76968    0.011
 5060.00    0.77160   0.77148    0.011
 5061.00    0.76093   0.77093    0.011
 5062.00    0.70573   0.76877    0.011
 5063.00    0.68148   0.76984    0.011
 5064.00    0.67440   0.76980    0.011
 5065.00    0.79128   0.76617    0.011
 5066.00    0.96792   0.76570    0.011
 5067.00    1.02276   0.76729    0.011
 5068.00    1.02690   0.76468    0.011
 5069.00    0.99862   0.76118    0.011
 5070.00    0.95880   0.76257    0.011
 5071.00    0.93489   0.76266    0.011
 5072.00    0.91577   0.75804    0.011
 5073.00    0.84868   0.75700    0.011
 5074.00    0.76961   0.75911    0.011
 5075.00    0.69654   0.75676    0.011
 5076.00    0.62468   0.75352    0.011
 5077.00    0.67713   0.75517    0.011
 5078.00    0.74934   0.75632    0.011
 5079.00    0.66544   0.75275    0.011
 5080.00    0.56307   0.75164    0.011
 5081.00    0.52743   0.75430    0.011
 5082.00    0.49715   0.75403    0.011
 5083.00    0.59943   0.75201    0.011
 5084.00    0.70769   0.75325    0.011
 5085.00    0.62261   0.75501    0.011
 5086.00    0.53874   0.75399    0.010
 5087.00    0.62914   0.75352    0.010
 5088.00    0.71687   0.75496    0.010
 5089.00    0.75503   0.75514    0.010
 5090.00    0.79117   0.75432    0.011
 5091.00    0.80482   0.75471    0.011
 5092.00    0.82028   0.75528    0.011
 5093.00    0.84990   0.75495    0.011
 5094.00    0.85889   0.75464    0.011
 5095.00    0.74632   0.75458    0.011
 5096.00    0.65476   0.75390    0.011
 5097.00    0.66117   0.75313    0.011
 5098.00    0.69016   0.75293    0.011
 5099.00    0.80514   0.75193    0.011
 5100.00    0.89113   0.75092    0.011
 5101.00    0.88487   0.75145    0.011
 5102.00    0.81221   0.75153    0.011
 5103.00    0.56050   0.74988    0.011
 5104.00    0.43923   0.74929    0.011
 5105.00    0.61956   0.75031    0.011
 5106.00    0.69013   0.74943    0.011
 5107.00    0.54113   0.74799    0.011
 5108.00    0.52404   0.74914    0.011
 5109.00    0.73679   0.74972    0.011
 5110.00    0.87617   0.74779    0.011
 5111.00    0.90361   0.74818    0.011
 5112.00    0.96188   0.74987    0.011
 5113.00    1.06144   0.74819    0.011
 5114.00    1.04754   0.74707    0.011
 5115.00    0.89973   0.74843    0.011
 5116.00    0.76986   0.74762    0.011
 5117.00    0.65865   0.74574    0.011
 5118.00    0.57886   0.74635    0.011
 5119.00    0.52793   0.74636    0.011
 5120.00    0.58524   0.74381    0.011
 5121.00    0.73013   0.74306    0.011
 5122.00    0.71799   0.74349    0.011
 5123.00    0.59405   0.74117    0.011
 5124.00    0.55521   0.73967    0.011
 5125.00    0.56951   0.74032    0.010
 5126.00    0.53979   0.73898    0.010
 5127.00    0.48604   0.73707    0.011
 5128.00    0.43101   0.73728    0.011
 5129.00    0.37538   0.73656    0.011
 5130.00    0.42719   0.73475    0.011
 5131.00    0.52299   0.73509    0.011
 5132.00    0.60957   0.73466    0.011
 5133.00    0.69293   0.73290    0.010
 5134.00    0.72468   0.73317    0.010
 5135.00    0.74121   0.73349    0.011
 5136.00    0.65249   0.73151    0.010
 5137.00    0.53807   0.73120    0.010
 5138.00    0.66464   0.73196    0.010
 5139.00    0.83881   0.72960    0.010
 5140.00    0.82916   0.72894    0.010
 5141.00    0.79116   0.73085    0.010
 5142.00    0.83697   0.72911    0.011
 5143.00    0.89232   0.72695    0.011
 5144.00    0.77629   0.72846    0.010
 5145.00    0.64718   0.72844    0.010
 5146.00    0.66321   0.72611    0.010
 5147.00    0.68522   0.72645    0.010
 5148.00    0.76813   0.72726    0.010
 5149.00    0.84551   0.72585    0.011
 5150.00    0.66931   0.72527    0.010
 5151.00    0.50193   0.72586    0.010
 5152.00    0.48752   0.72448    0.010
 5153.00    0.47341   0.72346    0.011
 5154.00    0.46252   0.72366    0.011
 5155.00    0.46929   0.72188    0.011
 5156.00    0.60895   0.72007    0.011
 5157.00    0.73814   0.71992    0.011
 5158.00    0.80738   0.71810    0.011
 5159.00    0.85061   0.71425    0.011
 5160.00    0.77536   0.71303    0.011
 5161.00    0.70885   0.71173    0.011
 5162.00    0.67488   0.70698    0.011
 5163.00    0.61408   0.70465    0.011
 5164.00    0.46952   0.70431    0.011
 5165.00    0.41557   0.69975    0.011
 5166.00    0.60160   0.69485    0.011
 5167.00    0.70281   0.69449    0.011
 5168.00    0.61113   0.69296    0.011
 5169.00    0.51450   0.68829    0.011
 5170.00    0.40816   0.68796    0.011
 5171.00    0.35637   0.68926    0.011
 5172.00    0.39819   0.68494    0.011
 5173.00    0.40958   0.68172    0.011
 5174.00    0.37523   0.68471    0.011
 5175.00    0.39650   0.68582    0.011
 5176.00    0.49124   0.68265    0.011
 5177.00    0.56534   0.68327    0.011
 5178.00    0.61543   0.68686    0.011
 5179.00    0.67199   0.68649    0.011
 5180.00    0.73520   0.68571    0.011
 5181.00    0.71695   0.68833    0.011
 5182.00    0.62500   0.69060    0.010
 5183.00    0.54581   0.69022    0.010
 5184.00    0.47681   0.69036    0.010
 5185.00    0.47297   0.69318    0.010
 5186.00    0.51483   0.69630    0.010
 5187.00    0.52388   0.69756    0.010
 5188.00    0.51274   0.69722    0.011
 5189.00    0.56489   0.69936    0.011
 5190.00    0.65105   0.70268    0.000
 5191.00    0.73375   0.70177    0.000
 5192.00    0.81485   0.70127    0.000
 5193.00    0.86296   0.70531    0.000
 5194.00    0.89782   0.70712    0.000
 5195.00    0.78552   0.70460    0.000
 5196.00    0.62273   0.70639    0.000
 5197.00    0.56790   0.70973    0.000
 5198.00    0.54426   0.70718    0.000
 5199.00    0.62542   0.70615    0.000
 5200.00    0.73161   0.70972    0.000
 5201.00    0.77751   0.70919    0.000
 5202.00    0.81180   0.70616    0.000
 5203.00    0.81371   0.70884    0.000
 5204.00    0.81079   0.71068    0.000
 5205.00    0.77896   0.70722    0.000
 5206.00    0.74395   0.70746    0.000
 5207.00    0.60365   0.71136    0.000
 5208.00    0.45575   0.70979    0.000
 5209.00    0.46354   0.70764    0.000
 5210.00    0.47714   0.71120    0.000
 5211.00    0.49941   0.71317    0.010
 5212.00    0.52171   0.71112    0.010
 5213.00    0.54320   0.71197    0.010
 5214.00    0.56457   0.71581    0.010
 5215.00    0.58392   0.71534    0.010
 5216.00    0.59201   0.71356    0.010
 5217.00    0.48547   0.71612    0.010
 5218.00    0.41198   0.71850    0.010
 5219.00    0.57891   0.71721    0.010
 5220.00    0.73822   0.71666    0.011
 5221.00    0.85503   0.71988    0.010
 5222.00    0.94413   0.72073    0.010
 5223.00    0.90996   0.71862    0.011
 5224.00    0.85071   0.71992    0.011
 5225.00    0.69983   0.72213    0.010
 5226.00    0.63276   0.72056    0.010
 5227.00    0.82220   0.71966    0.011
 5228.00    0.93481   0.72304    0.011
 5229.00    0.84749   0.72448    0.011
 5230.00    0.74741   0.72323    0.011
 5231.00    0.61879   0.72536    0.011
 5232.00    0.56525   0.72697    0.011
 5233.00    0.65719   0.72523    0.011
 5234.00    0.71776   0.72630    0.011
 5235.00    0.72529   0.72944    0.011
 5236.00    0.68292   0.72921    0.011
 5237.00    0.56665   0.72919    0.011
 5238.00    0.56153   0.73254    0.011
 5239.00    0.70113   0.73231    0.011
 5240.00    0.78067   0.72926    0.011
 5241.00    0.79130   0.73134    0.011
 5242.00    0.89534   0.73378    0.010
 5243.00    1.09388   0.73067    0.010
 5244.00    1.07498   0.72972    0.011
 5245.00    0.86209   0.73320    0.011
 5246.00    0.70508   0.73189    0.011
 5247.00    0.59201   0.72708    0.011
 5248.00    0.59573   0.72751    0.011
 5249.00    0.68021   0.72951    0.010
 5250.00    0.62525   0.72619    0.011
 5251.00    0.48577   0.72329    0.011
 5252.00    0.54811   0.72449    0.011
 5253.00    0.71724   0.72412    0.011
 5254.00    0.77419   0.72013    0.011
 5255.00    0.77961   0.71683    0.010
 5256.00    0.77531   0.71686    0.010
 5257.00    0.76715   0.71641    0.010
 5258.00    0.71534   0.71279    0.011
 5259.00    0.64882   0.70969    0.011
 5260.00    0.63297   0.71050    0.011
 5261.00    0.63146   0.70962    0.011
 5262.00    0.72514   0.70344    0.011
 5263.00    0.84104   0.70111    0.010
 5264.00    0.81971   0.70455    0.011
 5265.00    0.77263   0.70274    0.011
 5266.00    0.73243   0.69746    0.011
 5267.00    0.69322   0.70013    0.011
 5268.00    0.66534   0.70337    0.011
 5269.00    0.63865   0.69800    0.011
 5270.00    0.54509   0.69635    0.011
 5271.00    0.44698   0.70334    0.011
 5272.00    0.35062   0.70512    0.011
 5273.00    0.25432   0.70167    0.011
 5274.00    0.43830   0.70559    0.011
 5275.00    0.62071   0.71100    0.011
 5276.00    0.74290   0.70909    0.011
 5277.00    0.85329   0.70948    0.011
 5278.00    0.78386   0.71655    0.010
 5279.00    0.71541   0.72010    0.010
 5280.00    0.65642   0.71896    0.010
 5281.00    0.61160   0.72168    0.010
 5282.00    0.66651   0.72604    0.010
 5283.00    0.71326   0.72614    0.010
 5284.00    0.71575   0.72646    0.010
 5285.00    0.72204   0.73077    0.010
 5286.00    0.74481   0.73347    0.010
 5287.00    0.78403   0.73266    0.011
 5288.00    0.88210   0.73329    0.011
 5289.00    0.96263   0.73544    0.011
 5290.00    0.99048   0.73508    0.011
 5291.00    0.96121   0.73423    0.011
 5292.00    0.78590   0.73641    0.011
 5293.00    0.64518   0.73765    0.011
 5294.00    0.58051   0.73610    0.011
 5295.00    0.49557   0.73603    0.010
 5296.00    0.37197   0.73744    0.010
 5297.00    0.35057   0.73663    0.010
 5298.00    0.49935   0.73548    0.011
 5299.00    0.62607   0.73733    0.011
 5300.00    0.72063   0.73851    0.011
 5301.00    0.76327   0.73726    0.011
 5302.00    0.73928   0.73738    0.011
 5303.00    0.72644   0.73893    0.011
 5304.00    0.72619   0.73918    0.011
 5305.00    0.70323   0.73873    0.011
 5306.00    0.65761   0.73938    0.011
 5307.00    0.59157   0.74017    0.010
 5308.00    0.50758   0.74005    0.010
 5309.00    0.54876   0.73956    0.010
 5310.00    0.68695   0.73908    0.010
 5311.00    0.85580   0.73962    0.010
 5312.00    1.04554   0.73952    0.010
 5313.00    1.02039   0.73724    0.010
 5314.00    0.86692   0.73572    0.011
 5315.00    0.83276   0.73622    0.011
 5316.00    0.86076   0.73477    0.010
 5317.00    0.86484   0.73080    0.010
 5318.00    0.85813   0.73032    0.010
 5319.00    0.86810   0.73116    0.010
 5320.00    0.88454   0.72737    0.010
 5321.00    0.79897   0.72293    0.010
 5322.00    0.67967   0.72359    0.010
 5323.00    0.59429   0.72396    0.010
 5324.00    0.51832   0.71939    0.010
 5325.00    0.57365   0.71752    0.010
 5326.00    0.65892   0.71957    0.010
 5327.00    0.54012   0.71832    0.010
 5328.00    0.38406   0.71381    0.010
 5329.00    0.51559   0.71387    0.010
 5330.00    0.68744   0.71689    0.010
 5331.00    0.60654   0.71606    0.010
 5332.00    0.50013   0.71409    0.010
 5333.00    0.46046   0.71501    0.010
 5334.00    0.42508   0.71665    0.010
 5335.00    0.67207   0.71591    0.010
 5336.00    0.92660   0.71573    0.010
 5337.00    0.82954   0.71808    0.010
 5338.00    0.73265   0.71955    0.010
 5339.00    0.64067   0.71917    0.010
 5340.00    0.57024   0.71946    0.010
 5341.00    0.80902   0.72107    0.010
 5342.00    1.01257   0.72210    0.010
 5343.00    0.88635   0.72310    0.010
 5344.00    0.77886   0.72522    0.010
 5345.00    0.79911   0.72597    0.010
 5346.00    0.81903   0.72598    0.010
 5347.00    0.83719   0.72789    0.010
 5348.00    0.82161   0.72980    0.010
 5349.00    0.66270   0.72954    0.010
 5350.00    0.51266   0.73060    0.010
 5351.00    0.39364   0.73345    0.010
 5352.00    0.36015   0.73399    0.010
 5353.00    0.57873   0.73297    0.010
 5354.00    0.74681   0.73436    0.010
 5355.00    0.78799   0.73621    0.010
 5356.00    0.80611   0.73520    0.010
 5357.00    0.77429   0.73452    0.010
 5358.00    0.72860   0.73553    0.010
 5359.00    0.65684   0.73566    0.010
 5360.00    0.61296   0.73397    0.010
 5361.00    0.61481   0.73329    0.010
 5362.00    0.69446   0.73345    0.010
 5363.00    0.88601   0.73208    0.010
 5364.00    0.90578   0.73027    0.010
 5365.00    0.70824   0.72955    0.010
 5366.00    0.57156   0.72952    0.010
 5367.00    0.50274   0.72813    0.010
 5368.00    0.52385   0.72723   -2.000
 5369.00    0.63340   0.72700   -2.000
 5370.00    0.72802   0.72575   -2.000
 5371.00    0.80968   0.72437   -2.000
 5372.00    0.68222   0.72425   -2.000
 5373.00    0.39501   0.72506   -2.000
 5374.00    0.29807   0.72474   -2.000
 5375.00    0.32890   0.72442   -2.000
 5376.00    0.51979   0.72399   -2.000
 5377.00    0.80483   0.72357   -2.000
 5378.00    0.87915   0.72359   -2.000
 5379.00    0.84539   0.72322   -2.000
 5380.00    0.79016   0.72304   -2.000
 5381.00    0.72540   0.72327   -2.000
 5382.00    0.64571   0.72254   -2.000
 5383.00    0.56032   0.72038    0.010
 5384.00    0.47887   0.72021    0.010
 5385.00    0.39870   0.72067    0.010
 5386.00    0.42903   0.71811    0.010
 5387.00    0.48936   0.71606    0.010
 5388.00    0.61505   0.71687    0.010
 5389.00    0.75530   0.71526    0.010
 5390.00    0.73004   0.71068    0.010
 5391.00    0.67539   0.71035    0.010
 5392.00    0.45756   0.71143    0.010
 5393.00    0.21759   0.70754    0.010
 5394.00    0.46361   0.70410    0.010
 5395.00    0.75658   0.70578    0.010
 5396.00    0.78144   0.70492    0.010
 5397.00    0.79017   0.69938    0.010
 5398.00    0.68207   0.69865    0.010
 5399.00    0.57243   0.70098    0.010
 5400.00    0.71218   0.69870    0.010
 5401.00    0.84394   0.69556    0.010
 5402.00    0.76987   0.69701    0.010
 5403.00    0.69697   0.69767    0.010
 5404.00    0.63991   0.69500    0.010
 5405.00    0.57766   0.69442    0.010
 5406.00    0.46880   0.69608    0.010
 5407.00    0.38286   0.69674    0.010
 5408.00    0.44831   0.69683    0.010
 5409.00    0.50667   0.69776    0.010
 5410.00    0.52857   0.69803    0.010
 5411.00    0.56378   0.69862    0.010
 5412.00    0.65429   0.70050    0.010
 5413.00    0.72513   0.70170    0.010
 5414.00    0.72844   0.70203    0.010
 5415.00    0.73816   0.70347    0.010
 5416.00    0.76638   0.70541    0.010
 5417.00    0.77370   0.70543    0.010
 5418.00    0.72939   0.70545    0.010
 5419.00    0.69579   0.70742    0.010
 5420.00    0.68500   0.70881    0.010
 5421.00    0.66924   0.70791    0.010
 5422.00    0.64426   0.70763    0.010
 5423.00    0.60340   0.70927    0.010
 5424.00    0.53690   0.70953    0.010
 5425.00    0.58060   0.70782    0.010
 5426.00    0.78051   0.70793    0.010
 5427.00    0.80124   0.71022    0.010
 5428.00    0.59851   0.70976    0.010
 5429.00    0.49293   0.70634    0.010
 5430.00    0.49413   0.70664    0.010
 5431.00    0.47803   0.70974    0.010
 5432.00    0.44514   0.70868    0.010
 5433.00    0.41019   0.70633    0.010
 5434.00    0.37348   0.70779    0.010
 5435.00    0.44103   0.70904    0.009
 5436.00    0.58710   0.70676    0.009
 5437.00    0.63325   0.70626    0.009
 5438.00    0.61329   0.70896    0.009
 5439.00    0.59213   0.70891    0.009
 5440.00    0.57029   0.70648    0.010
 5441.00    0.53722   0.70687    0.009
 5442.00    0.49848   0.70827    0.009
 5443.00    0.59313   0.70719    0.009
 5444.00    0.74605   0.70583    0.010
 5445.00    0.75924   0.70648    0.010
 5446.00    0.72003   0.70613    0.010
 5447.00    0.65877   0.70400    0.010
 5448.00    0.59049   0.70339    0.010
 5449.00    0.62691   0.70429    0.010
 5450.00    0.69117   0.70410    0.010
 5451.00    0.70994   0.70206    0.010
 5452.00    0.71881   0.70080    0.010
 5453.00    0.52571   0.70139    0.010
 5454.00    0.29773   0.70137    0.011
 5455.00    0.41472   0.69854    0.011
 5456.00    0.57694   0.69750    0.011
 5457.00    0.74184   0.69973    0.011
 5458.00    0.90698   0.69952    0.011
 5459.00    0.85683   0.69614    0.011
 5460.00    0.79458   0.69636    0.010
 5461.00    0.80038   0.69893    0.010
 5462.00    0.80756   0.69637    0.010
 5463.00    0.79910   0.69291    0.010
 5464.00    0.78645   0.69582    0.010
 5465.00    0.67570   0.69744    0.010
 5466.00    0.58130   0.69250    0.010
 5467.00    0.69713   0.69157    0.010
 5468.00    0.79509   0.69593    0.010
 5469.00    0.73842   0.69419    0.010
 5470.00    0.69528   0.68893    0.010
 5471.00    0.73892   0.69138    0.010
 5472.00    0.77963   0.69438    0.010
 5473.00    0.80562   0.68970    0.010
 5474.00    0.80884   0.68767    0.010
 5475.00    0.71962   0.69233    0.009
 5476.00    0.63151   0.69148    0.009
 5477.00    0.54711   0.68637    0.009
 5478.00    0.49100   0.68873   -2.000
 5479.00    0.51522   0.69269   -2.000
 5480.00    0.51275   0.68989   -2.000
 5481.00    0.44550   0.68739   -2.000
 5482.00    0.40519   0.69054   -2.000
 5483.00    0.42130   0.69134   -2.000
 5484.00    0.38106   0.68941   -2.000
 5485.00    0.23822   0.69107   -2.000
 5486.00   -0.22072   0.69269   -2.000
 5487.00   -1.18282   0.69078   -2.000
 5488.00   -1.69724   0.69078   -2.000
 5489.00   -1.58628   0.69325   -2.000
 5490.00   -0.80488   0.69229   -2.000
 5491.00    0.80074   0.69129   -2.000
 5492.00    1.79027   0.69351   -2.000
 5493.00    2.11215   0.69348   -2.000
 5494.00    1.96591   0.69078   -2.000
 5495.00    1.37219   0.69157   -2.000
 5496.00    0.90686   0.69397   -2.000
 5497.00    0.54975   0.69179   -2.000
 5498.00    0.40268   0.68936   -2.000
 5499.00    0.41151   0.69146   -2.000
 5500.00    0.48228   0.69260   -2.000
 5501.00    0.59342   0.68939   -2.000
 5502.00    0.62509   0.68784   -1.000
 5503.00    0.61142   0.69000   -1.000
 5504.00    0.66443   0.69033   -1.000
 5505.00    0.75055   0.68780   -1.000
 5506.00    0.82971   0.68677   -1.000
 5507.00    0.90588   0.68852   -1.000
 5508.00    0.84087   0.68884    0.025
 5509.00    0.72385   0.68682    0.011
 5510.00    0.55912   0.68687    0.009
 5511.00    0.37950   0.68881    0.010
 5512.00    0.52657   0.68826    0.010
 5513.00    0.75864   0.68639    0.010
 5514.00    0.66972   0.68750    0.009
 5515.00    0.51264   0.68979    0.009
 5516.00    0.61826   0.68901    0.009
 5517.00    0.76799   0.68715    0.009
 5518.00    0.80942   0.68905    0.009
 5519.00    0.83714   0.69133    0.009
 5520.00    0.70372   0.68982    0.009
 5521.00    0.55609   0.68865    0.009
 5522.00    0.57901   0.69092    0.009
 5523.00    0.61085   0.69188    0.009
 5524.00    0.60422   0.68970    0.009
 5525.00    0.59759   0.68984    0.009
 5526.00    0.64545   0.69259    0.009
 5527.00    0.68982   0.69209    0.009
 5528.00    0.65888   0.68933    0.009
 5529.00    0.62758   0.69084    0.009
 5530.00    0.59188   0.69387    0.009
 5531.00    0.57088   0.69232    0.009
 5532.00    0.67236   0.69034    0.009
 5533.00    0.75491   0.69278    0.009
 5534.00    0.71962   0.69445    0.009
 5535.00    0.68235   0.69200    0.009
 5536.00    0.63546   0.69195    0.009
 5537.00    0.59285   0.69534    0.009
 5538.00    0.56721   0.69527    0.009
 5539.00    0.54716   0.69274    0.009
 5540.00    0.54556   0.69432    0.009
 5541.00    0.56803   0.69752    0.009
 5542.00    0.65765   0.69622    0.009
 5543.00    0.74583   0.69410    0.009
 5544.00    0.83061   0.69641    0.009
 5545.00    0.91483   0.69841    0.009
 5546.00    0.99791   0.69608    0.009
 5547.00    1.02015   0.69504    0.009
 5548.00    0.93330   0.69767    0.009
 5549.00    0.85295   0.69808    0.009
 5550.00    0.78278   0.69541    0.009
 5551.00    0.71588   0.69505    0.009
 5552.00    0.65349   0.69699    0.009
 5553.00    0.56470   0.69626    0.009
 5554.00    0.44393   0.69330    0.009
 5555.00    0.45959   0.69315    0.009
 5556.00    0.62101   0.69483    0.009
 5557.00    0.75639   0.69327    0.009
 5558.00    0.86721   0.69021    0.009
 5559.00    0.87974   0.69059    0.009
 5560.00    0.81059   0.69201    0.009
 5561.00    0.76410   0.68969    0.009
 5562.00    0.73417   0.68671    0.009
 5563.00    0.70674   0.68777    0.009
 5564.00    0.68089   0.68885    0.009
 5565.00    0.75953   0.68577    0.009
 5566.00    0.89687   0.68368    0.009
 5567.00    0.90216   0.68576    0.009
 5568.00    0.84289   0.68570    0.009
 5569.00    0.82304   0.68217    0.009
 5570.00    0.81983   0.68181    0.009
 5571.00    0.72176   0.68420    0.009
 5572.00    0.58937   0.68241    0.009
 5573.00    0.59856   0.67917    0.009
 5574.00    0.65108   0.68036    0.009
 5575.00    0.65006   0.68152    0.009
 5576.00    0.63542   0.67871    0.009
 5577.00    0.66872   0.67710    0.009
 5578.00    0.71194   0.67806    0.009
 5579.00    0.70538   0.67726    0.009
 5580.00    0.69070   0.67509    0.009
 5581.00    0.70752   0.67478    0.009
 5582.00    0.72818   0.67463    0.009
 5583.00    0.68622   0.67256    0.009
 5584.00    0.63900   0.67125    0.009
 5585.00    0.67447   0.67188    0.009
 5586.00    0.71394   0.67094    0.009
 5587.00    0.69674   0.66832    0.009
 5588.00    0.67588   0.66814    0.009
 5589.00    0.48764   0.66901    0.009
 5590.00    0.30525   0.66782    0.009
 5591.00    0.23924   0.66643    0.009
 5592.00    0.19141   0.66748    0.009
 5593.00    0.35476   0.66819    0.009
 5594.00    0.51481   0.66654    0.009
 5595.00    0.64837   0.66629    0.009
 5596.00    0.75972   0.66894    0.009
 5597.00    0.73682   0.66967    0.009
 5598.00    0.69761   0.66772    0.010
 5599.00    0.58057   0.66823    0.009
 5600.00    0.51453   0.67082    0.009
 5601.00    0.64655   0.67134    0.009
 5602.00    0.75279   0.67070    0.009
 5603.00    0.77561   0.67149    0.009
 5604.00    0.76512   0.67291    0.009
 5605.00    0.66345   0.67316    0.009
 5606.00    0.58845   0.67362    0.009
 5607.00    0.57605   0.67432    0.009
 5608.00    0.58803   0.67440    0.009
 5609.00    0.64947   0.67432    0.009
 5610.00    0.64998   0.67481    0.009
 5611.00    0.54292   0.67448    0.009
 5612.00    0.53347   0.67401    0.009
 5613.00    0.67486   0.67476    0.009
 5614.00    0.74878   0.67492    0.009
 5615.00    0.73114   0.67288    0.009
 5616.00    0.72646   0.67189    0.009
 5617.00    0.73727   0.67353    0.008
 5618.00    0.72577   0.67397    0.008
 5619.00    0.69077   0.67203    0.008
 5620.00    0.71841   0.67068    0.008
 5621.00    0.80426   0.67173    0.008
 5622.00    0.74342   0.67249    0.009
 5623.00    0.56241   0.67146    0.009
 5624.00    0.46994   0.67008    0.008
 5625.00    0.44131   0.67038    0.009
 5626.00    0.49424   0.67110    0.009
 5627.00    0.59880   0.67072    0.009
 5628.00    0.67435   0.67003    0.009
 5629.00    0.73384   0.67040    0.009
 5630.00    0.67705   0.67071    0.009
 5631.00    0.56430   0.67024    0.009
 5632.00    0.58255   0.66987    0.009
 5633.00    0.65521   0.67005    0.009
 5634.00    0.69884   0.67018    0.009
 5635.00    0.73215   0.66975    0.009
 5636.00    0.67817   0.66927    0.009
 5637.00    0.59800   0.66909    0.009
 5638.00    0.62111   0.66938    0.009
 5639.00    0.66995   0.66904    0.009
 5640.00    0.65322   0.66840    0.009
 5641.00    0.62324   0.66824    0.009
 5642.00    0.67488   0.66856    0.009
 5643.00    0.73945   0.66772    0.009
 5644.00    0.69277   0.66708    0.009
 5645.00    0.63301   0.66787    0.008
 5646.00    0.64575   0.66765    0.008
 5647.00    0.66430   0.66588    0.009
 5648.00    0.67147   0.66589    0.009
 5649.00    0.67814   0.66748    0.009
 5650.00    0.71292   0.66611    0.009
 5651.00    0.74835   0.66362    0.008
 5652.00    0.80033   0.66509    0.008
 5653.00    0.84704   0.66721    0.008
 5654.00    0.79664   0.66418    0.008
 5655.00    0.74339   0.66133    0.008
 5656.00    0.65874   0.66469    0.008
 5657.00    0.58855   0.66678    0.008
 5658.00    0.63052   0.66245    0.008
 5659.00    0.67351   0.66028    0.008
 5660.00    0.72242   0.66470    0.008
 5661.00    0.75029   0.66627    0.008
 5662.00    0.68021   0.66253    0.008
 5663.00    0.62422   0.66142    0.008
 5664.00    0.62179   0.66508    0.008
 5665.00    0.62110   0.66650    0.008
 5666.00    0.62597   0.66435    0.008
 5667.00    0.66139   0.66369    0.008
 5668.00    0.77900   0.66595    0.008
 5669.00    0.83849   0.66770    0.008
 5670.00    0.76388   0.66669    0.008
 5671.00    0.71408   0.66573    0.009
 5672.00    0.71381   0.66719    0.009
 5673.00    0.70631   0.66955    0.009
 5674.00    0.68623   0.66877    0.009
 5675.00    0.68348   0.66673    0.009
 5676.00    0.70713   0.66798    0.009
 5677.00    0.70475   0.67090    0.009
 5678.00    0.66755   0.66957    0.009
 5679.00    0.66985   0.66655    0.009
 5680.00    0.71866   0.66816    0.009
 5681.00    0.74971   0.67108    0.009
 5682.00    0.76229   0.66892    0.009
 5683.00    0.76742   0.66557    0.009
 5684.00    0.76573   0.66767    0.008
 5685.00    0.67145   0.67009    0.008
 5686.00    0.50241   0.66754    0.008
 5687.00    0.45209   0.66453    0.008
 5688.00    0.48613   0.66654    0.008
 5689.00    0.53193   0.66812    0.008
 5690.00    0.58506   0.66543    0.008
 5691.00    0.60227   0.66318    0.008
 5692.00    0.59990   0.66514    0.008
 5693.00    0.60293   0.66567    0.008
 5694.00    0.60852   0.66260    0.008
 5695.00    0.63925   0.66114    0.008
 5696.00    0.68025   0.66294    0.008
 5697.00    0.69746   0.66243    0.008
 5698.00    0.70637   0.65931    0.008
 5699.00    0.73356   0.65888    0.008
 5700.00    0.76613   0.66038    0.008
 5701.00    0.73649   0.65905    0.008
 5702.00    0.69169   0.65659    0.008
 5703.00    0.59829   0.65702    0.008
 5704.00    0.49531   0.65806    0.008
 5705.00    0.45691   0.65689    0.008
 5706.00    0.42842   0.65583    0.008
 5707.00    0.51030   0.65675    0.008
 5708.00    0.60468   0.65701    0.008
 5709.00    0.54618   0.65650    0.008
 5710.00    0.47610   0.65741    0.008
 5711.00    0.45604   0.65854    0.008
 5712.00    0.43800   0.65818    0.008
 5713.00    0.57902   0.65901    0.008
 5714.00    0.71625   0.66110    0.008
 5715.00    0.64604   0.66193    0.008
 5716.00    0.57849   0.66171    0.009
 5717.00    0.55670   0.66325    0.008
 5718.00    0.54132   0.66543    0.008
 5719.00    0.59376   0.66579    0.008
 5720.00    0.64053   0.66562    0.008
 5721.00    0.64481   0.66772    0.008
 5722.00    0.64697   0.66968    0.008
 5723.00    0.63700   0.66895    0.008
 5724.00    0.63272   0.66857    0.008
 5725.00    0.65428   0.67128    0.008
 5726.00    0.66744   0.67269    0.008
 5727.00    0.64927   0.67066    0.008
 5728.00    0.62807   0.67012    0.008
 5729.00    0.59745   0.67311    0.008
 5730.00    0.58312   0.67407    0.008
 5731.00    0.61181   0.67150    0.008
 5732.00    0.63681   0.67078    0.008
 5733.00    0.65344   0.67329    0.008
 5734.00    0.65146   0.67386    0.008
 5735.00    0.61294   0.67156    0.008
 5736.00    0.60523   0.67093    0.008
 5737.00    0.65033   0.67261    0.008
 5738.00    0.68705   0.67285    0.008
 5739.00    0.71122   0.67079    0.008
 5740.00    0.70440   0.67023    0.000
 5741.00    0.65672   0.67150    0.000
 5742.00    0.65620   0.67171    0.000
 5743.00    0.71044   0.66969    0.000
 5744.00    0.73842   0.66894    0.000
 5745.00    0.73950   0.67004    0.000
 5746.00    0.74093   0.67040    0.000
 5747.00    0.74267   0.66869    0.000
 5748.00    0.69394   0.66759    0.000
 5749.00    0.60503   0.66829    0.000
 5750.00    0.57798   0.66866    0.000
 5751.00    0.59423   0.66759    0.000
 5752.00    0.61677   0.66693    0.000
 5753.00    0.64316   0.66718    0.000
 5754.00    0.63982   0.66684    0.000
 5755.00    0.62051   0.66616    0.000
 5756.00    0.63343   0.66646    0.000
 5757.00    0.66135   0.66683    0.000
 5758.00    0.69729   0.66603    0.000
 5759.00    0.73645   0.66528    0.000
 5760.00    0.71639   0.66606    0.000
 5761.00    0.67605   0.66646    0.000
 5762.00    0.64908   0.66515    0.000
 5763.00    0.62595   0.66438    0.000
 5764.00    0.68053   0.66561    0.000
 5765.00    0.75361   0.66589    0.000
 5766.00    0.69469   0.66428    0.000
 5767.00    0.61043   0.66364    0.000
 5768.00    0.50128   0.66449    0.000
 5769.00    0.38843   0.66401    0.000
 5770.00    0.44123   0.66233    0.000
 5771.00    0.51209   0.66202    0.000
 5772.00    0.48049   0.66234    0.000
 5773.00    0.44156   0.66101    0.000
 5774.00    0.45898   0.65930    0.000
 5775.00    0.47849   0.65942    0.000
 5776.00    0.57594   0.65952    0.000
 5777.00    0.66917   0.65740    0.000
 5778.00    0.59966   0.65590    0.000
 5779.00    0.53458   0.65690    0.000
 5780.00    0.54082   0.65687    0.000
 5781.00    0.55515   0.65413    0.000
 5782.00    0.65140   0.65312    0.000
 5783.00    0.72870   0.65512    0.000
 5784.00    0.66863   0.65551    0.000
 5785.00    0.60339   0.65307    0.000
 5786.00    0.50941   0.65255    0.000
 5787.00    0.43563   0.65502    0.000
 5788.00    0.45148   0.65598    0.000
 5789.00    0.47902   0.65445    0.000
 5790.00    0.54916   0.65424    0.000
 5791.00    0.60220   0.65669   -2.000
 5792.00    0.60304   0.65809   -2.000
 5793.00    0.58828   0.65695   -2.000
 5794.00    0.53300   0.65695   -2.000
 5795.00    0.47906   0.65988   -2.000
 5796.00    0.42809   0.66115   -2.000
 5797.00    0.41956   0.65961   -2.000
 5798.00    0.49309   0.65978   -2.000
 5799.00    0.52123   0.66290   -2.000
 5800.00    0.47279   0.66349   -2.000
 5801.00    0.47516   0.66179   -2.000
 5802.00    0.55266   0.66260   -2.000
 5803.00    0.64315   0.66523   -2.000
 5804.00    0.75051   0.66460   -2.000
 5805.00    0.80408   0.66307   -2.000
 5806.00    0.79607   0.66459   -2.000
 5807.00    0.78674   0.66636   -2.000
 5808.00    0.77608   0.66501   -2.000
 5809.00    0.78063   0.66408   -2.000
 5810.00    0.79872   0.66611   -2.000
 5811.00    0.71831   0.66686    0.000
 5812.00    0.56059   0.66507    0.000
 5813.00    0.50490   0.66505    0.000
 5814.00    0.51962   0.66735    0.000
 5815.00    0.53409   0.66716    0.000
 5816.00    0.54841   0.66534    0.000
 5817.00    0.53695   0.66619    0.000
 5818.00    0.51186   0.66833    0.000
 5819.00    0.50860   0.66753    0.000
 5820.00    0.51533   0.66620    0.000
 5821.00    0.60040   0.66768    0.000
 5822.00    0.71637   0.66902    0.000
 5823.00    0.71525   0.66763    0.000
 5824.00    0.67478   0.66702    0.000
 5825.00    0.65903   0.66887    0.000
 5826.00    0.65026   0.66927    0.000
 5827.00    0.62321   0.66743    0.000
 5828.00    0.59192   0.66752    0.000
 5829.00    0.61690   0.66936    0.000
 5830.00    0.65241   0.66874    0.000
 5831.00    0.62015   0.66664    0.000
 5832.00    0.57811   0.66736    0.000
 5833.00    0.56152   0.66884    0.000
 5834.00    0.54761   0.66719    0.000
 5835.00    0.49717   0.66507    0.000
 5836.00    0.44426   0.66619    0.000
 5837.00    0.35979   0.66701    0.000
 5838.00    0.27429   0.66465    0.000
 5839.00    0.17052   0.66281    0.000
 5840.00    0.07337   0.66377    0.000
 5841.00    0.18585   0.66363    0.000
 5842.00    0.30277   0.66113    0.000
 5843.00    0.48675   0.65977    0.000
 5844.00    0.64815   0.66017    0.000
 5845.00    0.59039   0.65901    0.000
 5846.00    0.53197   0.65662    0.000
 5847.00    0.46892   0.65581    0.000
 5848.00    0.41196   0.65571    0.000
 5849.00    0.38793   0.65378    0.000
 5850.00    0.37793   0.65166    0.000
 5851.00    0.42871   0.65152    0.000
 5852.00    0.48078   0.65121    0.000
 5853.00    0.53743   0.64887    0.000
 5854.00    0.58626   0.64693    0.000
 5855.00    0.61164   0.64727    0.000
 5856.00    0.62717   0.64717    0.000
 5857.00    0.61759   0.64518    0.000
 5858.00    0.61992   0.64335    0.000
 5859.00    0.64839   0.64343    0.000
 5860.00    0.66369   0.64354    0.000
 5861.00    0.65390   0.64266    0.000
 5862.00    0.61944   0.64107    0.000
 5863.00    0.54398   0.64017    0.000
 5864.00    0.48554   0.64008    0.000
 5865.00    0.45188   0.64013    0.000
 5866.00    0.44781   0.63890    0.000
 5867.00    0.48165   0.63689    0.000
 5868.00    0.52171   0.63604    0.000
 5869.00    0.56880   0.63642    0.000
 5870.00    0.62480   0.63565    0.000
 5871.00    0.68967   0.63265    0.000
 5872.00    0.71901   0.63057    0.000
 5873.00    0.71715   0.63058    0.000
 5874.00    0.67388   0.63009    0.000
 5875.00    0.59857   0.62627    0.000
 5876.00    0.56771   0.62307    0.000
 5877.00    0.56707   0.62209    0.000
 5878.00    0.54360   0.62181    0.000
 5879.00    0.50654   0.61791    0.000
 5880.00    0.49372   0.61403    0.000
 5881.00    0.49351   0.61188    0.000
 5882.00    0.57878   0.61121    0.000
 5883.00    0.70256   0.60810    0.000
 5884.00    0.74749   0.60436    0.000
 5885.00    0.76184   0.60162    0.000
 5886.00    0.74479   0.60080    0.000
 5887.00    0.71737   0.59892    0.000
 5888.00    0.66070   0.59612    0.000
 5889.00    0.59595   0.59384    0.000
 5890.00    0.57872   0.59358    0.000
 5891.00    0.57231   0.59280    0.000
 5892.00    0.56497   0.59132    0.000
 5893.00    0.55747   0.59134    0.000
 5894.00    0.46055   0.59306    0.000
 5895.00    0.35113   0.59266    0.000
 5896.00    0.29862   0.59181    0.000
 5897.00    0.25181   0.59428    0.000
 5898.00    0.27588   0.59760    0.000
 5899.00    0.30446   0.59800    0.000
 5900.00    0.43181   0.59855    0.000
 5901.00    0.56218   0.60214    0.008
 5902.00    0.73122   0.60532    0.008
 5903.00    0.89323   0.60639    0.008
 5904.00    0.85671   0.60824    0.008
 5905.00    0.82053   0.61167    0.008
 5906.00    0.78923   0.61377    0.007
 5907.00    0.75640   0.61513    0.007
 5908.00    0.70937   0.61767    0.007
 5909.00    0.66210   0.62021    0.007
 5910.00    0.61314   0.62091    0.007
 5911.00    0.57010   0.62218    0.007
 5912.00    0.55822   0.62483    0.007
 5913.00    0.55185   0.62631    0.007
 5914.00    0.56878   0.62582    0.007
 5915.00    0.59724   0.62677    0.007
 5916.00    0.66599   0.62919    0.008
 5917.00    0.71841   0.62991    0.008
 5918.00    0.72279   0.62876    0.008
 5919.00    0.69697   0.62939    0.008
 5920.00    0.59543   0.63160    0.008
 5921.00    0.52867   0.63176    0.008
 5922.00    0.53703   0.63016    0.008
 5923.00    0.55280   0.63068    0.008
 5924.00    0.58249   0.63280    0.008
 5925.00    0.62031   0.63254    0.008
 5926.00    0.67146   0.63071    0.008
 5927.00    0.69724   0.63131    0.008
 5928.00    0.68661   0.63340    0.008
 5929.00    0.65275   0.63273    0.008
 5930.00    0.58959   0.63074    0.008
 5931.00    0.58242   0.63161    0.008
 5932.00    0.63757   0.63365    0.007
 5933.00    0.67155   0.63251    0.007
 5934.00    0.68473   0.63071    0.007
 5935.00    0.69188   0.63195    0.007
 5936.00    0.69379   0.63349    0.008
 5937.00    0.66736   0.63174    0.007
 5938.00    0.61931   0.63062    0.007
 5939.00    0.61656   0.63251    0.007
 5940.00    0.64416   0.63311    0.007
 5941.00    0.66031   0.63060    0.007
 5942.00    0.66973   0.63042    0.007
 5943.00    0.65616   0.63298    0.007
 5944.00    0.63083   0.63255    0.007
 5945.00    0.66300   0.62947    0.007
 5946.00    0.72067   0.63026    0.007
 5947.00    0.75279   0.63338    0.007
 5948.00    0.77518   0.63211    0.008
 5949.00    0.73823   0.62864    0.008
 5950.00    0.68207   0.63015    0.008
 5951.00    0.65221   0.63368    0.008
 5952.00    0.62947   0.63212    0.007
 5953.00    0.65743   0.62867    0.007
 5954.00    0.69666   0.63042    0.008
 5955.00    0.66235   0.63395    0.008
 5956.00    0.61503   0.63264    0.008
 5957.00    0.63181   0.62965    0.008
 5958.00    0.65725   0.63115    0.008
 5959.00    0.60684   0.63424    0.008
 5960.00    0.54915   0.63347    0.007
 5961.00    0.53482   0.63118    0.007
 5962.00    0.52307   0.63217    0.007
 5963.00    0.49975   0.63450    0.007
 5964.00    0.47655   0.63407    0.007
 5965.00    0.51974   0.63244    0.007
 5966.00    0.56075   0.63293    0.007
 5967.00    0.54624   0.63437    0.007
 5968.00    0.53265   0.63389    0.007
 5969.00    0.53157   0.63283    0.007
 5970.00    0.53430   0.63312    0.007
 5971.00    0.57115   0.63359    0.007
 5972.00    0.60755   0.63267    0.007
 5973.00    0.64090   0.63217    0.007
 5974.00    0.67974   0.63259    0.007
 5975.00    0.74671   0.63221    0.007
 5976.00    0.78995   0.63070    0.007
 5977.00    0.73497   0.63077    0.007
 5978.00    0.68766   0.63161    0.007
 5979.00    0.66662   0.63063    0.007
 5980.00    0.66143   0.62864    0.007
 5981.00    0.70197   0.62929    0.007
 5982.00    0.73751   0.63068    0.007
 5983.00    0.76075   0.62934    0.007
 5984.00    0.77091   0.62702    0.007
 5985.00    0.75330   0.62811    0.007
 5986.00    0.76356   0.62993    0.008
 5987.00    0.82530   0.62845    0.008
 5988.00    0.83389   0.62611    0.008
 5989.00    0.75677   0.62742    0.007
 5990.00    0.70199   0.62926    0.007
 5991.00    0.67880   0.62771    0.007
 5992.00    0.68111   0.62555    0.007
 5993.00    0.71517   0.62683    0.007
 5994.00    0.74312   0.62840    0.007
 5995.00    0.76437   0.62685    0.007
 5996.00    0.76084   0.62487    0.007
 5997.00    0.73330   0.62587    0.007
 5998.00    0.73817   0.62715    0.007
 5999.00    0.77068   0.62571    0.007
 6000.00    0.80288   0.62370    0.007
 6001.00    0.83485   0.62435    0.007
 6002.00    0.85776   0.62567    0.007
 6003.00    0.87471   0.62449    0.007
 6004.00    0.85886   0.62216    0.007
 6005.00    0.82404   0.62239    0.007
 6006.00    0.77264   0.62418    0.007
 6007.00    0.71288   0.62353    0.007
 6008.00    0.70097   0.62073    0.007
 6009.00    0.70992   0.62056    0.007
 6010.00    0.66985   0.62305    0.007
 6011.00    0.61144   0.62306    0.007
 6012.00    0.53398   0.62000    0.008
 6013.00    0.45049   0.61964    0.008
 6014.00    0.50892   0.62264    0.008
 6015.00    0.60498   0.62316    0.008
 6016.00    0.67696   0.62026    0.008
 6017.00    0.74372   0.62014    0.008
 6018.00    0.72696   0.62332    0.008
 6019.00    0.69582   0.62397    0.008
 6020.00    0.62580   0.62164    0.008
 6021.00    0.55070   0.62211    0.007
 6022.00    0.58508   0.62511    0.007
 6023.00    0.62951   0.62555    0.007
 6024.00    0.72113   0.62401    0.007
 6025.00    0.81538   0.62517    0.007
 6026.00    0.77514   0.62772    0.007
 6027.00    0.73217   0.62780    0.007
 6028.00    0.71012   0.62700    0.007
 6029.00    0.68791   0.62859    0.007
 6030.00    0.66200   0.63056    0.007
 6031.00    0.63917   0.63038    0.007
 6032.00    0.65573   0.63008    0.007
 6033.00    0.66841   0.63166    0.007
 6034.00    0.64767   0.63306    0.007
 6035.00    0.62664   0.63284    0.007
 6036.00    0.60371   0.63274    0.007
 6037.00    0.58476   0.63384    0.007
 6038.00    0.58569   0.63477    0.007
 6039.00    0.60096   0.63476    0.007
 6040.00    0.67421   0.63461    0.007
 6041.00    0.73374   0.63492    0.007
 6042.00    0.74720   0.63551    0.007
 6043.00    0.75697   0.63587    0.008
 6044.00    0.75627   0.63553    0.007
 6045.00    0.74238   0.63493    0.007
 6046.00    0.69656   0.63529    0.007
 6047.00    0.65264   0.63607    0.007
 6048.00    0.61271   0.63555    0.007
 6049.00    0.62117   0.63411    0.007
 6050.00    0.71757   0.63429    0.007
 6051.00    0.79933   0.63552    0.007
 6052.00    0.85782   0.63496    0.007
 6053.00    0.88895   0.63287    0.007
 6054.00    0.88194   0.63284    0.007
 6055.00    0.87619   0.63453    0.007
 6056.00    0.87199   0.63420    0.007
 6057.00    0.84002   0.63170    0.007
 6058.00    0.77802   0.63138    0.007
 6059.00    0.75759   0.63349    0.007
 6060.00    0.77684   0.63366    0.007
 6061.00    0.77452   0.63097    0.007
 6062.00    0.75405   0.63023    0.007
 6063.00    0.72439   0.63260    0.007
 6064.00    0.68791   0.63342    0.007
 6065.00    0.67908   0.63072    0.007
 6066.00    0.68825   0.62937    0.007
 6067.00    0.69128   0.63172    0.007
 6068.00    0.69082   0.63321    0.007
 6069.00    0.67215   0.63063    0.007
 6070.00    0.64446   0.62852    0.007
 6071.00    0.67989   0.63049    0.007
 6072.00    0.74240   0.63255    0.007
 6073.00    0.78565   0.63014    0.007
 6074.00    0.82183   0.62719    0.007
 6075.00    0.77704   0.62864    0.007
 6076.00    0.70705   0.63118    0.007
 6077.00    0.69522   0.62893    0.007
 6078.00    0.69849   0.62521    0.007
 6079.00    0.74084   0.62624    0.007
 6080.00    0.79146   0.62921    0.007
 6081.00    0.83674   0.62710    0.007
 6082.00    0.88113   0.62284    0.007
 6083.00    0.83861   0.62367    0.007
 6084.00    0.78512   0.62700    0.007
 6085.00    0.72221   0.62509    0.007
 6086.00    0.65847   0.62060    0.007
 6087.00    0.65768   0.62130    0.007
 6088.00    0.66014   0.62494    0.007
 6089.00    0.64876   0.62344    0.007
 6090.00    0.63659   0.61891    0.007
 6091.00    0.58511   0.61928    0.007
 6092.00    0.53707   0.62314    0.007
 6093.00    0.56202   0.62241    0.007
 6094.00    0.58699   0.61803    0.007
 6095.00    0.61208   0.61770    0.007
 6096.00    0.63880   0.62156    0.007
 6097.00    0.67913   0.62199    0.007
 6098.00    0.71372   0.61801    0.007
 6099.00    0.71271   0.61654    0.007
 6100.00    0.70114   0.62002    0.007
 6101.00    0.63817   0.62183    0.007
 6102.00    0.58827   0.61862    0.007
 6103.00    0.59011   0.61597    0.007
 6104.00    0.58749   0.61849    0.007
 6105.00    0.57018   0.62130    0.007
 6106.00    0.56005   0.61942    0.007
 6107.00    0.56992   0.61621    0.007
 6108.00    0.58471   0.61720    0.007
 6109.00    0.61124   0.62010    0.007
 6110.00    0.64970   0.61955    0.007
 6111.00    0.71268   0.61656    0.007
 6112.00    0.74567   0.61620    0.007
 6113.00    0.72497   0.61831    0.007
 6114.00    0.71511   0.61855    0.007
 6115.00    0.72224   0.61646    0.007
 6116.00    0.72381   0.61533    0.007
 6117.00    0.71775   0.61610    0.007
 6118.00    0.71973   0.61648    0.007
 6119.00    0.73146   0.61555    0.007
 6120.00    0.74387   0.61435    0.007
 6121.00    0.75702   0.61375    0.007
 6122.00    0.76779   0.61378    0.007
 6123.00    0.77634   0.61406    0.007
 6124.00    0.75915   0.61319    0.007
 6125.00    0.72063   0.61134    0.007
 6126.00    0.68077   0.61119    0.007
 6127.00    0.63993   0.61268    0.007
 6128.00    0.62034   0.61195    0.007
 6129.00    0.61438   0.60894    0.007
 6130.00    0.67972   0.60874    0.007
 6131.00    0.78505   0.61156    0.007
 6132.00    0.82927   0.61120    0.007
 6133.00    0.84368   0.60708    0.007
 6134.00    0.81867   0.60651    0.007
 6135.00    0.77704   0.61055    0.008
 6136.00    0.76278   0.61092    0.008
 6137.00    0.75841   0.60587    0.008
 6138.00    0.77936   0.60445    0.008
 6139.00    0.80802   0.60925    0.008
 6140.00    0.70190   0.61075    0.007
 6141.00    0.56154   0.60555    0.007
 6142.00    0.58053   0.60285    0.007
 6143.00    0.63241   0.60714    0.007
 6144.00    0.72901   0.60949    0.007
 6145.00    0.83288   0.60485    0.007
 6146.00    0.78736   0.60112    0.007
 6147.00    0.72367   0.60412    0.007
 6148.00    0.64722   0.60668    0.007
 6149.00    0.56971   0.60270    0.007
 6150.00    0.63393   0.59823    0.007
 6151.00    0.70494   0.59993    0.007
 6152.00    0.73358   0.60242    0.007
 6153.00    0.76083   0.59885    0.007
 6154.00    0.74346   0.59397    0.007
 6155.00    0.72583   0.59496    0.007
 6156.00    0.70321   0.59739    0.007
 6157.00    0.68119   0.59376    0.007
 6158.00    0.66630   0.58876    0.007
 6159.00    0.65529   0.59008    0.007
 6160.00    0.67543   0.59279    0.007
 6161.00    0.69106   0.58893    0.007
 6162.00    0.67955   0.58400    0.007
 6163.00    0.67525   0.58612    0.007
 6164.00    0.70531   0.58947    0.007
 6165.00    0.73200   0.58583    0.007
 6166.00    0.74571   0.58138    0.007
 6167.00    0.75597   0.58424    0.007
 6168.00    0.75509   0.58805    0.007
 6169.00    0.75961   0.58480    0.007
 6170.00    0.77887   0.58105    0.007
 6171.00    0.79212   0.58411    0.007
 6172.00    0.79132   0.58794    0.007
 6173.00    0.78331   0.58572    0.007
 6174.00    0.76070   0.58293    0.007
 6175.00    0.73842   0.58514    0.007
 6176.00    0.71672   0.58819    0.007
 6177.00    0.70393   0.58739    0.007
 6178.00    0.70489   0.58558    0.007
 6179.00    0.70179   0.58621    0.007
 6180.00    0.69319   0.58817    0.007
 6181.00    0.67736   0.58899    0.007
 6182.00    0.65290   0.58796    0.007
 6183.00    0.60692   0.58660    0.007
 6184.00    0.53831   0.58748    0.007
 6185.00    0.51105   0.58992    0.007
 6186.00    0.52215   0.58963    0.007
 6187.00    0.57281   0.58651    0.007
 6188.00    0.65582   0.58625    0.007
 6189.00    0.72193   0.58996    0.007
 6190.00    0.77586   0.59074    0.007
 6191.00    0.75770   0.58656    0.007
 6192.00    0.69400   0.58511    0.007
 6193.00    0.66246   0.58939    0.007
 6194.00    0.64869   0.59120    0.007
 6195.00    0.56126   0.58712    0.007
 6196.00    0.43848   0.58481   -2.000
 6197.00    0.16081   0.58847   -2.000
 6198.00   -0.18106   0.59086   -2.000
 6199.00   -0.33108   0.58754   -2.000
 6200.00   -0.41311   0.58472   -2.000
 6201.00    0.00834   0.58714   -2.000
 6202.00    0.58046   0.58945   -2.000
 6203.00    1.08135   0.58715   -2.000
 6204.00    1.56455   0.58442   -2.000
 6205.00    1.50671   0.58541   -2.000
 6206.00    1.33992   0.58686   -2.000
 6207.00    1.03727   0.58521   -2.000
 6208.00    0.71319   0.58294    0.007
 6209.00    0.64629   0.58299    0.007
 6210.00    0.60952   0.58346    0.007
 6211.00    0.64012   0.58199    0.007
 6212.00    0.67607   0.58019    0.007
 6213.00    0.65306   0.57984    0.007
 6214.00    0.62745   0.57970    0.007
 6215.00    0.61141   0.57823    0.007
 6216.00    0.59612   0.57664    0.007
 6217.00    0.61135   0.57643    0.007
 6218.00    0.62920   0.57633    0.007
 6219.00    0.69475   0.57487    0.007
 6220.00    0.75674   0.57342    0.007
 6221.00    0.77960   0.57329    0.007
 6222.00    0.79610   0.57320    0.007
 6223.00    0.76345   0.57209    0.007
 6224.00    0.73023   0.57113    0.007
 6225.00    0.69373   0.57104    0.007
 6226.00    0.66843   0.57069    0.007
 6227.00    0.69508   0.56972    0.007
 6228.00    0.71924   0.56953    0.007
 6229.00    0.73397   0.56963    0.007
 6230.00    0.74717   0.56885    0.007
 6231.00    0.75549   0.56776    0.007
 6232.00    0.76594   0.56799    0.007
 6233.00    0.78205   0.56837    0.007
 6234.00    0.76843   0.56777    0.007
 6235.00    0.68632   0.56656    0.007
 6236.00    0.63105   0.56648    0.007
 6237.00    0.62927   0.56715    0.007
 6238.00    0.62782   0.56690    0.007
 6239.00    0.62698   0.56534    0.007
 6240.00    0.61506   0.56472    0.007
 6241.00    0.58630   0.56567    0.007
 6242.00    0.57577   0.56594    0.007
 6243.00    0.58956   0.56439    0.007
 6244.00    0.60337   0.56346    0.007
 6245.00    0.61721   0.56410    0.007
 6246.00    0.64088   0.56457    0.007
 6247.00    0.67474   0.56394    0.007
 6248.00    0.69742   0.56298    0.007
 6249.00    0.70987   0.56272    0.007
 6250.00    0.69864   0.56346    0.007
 6251.00    0.66833   0.56411    0.007
 6252.00    0.64784   0.56324    0.007
 6253.00    0.63433   0.56202    0.007
 6254.00    0.63051   0.56277    0.007
 6255.00    0.63272   0.56473    0.007
 6256.00    0.64189   0.56476    0.007
 6257.00    0.65484   0.56285    0.007
 6258.00    0.61120   0.56309    0.007
 6259.00    0.54083   0.56597    0.007
 6260.00    0.42041   0.56718    0.008
 6261.00    0.27961   0.56499    0.008
 6262.00    0.24202   0.56481    0.009
 6263.00    0.24036   0.56823    0.009
 6264.00    0.42260   0.57007    0.009
 6265.00    0.65879   0.56791    0.008
 6266.00    0.85690   0.56742    0.008
 6267.00    1.04575   0.57063    0.008
 6268.00    0.99039   0.57271    0.007
 6269.00    0.88709   0.57122    0.007
 6270.00    0.79713   0.57061    0.007
 6271.00    0.70921   0.57295    0.007
 6272.00    0.71473   0.57479    0.007
 6273.00    0.73079   0.57409    0.007
 6274.00    0.69670   0.57362    0.007
 6275.00    0.65884   0.57514    0.007
 6276.00    0.62645   0.57635    0.007
 6277.00    0.59429   0.57594    0.007
 6278.00    0.57317   0.57587    0.007
 6279.00    0.55340   0.57700    0.007
 6280.00    0.58492   0.57739    0.000
 6281.00    0.61667   0.57683    0.000
 6282.00    0.65228   0.57709    0.000
 6283.00    0.68534   0.57815    0.000
 6284.00    0.69146   0.57814    0.000
 6285.00    0.69729   0.57713    0.000
 6286.00    0.70100   0.57741    0.000
 6287.00    0.71165   0.57865    0.000
 6288.00    0.76173   0.57828    0.000
 6289.00    0.80150   0.57672    0.000
 6290.00    0.79456   0.57692    0.000
 6291.00    0.77703   0.57857    0.000
 6292.00    0.72020   0.57814    0.000
 6293.00    0.66396   0.57562    0.000
 6294.00    0.60960   0.57551    0.000
 6295.00    0.57540   0.57805    0.000
 6296.00    0.59440   0.57811    0.000
 6297.00    0.62531   0.57473    0.000
 6298.00    0.68320   0.57363    0.000
 6299.00    0.71972   0.57675    0.000
 6300.00    0.71432   0.57817    0.000
 6301.00    0.69778   0.57470    0.000
 6302.00    0.66221   0.57217    0.000
 6303.00    0.64095   0.57504    0.000
 6304.00    0.64112   0.57791    0.000
 6305.00    0.66032   0.57534    0.000
 6306.00    0.70458   0.57174    0.000
 6307.00    0.74123   0.57352    0.000
 6308.00    0.76906   0.57734    0.000
 6309.00    0.77738   0.57638    0.000
 6310.00    0.76575   0.57227    0.000
 6311.00    0.75314   0.57235    0.000
 6312.00    0.73965   0.57656    0.000
 6313.00    0.74745   0.57746    0.000
 6314.00    0.77217   0.57326    0.000
 6315.00    0.79355   0.57182    0.000
 6316.00    0.81259   0.57627    0.000
 6317.00    0.78683   0.57855    0.000
 6318.00    0.73360   0.57436    0.000
 6319.00    0.73002   0.57207    0.000
 6320.00    0.75301   0.57640    0.000
 6321.00    0.74949   0.57949    0.007
 6322.00    0.73364   0.57598    0.007
 6323.00    0.73264   0.57296    0.007
 6324.00    0.73760   0.57646    0.007
 6325.00    0.73121   0.58016    0.007
 6326.00    0.72094   0.57771    0.007
 6327.00    0.73530   0.57397    0.007
 6328.00    0.75674   0.57617    0.007
 6329.00    0.78119   0.58041    0.007
 6330.00    0.80636   0.57908    0.007
 6331.00    0.79124   0.57478    0.007
 6332.00    0.76841   0.57557    0.007
 6333.00    0.78053   0.57986    0.007
 6334.00    0.79784   0.57984    0.007
 6335.00    0.82452   0.57543    0.007
 6336.00    0.85221   0.57465    0.007
 6337.00    0.88762   0.57844    0.007
 6338.00    0.92359   0.57938    0.007
 6339.00    0.85771   0.57574    0.007
 6340.00    0.78813   0.57423    0.007
 6341.00    0.76838   0.57696    0.007
 6342.00    0.74925   0.57793    0.007
 6343.00    0.74515   0.57541    0.007
 6344.00    0.73809   0.57373    0.007
 6345.00    0.68376   0.57526    0.007
 6346.00    0.63460   0.57574    0.007
 6347.00    0.63751   0.57431    0.007
 6348.00    0.64770   0.57338    0.007
 6349.00    0.71053   0.57401    0.007
 6350.00    0.77171   0.57343    0.007
 6351.00    0.82375   0.57249    0.007
 6352.00    0.85955   0.57281    0.007
 6353.00    0.82348   0.57312    0.007
 6354.00    0.78466   0.57148    0.007
 6355.00    0.73589   0.57047    0.007
 6356.00    0.68949   0.57203    0.007
 6357.00    0.65032   0.57276    0.007
 6358.00    0.60953   0.57052    0.007
 6359.00    0.56455   0.56938    0.007
 6360.00    0.53130   0.57171    0.007
 6361.00    0.52418   0.57304    0.007
 6362.00    0.55271   0.57091    0.007
 6363.00    0.65008   0.56970    0.007
 6364.00    0.72618   0.57227    0.007
 6365.00    0.76645   0.57441    0.007
 6366.00    0.79203   0.57281    0.007
 6367.00    0.79592   0.57133    0.007
 6368.00    0.80539   0.57373    0.007
 6369.00    0.82210   0.57664    0.007
 6370.00    0.81361   0.57562    0.007
 6371.00    0.77635   0.57368    0.007
 6372.00    0.75019   0.57534    0.007
 6373.00    0.73521   0.57863    0.007
 6374.00    0.78220   0.57864    0.007
 6375.00    0.88427   0.57644    0.007
 6376.00    0.91781   0.57684    0.007
 6377.00    0.89766   0.57964    0.007
 6378.00    0.82330   0.58059    0.007
 6379.00    0.71158   0.57877    0.007
 6380.00    0.68477   0.57796    0.007
 6381.00    0.70924   0.57962    0.007
 6382.00    0.73223   0.58124    0.007
 6383.00    0.75446   0.58020    0.007
 6384.00    0.75144   0.57853    0.007
 6385.00    0.73687   0.57901    0.007
 6386.00    0.75703   0.58066    0.007
 6387.00    0.79085   0.58045    0.007
 6388.00    0.82133   0.57877    0.007
 6389.00    0.85068   0.57832    0.007
 6390.00    0.84818   0.57936    0.007
 6391.00    0.83670   0.57965    0.007
 6392.00    0.82410   0.57851    0.007
 6393.00    0.81123   0.57772    0.007
 6394.00    0.86975   0.57810    0.007
 6395.00    0.94156   0.57829    0.007
 6396.00    0.93813   0.57750    0.007
 6397.00    0.92388   0.57758    0.007
 6398.00    0.86003   0.57830    0.007
 6399.00    0.79102   0.57740    0.007
 6400.00    0.74759   0.57580    0.007
 6401.00    0.70588   0.57688    0.007
 6402.00    0.74665   0.57862    0.007
 6403.00    0.79010   0.57708    0.007
 6404.00    0.78685   0.57505    0.007
 6405.00    0.78270   0.57656    0.007
 6406.00    0.75103   0.57886    0.007
 6407.00    0.72056   0.57713    0.007
 6408.00    0.70796   0.57441    0.007
 6409.00    0.69603   0.57588    0.007
 6410.00    0.69050   0.57886    0.007
 6411.00    0.68582   0.57775    0.007
 6412.00    0.68716   0.57484    0.007
 6413.00    0.69548   0.57517    0.007
 6414.00    0.74139   0.57796    0.007
 6415.00    0.77338   0.57862    0.007
 6416.00    0.74526   0.57622    0.007
 6417.00    0.72083   0.57475    0.007
 6418.00    0.70955   0.57687    0.007
 6419.00    0.71053   0.57926    0.007
 6420.00    0.74815   0.57776    0.007
 6421.00    0.78152   0.57498    0.007
 6422.00    0.80411   0.57574    0.007
 6423.00    0.82054   0.57906    0.007
 6424.00    0.82349   0.57945    0.007
 6425.00    0.82429   0.57670    0.007
 6426.00    0.82100   0.57551    0.007
 6427.00    0.80209   0.57782    0.007
 6428.00    0.75729   0.58004    0.007
 6429.00    0.73487   0.57897    0.007
 6430.00    0.74502   0.57641    0.007
 6431.00    0.78193   0.57648    0.007
 6432.00    0.85307   0.57934    0.007
 6433.00    0.91302   0.58019    0.007
 6434.00    0.96038   0.57789    0.007
 6435.00    0.95079   0.57652    0.007
 6436.00    0.88460   0.57859    0.007
 6437.00    0.82255   0.58037    0.007
 6438.00    0.76410   0.57880    0.007
 6439.00    0.75549   0.57666    0.007
 6440.00    0.78535   0.57773    0.007
 6441.00    0.78279   0.57960    0.007
 6442.00    0.75823   0.57912    0.007
 6443.00    0.73323   0.57782    0.007
 6444.00    0.70797   0.57779    0.007
 6445.00    0.73006   0.57808    0.007
 6446.00    0.77673   0.57789    0.007
 6447.00    0.78479   0.57831    0.007
 6448.00    0.77549   0.57855    0.007
 6449.00    0.73789   0.57724    0.007
 6450.00    0.68934   0.57604    0.007
 6451.00    0.70928   0.57736    0.007
 6452.00    0.75177   0.57867    0.007
 6453.00    0.78044   0.57776    0.007
 6454.00    0.80531   0.57617    0.007
 6455.00    0.79260   0.57650    0.007
 6456.00    0.77136   0.57823    0.007
 6457.00    0.76519   0.57832    0.007
 6458.00    0.76176   0.57613    0.007
 6459.00    0.76763   0.57567    0.007
 6460.00    0.77479   0.57847    0.007
 6461.00    0.80141   0.57943    0.007
 6462.00    0.82998   0.57625    0.007
 6463.00    0.80172   0.57463    0.007
 6464.00    0.76987   0.57773    0.007
 6465.00    0.74517   0.57941    0.007
 6466.00    0.72077   0.57699    0.007
 6467.00    0.72893   0.57508    0.007
 6468.00    0.73721   0.57666    0.007
 6469.00    0.74904   0.57816    0.007
 6470.00    0.76027   0.57685    0.007
 6471.00    0.76311   0.57477    0.007
 6472.00    0.76787   0.57494    0.007
 6473.00    0.79029   0.57638    0.007
 6474.00    0.80953   0.57556    0.007
 6475.00    0.80715   0.57338    0.007
 6476.00    0.80825   0.57297    0.007
 6477.00    0.82760   0.57351    0.007
 6478.00    0.85320   0.57224    0.007
 6479.00    0.90513   0.57081    0.007
 6480.00    0.94064   0.57080    0.007
 6481.00    0.91890   0.56990    0.007
 6482.00    0.88872   0.56745    0.007
 6483.00    0.83376   0.56650    0.007
 6484.00    0.79428   0.56730    0.007
 6485.00    0.79358   0.56636    0.007
 6486.00    0.79838   0.56328    0.007
 6487.00    0.81507   0.56192    0.007
 6488.00    0.81677   0.56326    0.007
 6489.00    0.79044   0.56320    0.007
 6490.00    0.75362   0.55985    0.007
 6491.00    0.69967   0.55756    0.007
 6492.00    0.66287   0.55934    0.007
 6493.00    0.65066   0.56092    0.007
 6494.00    0.64319   0.55809    0.007
 6495.00    0.64171   0.55483    0.007
 6496.00    0.67781   0.55623    0.007
 6497.00    0.75567   0.55926    0.007
 6498.00    0.81167   0.55875    0.007
 6499.00    0.84624   0.55569    0.007
 6500.00    0.82864   0.55593    0.007
 6501.00    0.76596   0.55917    0.007
 6502.00    0.74060   0.56035    0.007
 6503.00    0.74364   0.55861    0.007
 6504.00    0.75248   0.55802    0.007
 6505.00    0.76518   0.56021    0.007
 6506.00    0.76802   0.56234    0.007
 6507.00    0.76509   0.56225    0.007
 6508.00    0.77396   0.56139    0.007
 6509.00    0.78884   0.56231    0.007
 6510.00    0.80754   0.56419    0.007
 6511.00    0.82791   0.56523    0.007
 6512.00    0.83004   0.56509    0.007
 6513.00    0.82523   0.56534    0.007
 6514.00    0.79435   0.56603    0.007
 6515.00    0.75507   0.56669    0.007
 6516.00    0.73598   0.56748    0.007
 6517.00    0.72236   0.56806    0.007
 6518.00    0.75560   0.56774    0.007
 6519.00    0.79923   0.56734    0.007
 6520.00    0.86178   0.56833    0.007
 6521.00    0.92767   0.56949    0.007
 6522.00    0.94349   0.56940    0.007
 6523.00    0.95257   0.56826    0.007
 6524.00    0.93051   0.56816    0.007
 6525.00    0.90547   0.56938    0.007
 6526.00    0.84346   0.57012    0.007
 6527.00    0.77927   0.56900    0.007
 6528.00    0.71142   0.56757    0.000
 6529.00    0.64427   0.56783    0.000
 6530.00    0.69115   0.56915    0.000
 6531.00    0.73845   0.56916    0.000
 6532.00    0.79620   0.56702    0.000
 6533.00    0.84681   0.56522    0.000
 6534.00    0.80187   0.56585    0.000
 6535.00    0.76447   0.56725    0.000
 6536.00    0.79421   0.56578    0.000
 6537.00    0.83417   0.56231    0.000
 6538.00    0.94125   0.56096    0.000
 6539.00    1.02769   0.56234    0.000
 6540.00    1.00869   0.56197    0.000
 6541.00    0.97852   0.55799    0.000
 6542.00    0.90227   0.55453    0.000
 6543.00    0.85902   0.55473    0.000
 6544.00    0.92853   0.55528    0.000
 6545.00    0.95784   0.55154    0.000
 6546.00    0.87137   0.54619    0.000
 6547.00    0.81718   0.54517    0.000
 6548.00    0.84238   0.54641    0.000
 6549.00    0.86719   0.54278    0.000
 6550.00    0.89120   0.53621    0.000
 6551.00    0.89566   0.53436    0.000
 6552.00    0.86410   0.53612    0.000
 6553.00    0.84481   0.53369    0.000
 6554.00    0.84526   0.52710    0.000
 6555.00    0.84771   0.52405    0.000
 6556.00    0.85300   0.52597    0.000
 6557.00    0.88023   0.52586    0.000
 6558.00    0.93473   0.52015    0.000
 6559.00    0.99922   0.51573    0.000
 6560.00    1.07466   0.51842    0.000
 6561.00    1.12395   0.52139    0.000
 6562.00    1.14799   0.51658    0.000
 6563.00    1.15939   0.51091    0.000
 6564.00    1.16004   0.51393    0.000
 6565.00    1.07309   0.51972    0.000
 6566.00    0.92044   0.51888    0.000
 6567.00    0.81747   0.51503    0.000
 6568.00    0.74725   0.51590    0.000
 6569.00    0.72979   0.52067    0.000
 6570.00    0.74279   0.52331    0.000
 6571.00    0.75004   0.52190    0.000
 6572.00    0.75442   0.52157    0.000
 6573.00    0.71738   0.52545    0.000
 6574.00    0.66233   0.52969    0.000
 6575.00    0.65301   0.52972    0.000
 6576.00    0.66076   0.52921    0.000
 6577.00    0.70321   0.53214    0.000
 6578.00    0.75665   0.53630    0.000
 6579.00    0.80588   0.53783    0.000
 6580.00    0.85400   0.53767    0.000
 6581.00    0.91058   0.53886    0.000
 6582.00    0.96899   0.54150    0.000
 6583.00    0.95044   0.54373    0.000
 6584.00    0.91869   0.54377    0.000
 6585.00    0.86746   0.54410    0.000
 6586.00    0.81371   0.54570    0.000
 6587.00    0.80991   0.54780    0.000
 6588.00    0.81067   0.54812    0.000
 6589.00    0.85017   0.54751    0.000
 6590.00    0.89180   0.54848    0.000
 6591.00    0.84676   0.55052    0.000
 6592.00    0.79974   0.55082    0.000
 6593.00    0.74177   0.54940    0.000
 6594.00    0.68741   0.54963    0.000
 6595.00    0.71607   0.55139    0.000
 6596.00    0.74509   0.55212    0.000
 6597.00    0.77880   0.55138    0.000
 6598.00    0.80926   0.55120    0.000
 6599.00    0.81190   0.55187    0.000
 6600.00    0.81728   0.55245    0.000
 6601.00    0.84002   0.55232    0.000
 6602.00    0.86566   0.55235    0.000
 6603.00    0.90573   0.55298    0.000
 6604.00    0.92529   0.55311    0.000
 6605.00    0.86207   0.55242    0.000
 6606.00    0.80419   0.55269    0.000
 6607.00    0.76422   0.55395    0.000
 6608.00    0.73777   0.55396    0.000
 6609.00    0.74952   0.55265    0.007
 6610.00    0.76477   0.55274    0.007
 6611.00    0.78845   0.55443    0.007
 6612.00    0.80737   0.55481    0.007
 6613.00    0.81634   0.55352    0.007
 6614.00    0.80476   0.55271    0.007
 6615.00    0.75588   0.55386    0.007
 6616.00    0.70719   0.55470    0.007
 6617.00    0.65877   0.55380    0.007
 6618.00    0.64545   0.55270    0.007
 6619.00    0.68098   0.55309    0.007
 6620.00    0.73061   0.55367    0.007
 6621.00    0.79751   0.55294    0.007
 6622.00    0.80859   0.55226    0.007
 6623.00    0.75942   0.55244    0.007
 6624.00    0.70120   0.55234    0.007
 6625.00    0.63436   0.55114    0.007
 6626.00    0.63781   0.55066    0.007
 6627.00    0.70030   0.55122    0.007
 6628.00    0.74444   0.55150    0.007
 6629.00    0.77502   0.55023    0.007
 6630.00    0.72811   0.54861    0.007
 6631.00    0.63089   0.54902    0.007
 6632.00    0.54124   0.55046    0.007
 6633.00    0.45591   0.54967    0.007
 6634.00    0.49040   0.54703    0.007
 6635.00    0.58419   0.54663    0.007
 6636.00    0.71848   0.54870    0.007
 6637.00    0.87009   0.54952    0.007
 6638.00    0.88933   0.54740    0.007
 6639.00    0.86003   0.54527    0.007
 6640.00    0.87076   0.54617    0.007
 6641.00    0.89392   0.54851    0.007
 6642.00    0.88799   0.54807    0.007
 6643.00    0.87454   0.54497    0.007
 6644.00    0.84890   0.54422    0.007
 6645.00    0.82070   0.54668    0.007
 6646.00    0.80349   0.54771    0.007
 6647.00    0.78812   0.54548    0.007
 6648.00    0.77384   0.54362    0.007
 6649.00    0.75969   0.54471    0.007
 6650.00    0.80128   0.54617    0.007
 6651.00    0.84772   0.54534    0.007
 6652.00    0.85658   0.54342    0.007
 6653.00    0.86351   0.54317    0.007
 6654.00    0.79991   0.54406    0.007
 6655.00    0.73649   0.54393    0.007
 6656.00    0.77453   0.54270    0.007
 6657.00    0.81290   0.54215    0.007
 6658.00    0.85830   0.54264    0.007
 6659.00    0.89814   0.54210    0.007
 6660.00    0.87091   0.54096    0.007
 6661.00    0.83955   0.54098    0.007
 6662.00    0.77408   0.54167    0.007
 6663.00    0.71933   0.54065    0.007
 6664.00    0.73075   0.53888    0.007
 6665.00    0.73993   0.53886    0.007
 6666.00    0.73820   0.54018    0.007
 6667.00    0.73307   0.54040    0.007
 6668.00    0.71452   0.53803    0.007
 6669.00    0.72560   0.53633    0.007
 6670.00    0.83396   0.53780    0.007
 6671.00    0.91578   0.53995    0.007
 6672.00    0.92394   0.53851    0.007
 6673.00    0.90912   0.53538    0.007
 6674.00    0.83970   0.53535    0.007
 6675.00    0.78477   0.53820    0.007
 6676.00    0.75956   0.53932    0.007
 6677.00    0.73944   0.53611    0.008
 6678.00    0.72840   0.53348    0.007
 6679.00    0.71409   0.53538    0.007
 6680.00    0.69466   0.53880    0.007
 6681.00    0.67423   0.53787    0.007
 6682.00    0.65245   0.53449    0.007
 6683.00    0.67310   0.53422    0.007
 6684.00    0.74499   0.53704    0.007
 6685.00    0.80565   0.53846    0.007
 6686.00    0.85437   0.53615    0.007
 6687.00    0.83655   0.53403    0.007
 6688.00    0.75623   0.53518    0.007
 6689.00    0.72521   0.53766    0.007
 6690.00    0.73501   0.53727    0.007
 6691.00    0.76739   0.53511    0.007
 6692.00    0.81621   0.53470    0.007
 6693.00    0.85598   0.53631    0.007
 6694.00    0.88996   0.53708    0.007
 6695.00    0.89180   0.53565    0.007
 6696.00    0.87564   0.53433    0.000
 6697.00    0.89549   0.53484    0.000
 6698.00    0.93287   0.53576    0.000
 6699.00    0.93734   0.53511    0.000
 6700.00    0.92796   0.53404    0.000
 6701.00    0.89539   0.53391    0.000
 6702.00    0.85447   0.53445    0.000
 6703.00    0.90310   0.53406    0.000
 6704.00    0.97899   0.53267    0.000
 6705.00    0.99970   0.53229    0.000
 6706.00    1.00643   0.53300    0.000
 6707.00    0.95787   0.53274    0.000
 6708.00    0.89794   0.53120    0.000
 6709.00    0.85946   0.53061    0.000
 6710.00    0.82445   0.53142    0.000
 6711.00    0.77629   0.53174    0.000
 6712.00    0.72654   0.53042    0.000
 6713.00    0.78829   0.52889    0.000
 6714.00    0.85930   0.52953    0.000
 6715.00    0.91736   0.53088    0.000
 6716.00    0.97481   0.53000    0.000
 6717.00    0.95104   0.52783    0.000
 6718.00    0.92609   0.52783    0.000
 6719.00    0.89892   0.52987    0.000
 6720.00    0.87266   0.53016    0.000
 6721.00    0.86381   0.52828    0.000
 6722.00    0.85183   0.52723    0.000
 6723.00    0.80399   0.52886    0.000
 6724.00    0.75869   0.53020    0.000
 6725.00    0.73365   0.52883    0.000
 6726.00    0.72053   0.52713    0.000
 6727.00    0.77887   0.52811    0.000
 6728.00    0.83837   0.53000    0.000
 6729.00    0.90341   0.52938    0.000
 6730.00    0.96447   0.52761    0.000
 6731.00    1.01016   0.52776    0.000
 6732.00    1.04167   0.52956    0.000
 6733.00    1.02756   0.52968    0.000
 6734.00    0.99422   0.52778    0.000
 6735.00    0.90846   0.52709    0.000
 6736.00    0.84444   0.52878    0.000
 6737.00    0.83125   0.52966    0.000
 6738.00    0.84683   0.52808    0.000
 6739.00    0.92054   0.52661    0.000
 6740.00    0.94764   0.52748    0.000
 6741.00    0.89275   0.52900    0.000
 6742.00    0.85326   0.52856    0.000
 6743.00    0.83746   0.52672    0.000
 6744.00    0.84562   0.52633    0.000
 6745.00    0.88614   0.52800    0.000
 6746.00    0.90138   0.52865    0.000
 6747.00    0.88651   0.52751    0.000
 6748.00    0.83475   0.52644    0.000
 6749.00    0.74426   0.52696    0.000
 6750.00    0.67660   0.52811    0.000
 6751.00    0.63009   0.52856    0.000
 6752.00    0.65496   0.52766    0.000
 6753.00    0.73810   0.52673    0.008
 6754.00    0.74523   0.52770    0.008
 6755.00    0.69778   0.52897    0.008
 6756.00    0.72629   0.52907    0.008
 6757.00    0.80270   0.52814    0.008
 6758.00    0.86704   0.52770    0.008
 6759.00    0.92471   0.52856    0.008
 6760.00    0.89393   0.53005    0.008
 6761.00    0.82076   0.52993    0.008
 6762.00    0.80990   0.52831    0.008
 6763.00    0.82483   0.52836    0.008
 6764.00    0.82620   0.52998    0.008
 6765.00    0.82278   0.53086    0.008
 6766.00    0.76075   0.52980    0.008
 6767.00    0.68123   0.52855    0.008
 6768.00    0.70327   0.52902    0.008
 6769.00    0.75046   0.53068    0.008
 6770.00    0.79741   0.53085    0.008
 6771.00    0.84432   0.52906    0.008
 6772.00    0.86891   0.52848    0.008
 6773.00    0.89000   0.52970    0.008
 6774.00    0.86430   0.53051    0.008
 6775.00    0.83314   0.52949    0.008
 6776.00    0.77560   0.52821    0.008
 6777.00    0.71598   0.52826    0.008
 6778.00    0.80841   0.52930    0.008
 6779.00    0.90746   0.52954    0.008
 6780.00    0.90481   0.52818    0.008
 6781.00    0.90104   0.52739    0.008
 6782.00    0.89438   0.52804    0.008
 6783.00    0.88799   0.52858    0.008
 6784.00    0.88649   0.52777    0.008
 6785.00    0.88107   0.52677    0.007
 6786.00    0.83270   0.52671    0.008
 6787.00    0.79010   0.52738    0.008
 6788.00    0.79186   0.52777    0.007
 6789.00    0.78396   0.52688    0.007
 6790.00    0.71970   0.52616    0.008
 6791.00    0.66541   0.52667    0.008
 6792.00    0.65713   0.52723    0.008
 6793.00    0.65709   0.52680    0.008
 6794.00    0.68816   0.52619    0.008
 6795.00    0.71345   0.52620    0.008
 6796.00    0.72050   0.52675    0.008
 6797.00    0.73637   0.52710    0.008
 6798.00    0.77587   0.52672    0.008
 6799.00    0.80233   0.52658    0.008
 6800.00    0.79881   0.52697    0.008
 6801.00    0.81746   0.52703    0.008
 6802.00    0.88019   0.52685    0.008
 6803.00    0.90535   0.52709    0.008
 6804.00    0.86539   0.52741    0.008
 6805.00    0.83282   0.52735    0.008
 6806.00    0.81145   0.52690    0.007
 6807.00    0.76712   0.52709    0.007
 6808.00    0.69219   0.52816    0.007
 6809.00    0.64609   0.52838    0.007
 6810.00    0.63382   0.52717    0.007
 6811.00    0.63550   0.52673    0.008
 6812.00    0.65161   0.52805    0.008
 6813.00    0.71991   0.52911    0.008
 6814.00    0.83585   0.52829    0.008
 6815.00    0.87424   0.52664    0.008
 6816.00    0.85025   0.52716    0.008
 6817.00    0.85982   0.52937    0.008
 6818.00    0.89315   0.52958    0.008
 6819.00    0.86285   0.52729    0.008
 6820.00    0.79302   0.52631    0.008
 6821.00    0.74600   0.52820    0.008
 6822.00    0.71136   0.52984    0.008
 6823.00    0.74182   0.52853    0.007
 6824.00    0.80299   0.52615    0.007
 6825.00    0.81022   0.52666    0.007
 6826.00    0.79552   0.52913    0.007
 6827.00    0.72216   0.52920    0.007
 6828.00    0.62845   0.52647    0.007
 6829.00    0.66669   0.52525    0.007
 6830.00    0.74355   0.52711    0.007
 6831.00    0.76660   0.52863    0.007
 6832.00    0.77661   0.52699    0.007
 6833.00    0.77466   0.52448    0.007
 6834.00    0.77038   0.52495    0.008
 6835.00    0.74645   0.52715    0.008
 6836.00    0.71953   0.52701    0.008
 6837.00    0.70744   0.52435    0.008
 6838.00    0.69702   0.52323    0.008
 6839.00    0.77589   0.52482    0.008
 6840.00    0.86144   0.52594    0.008
 6841.00    0.77865   0.52431    0.008
 6842.00    0.68917   0.52216    0.008
 6843.00    0.68894   0.52256    0.008
 6844.00    0.69238   0.52435    0.008
 6845.00    0.81672   0.52429    0.008
 6846.00    0.93533   0.52209    0.008
 6847.00    0.95725   0.52112    0.007
 6848.00    0.97033   0.52230    0.007
 6849.00    0.89078   0.52308    0.007
 6850.00    0.81604   0.52203    0.007
 6851.00    0.77693   0.52061    0.007
 6852.00    0.74537   0.52061    0.007
 6853.00    0.75658   0.52156    0.007
 6854.00    0.77225   0.52166    0.007
 6855.00    0.80799   0.52049    0.007
 6856.00    0.81542   0.51997    0.007
 6857.00    0.71805   0.52043    0.007
 6858.00    0.68315   0.52046    0.008
 6859.00    0.84174   0.52011    0.008
 6860.00    0.93118   0.51997    0.008
 6861.00    0.83872   0.51995    0.008
 6862.00    0.75176   0.51974    0.008
 6863.00    0.67728   0.51949    0.008
 6864.00    0.59602   0.51963    0.008
 6865.00    0.50151   0.52024    0.008
 6866.00    0.50246   0.52039    0.008
 6867.00    0.66633   0.51946    0.008
 6868.00    0.77898   0.51893    0.008
 6869.00    0.81506   0.51994    0.008
 6870.00    0.85148   0.52116    0.008
 6871.00    0.88833   0.52080    0.007
 6872.00    0.90211   0.51954    0.007
 6873.00    0.88919   0.51967    0.007
 6874.00    0.83717   0.52129    0.007
 6875.00    0.74523   0.52231    0.007
 6876.00    0.68957   0.52143    0.007
 6877.00    0.66657   0.52033    0.007
 6878.00    0.64800   0.52123    0.007
 6879.00    0.63296   0.52323    0.007
 6880.00    0.67136   0.52380    0.007
 6881.00    0.74704   0.52255    0.008
 6882.00    0.77626   0.52189    0.008
 6883.00    0.77704   0.52316    0.008
 6884.00    0.83091   0.52512    0.008
 6885.00    0.91314   0.52535    0.008
 6886.00    0.92557   0.52398    0.008
 6887.00    0.90561   0.52385    0.008
 6888.00    0.87997   0.52573    0.008
 6889.00    0.85206   0.52725    0.008
 6890.00    0.80963   0.52671    0.008
 6891.00    0.76225   0.52547    0.008
 6892.00    0.74954   0.52589    0.008
 6893.00    0.74677   0.52794    0.008
 6894.00    0.78223   0.52896    0.007
 6895.00    0.82674   0.52775    0.007
 6896.00    0.79108   0.52667    0.007
 6897.00    0.74012   0.52788    0.008
 6898.00    0.72222   0.52990    0.008
 6899.00    0.70920   0.52987    0.008
 6900.00    0.72639   0.52811    0.008
 6901.00    0.74684   0.52772    0.008
 6902.00    0.76778   0.52955    0.008
 6903.00    0.78875   0.53077    0.008
 6904.00    0.80626   0.52974    0.008
 6905.00    0.82365   0.52807    0.008
 6906.00    0.76896   0.52851    0.008
 6907.00    0.71359   0.53036    0.008
 6908.00    0.64256   0.53052    0.008
 6909.00    0.57676   0.52899    0.008
 6910.00    0.59354   0.52802    0.008
 6911.00    0.62210   0.52891    0.008
 6912.00    0.76857   0.53005    0.008
 6913.00    0.88427   0.52966    0.008
 6914.00    0.77894   0.52807    0.008
 6915.00    0.68757   0.52757    0.008
 6916.00    0.67325   0.52867    0.008
 6917.00    0.67702   0.52914    0.008
 6918.00    0.76058   0.52862    0.008
 6919.00    0.82615   0.52740    0.008
 6920.00    0.82649   0.52718    0.008
 6921.00    0.80968   0.52814    0.008
 6922.00    0.74076   0.52864    0.008
 6923.00    0.68784   0.52792    0.008
 6924.00    0.67631   0.52660    0.008
 6925.00    0.68254   0.52663    0.008
 6926.00    0.72823   0.52763    0.008
 6927.00    0.76308   0.52822    0.008
 6928.00    0.77705   0.52727    0.008
 6929.00    0.78845   0.52632    0.008
 6930.00    0.79554   0.52686    0.008
 6931.00    0.77590   0.52781    0.008
 6932.00    0.71691   0.52791    0.008
 6933.00    0.69364   0.52665    0.008
 6934.00    0.71661   0.52626    0.008
 6935.00    0.72761   0.52726    0.008
 6936.00    0.72494   0.52794    0.008
 6937.00    0.68770   0.52744    0.008
 6938.00    0.61566   0.52671    0.008
 6939.00    0.62857   0.52687    0.008
 6940.00    0.71688   0.52756    0.008
 6941.00    0.73437   0.52798    0.008
 6942.00    0.69650   0.52744    0.008
 6943.00    0.71767   0.52715    0.008
 6944.00    0.77944   0.52754    0.008
 6945.00    0.76834   0.52767    0.008
 6946.00    0.71331   0.52773    0.008
 6947.00    0.69313   0.52783    0.008
 6948.00    0.69129   0.52789    0.008
 6949.00    0.67256   0.52819    0.008
 6950.00    0.64613   0.52857    0.008
 6951.00    0.66656   0.52834    0.008
 6952.00    0.70541   0.52823    0.008
 6953.00    0.69213   0.52856    0.008
 6954.00    0.66143   0.52887    0.008
 6955.00    0.68384   0.52918    0.008
 6956.00    0.72117   0.52909    0.008
 6957.00    0.70707   0.52889    0.008
 6958.00    0.68107   0.52935    0.008
 6959.00    0.70018   0.53012    0.008
 6960.00    0.72767   0.52993    0.008
 6961.00    0.76015   0.52926    0.008
 6962.00    0.79336   0.52926    0.008
 6963.00    0.77909   0.53024    0.008
 6964.00    0.75992   0.53094    0.008
 6965.00    0.65485   0.52993    0.008
 6966.00    0.54405   0.52882    0.008
 6967.00    0.55417   0.52950    0.008
 6968.00    0.56819   0.53104    0.009
 6969.00    0.67726   0.53086    0.009
 6970.00    0.78114   0.52919    0.009
 6971.00    0.72584   0.52850    0.009
 6972.00    0.67648   0.52981    0.009
 6973.00    0.71564   0.53115    0.009
 6974.00    0.73777   0.53011    0.009
 6975.00    0.59650   0.52837    0.008
 6976.00    0.49914   0.52863    0.008
 6977.00    0.70725   0.53032    0.008
 6978.00    0.86794   0.53052    0.008
 6979.00    0.77408   0.52891    0.008
 6980.00    0.69784   0.52809    0.008
 6981.00    0.69750   0.52902    0.008
 6982.00    0.69978   0.53050    0.008
 6983.00    0.71137   0.53059    0.008
 6984.00    0.75405   0.52929    0.008
 6985.00    0.88945   0.52849    0.008
 6986.00    0.96229   0.52923    0.008
 6987.00    0.87622   0.53052    0.009
 6988.00    0.79804   0.53064    0.009
 6989.00    0.73711   0.52950    0.009
 6990.00    0.70874   0.52865    0.009
 6991.00    0.74214   0.52936    0.009
 6992.00    0.75937   0.53064    0.009
 6993.00    0.74981   0.53069    0.009
 6994.00    0.71028   0.52942    0.009
 6995.00    0.62724   0.52855    0.009
 6996.00    0.59529   0.52933    0.009
 6997.00    0.62856   0.53040    0.009
 6998.00    0.59676   0.53023    0.008
 6999.00    0.49176   0.52889    0.008
 7000.00    0.53803   0.52819    0.008
 7001.00    0.73436   0.52884    0.008
 7002.00    0.80827   0.52932    0.008
 7003.00    0.77507   0.52897    0.008
 7004.00    0.77831   0.52834    0.008
 7005.00    0.80963   0.52808    0.008
 7006.00    0.77349   0.52804    0.008
 7007.00    0.69165   0.52799    0.008
 7008.00    0.68922   0.52809    0.008
 7009.00    0.73393   0.52826    0.008
 7010.00    0.65184   0.52781    0.008
 7011.00    0.50408   0.52676    0.008
 7012.00    0.58246   0.52702    0.009
 7013.00    0.76236   0.52827    0.009
 7014.00    0.77114   0.52861    0.009
 7015.00    0.71388   0.52733    0.009
 7016.00    0.72045   0.52603    0.009
 7017.00    0.74797   0.52711    0.009
 7018.00    0.70751   0.52903    0.009
 7019.00    0.64835   0.52872    0.008
 7020.00    0.65676   0.52700    0.008
 7021.00    0.68045   0.52716    0.008
 7022.00    0.73968   0.52934    0.008
 7023.00    0.80534   0.53019    0.008
 7024.00    0.71869   0.52839    0.008
 7025.00    0.61094   0.52710    0.008
 7026.00    0.59175   0.52912    0.008
 7027.00    0.58134   0.53161    0.008
 7028.00    0.59870   0.53125    0.009
 7029.00    0.61779   0.52921    0.009
 7030.00    0.49051   0.52903    0.009
 7031.00    0.36034   0.53149    0.009
 7032.00    0.56515   0.53311    0.009
 7033.00    0.76235   0.53167    0.009
 7034.00    0.75078   0.52998    0.009
 7035.00    0.74060   0.53108    0.009
 7036.00    0.74977   0.53361    0.009
 7037.00    0.75119   0.53403    0.009
 7038.00    0.68124   0.53148    0.009
 7039.00    0.62795   0.52996    0.009
 7040.00    0.68699   0.53153    0.009
 7041.00    0.72929   0.53319    0.009
 7042.00    0.68406   0.53277    0.009
 7043.00    0.66238   0.53087    0.009
 7044.00    0.73982   0.52963    0.009
 7045.00    0.78325   0.52976    0.008
 7046.00    0.70833   0.53015    0.008
 7047.00    0.66741   0.52940    0.008
 7048.00    0.72600   0.52776    0.009
 7049.00    0.75171   0.52639    0.009
 7050.00    0.69537   0.52581   -2.000
 7051.00    0.64834   0.52591   -2.000
 7052.00    0.62132   0.52487   -2.000
 7053.00    0.63506   0.52273   -2.000
 7054.00    0.72495   0.52076   -2.000
 7055.00    0.83284   0.51970   -2.000
 7056.00    0.97007   0.52000   -2.000
 7057.00    0.98637   0.51974   -2.000
 7058.00    0.82967   0.51767   -2.000
 7059.00    0.79191   0.51512   -2.000
 7060.00    0.90380   0.51409   -2.000
 7061.00    0.87118   0.51457   -2.000
 7062.00    0.67832   0.51432   -2.000
 7063.00    0.56857   0.51222   -2.000
 7064.00    0.54013   0.51027   -2.000
 7065.00    0.62170   0.51020   -2.000
 7066.00    0.79814   0.51066   -2.000
 7067.00    0.82050   0.51002   -2.000
 7068.00    0.72579   0.50795   -2.000
 7069.00    0.67223   0.50631   -2.000
 7070.00    0.64614   0.50663   -2.000
 7071.00    0.61821   0.50740   -2.000
 7072.00    0.58922   0.50693   -2.000
 7073.00    0.69460   0.50520   -2.000
 7074.00    0.86849   0.50361   -2.000
 7075.00    0.76014   0.50353   -2.000
 7076.00    0.52718   0.50411   -2.000
 7077.00    0.63425   0.50373   -2.000
 7078.00    0.87027   0.50224   -2.000
 7079.00    0.77857   0.50050   -2.000
 7080.00    0.58134   0.50016   -2.000
 7081.00    0.57332   0.50101   -2.000
 7082.00    0.61627   0.50063   -2.000
 7083.00    0.72342   0.49847   -2.000
 7084.00    0.84475   0.49639   -2.000
 7085.00    0.77411   0.49636   -2.000
 7086.00    0.66972   0.49768   -2.000
 7087.00    0.63592   0.49717   -2.000
 7088.00    0.61159   0.49435   -2.000
 7089.00    0.65821   0.49271   -2.000
 7090.00    0.71158   0.49344   -2.000
 7091.00    0.65175   0.49453   -2.000
 7092.00    0.58527   0.49349   -2.000
 7093.00    0.66275   0.49066   -2.000
 7094.00    0.74252   0.49013   -2.000
 7095.00    0.65058   0.49184   -2.000
 7096.00    0.56052   0.49236   -2.000
 7097.00    0.51721   0.49032   -2.000
 7098.00    0.48880   0.48811   -2.000
 7099.00    0.65831   0.48903   -2.000
 7100.00    0.79413   0.49121   -2.000
 7101.00    0.63127   0.49090   -2.000
 7102.00    0.48146   0.48821   -2.000
 7103.00    0.41693   0.48703   -2.000
 7104.00    0.38724   0.48906   -2.000
 7105.00    0.53499   0.49099   -2.000
 7106.00    0.66709   0.48962   -2.000
 7107.00    0.73477   0.48679   -2.000
 7108.00    0.76485   0.48684   -2.000
 7109.00    0.66675   0.48957   -2.000
 7110.00    0.59108   0.49053   -2.000
 7111.00    0.57985   0.48803   -2.000
 7112.00    0.60447   0.48558   -2.000
 7113.00    0.71706   0.48676   -2.000
 7114.00    0.77560   0.48949   -2.000
 7115.00    0.71977   0.48933   -2.000
 7116.00    0.68993   0.48636   -2.000
 7117.00    0.70788   0.48449   -2.000
 7118.00    0.67573   0.48628   -2.000
 7119.00    0.56306   0.48864   -2.000
 7120.00    0.56282   0.48740   -2.000
 7121.00    0.72106   0.48421   -2.000
 7122.00    0.74754   0.48317   -2.000
 7123.00    0.61061   0.48558   -2.000
 7124.00    0.51359   0.48736   -2.000
 7125.00    0.46022   0.48507   -2.000
 7126.00    0.37484   0.48191   -2.000
 7127.00    0.25857   0.48220   -2.000
 7128.00    0.32125   0.48501   -2.000
 7129.00    0.53612   0.48559   -2.000
 7130.00    0.56524   0.48282   -2.000
 7131.00    0.45524   0.48058   -2.000
 7132.00    0.45607   0.48206   -2.000
 7133.00    0.52980   0.48449   -2.000
 7134.00    0.72413   0.48396   -2.000
 7135.00    0.98794   0.48154   -2.000
 7136.00    1.00715   0.48062   -2.000
 7137.00    0.90363   0.48268   -2.000
 7138.00    0.81235   0.48440   -2.000
 7139.00    0.72639   0.48310   -2.000
 7140.00    0.71695   0.48115   -2.000
 7141.00    0.73603   0.48149   -2.000
 7142.00    0.62461   0.48358   -2.000
 7143.00    0.47198   0.48451   -2.000
 7144.00    0.43237   0.48343   -2.000
 7145.00    0.42258   0.48200   -2.000
 7146.00    0.53651   0.48248   -2.000
 7147.00    0.67712   0.48444   -2.000
 7148.00    0.66129   0.48523   -2.000
 7149.00    0.61871   0.48452   -2.000
 7150.00    0.62843   0.48321   -2.000
 7151.00    0.64491   0.48320   -2.000
 7152.00    0.59972   0.48537   -2.000
 7153.00    0.54894   0.48697   -2.000
 7154.00    0.53550   0.48618   -2.000
 7155.00    0.52410   0.48403   -2.000
 7156.00    0.53725   0.48383   -2.000
 7157.00    0.55024   0.48666   -2.000
 7158.00    0.50226   0.48869   -2.000
 7159.00    0.43552   0.48735   -2.000
 7160.00   -0.05699   0.48467   -2.000
 7161.00   -0.49632   0.48472   -2.000
 7162.00   -0.26568   0.48785   -2.000
 7163.00   -0.00292   0.48991   -2.000
 7164.00    0.53401   0.48819   -2.000
 7165.00    1.05337   0.48523   -2.000
 7166.00    1.46139   0.48558   -2.000
 7167.00    1.66070   0.48873   -2.000
 7168.00    0.82366   0.49042   -2.000
 7169.00    0.20817   0.48870   -2.000
 7170.00    0.48442   0.48607   -2.000
 7171.00    0.74678   0.48632   -2.000
 7172.00    0.96270   0.48894   -2.000
 7173.00    1.05723   0.49025   -2.000
 7174.00    0.80929   0.48875   -2.000
 7175.00    0.64445   0.48671   -2.000
 7176.00    0.68005   0.48667   -2.000
 7177.00    0.65522   0.48836   -2.000
 7178.00    0.50456   0.48940   -2.000
 7179.00    0.47024   0.48839   -2.000
 7180.00    0.64654   0.48695   -2.000
 7181.00    0.71271   0.48688   -2.000
 7182.00    0.60456   0.48760   -2.000
 7183.00    0.60867   0.48790   -2.000
 7184.00    0.76875   0.48735   -2.000
 7185.00    0.77152   0.48710   -2.000
 7186.00    0.58192   0.48758   -2.000
 7187.00    0.43626   0.48712   -2.000
 7188.00    0.33796   0.48607   -2.000
 7189.00    0.39248   0.48614   -2.000
 7190.00    0.59229   0.48732   -2.000
 7191.00    0.72450   0.48813   -2.000
 7192.00    0.80005   0.48666   -2.000
 7193.00    0.80949   0.48496   -2.000
 7194.00    0.77013   0.48589   -2.000
 7195.00    0.75418   0.48817   -2.000
 7196.00    0.75339   0.48851   -2.000
 7197.00    0.70333   0.48603   -2.000
 7198.00    0.62532   0.48469   -2.000
 7199.00    0.32480   0.48673   -2.000
 7200.00   -0.08561   0.48932   -2.000
 7201.00   -0.15487   0.48896   -2.000
 7202.00   -0.07847   0.48605   -2.000
 7203.00    0.18590   0.48547   -2.000
 7204.00    0.51904   0.48818   -2.000
 7205.00    0.79615   0.49056   -2.000
 7206.00    1.05590   0.48993   -2.000
 7207.00    0.86706   0.48729   -2.000
 7208.00    0.56244   0.48730   -2.000
 7209.00    0.63030   0.48981   -2.000
 7210.00    0.77651   0.49155   -2.000
 7211.00    0.68189   0.49130   -2.000
 7212.00    0.54727   0.49001   -2.000
 7213.00    0.41263   0.49042   -2.000
 7214.00    0.27798   0.49201   -2.000
 7215.00    0.35258   0.49303   -2.000
 7216.00    0.44531   0.49306   -2.000
 7217.00    0.46258   0.49307   -2.000
 7218.00    0.47601   0.49389   -2.000
