###################################################################
## OUTPUT of StarlightChains_v04.for    [Cid@UFSC - 01/Apr/2007] ##
###################################################################

## Some input info
KUG0210-078._46_31.txt                   [arq_obs]
Base.CB07.vall.4m                        [arq_base]
Masks.EmLines.NEW.gm                     [arq_masks]
StCv04.C11.config                        [arq_config]
   66                                    [N_base]
    0                                    [N_YAV_components = # of components with extra extinction!]
    0                                    [i_FitPowerLaw (1/0 = Yes/No)]
-9.99                                    [alpha_PowerLaw]
CCM                                      [red_law_option]
 1.458241                                [q_norm = A(l_norm)/A(V)]

## (Re)Sampling Parameters
 3741.00                                 [l_ini (A)]
 7218.00                                 [l_fin (A)]
    1.00                                 [dl    (A)]     (OBS: dl_cushion =    50.00 A)

## Normalization info
 4020.00                                 [l_norm (A) - for base]
 4010.00                                 [llow_norm (A) - window for f_obs]
 4060.00                                 [lupp_norm (A) - window for f_obs]
9.222898E-18                             [fobs_norm (in input units)]

## S/N
 3691.00                                 [llow_SN (A) - window for S/N]
 7268.00                                 [lupp_SN (A) - window for S/N]
   2.203                                 [S/N in S/N window]
   3.174                                 [S/N in norm. window]
   0.008                                 [S/N_err in S/N window]
   0.011                                 [S/N_err in norm. window]
  1.0000                                 [fscale_chi2]

## etc...
    -2007884                             [idum_orig]
  2365                                   [NOl_eff]
  2315                                   [Nl_eff]
    50    NSIGMA                         [Ntot_cliped & clip_method]
  4257330                                [Nglobal_steps]
   7                                     [N_chains]
  38                                     [NEX0s_base = N_base in EX0s-fits]
 0   0   1       50   2.0   2.804E+03    [Clip-Bug, RC-Crash & Burn-In warning-flags, n_censored_weights, wei_nsig_threshold & wei_limit]
    47     46.463     45.633      0.830  [idt_all, wdt_TotTime, wdt_UsrTime & wdt_SysTime (sec)]

## Synthesis Results - Best model ##

 4.09529E-05                             [chi2/Nl_eff]
    29.28461                             [adev (%)]

   118.29065                             [sum-of-x (%)]
 5.02327E-18                             [Flux_tot (units of input spectrum!)]
 6.71441E-14                             [Mini_tot (???)]
 3.47139E-14                             [Mcor_tot (???)]

 155.05                                  [v0_min  (km/s)]
   0.00                                  [vd_min  (km/s)]
-0.5775                                  [AV_min  (mag)]
 0.0000                                  [YAV_min (mag)]

# j     x_j(%)      Mini_j(%)     Mcor_j(%)     age_j(yr)     Z_j      (L/M)_j    YAV?  Mstars   component_j        a/Fe...       SSP_chi2r SSP_adev(%)   SSP_AV   SSP_x(%)
  1      9.0851     5.2522E-02    1.0159E-01    1.000000E+06  0.00400  1.094E-02    0   1.0000   age020_m42            0.0000     4.1627E-05    31.0539   1.4205   110.6330
  2      0.0000     0.0000E+00    0.0000E+00    3.160000E+06  0.00400  4.007E-02    0   0.9999   age045_m42            0.0000     4.3111E-05    31.3769   0.6682   117.4833
  3      0.0000     0.0000E+00    0.0000E+00    5.010000E+06  0.00400  2.539E-02    0   0.9488   age055_m42            0.0000     4.2363E-05    31.1206   1.0123   114.5761
  4      0.0000     0.0000E+00    0.0000E+00    6.610000E+06  0.00400  2.620E-02    0   0.9220   age061_m42            0.0000     4.3132E-05    31.0910   0.6157   117.1742
  5      0.0000     0.0000E+00    0.0000E+00    1.000000E+07  0.00400  1.322E-02    0   0.8862   age070_m42            0.0000     4.2577E-05    29.9657   0.4339   117.4395
  6      0.0000     0.0000E+00    0.0000E+00    1.445000E+07  0.00400  7.883E-03    0   0.8571   age078_m42            0.0000     4.2080E-05    30.0768   0.7531   114.9889
  7      0.0000     0.0000E+00    0.0000E+00    2.512000E+07  0.00400  5.251E-03    0   0.8174   age090_m42            0.0000     4.2561E-05    29.7908   0.3234   117.6374
  8      0.0000     0.0000E+00    0.0000E+00    4.000000E+07  0.00400  3.649E-03    0   0.7851   age104_m42            0.0000     4.2740E-05    30.5497  -0.0000   119.6904
  9      0.0822     1.6779E-03    2.4760E-03    5.500000E+07  0.00400  3.098E-03    0   0.7629   age110_m42            0.0000     4.3430E-05    30.3736   0.1790   119.7826
 10      0.0000     0.0000E+00    0.0000E+00    1.015200E+08  0.00400  2.228E-03    0   0.7207   age116_m42            0.0000     4.4198E-05    30.6333   0.1781   120.2679
 11      0.0000     0.0000E+00    0.0000E+00    2.861200E+08  0.00400  1.093E-03    0   0.6648   age125_m42            0.0000     4.4943E-05    30.3331  -0.3594   122.7175
 12      0.4807     4.6082E-02    5.6732E-02    5.088000E+08  0.00400  6.597E-04    0   0.6365   age130_m42            0.0000     4.6113E-05    30.8728  -0.4245   124.7799
 13      0.0000     0.0000E+00    0.0000E+00    1.434000E+09  0.00400  2.132E-04    0   0.5798   age139_m42            0.0000     4.6834E-05    29.9420  -1.0000   123.2661
 14      0.0000     0.0000E+00    0.0000E+00    4.250000E+09  0.00400  5.895E-05    0   0.5377   age158_m42            0.0000     4.9771E-05    39.5298  -1.0000   112.9673
 15      5.2566     9.4716E+00    9.5485E+00    7.500000E+09  0.00400  3.510E-05    0   0.5212   age171_m42            0.0000     5.2621E-05    44.7136  -1.0000   108.8658
 16      0.0000     0.0000E+00    0.0000E+00    1.300000E+10  0.00400  2.005E-05    0   0.5034   age193_m42            0.0000     5.5588E-05    49.3038  -1.0000   105.0197
 17      0.0000     0.0000E+00    0.0000E+00    1.800000E+10  0.00400  1.525E-05    0   0.4967   age213_m42            0.0000     5.5604E-05    50.0863  -1.0000   104.1358
 18      0.0000     0.0000E+00    0.0000E+00    1.000000E+06  0.00800  1.238E-02    0   1.0000   age020_m52            0.0000     4.1644E-05    31.0733   1.4160   110.8343
 19      0.0000     0.0000E+00    0.0000E+00    3.160000E+06  0.00800  3.074E-02    0   0.9966   age045_m52            0.0000     4.1661E-05    31.0804   1.3415   111.6946
 20      0.0000     0.0000E+00    0.0000E+00    5.010000E+06  0.00800  2.668E-02    0   0.9443   age055_m52            0.0000     4.1925E-05    30.9647   1.1021   113.5890
 21      0.0000     0.0000E+00    0.0000E+00    6.610000E+06  0.00800  2.136E-02    0   0.9177   age061_m52            0.0000     4.1625E-05    29.9772  -0.1092   120.2343
 22      0.0000     0.0000E+00    0.0000E+00    1.000000E+07  0.00800  1.215E-02    0   0.8827   age070_m52            0.0000     4.2154E-05    29.7950   0.6469   116.6481
 23      0.0000     0.0000E+00    0.0000E+00    1.445000E+07  0.00800  8.717E-03    0   0.8552   age078_m52            0.0000     4.2165E-05    30.0437   0.7184   116.4256
 24      0.0000     0.0000E+00    0.0000E+00    2.512000E+07  0.00800  5.592E-03    0   0.8162   age090_m52            0.0000     4.2604E-05    29.8196   0.3873   118.8769
 25      0.0000     0.0000E+00    0.0000E+00    4.000000E+07  0.00800  3.896E-03    0   0.7841   age104_m52            0.0000     4.3041E-05    30.0494   0.2707   120.2007
 26      0.0000     0.0000E+00    0.0000E+00    1.015200E+08  0.00800  2.148E-03    0   0.7226   age116_m52            0.0000     4.3860E-05    30.4214   0.1637   120.7943
 27      0.9934     6.3302E-02    8.1827E-02    2.861200E+08  0.00800  9.925E-04    0   0.6683   age125_m52            0.0000     4.5895E-05    30.8013  -0.3617   125.9233
 28      0.0000     0.0000E+00    0.0000E+00    9.047900E+08  0.00800  3.141E-04    0   0.6138   age135_m52            0.0000     4.8022E-05    29.2925  -1.0000   130.5605
 29      0.0000     0.0000E+00    0.0000E+00    1.434000E+09  0.00800  1.719E-04    0   0.5853   age139_m52            0.0000     4.9746E-05    36.6588  -1.0000   119.4650
 30      0.0000     0.0000E+00    0.0000E+00    2.500000E+09  0.00800  7.872E-05    0   0.5600   age150_m52            0.0000     5.3305E-05    44.0423  -1.0000   112.1248
 31      0.4879     7.1164E-01    7.4687E-01    4.250000E+09  0.00800  4.336E-05    0   0.5426   age158_m52            0.0000     5.3632E-05    44.5087  -1.0000   110.9159
 32      0.0405     8.1021E-02    8.3356E-02    6.250000E+09  0.00800  3.159E-05    0   0.5319   age166_m52            0.0000     5.7830E-05    49.9397  -1.0000   106.6607
 33     14.7405     6.8499E+01    6.7213E+01    1.300000E+10  0.00800  1.361E-05    0   0.5073   age193_m52            0.0000     6.8669E-05    61.8738  -1.0000    94.5999
 34      0.0000     0.0000E+00    0.0000E+00    1.800000E+10  0.00800  9.886E-06    0   0.4990   age213_m52            0.0000     7.2990E-05    63.8624  -1.0000    91.1112
 35      0.0000     0.0000E+00    0.0000E+00    1.000000E+06  0.02000  1.544E-02    0   1.0000   age020_m62            0.0000     4.1650E-05    31.0121   1.4205   110.9969
 36      0.0000     0.0000E+00    0.0000E+00    3.160000E+06  0.02000  3.762E-02    0   0.9858   age045_m62            0.0000     4.1571E-05    31.0675   1.3547   111.9826
 37      3.6968     7.0936E-03    1.2818E-02    5.010000E+06  0.02000  3.296E-02    0   0.9342   age055_m62            0.0000     4.2507E-05    31.1535   0.9646   116.0014
 38     18.5863     1.0186E-01    1.7458E-01    8.710000E+06  0.02000  1.154E-02    0   0.8861   age067_m62            0.0000     4.1296E-05    30.1352   0.2738   116.4200
 39      0.0000     0.0000E+00    0.0000E+00    1.445000E+07  0.02000  7.663E-03    0   0.8472   age078_m62            0.0000     4.1698E-05    29.7749   0.3274   118.5205
 40      0.0000     0.0000E+00    0.0000E+00    2.512000E+07  0.02000  4.532E-03    0   0.8099   age090_m62            0.0000     4.1841E-05    29.7902   0.3405   117.6065
 41      0.0000     0.0000E+00    0.0000E+00    5.500000E+07  0.02000  2.733E-03    0   0.7595   age110_m62            0.0000     4.2766E-05    29.9209   0.2636   119.2785
 42      0.0000     0.0000E+00    0.0000E+00    1.609000E+08  0.02000  1.369E-03    0   0.6985   age120_m62            0.0000     4.4957E-05    30.9295  -0.0003   123.5325
 43      0.0000     0.0000E+00    0.0000E+00    2.861200E+08  0.02000  9.013E-04    0   0.6714   age125_m62            0.0000     4.6740E-05    30.7023  -0.2392   127.0218
 44      0.2593     3.2623E-02    4.0693E-02    5.088000E+08  0.02000  5.028E-04    0   0.6449   age130_m62            0.0000     4.8387E-05    32.4902  -0.7570   133.3206
 45      0.0000     0.0000E+00    0.0000E+00    9.047900E+08  0.02000  2.428E-04    0   0.6179   age135_m62            0.0000     4.8055E-05    29.1752  -1.0000   129.6619
 46      0.0000     0.0000E+00    0.0000E+00    1.434000E+09  0.02000  1.263E-04    0   0.5908   age139_m62            0.0000     5.0061E-05    34.7955  -1.0000   121.3269
 47      0.0000     0.0000E+00    0.0000E+00    2.500000E+09  0.02000  5.985E-05    0   0.5673   age150_m62            0.0000     5.4874E-05    44.3452  -1.0000   113.1825
 48      0.0000     0.0000E+00    0.0000E+00    4.250000E+09  0.02000  3.271E-05    0   0.5468   age158_m62            0.0000     6.1797E-05    52.2397  -1.0000   105.3990
 49      0.0000     0.0000E+00    0.0000E+00    1.000000E+10  0.02000  1.360E-05    0   0.5167   age181_m62            0.0000     7.1996E-05    60.1949  -1.0000    95.8234
 50      0.0000     0.0000E+00    0.0000E+00    1.800000E+10  0.02000  7.124E-06    0   0.5013   age213_m62            0.0000     7.9297E-05    64.1532  -1.0000    89.1032
 51     14.8458     3.6224E-02    7.0051E-02    1.000000E+06  0.05000  2.592E-02    0   0.9998   age020_m72            0.0000     4.1653E-05    30.9779   1.4183   110.9183
 52      0.7673     1.0016E-03    1.8554E-03    3.160000E+06  0.05000  4.845E-02    0   0.9577   age045_m72            0.0000     4.1790E-05    31.1776   1.2277   113.3393
 53      0.0000     0.0000E+00    0.0000E+00    5.010000E+06  0.05000  3.072E-02    0   0.9147   age055_m72            0.0000     4.1599E-05    30.3233   0.8564   115.5210
 54     39.1751     1.7028E-01    2.9238E-01    6.610000E+06  0.05000  1.455E-02    0   0.8877   age061_m72            0.0000     4.1426E-05    32.3585   0.3757   115.8654
 55      0.0000     0.0000E+00    0.0000E+00    1.000000E+07  0.05000  9.074E-03    0   0.8524   age070_m72            0.0000     4.1714E-05    31.0841   1.0323   115.0843
 56      0.0641     9.5369E-04    1.4576E-03    2.512000E+07  0.05000  4.250E-03    0   0.7902   age090_m72            0.0000     4.2347E-05    30.5054   0.7455   116.5757
 57      0.0000     0.0000E+00    0.0000E+00    4.000000E+07  0.05000  3.087E-03    0   0.7618   age104_m72            0.0000     4.2855E-05    30.4061   0.5363   117.8208
 58      0.0000     0.0000E+00    0.0000E+00    1.015200E+08  0.05000  1.700E-03    0   0.7096   age116_m72            0.0000     4.4599E-05    30.1247   0.2296   121.7052
 59      0.0000     0.0000E+00    0.0000E+00    2.861200E+08  0.05000  7.384E-04    0   0.6633   age125_m72            0.0000     4.7821E-05    31.6633  -0.4470   130.2079
 60      0.0047     7.8645E-04    9.6928E-04    5.088000E+08  0.05000  3.819E-04    0   0.6372   age130_m72            0.0000     4.7949E-05    32.2467  -1.0000   134.8203
 61      0.0000     0.0000E+00    0.0000E+00    9.047900E+08  0.05000  1.676E-04    0   0.6110   age135_m72            0.0000     5.0593E-05    32.9849  -1.0000   124.1231
 62      5.6728     4.0600E+00    4.6128E+00    1.434000E+09  0.05000  8.837E-05    0   0.5874   age139_m72            0.0000     5.5544E-05    44.2414  -1.0000   114.7216
 63      0.4099     6.1243E-01    6.6312E-01    2.500000E+09  0.05000  4.233E-05    0   0.5598   age150_m72            0.0000     6.2839E-05    52.1147  -1.0000   106.2707
 64      3.6417     1.6050E+01    1.6295E+01    6.250000E+09  0.05000  1.435E-05    0   0.5249   age166_m72            0.0000     7.4685E-05    62.3924  -1.0000    92.8905
 65      0.0000     0.0000E+00    0.0000E+00    1.300000E+10  0.05000  6.513E-06    0   0.5036   age193_m72            0.0000     8.4572E-05    67.1339  -1.0000    85.4791
 66      0.0000     0.0000E+00    0.0000E+00    1.800000E+10  0.05000  4.527E-06    0   0.4945   age213_m72            0.0000     9.0396E-05    69.5029  -1.0000    80.4941


## Synthesis Results - Average & Chains ##

# j      x_j: min, <> & last-chain-values for 1 ...  7 chains
  1      9.0851      4.7768      1.5353      4.1026      9.0362      3.0208      1.8524      8.7969      0.0000
  2      0.0000      1.1786      0.0000      8.1883      0.0000      3.0096      1.2575      3.2877      0.4667
  3      0.0000      1.0466      3.8545      0.9184      0.0000      0.0000      0.6620      4.2402      1.0584
  4      0.0000      0.8546      0.8330      1.8426      3.4307      3.5755      0.0000      0.0000      1.6899
  5      0.0000      0.8950      1.1041      1.2092      1.5557      2.1454      0.0000      0.2369      0.0000
  6      0.0000      0.9201      0.4044      0.0000      0.0000      2.7291      3.6500      1.3167      0.0000
  7      0.0000      1.0228      1.2227      4.4213      0.2591      1.3647      1.0727     11.9864      1.1143
  8      0.0000      0.8710      6.9293      0.2620      0.0741      1.8446      0.7480      1.3638      0.0000
  9      0.0822      0.8580      0.5920      0.9081      1.6995      0.4667      0.5190      0.0000      1.2605
 10      0.0000      1.1987      0.0000      0.0000      0.0000      0.0000      0.6879      0.4648      1.3749
 11      0.0000      0.9138      0.0000      3.1750      0.0000      0.0000      3.0490      0.0892      3.0065
 12      0.4807      1.0163      0.0000      0.0000      4.1124      0.0000      0.5610      1.7208      1.1759
 13      0.0000      0.9567      1.4394      0.0000      2.1217      3.4765      0.0000      0.3727      0.5813
 14      0.0000      1.0318      0.0000      2.8626      2.8107      0.0000      1.0025      1.5276      1.5684
 15      5.2566      1.0088      2.5213      0.0000      2.7588      4.9462      2.5294      0.0000      3.7266
 16      0.0000      0.9235      0.0000      1.5285      0.0000      1.5632      0.0000      4.3211      0.0000
 17      0.0000      0.8140      2.4307      0.0000      0.0000      0.0000      0.7729      0.3085      1.3385
 18      0.0000      1.3657      7.0264      0.4933      0.0000      8.5885      0.0000      3.6729      3.3609
 19      0.0000      0.8527      0.3020      0.6644      0.0494      4.9505      1.0783      0.9586      0.4410
 20      0.0000      0.9261      1.3318      1.8691      0.0004      6.3405      0.0000      0.1076      0.8763
 21      0.0000      1.2727      0.0000      2.3676      5.2348      2.0477      2.5292      2.2033      5.3702
 22      0.0000      0.9760      5.0922      0.8947      0.0000      0.6221      2.1291      0.9924      0.0000
 23      0.0000      1.1415      4.1263      2.3920      0.8169      2.7948      7.2705      0.0000      3.0065
 24      0.0000      0.9956      2.2192      0.2935      2.9167      0.0000      3.0067      1.0943      1.1609
 25      0.0000      0.8998      0.0000      0.5378      0.0000      0.0000      3.4412      0.7038      4.2494
 26      0.0000      0.9313      0.0000      0.0000      0.4608      4.7229      4.5234      2.4974      0.4311
 27      0.9934      1.1679      2.1488      0.3741      0.5729      0.0000      0.0000      3.3616      3.7351
 28      0.0000      1.0480      0.0000      0.2333      0.4853      0.0000      0.4753      0.0000      2.0149
 29      0.0000      0.8575      0.0000      0.1025      1.2011      0.0000      0.0000      0.0000      0.5314
 30      0.0000      1.1323      2.5255      3.6991      1.9620      0.0000      1.9169      5.3439      2.4563
 31      0.4879      0.8709      0.1987      6.2414      0.7170      0.0000      1.8599      1.1429      0.0000
 32      0.0405      0.9393      4.4841      0.5925      0.9556      0.0000      1.1381      0.0000      0.9081
 33     14.7405      0.8561      1.9428      2.0109      0.5365      1.0519      0.0000      3.2314      1.3214
 34      0.0000      1.0902      0.0000      1.0209      4.6544      1.3239      4.5314      0.2834      5.8331
 35      0.0000      1.4146      1.5974     11.7813      0.0000      3.3463      2.7980      1.1515      6.1432
 36      0.0000      0.7922      1.7020      0.0000      7.4558      0.7292      0.8504      0.7804      3.2604
 37      3.6968      0.9888      1.2874      0.8851      2.3465      0.0000      0.8141      0.0000      0.6252
 38     18.5863      0.6121      0.4492      0.0272      5.3318      3.3633      0.0000      2.8456      1.0316
 39      0.0000      0.8930      0.0000      1.5589      0.0000      3.4669      0.0000      3.6281      0.1240
 40      0.0000      0.7606      0.0000      2.4620      0.9148      2.8011      1.2003      4.6155      0.4675
 41      0.0000      1.0481      4.0021      3.4367      0.5478      0.5823      0.0000      0.0000      1.1770
 42      0.0000      1.0763      4.2002      0.2400      1.8008      1.9168      1.7108      0.0000      2.5898
 43      0.0000      1.1013      0.8573      0.3095      0.0000      2.4582      0.4134      0.0000      0.3989
 44      0.2593      1.2365      0.4097      2.3045      0.6437      0.0000      0.0000      0.0000      1.3506
 45      0.0000      1.1625      1.8299      0.0000      0.0000      4.8119      0.6425      0.0000      1.8255
 46      0.0000      1.0203      0.0000      1.9435      0.0000      0.0000      0.0000      5.3288      0.0000
 47      0.0000      0.9435      3.1045      0.0000      0.5018      1.6164      2.9858      4.0986      3.4319
 48      0.0000      0.9356      0.7841      0.0000      4.6159      0.4527      0.0000      0.7143      0.0000
 49      0.0000      1.8377      3.7343      0.0000      0.0000      0.0000      4.4521      0.0000      0.0000
 50      0.0000      1.3432      2.3213      0.0000      0.0000      2.0515      1.3985      0.0000      0.0000
 51     14.8458      0.9246      3.0008      0.1826      3.7653      0.4489      7.5312      0.0000      0.0000
 52      0.7673      0.9639      1.5009      1.7399      0.5317      2.0829      1.6003      0.0000      0.0000
 53      0.0000      0.7333      0.0080      0.0000      6.9775      0.0000      2.1519      0.0000      4.6843
 54     39.1751      4.6737      0.0000      1.7113      1.0081      0.5528      8.4733      3.0221      1.9772
 55      0.0000      0.9872      2.0780      2.3814      0.0000      1.7952      0.4832      0.0000      1.9690
 56      0.0641      0.9169      1.4806      0.0000      5.2435      0.0000      0.2396      0.0000      7.7989
 57      0.0000      1.1536      0.9813      5.8643      1.3261      0.7433      0.0000      0.2831      0.0000
 58      0.0000      1.0282      1.3340      4.7324      0.0054      2.7119      0.0000      0.0000      0.8144
 59      0.0000      0.7102      2.9257      1.2236      3.2714      0.0000      0.8694      0.2029      0.0000
 60      0.0047      0.8394      0.3148      0.0000      0.9580      0.0000      0.1979      0.4811      2.0104
 61      0.0000      0.8320      0.0000      0.0000      2.1113      1.4729      1.3952      0.6310      0.0000
 62      5.6728      0.8468      0.8385      0.0000      3.2342      0.0000      1.3380      0.0000      0.8913
 63      0.4099      2.9348      1.2191      4.1467      6.6420      0.0000      5.3400      1.6236      3.5357
 64      3.6417     25.3246      3.0819      1.6091      1.7587      2.0866      5.1146      1.0720      0.4556
 65      0.0000      2.5869      3.1345      0.0000      0.0000      3.8214      0.1894      0.0000      0.2887
 66      0.0000      1.1427      0.0000      0.1574      0.0000      0.3810      2.9590      7.0005      1.9460

# j      m_j: min, <> & last-chain-values for 1 ...  7 chains
  1  1.0159E-01  2.5524E-02  1.3589E-02  8.1293E-02  1.2700E-01  3.2985E-02  1.3273E-02  6.5065E-02  0.0000E+00
  2  0.0000E+00  1.7192E-03  0.0000E+00  4.4294E-02  0.0000E+00  8.9717E-03  2.4596E-03  6.6384E-03  1.3591E-03
  3  0.0000E+00  2.2862E-03  1.3948E-02  7.4399E-03  0.0000E+00  0.0000E+00  1.9393E-03  1.2821E-02  4.6157E-03
  4  0.0000E+00  1.7579E-03  2.8386E-03  1.4056E-02  1.8562E-02  1.5031E-02  0.0000E+00  0.0000E+00  6.9400E-03
  5  0.0000E+00  3.5069E-03  7.1665E-03  1.7571E-02  1.6034E-02  1.7180E-02  0.0000E+00  1.2850E-03  0.0000E+00
  6  0.0000E+00  5.8480E-03  4.2572E-03  0.0000E+00  0.0000E+00  3.5448E-02  3.1108E-02  1.1584E-02  0.0000E+00
  7  0.0000E+00  9.3070E-03  1.8430E-02  1.4919E-01  6.2003E-03  2.5377E-02  1.3089E-02  1.5098E-01  2.0243E-02
  8  0.0000E+00  1.0955E-02  1.4436E-01  1.2218E-02  2.4512E-03  4.7411E-02  1.2616E-02  2.3743E-02  0.0000E+00
  9  2.4760E-03  1.2350E-02  1.4117E-02  4.8479E-02  6.4347E-02  1.3728E-02  1.0018E-02  0.0000E+00  3.6225E-02
 10  0.0000E+00  2.2665E-02  0.0000E+00  0.0000E+00  0.0000E+00  0.0000E+00  1.7442E-02  1.2165E-02  5.1903E-02
 11  0.0000E+00  3.2491E-02  0.0000E+00  4.1863E-01  0.0000E+00  0.0000E+00  1.4537E-01  4.3910E-03  2.1340E-01
 12  5.6732E-02  5.7320E-02  0.0000E+00  0.0000E+00  6.1005E-01  0.0000E+00  4.2430E-02  1.3434E-01  1.3240E-01
 13  0.0000E+00  1.5209E-01  3.7904E-01  0.0000E+00  8.8714E-01  1.1294E+00  0.0000E+00  8.2007E-02  1.8448E-01
 14  0.0000E+00  5.5013E-01  0.0000E+00  5.6601E+00  3.9417E+00  0.0000E+00  7.1680E-01  1.1275E+00  1.6695E+00
 15  9.5485E+00  8.7567E-01  3.6252E+00  0.0000E+00  6.2984E+00  8.7738E+00  2.9440E+00  0.0000E+00  6.4576E+00
 16  0.0000E+00  1.3553E+00  0.0000E+00  8.3191E+00  0.0000E+00  4.6886E+00  0.0000E+00  8.7786E+00  0.0000E+00
 17  0.0000E+00  1.5498E+00  7.6660E+00  0.0000E+00  0.0000E+00  0.0000E+00  1.9734E+00  8.1306E-01  5.0877E+00
 18  0.0000E+00  6.4483E-03  5.4958E-02  8.6376E-03  0.0000E+00  8.2874E-02  0.0000E+00  2.4006E-02  3.1681E-02
 19  0.0000E+00  1.6161E-03  9.4800E-04  4.6694E-03  2.4645E-04  1.9173E-02  2.7403E-03  2.5146E-03  1.6684E-03
 20  0.0000E+00  1.9160E-03  4.5644E-03  1.4341E-02  2.2376E-06  2.6808E-02  0.0000E+00  3.0806E-04  3.6195E-03
 21  0.0000E+00  3.1963E-03  0.0000E+00  2.2051E-02  3.4579E-02  1.0510E-02  8.5176E-03  7.6597E-03  2.6925E-02
 22  0.0000E+00  4.1450E-03  3.5822E-02  1.4090E-02  0.0000E+00  5.3987E-03  1.2125E-02  5.8337E-03  0.0000E+00
 23  0.0000E+00  6.5464E-03  3.9199E-02  5.0872E-02  1.2322E-02  3.2754E-02  5.5912E-02  0.0000E+00  3.4422E-02
 24  0.0000E+00  8.4940E-03  3.1365E-02  9.2850E-03  6.5455E-02  0.0000E+00  3.4400E-02  1.2924E-02  1.9775E-02
 25  0.0000E+00  1.0586E-02  0.0000E+00  2.3463E-02  0.0000E+00  0.0000E+00  5.4287E-02  1.1462E-02  9.9805E-02
 26  0.0000E+00  1.8314E-02  0.0000E+00  0.0000E+00  2.3832E-02  1.8980E-01  1.1928E-01  6.7980E-02  1.6924E-02
 27  8.1827E-02  4.5970E-02  1.4010E-01  5.4603E-02  5.9310E-02  0.0000E+00  0.0000E+00  1.8316E-01  2.9350E-01
 28  0.0000E+00  1.1971E-01  0.0000E+00  9.8832E-02  1.4582E-01  0.0000E+00  7.2805E-02  0.0000E+00  4.5949E-01
 29  0.0000E+00  1.7067E-01  0.0000E+00  7.5660E-02  6.2877E-01  0.0000E+00  0.0000E+00  0.0000E+00  2.1114E-01
 30  0.0000E+00  4.7084E-01  1.7397E+00  5.7044E+00  2.1459E+00  0.0000E+00  1.0689E+00  3.0760E+00  2.0392E+00
 31  7.4687E-01  6.3703E-01  2.4072E-01  1.6931E+01  1.3795E+00  0.0000E+00  1.8243E+00  1.1573E+00  0.0000E+00
 32  8.3356E-02  9.2454E-01  7.3109E+00  2.1628E+00  2.4738E+00  0.0000E+00  1.5022E+00  0.0000E+00  1.7843E+00
 33  6.7213E+01  1.8653E+00  7.0120E+00  1.6248E+01  3.0744E+00  4.6836E+00  0.0000E+00  9.7460E+00  5.7478E+00
 34  0.0000E+00  3.2168E+00  0.0000E+00  1.1171E+01  3.6121E+01  7.9826E+00  1.7929E+01  1.1575E+00  3.4359E+01
 35  0.0000E+00  5.3555E-03  1.0018E-02  1.6541E-01  0.0000E+00  2.5891E-02  1.4205E-02  6.0346E-03  4.6432E-02
 36  0.0000E+00  1.2135E-03  4.3187E-03  0.0000E+00  3.0039E-02  2.2825E-03  1.7468E-03  1.6546E-03  9.9705E-03
 37  1.2818E-02  1.6382E-03  3.5334E-03  5.4381E-03  1.0226E-02  0.0000E+00  1.8086E-03  0.0000E+00  2.0680E-03
 38  1.7458E-01  2.7473E-03  3.3402E-03  4.5330E-04  6.2946E-02  3.0851E-02  0.0000E+00  1.7680E-02  9.2442E-03
 39  0.0000E+00  5.7709E-03  0.0000E+00  3.7360E-02  0.0000E+00  4.5787E-02  0.0000E+00  3.2457E-02  1.6005E-03
 40  0.0000E+00  7.9453E-03  0.0000E+00  9.5376E-02  2.5135E-02  5.9799E-02  1.6813E-02  6.6741E-02  9.7498E-03
 41  0.0000E+00  1.7026E-02  1.0769E-01  2.0704E-01  2.3407E-02  1.9332E-02  0.0000E+00  0.0000E+00  3.8171E-02
 42  0.0000E+00  3.2102E-02  2.0752E-01  2.6540E-02  1.4127E-01  1.1683E-01  6.8421E-02  0.0000E+00  1.5421E-01
 43  0.0000E+00  4.7954E-02  6.1842E-02  4.9981E-02  0.0000E+00  2.1875E-01  2.4140E-02  0.0000E+00  3.4675E-02
 44  4.0693E-02  9.2703E-02  5.0880E-02  6.4074E-01  1.2693E-01  0.0000E+00  0.0000E+00  0.0000E+00  2.0217E-01
 45  0.0000E+00  1.7294E-01  4.5094E-01  0.0000E+00  0.0000E+00  1.4629E+00  1.2818E-01  0.0000E+00  5.4216E-01
 46  0.0000E+00  2.7898E-01  0.0000E+00  1.9708E+00  0.0000E+00  0.0000E+00  0.0000E+00  2.0170E+00  0.0000E+00
 47  0.0000E+00  5.2278E-01  2.8494E+00  0.0000E+00  7.3135E-01  1.8303E+00  2.2184E+00  3.1435E+00  3.7963E+00
 48  0.0000E+00  9.1422E-01  1.2692E+00  0.0000E+00  1.1864E+01  9.0408E-01  0.0000E+00  9.6617E-01  0.0000E+00
 49  0.0000E+00  4.0812E+00  1.3738E+01  0.0000E+00  0.0000E+00  0.0000E+00  1.3259E+01  0.0000E+00  0.0000E+00
 50  0.0000E+00  5.5249E+00  1.5817E+01  0.0000E+00  0.0000E+00  1.7245E+01  7.7141E+00  0.0000E+00  0.0000E+00
 51  7.0051E-02  2.0847E-03  1.1208E-02  1.5271E-03  2.2331E-02  2.0687E-03  2.2771E-02  0.0000E+00  0.0000E+00
 52  1.8554E-03  1.1138E-03  2.8728E-03  7.4555E-03  1.6158E-03  4.9183E-03  2.4796E-03  0.0000E+00  0.0000E+00
 53  0.0000E+00  1.2762E-03  2.3172E-05  0.0000E+00  3.1943E-02  0.0000E+00  5.0226E-03  0.0000E+00  1.6277E-02
 54  2.9238E-01  1.6668E-02  0.0000E+00  2.2633E-02  9.4563E-03  4.0288E-03  4.0522E-02  1.4919E-02  1.4077E-02
 55  0.0000E+00  5.4208E-03  1.8902E-02  4.8493E-02  0.0000E+00  2.0146E-02  3.5580E-03  0.0000E+00  2.1586E-02
 56  1.4576E-03  9.9648E-03  2.6656E-02  0.0000E+00  1.4990E-01  0.0000E+00  3.4917E-03  0.0000E+00  1.6922E-01
 57  0.0000E+00  1.6641E-02  2.3450E-02  3.1371E-01  5.0314E-02  2.1913E-02  0.0000E+00  5.6524E-03  0.0000E+00
 58  0.0000E+00  2.5088E-02  5.3919E-02  4.2821E-01  3.4634E-04  1.3522E-01  0.0000E+00  0.0000E+00  3.9669E-02
 59  0.0000E+00  3.7294E-02  2.5449E-01  2.3827E-01  4.5183E-01  0.0000E+00  6.1220E-02  1.4751E-02  0.0000E+00
 60  9.6928E-04  8.1865E-02  5.0865E-02  0.0000E+00  2.4577E-01  0.0000E+00  2.5884E-02  6.4956E-02  3.9145E-01
 61  0.0000E+00  1.7730E-01  0.0000E+00  0.0000E+00  1.1834E+00  6.4143E-01  3.9870E-01  1.8615E-01  0.0000E+00
 62  4.6128E+00  3.2904E-01  5.3969E-01  0.0000E+00  3.3053E+00  0.0000E+00  6.9714E-01  0.0000E+00  6.9141E-01
 63  6.6312E-01  2.2687E+00  1.5611E+00  1.1888E+01  1.3505E+01  0.0000E+00  5.5356E+00  1.7374E+00  5.4566E+00
 64  1.6295E+01  5.4148E+01  1.0916E+01  1.2759E+01  9.8910E+00  9.1179E+00  1.4665E+01  3.1729E+00  1.9447E+00
 65  0.0000E+00  1.1693E+01  2.3469E+01  0.0000E+00  0.0000E+00  3.5298E+01  1.1481E+00  0.0000E+00  2.6054E+00
 66  0.0000E+00  7.2962E+00  0.0000E+00  3.7280E+00  0.0000E+00  4.9714E+00  2.5336E+01  6.1875E+01  2.4807E+01

# AV, chi2 & Mass for <> & i_chain = 1 ...  7 solutions
AV      -0.5775     -0.2102     -0.4141     -0.1202     -0.4195     -0.1209     -0.6061     -0.4806     -0.3158
chi2 4.0953E-05  5.4704E-05  4.6757E-05  4.6089E-05  4.3957E-05  4.4936E-05  4.4860E-05  4.6233E-05  4.6533E-05
Mass 3.4714E-14  1.1896E-13  5.4614E-14  3.6204E-14  3.4148E-14  6.5635E-14  5.2133E-14  5.9771E-14  5.1711E-14
 155.05                                  [v0_min (km/s) before EX0s...]
   0.00                                  [vd_min (km/s) before EX0s...]


## Synthetic spectrum (Best Model) ##l_obs f_obs f_syn wei
 3478    [Nl_obs]
 3741.00    0.19265   1.14384    0.000
 3742.00    0.41254   1.18401    0.000
 3743.00    0.94926   1.20265    0.000
 3744.00    0.59276   1.19394    0.000
 3745.00   -0.28417   1.16967    0.000
 3746.00   -0.15858   1.14254    0.000
 3747.00    0.47610   1.10642   -1.000
 3748.00    0.38381   1.06491   -1.000
 3749.00   -0.02814   1.02064    0.000
 3750.00    0.21286   0.94712   -1.000
 3751.00    0.70037   0.86583   -1.000
 3752.00    0.94002   0.84693   -1.000
 3753.00    1.10023   0.91341   -1.000
 3754.00    1.28613   1.00716   -1.000
 3755.00    1.47891   1.08001   -1.000
 3756.00    1.76581   1.13493   -1.000
 3757.00    2.07337   1.17548   -1.000
 3758.00    1.32457   1.18721   -1.000
 3759.00    0.39137   1.16285   -1.000
 3760.00    0.48590   1.13950   -1.000
 3761.00    0.71696   1.14038   -1.000
 3762.00    0.25312   1.15998   -1.000
 3763.00   -0.27601   1.18293    0.000
 3764.00   -0.06848   1.18566    0.000
 3765.00    0.18156   1.17457   -1.000
 3766.00   -0.00176   1.16943    0.000
 3767.00   -0.19723   1.15975    0.000
 3768.00   -0.61876   1.11897    0.000
 3769.00   -1.00053   1.06420    0.000
 3770.00   -0.41666   1.01702    0.000
 3771.00    0.10691   0.95615   -1.000
 3772.00   -0.15968   0.88943    0.000
 3773.00   -0.38944   0.88839    0.000
 3774.00   -0.29589   0.96528    0.000
 3775.00   -0.18022   1.04613    0.000
 3776.00    0.07894   1.09785   -1.000
 3777.00    0.29174   1.13838   -1.000
 3778.00    0.26987   1.17305   -1.000
 3779.00    0.24170   1.19560   -1.000
 3780.00    0.18776   1.20936   -1.000
 3781.00    0.25972   1.23233   -1.000
 3782.00    0.75870   1.26250   -1.000
 3783.00    1.12861   1.27649   -1.000
 3784.00    1.12936   1.27614   -1.000
 3785.00    1.00761   1.27831   -1.000
 3786.00    0.58656   1.27694   -1.000
 3787.00    0.30234   1.25599   -1.000
 3788.00    0.30651   1.22456   -1.000
 3789.00    0.19369   1.20587   -1.000
 3790.00   -0.13340   1.19654    0.000
 3791.00   -0.32644   1.18316    0.000
 3792.00   -0.30487   1.16695    0.000
 3793.00   -0.27884   1.15255    0.000
 3794.00   -0.24654   1.13651    0.000
 3795.00   -0.26316   1.10418    0.000
 3796.00   -0.34026   1.04986    0.000
 3797.00   -0.37196   0.98457    0.000
 3798.00   -0.35420   0.90824    0.000
 3799.00   -0.28022   0.82297    0.000
 3800.00   -0.15222   0.78446    0.000
 3801.00    0.03642   0.84084   -1.000
 3802.00    0.27644   0.94778   -1.000
 3803.00    0.08717   1.03884   -1.000
 3804.00   -0.42242   1.10134    0.000
 3805.00   -0.52188   1.15104    0.000
 3806.00   -0.35247   1.18291    0.000
 3807.00   -0.55572   1.18107    0.000
 3808.00   -0.97284   1.15581    0.000
 3809.00   -0.64614   1.15893    0.000
 3810.00    0.05231   1.20103    0.036
 3811.00    0.52652   1.23829    0.037
 3812.00    0.90377   1.25498    0.039
 3813.00    1.44130   1.25667    0.039
 3814.00    2.03827   1.24197    0.038
 3815.00    2.10905   1.21434    0.038
 3816.00    2.01442   1.19252    0.037
 3817.00    1.41539   1.17827    0.037
 3818.00    0.68403   1.17350    0.037
 3819.00    0.84046   1.17614    0.037
 3820.00    1.18710   1.13834    0.037
 3821.00    0.66219   1.04651    0.035
 3822.00   -0.01064   1.00585    0.000
 3823.00    0.11483   1.06817    0.034
 3824.00    0.34274   1.14503    0.035
 3825.00    0.18689   1.17004    0.035
 3826.00   -0.00341   1.14884    0.000
 3827.00   -0.70432   1.12256    0.000
 3828.00   -1.43268   1.11175    0.000
 3829.00   -0.32089   1.10594    0.000
 3830.00    0.82775   1.09517    0.034
 3831.00    1.97385   1.07835    0.036
 3832.00    3.02578   1.05617    0.037
 3833.00    1.98567   1.01280    0.035
 3834.00    0.98905   0.94318    0.034
 3835.00    0.53311   0.86637    0.033
 3836.00    0.22281   0.78749    0.033
 3837.00    1.14350   0.73579    0.039
 3838.00    1.83452   0.75881    0.044
 3839.00    1.08061   0.82630    0.038
 3840.00    0.39590   0.88664    0.034
 3841.00    0.05267   0.94674    0.033
 3842.00    0.10533   1.00320    0.034
 3843.00    1.74280   1.05171    0.036
 3844.00    2.85980   1.09962    0.038
 3845.00    2.24649   1.13411    0.039
 3846.00    1.62589   1.15499    0.039
 3847.00    0.98481   1.16602    0.000
 3848.00    0.53672   1.17223    0.000
 3849.00    0.55217   1.18239    0.000
 3850.00    0.52151   1.18581    0.000
 3851.00    0.39523   1.17381    0.000
 3852.00    0.48200   1.15655    0.000
 3853.00    0.95306   1.16347    0.000
 3854.00    1.41415   1.18824    0.000
 3855.00    1.85952   1.19328    0.000
 3856.00    1.70125   1.18097    0.000
 3857.00    0.70733   1.16255    0.000
 3858.00    0.59127   1.14675    0.000
 3859.00    1.54484   1.15297    0.000
 3860.00    1.90316   1.15561    0.000
 3861.00    1.62207   1.13690    0.000
 3862.00    0.98851   1.12578    0.000
 3863.00    0.02098   1.14410    0.000
 3864.00   -0.30575   1.17131    0.000
 3865.00   -0.09717   1.17833    0.000
 3866.00    0.13602   1.16790    0.000
 3867.00    0.38732   1.16249    0.000
 3868.00    0.59276   1.16081    0.000
 3869.00    0.76857   1.14646    0.000
 3870.00    0.37174   1.14749    0.000
 3871.00   -0.34873   1.16537    0.000
 3872.00   -0.33174   1.15539    0.000
 3873.00    0.04800   1.11608    0.000
 3874.00    0.61645   1.08676    0.000
 3875.00    1.26515   1.10652    0.000
 3876.00    0.57993   1.14524    0.000
 3877.00   -0.59117   1.15142    0.000
 3878.00   -0.59162   1.12565    0.000
 3879.00   -0.23119   1.10552    0.000
 3880.00    0.63367   1.09463    0.000
 3881.00    1.62801   1.09875    0.035
 3882.00    1.44373   1.10888    0.034
 3883.00    1.01304   1.08823    0.032
 3884.00    0.67794   1.05074    0.032
 3885.00    0.35860   1.03917    0.032
 3886.00    0.71637   1.03705    0.033
 3887.00    1.15798   0.99117    0.033
 3888.00    1.33681   0.91145    0.033
 3889.00    1.49315   0.83363    0.033
 3890.00    0.67811   0.75334    0.033
 3891.00   -0.18534   0.71109    0.000
 3892.00    0.27548   0.76830    0.032
 3893.00    0.75673   0.87746    0.032
 3894.00    1.15646   0.96679    0.032
 3895.00    1.47913   1.02141    0.033
 3896.00    0.22553   1.05185    0.032
 3897.00   -0.83549   1.06918    0.000
 3898.00    0.38092   1.09334    0.030
 3899.00    1.40149   1.12086    0.030
 3900.00    0.82672   1.12229    0.029
 3901.00    0.27147   1.11123    0.027
 3902.00   -0.16449   1.12427    0.000
 3903.00   -0.51037   1.15423    0.000
 3904.00   -0.42275   1.16360    0.000
 3905.00   -0.33476   1.15667    0.000
 3906.00   -0.24529   1.15658    0.000
 3907.00   -0.15800   1.14621    0.000
 3908.00   -0.07783   1.13636    0.000
 3909.00   -0.06423   1.15316    0.000
 3910.00   -0.23419   1.17998    0.000
 3911.00   -0.23034   1.19656    0.000
 3912.00    0.18392   1.19778    0.028
 3913.00    0.56561   1.19034    0.028
 3914.00    0.88082   1.18572    0.028
 3915.00    0.98490   1.18794    0.029
 3916.00    0.71400   1.19032    0.029
 3917.00    0.80119   1.19051    0.030
 3918.00    1.44480   1.18313    0.031
 3919.00    1.69454   1.17185    0.032
 3920.00    1.40688   1.14566    0.032
 3921.00    0.78563   1.10235    0.031
 3922.00   -0.23632   1.07036    0.000
 3923.00   -0.59474   1.07427    0.000
 3924.00   -0.25044   1.10250    0.000
 3925.00    0.40059   1.11428    0.032
 3926.00    1.33816   1.10983    0.032
 3927.00    0.87736   1.09669    0.033
 3928.00   -0.73510   1.07041    0.000
 3929.00   -1.48885   1.05136    0.000
 3930.00   -1.62010   1.04348    0.000
 3931.00   -0.97704   1.03508    0.000
 3932.00    0.15880   1.02617    0.032
 3933.00    0.86694   1.01011    0.032
 3934.00    1.33705   0.98534    0.031
 3935.00    1.67171   0.95598    0.032
 3936.00    1.94080   0.94677    0.032
 3937.00    1.20312   0.96643    0.032
 3938.00    0.04452   0.99590    0.032
 3939.00    0.47706   1.02586    0.032
 3940.00    1.47876   1.05245    0.032
 3941.00    1.43728   1.07662    0.031
 3942.00    1.08048   1.09513    0.030
 3943.00    0.61819   1.10106    0.030
 3944.00    0.12940   1.10081    0.030
 3945.00    0.30324   1.09212    0.030
 3946.00    0.61219   1.07847    0.030
 3947.00    0.28871   1.08858    0.029
 3948.00   -0.13603   1.12094    0.000
 3949.00    0.34766   1.13161    0.029
 3950.00    0.93980   1.12280    0.029
 3951.00    1.34847   1.12870    0.030
 3952.00    1.74219   1.14705    0.030
 3953.00    1.26068   1.15293    0.030
 3954.00    0.73894   1.13632    0.029
 3955.00    1.04833   1.12353    0.029
 3956.00    1.35814   1.12685    0.030
 3957.00    1.13673   1.12616    0.030
 3958.00    0.91806   1.11183    0.030
 3959.00    0.75124   1.10434    0.029
 3960.00    0.59586   1.11117    0.000
 3961.00    0.56948   1.11390    0.000
 3962.00    0.54763   1.08674    0.000
 3963.00    0.56134   1.02857    0.000
 3964.00    0.62658   0.98367    0.000
 3965.00    0.99764   0.96170    0.000
 3966.00    1.33318   0.92223    0.000
 3967.00    1.50192   0.87395    0.000
 3968.00    1.69346   0.83279    0.000
 3969.00    1.97236   0.77413    0.000
 3970.00    1.87929   0.69508    0.000
 3971.00    0.59726   0.61790    0.000
 3972.00   -0.13796   0.58846    0.000
 3973.00    0.60776   0.64181    0.000
 3974.00    0.92603   0.73473    0.000
 3975.00    0.25178   0.81399    0.000
 3976.00    0.44690   0.88515    0.000
 3977.00    2.38823   0.95147    0.000
 3978.00    3.15890   0.99665    0.000
 3979.00    1.88190   1.02882    0.000
 3980.00    0.95994   1.05977    0.000
 3981.00    0.58156   1.08802    0.030
 3982.00    0.65473   1.11001    0.030
 3983.00    1.33517   1.11422    0.030
 3984.00    1.46352   1.10078    0.029
 3985.00    0.93804   1.09521    0.029
 3986.00    0.79845   1.11040    0.029
 3987.00    1.06181   1.13176    0.029
 3988.00    1.26438   1.14110    0.029
 3989.00    1.41098   1.14892    0.028
 3990.00    1.28369   1.16316    0.028
 3991.00    0.93404   1.16275    0.028
 3992.00    0.93401   1.15435    0.027
 3993.00    1.18376   1.15900    0.027
 3994.00    1.14864   1.17130    0.027
 3995.00    0.93489   1.17509    0.027
 3996.00    0.71130   1.15792    0.027
 3997.00    0.48233   1.13954    0.027
 3998.00    0.94440   1.13638    0.028
 3999.00    1.73564   1.13394    0.028
 4000.00    2.06303   1.13278    0.028
 4001.00    2.19978   1.15259    0.028
 4002.00    1.89987   1.17472    0.028
 4003.00    1.44659   1.17831    0.027
 4004.00    1.33919   1.17839    0.027
 4005.00    1.33426   1.17846    0.027
 4006.00    1.38671   1.15696    0.027
 4007.00    1.45326   1.11733    0.027
 4008.00    0.95284   1.10418    0.027
 4009.00    0.33968   1.12084    0.027
 4010.00    0.75801   1.12182    0.028
 4011.00    1.33663   1.10556    0.028
 4012.00    0.95867   1.11415    0.028
 4013.00    0.47072   1.14318    0.028
 4014.00    1.41666   1.16107    0.029
 4015.00    2.47347   1.16882    0.029
 4016.00    2.42477   1.17308    0.030
 4017.00    2.32951   1.18017    0.030
 4018.00    1.55492   1.18268    0.029
 4019.00    0.80194   1.17062    0.029
 4020.00    1.26717   1.16702    0.028
 4021.00    1.73988   1.18026    0.028
 4022.00    2.34466   1.18279    0.028
 4023.00    2.81232   1.16896    0.029
 4024.00    1.80455   1.15442    0.028
 4025.00    0.85314   1.13603    0.028
 4026.00    0.32953   1.09514    0.027
 4027.00   -0.03495   1.03631    0.000
 4028.00    0.51846   1.00514    0.027
 4029.00    1.00000   1.04565    0.028
 4030.00    1.15212   1.11605    0.027
 4031.00    1.21290   1.14555    0.026
 4032.00    0.93104   1.12660    0.026
 4033.00    0.50144   1.10077    0.026
 4034.00   -0.39134   1.09214    0.000
 4035.00   -0.87440   1.08998    0.000
 4036.00   -0.26744   1.09358    0.000
 4037.00    0.24377   1.10779    0.025
 4038.00    0.53633   1.14167    0.025
 4039.00    0.59982   1.17935    0.025
 4040.00    0.21045   1.19496    0.026
 4041.00   -0.00837   1.18745    0.000
 4042.00    0.06659   1.16505    0.025
 4043.00    0.36792   1.14818    0.025
 4044.00    1.01075   1.15378    0.026
 4045.00    1.02032   1.15015    0.026
 4046.00    0.19046   1.11233    0.026
 4047.00   -0.20840   1.06459    0.000
 4048.00   -0.10406   1.05516    0.000
 4049.00    0.47648   1.09636    0.026
 4050.00    1.54729   1.13775    0.027
 4051.00    1.79125   1.15431    0.027
 4052.00    1.28436   1.16517    0.026
 4053.00    1.19973   1.16982    0.026
 4054.00    1.45307   1.15925    0.026
 4055.00    1.60251   1.14105    0.026
 4056.00    1.67881   1.12361    0.027
 4057.00    1.61725   1.11474    0.027
 4058.00    1.47052   1.11674    0.027
 4059.00    1.10564   1.11223    0.027
 4060.00    0.62305   1.10425    0.027
 4061.00    0.68828   1.11034    0.027
 4062.00    1.01025   1.12378    0.027
 4063.00    0.97103   1.12840    0.027
 4064.00    0.78587   1.10633    0.028
 4065.00    1.04145   1.06640    0.027
 4066.00    1.44900   1.05712    0.026
 4067.00    1.43966   1.08911    0.027
 4068.00    1.30926   1.10860    0.027
 4069.00    1.42011   1.10121    0.027
 4070.00    1.58890   1.09888    0.027
 4071.00    1.50055   1.10142    0.027
 4072.00    1.36237   1.08695    0.027
 4073.00    1.39947   1.05610    0.027
 4074.00    1.46299   1.04449    0.028
 4075.00    1.49020   1.07777    0.027
 4076.00    1.51339   1.10220    0.026
 4077.00    1.10477   1.07796    0.026
 4078.00    0.66453   1.04070    0.026
 4079.00    1.19684   1.02578    0.026
 4080.00    1.76637   1.03532    0.027
 4081.00    1.83120   1.06282    0.026
 4082.00    1.87401   1.09927    0.026
 4083.00    1.19226   1.12614    0.025
 4084.00    0.54156   1.12624    0.024
 4085.00    0.40265   1.10495    0.025
 4086.00    0.30882   1.08204    0.025
 4087.00    0.67898   1.07381    0.025
 4088.00    1.05355   1.08414    0.024
 4089.00    1.46062   1.10129    0.024
 4090.00    1.79316   1.10636    0.024
 4091.00    1.70756   1.09929    0.025
 4092.00    1.61291   1.10085    0.000
 4093.00    1.47773   1.10204    0.000
 4094.00    1.33344   1.08590    0.000
 4095.00    1.15573   1.07412    0.000
 4096.00    0.93873   1.06798    0.000
 4097.00    0.60085   1.03286    0.000
 4098.00    0.35776   0.97741    0.000
 4099.00    0.36240   0.93622    0.000
 4100.00    0.44048   0.91233    0.000
 4101.00    0.68349   0.87795    0.000
 4102.00    0.92387   0.80217    0.000
 4103.00    1.15912   0.70482    0.000
 4104.00    1.28919   0.67234    0.000
 4105.00    1.24078   0.73553    0.000
 4106.00    1.25151   0.82510    0.000
 4107.00    1.35014   0.89999    0.000
 4108.00    1.43674   0.96101    0.000
 4109.00    1.50762   0.99923    0.000
 4110.00    1.07304   1.01652    0.000
 4111.00    0.05668   1.02221    0.000
 4112.00   -0.16193   1.02114    0.000
 4113.00    0.42924   1.02410    0.024
 4114.00    1.22697   1.03723    0.025
 4115.00    2.20963   1.05931    0.025
 4116.00    2.08235   1.07478    0.026
 4117.00    1.07934   1.07517    0.025
 4118.00    0.25609   1.07528    0.036
 4119.00   -0.44240   1.07988    0.000
 4120.00    0.02669   1.06310   -1.000
 4121.00    1.20625   1.02968   -1.000
 4122.00    1.40217   1.01060   -1.000
 4123.00    1.07553   1.01177   -1.000
 4124.00    0.88039   1.03139   -1.000
 4125.00    0.74587   1.05883   -1.000
 4126.00    0.84727   1.08306   -1.000
 4127.00    1.04233   1.10054   -1.000
 4128.00    1.20142   1.09791    0.065
 4129.00    1.34834   1.07708    0.028
 4130.00    0.59938   1.05593    0.025
 4131.00   -0.40447   1.05219    0.000
 4132.00    0.15555   1.05124    0.024
 4133.00    1.08274   1.03776    0.024
 4134.00    1.31545   1.01823    0.024
 4135.00    1.41708   1.01494    0.024
 4136.00    1.49027   1.03068    0.024
 4137.00    1.55932   1.05970    0.024
 4138.00    1.48686   1.08474    0.024
 4139.00    1.39936   1.08783    0.025
 4140.00    1.10458   1.08783    0.024
 4141.00    0.79547   1.09375    0.024
 4142.00    1.08211   1.09390    0.024
 4143.00    1.38929   1.07918    0.024
 4144.00    1.54523   1.02827    0.024
 4145.00    1.69119   0.95307    0.024
 4146.00    1.51775   0.92773    0.024
 4147.00    1.33998   0.97878    0.024
 4148.00    1.09541   1.03706    0.024
 4149.00    0.86729   1.06418    0.023
 4150.00    0.80129   1.07013    0.023
 4151.00    0.80043   1.05763    0.023
 4152.00    1.26211   1.04344    0.023
 4153.00    1.62029   1.04567    0.023
 4154.00    1.41347   1.04535    0.023
 4155.00    1.22383   1.03393    0.023
 4156.00    1.10936   1.02884    0.022
 4157.00    1.11090   1.03353    0.022
 4158.00    1.52971   1.03404    0.023
 4159.00    1.78209   1.03866    0.023
 4160.00    1.53224   1.05710    0.022
 4161.00    1.25296   1.07421    0.022
 4162.00    0.89812   1.07749    0.022
 4163.00    0.73597   1.07267    0.022
 4164.00    0.99946   1.07364    0.023
 4165.00    1.07722   1.07648    0.023
 4166.00    0.79916   1.06961    0.023
 4167.00    0.51208   1.06258    0.023
 4168.00    0.20992   1.05810    0.022
 4169.00    0.18189   1.04596    0.022
 4170.00    0.55542   1.03399    0.023
 4171.00    1.05640   1.03811    0.023
 4172.00    1.72155   1.04902    0.023
 4173.00    1.93648   1.03967    0.024
 4174.00    1.64049   1.00774    0.024
 4175.00    1.40019   0.98727    0.024
 4176.00    1.21562   0.99394    0.023
 4177.00    0.99790   1.01081    0.023
 4178.00    0.75093   1.01978    0.024
 4179.00    0.84386   1.01731    0.024
 4180.00    1.20115   1.01470    0.024
 4181.00    1.52717   1.02518    0.024
 4182.00    1.83183   1.04075    0.023
 4183.00    1.57994   1.04088    0.023
 4184.00    0.99447   1.03011    0.023
 4185.00    0.73643   1.02899    0.023
 4186.00    0.64964   1.03590    0.023
 4187.00    1.04864   1.04185    0.023
 4188.00    1.66799   1.03336    0.024
 4189.00    1.87659   1.01087    0.024
 4190.00    1.92492   1.00574    0.023
 4191.00    1.63369   1.01755    0.023
 4192.00    1.22968   1.02386    0.023
 4193.00    1.15690   1.02536    0.023
 4194.00    1.17643   1.03740    0.023
 4195.00    1.09698   1.05901    0.023
 4196.00    0.99482   1.06235    0.023
 4197.00    0.72985   1.03787    0.023
 4198.00    0.43496   1.01180    0.023
 4199.00    0.37843   0.99729    0.023
 4200.00    0.35560   0.98118    0.023
 4201.00    0.58334   0.96912    0.022
 4202.00    0.83662   0.97236    0.022
 4203.00    0.53421   0.97731    0.022
 4204.00    0.19560   0.97966    0.021
 4205.00    0.65234   0.99306    0.021
 4206.00    1.13290   1.00838    0.021
 4207.00    1.21815   1.01597    0.022
 4208.00    1.30484   1.02706    0.023
 4209.00    1.43416   1.04101    0.022
 4210.00    1.54347   1.05111    0.022
 4211.00    1.36137   1.04818    0.022
 4212.00    1.16487   1.03681    0.021
 4213.00    0.83200   1.03474    0.021
 4214.00    0.53364   1.04121    0.021
 4215.00    0.47248   1.04209    0.021
 4216.00    0.43605   1.02802    0.021
 4217.00    0.53102   0.99872    0.021
 4218.00    0.68224   0.98482    0.021
 4219.00    1.07362   1.00850    0.021
 4220.00    1.35607   1.03793    0.021
 4221.00    1.25473   1.04948    0.021
 4222.00    1.12348   1.05315    0.021
 4223.00    0.90367   1.05263    0.021
 4224.00    0.78468   1.03580    0.021
 4225.00    0.92011   1.00975    0.021
 4226.00    1.14173   0.98195    0.021
 4227.00    1.55064   0.94387    0.021
 4228.00    1.81159   0.89789    0.021
 4229.00    1.79348   0.87857    0.020
 4230.00    1.52230   0.91769    0.020
 4231.00    0.83448   0.97753    0.020
 4232.00    0.43414   1.01346    0.019
 4233.00    0.44879   1.02764    0.019
 4234.00    0.59667   1.02062    0.019
 4235.00    0.91369   0.99930    0.019
 4236.00    1.02716   0.99329    0.019
 4237.00    0.91290   0.99355    0.019
 4238.00    0.72771   0.97882    0.019
 4239.00    0.47254   0.97324    0.019
 4240.00    0.37350   0.98371    0.019
 4241.00    0.41035   0.99142    0.019
 4242.00    0.50900   0.99684    0.019
 4243.00    0.65505   1.00615    0.019
 4244.00    0.75557   1.01042    0.020
 4245.00    0.82542   1.01689    0.020
 4246.00    0.92362   1.03721    0.020
 4247.00    1.03856   1.04821    0.021
 4248.00    0.99201   1.03142    0.021
 4249.00    0.86233   1.00487    0.021
 4250.00    0.55505   0.99069    0.021
 4251.00    0.16855   0.98324    0.021
 4252.00    0.39858   0.96856    0.021
 4253.00    0.86500   0.96679    0.022
 4254.00    1.09417   0.98367    0.022
 4255.00    1.24602   0.97822    0.021
 4256.00    1.11418   0.95236    0.021
 4257.00    0.90489   0.95037    0.022
 4258.00    0.88814   0.97946    0.021
 4259.00    0.91455   1.00786    0.021
 4260.00    1.31182   1.00480    0.021
 4261.00    1.77541   0.97855    0.022
 4262.00    1.14736   0.95167    0.022
 4263.00    0.36996   0.94629    0.022
 4264.00    0.48432   0.97366    0.021
 4265.00    0.68580   1.01015    0.021
 4266.00    0.23368   1.02954    0.021
 4267.00   -0.25842   1.03230    0.000
 4268.00    0.21559   1.01101    0.021
 4269.00    0.71398   0.97025    0.021
 4270.00    0.88247   0.95621    0.021
 4271.00    1.04646   0.96961    0.020
 4272.00    1.09111   0.96249    0.020
 4273.00    1.06991   0.92719    0.021
 4274.00    0.14344   0.90533    0.020
 4275.00   -0.62507   0.91485    0.000
 4276.00    0.04132   0.92053    0.020
 4277.00    0.62389   0.91565    0.020
 4278.00    0.64808   0.92964    0.021
 4279.00    0.73755   0.96202    0.021
 4280.00    1.16496   0.99298    0.021
 4281.00    1.47795   1.00173    0.021
 4282.00    1.31331   0.98376   -2.000
 4283.00    1.10683   0.96779   -2.000
 4284.00    0.75588   0.96326   -2.000
 4285.00    0.45630   0.96330   -2.000
 4286.00    0.30607   0.96408   -2.000
 4287.00    0.28262   0.95531   -2.000
 4288.00    0.57363   0.94894   -2.000
 4289.00    0.73227   0.95456   -2.000
 4290.00    0.60793   0.94819   -2.000
 4291.00    0.43235   0.91701   -2.000
 4292.00    0.16161   0.89085   -2.000
 4293.00    0.15918   0.89991   -2.000
 4294.00    0.59189   0.93627   -2.000
 4295.00    0.97592   0.96443   -2.000
 4296.00    1.29068   0.95657   -2.000
 4297.00    1.24838   0.94263   -2.000
 4298.00    0.75921   0.94348    0.020
 4299.00    0.50526   0.93961    0.020
 4300.00    0.51076   0.92033    0.020
 4301.00    0.70692   0.88610    0.020
 4302.00    1.08858   0.86154    0.020
 4303.00    1.14134   0.86596    0.020
 4304.00    0.91191   0.87189    0.019
 4305.00    0.74141   0.86529    0.019
 4306.00    0.61544   0.86854    0.019
 4307.00    0.45924   0.87867    0.019
 4308.00    0.28296   0.87889    0.020
 4309.00    0.24376   0.86323    0.020
 4310.00    0.28427   0.84057    0.019
 4311.00    0.52430   0.83579    0.019
 4312.00    0.86544   0.85584    0.019
 4313.00    1.00508   0.88377    0.019
 4314.00    1.05628   0.90335    0.019
 4315.00    0.97814   0.91144    0.019
 4316.00    0.85127   0.91610    0.019
 4317.00    0.84994   0.93710    0.019
 4318.00    0.88874   0.97976    0.019
 4319.00    0.81926   1.01140    0.019
 4320.00    0.72082   1.01515    0.019
 4321.00    0.65727   1.00521    0.019
 4322.00    0.60135   0.99415    0.019
 4323.00    0.56843   0.98726    0.019
 4324.00    0.53951   0.98321    0.019
 4325.00    0.58158   0.96206    0.019
 4326.00    0.63304   0.91687    0.020
 4327.00    0.63007   0.86569    0.019
 4328.00    0.62202   0.84753    0.019
 4329.00    0.62813   0.88673    0.019
 4330.00    0.63505   0.94676    0.000
 4331.00    0.79655   0.97810    0.000
 4332.00    0.95932   0.97227    0.000
 4333.00    0.85409   0.95599    0.000
 4334.00    0.75940   0.94998    0.000
 4335.00    0.91790   0.94691    0.000
 4336.00    1.10688   0.94402    0.000
 4337.00    1.69265   0.94105    0.000
 4338.00    2.11533   0.91222    0.000
 4339.00    1.11305   0.83955    0.000
 4340.00    0.32572   0.75556    0.000
 4341.00    0.92687   0.68105    0.000
 4342.00    1.43031   0.61515    0.000
 4343.00    1.44080   0.61090    0.000
 4344.00    1.35797   0.68844    0.000
 4345.00    0.89425   0.77288    0.000
 4346.00    0.57382   0.82078    0.000
 4347.00    0.73810   0.85703    0.000
 4348.00    0.86256   0.88649    0.000
 4349.00    0.87339   0.90203    0.000
 4350.00    0.91006   0.92107    0.000
 4351.00    1.00972   0.94666    0.021
 4352.00    1.09408   0.94558    0.021
 4353.00    1.14623   0.90318    0.020
 4354.00    1.15593   0.86828    0.024
 4355.00    1.08801   0.88342    0.064
 4356.00    1.06105   0.91993   -1.000
 4357.00    1.09951   0.94461   -1.000
 4358.00    1.15035   0.96447   -1.000
 4359.00    1.21853   0.98121   -1.000
 4360.00    1.27679   0.97565   -1.000
 4361.00    1.32280   0.95431   -1.000
 4362.00    1.46170   0.95016   -1.000
 4363.00    1.70164   0.96833   -1.000
 4364.00    1.70312   0.98572    0.079
 4365.00    1.47585   0.99144    0.027
 4366.00    1.17175   0.99739    0.020
 4367.00    0.80265   1.00744    0.020
 4368.00    0.79384   0.99771    0.020
 4369.00    1.05339   0.96656    0.020
 4370.00    1.00696   0.94638    0.020
 4371.00    0.76032   0.94960    0.020
 4372.00    0.69955   0.95744    0.020
 4373.00    0.74525   0.95908    0.020
 4374.00    0.90439   0.95639    0.020
 4375.00    1.12012   0.94494    0.020
 4376.00    1.11277   0.92032    0.020
 4377.00    1.00916   0.90093    0.020
 4378.00    0.88028   0.91155    0.020
 4379.00    0.74204   0.94576    0.019
 4380.00    0.82000   0.97099    0.020
 4381.00    0.96577   0.97144    0.020
 4382.00    1.00175   0.96275    0.019
 4383.00    1.00900   0.95471    0.019
 4384.00    0.88138   0.92392    0.019
 4385.00    0.72494   0.86051    0.018
 4386.00    1.01900   0.81199    0.019
 4387.00    1.38924   0.82328    0.019
 4388.00    1.26861   0.86845    0.019
 4389.00    1.08528   0.88451    0.018
 4390.00    0.74918   0.87358    0.018
 4391.00    0.39946   0.87961    0.018
 4392.00    0.54177   0.89699    0.019
 4393.00    0.71029   0.91126    0.019
 4394.00    0.87405   0.93193    0.019
 4395.00    1.03283   0.94698    0.019
 4396.00    0.79437   0.93733    0.018
 4397.00    0.56055   0.91850    0.018
 4398.00    0.42877   0.92818    0.018
 4399.00    0.32205   0.96311    0.018
 4400.00    0.52484   0.98040    0.018
 4401.00    0.71424   0.96498    0.019
 4402.00    0.79096   0.93474    0.019
 4403.00    0.89395   0.92356    0.019
 4404.00    1.16151   0.94427    0.019
 4405.00    1.35363   0.94947    0.018
 4406.00    1.17467   0.90759    0.018
 4407.00    1.04372   0.86969    0.018
 4408.00    1.10436   0.87951    0.018
 4409.00    1.07850   0.90184    0.018
 4410.00    0.76574   0.90352    0.018
 4411.00    0.54669   0.91038    0.018
 4412.00    0.59021   0.93751    0.018
 4413.00    0.66743   0.96091    0.018
 4414.00    0.82543   0.97415    0.018
 4415.00    0.87691   0.97604    0.018
 4416.00    0.70795   0.94157    0.018
 4417.00    0.57110   0.88963    0.018
 4418.00    0.49209   0.87321    0.018
 4419.00    0.51324   0.89288    0.018
 4420.00    0.69203   0.92475    0.018
 4421.00    0.87256   0.95744    0.018
 4422.00    1.05549   0.97519    0.018
 4423.00    1.02173   0.96860    0.018
 4424.00    0.72440   0.94546    0.018
 4425.00    0.57471   0.93175    0.018
 4426.00    0.58335   0.93944    0.018
 4427.00    0.81580   0.94762    0.018
 4428.00    1.25994   0.94256    0.018
 4429.00    1.36837   0.93489    0.018
 4430.00    1.19684   0.93891    0.018
 4431.00    0.95627   0.94428    0.018
 4432.00    0.66499   0.93179    0.018
 4433.00    0.63359   0.92392    0.018
 4434.00    0.76973   0.93509    0.018
 4435.00    0.98647   0.93610    0.018
 4436.00    1.24867   0.91373    0.018
 4437.00    1.32869   0.88796    0.018
 4438.00    1.31926   0.88572    0.018
 4439.00    1.19239   0.91095    0.018
 4440.00    1.01569   0.94621    0.018
 4441.00    1.10836   0.97380    0.018
 4442.00    1.29893   0.97543    0.018
 4443.00    1.33551   0.94832    0.018
 4444.00    1.32474   0.91213    0.018
 4445.00    1.10507   0.89186    0.018
 4446.00    0.83192   0.90351    0.018
 4447.00    0.97932   0.93902    0.018
 4448.00    1.21436   0.96184    0.018
 4449.00    1.18943   0.95554    0.018
 4450.00    1.12179   0.95013    0.018
 4451.00    0.94863   0.95530    0.018
 4452.00    0.76247   0.95168    0.018
 4453.00    0.81469   0.94600    0.018
 4454.00    0.88719   0.94633    0.017
 4455.00    0.89470   0.93969    0.017
 4456.00    0.89900   0.91665    0.018
 4457.00    0.72548   0.88811    0.017
 4458.00    0.55605   0.88058    0.017
 4459.00    0.81999   0.89305    0.017
 4460.00    1.06906   0.90013    0.018
 4461.00    1.01697   0.89631    0.000
 4462.00    0.96671   0.89185    0.000
 4463.00    0.93788   0.88328    0.000
 4464.00    0.89946   0.87728    0.000
 4465.00    0.78331   0.89639    0.000
 4466.00    0.66656   0.92261    0.000
 4467.00    0.54620   0.92686    0.000
 4468.00    0.50509   0.91889    0.000
 4469.00    0.84413   0.91313    0.000
 4470.00    1.06363   0.90518    0.000
 4471.00    0.81630   0.88822    0.000
 4472.00    0.57720   0.86377    0.000
 4473.00    0.36482   0.83788    0.000
 4474.00    0.26902   0.84198    0.000
 4475.00    0.49394   0.89071    0.000
 4476.00    0.74805   0.93942    0.000
 4477.00    1.07094   0.95507    0.000
 4478.00    1.17158   0.95896    0.000
 4479.00    0.81955   0.97284    0.000
 4480.00    0.61048   0.98206    0.000
 4481.00    0.65484   0.96296    0.000
 4482.00    0.74312   0.91682    0.017
 4483.00    0.89951   0.87473    0.017
 4484.00    0.90465   0.86908    0.017
 4485.00    0.70377   0.90214    0.017
 4486.00    0.76985   0.94281    0.017
 4487.00    1.15603   0.96877    0.018
 4488.00    1.18529   0.97991    0.018
 4489.00    0.83722   0.97400    0.017
 4490.00    0.59952   0.94835    0.017
 4491.00    0.46474   0.91666    0.017
 4492.00    0.43166   0.90333    0.017
 4493.00    0.48218   0.91749    0.018
 4494.00    0.58327   0.94167    0.018
 4495.00    0.72095   0.94914    0.017
 4496.00    0.74102   0.93004    0.017
 4497.00    0.68640   0.90710    0.017
 4498.00    0.83399   0.90167    0.017
 4499.00    1.09390   0.91395    0.018
 4500.00    1.09489   0.93665    0.018
 4501.00    0.97081   0.95520    0.017
 4502.00    0.90913   0.95564    0.018
 4503.00    0.87347   0.94010    0.018
 4504.00    0.78052   0.93734    0.018
 4505.00    0.66712   0.96391    0.018
 4506.00    0.71609   0.99203    0.018
 4507.00    0.81401   0.99738    0.018
 4508.00    0.87941   0.98519    0.018
 4509.00    0.93667   0.96878    0.017
 4510.00    1.00420   0.95927    0.017
 4511.00    1.07381   0.96150    0.018
 4512.00    0.81605   0.96950    0.017
 4513.00    0.50605   0.97025    0.017
 4514.00    0.57093   0.95700    0.017
 4515.00    0.68036   0.93945    0.017
 4516.00    0.75948   0.92683    0.017
 4517.00    0.83614   0.92345    0.017
 4518.00    0.84805   0.93111    0.017
 4519.00    0.85701   0.93452    0.017
 4520.00    0.59445   0.92773    0.017
 4521.00    0.33864   0.92993    0.017
 4522.00    0.59720   0.94537    0.017
 4523.00    0.84012   0.95901    0.017
 4524.00    0.78961   0.95107    0.017
 4525.00    0.72719   0.92833    0.017
 4526.00    0.53127   0.91719    0.017
 4527.00    0.39925   0.91246    0.017
 4528.00    0.76727   0.89922    0.017
 4529.00    1.06275   0.87930    0.017
 4530.00    0.92934   0.85860    0.017
 4531.00    0.78629   0.84651    0.017
 4532.00    0.59811   0.85185    0.017
 4533.00    0.44524   0.86970    0.018
 4534.00    0.42733   0.89016    0.017
 4535.00    0.39622   0.89290    0.017
 4536.00    0.32303   0.87204    0.017
 4537.00    0.27693   0.85261    0.017
 4538.00    0.30401   0.86422    0.017
 4539.00    0.38717   0.90766    0.017
 4540.00    0.60025   0.94195    0.017
 4541.00    0.76953   0.94062    0.017
 4542.00    0.85104   0.91629    0.017
 4543.00    0.80675   0.89321    0.017
 4544.00    0.54283   0.89320    0.017
 4545.00    0.42736   0.91125    0.017
 4546.00    0.53873   0.91628    0.017
 4547.00    0.62559   0.90501    0.017
 4548.00    0.67955   0.90257    0.017
 4549.00    0.70860   0.91042    0.017
 4550.00    0.70820   0.90841    0.000
 4551.00    0.66537   0.89042    0.000
 4552.00    0.57832   0.88320    0.000
 4553.00    0.62017   0.89629    0.000
 4554.00    0.78055   0.89699    0.000
 4555.00    0.90605   0.88179    0.000
 4556.00    1.00328   0.87175    0.000
 4557.00    1.02092   0.87127    0.000
 4558.00    0.98180   0.88502    0.000
 4559.00    0.81172   0.91305    0.000
 4560.00    0.55968   0.93592    0.000
 4561.00    0.59595   0.94322    0.000
 4562.00    0.78991   0.94191    0.000
 4563.00    0.82057   0.94144    0.000
 4564.00    0.77359   0.94122    0.000
 4565.00    0.72684   0.92766    0.000
 4566.00    0.68019   0.90384    0.000
 4567.00    0.55033   0.89041    0.000
 4568.00    0.39132   0.89739    0.000
 4569.00    0.41333   0.91678    0.000
 4570.00    0.48885   0.93152    0.000
 4571.00    0.79882   0.93720    0.000
 4572.00    1.16622   0.93281    0.000
 4573.00    1.13226   0.91062    0.000
 4574.00    1.01876   0.89496    0.000
 4575.00    0.76079   0.91174    0.000
 4576.00    0.48046   0.93079    0.000
 4577.00    0.61945   0.92859    0.000
 4578.00    0.80642   0.92574    0.000
 4579.00    0.70807   0.92977    0.000
 4580.00    0.58780   0.92634    0.000
 4581.00    0.67773   0.90790    0.000
 4582.00    0.77641   0.88497    0.000
 4583.00    0.72397   0.87631    0.000
 4584.00    0.67090   0.88530    0.000
 4585.00    0.64706   0.89408    0.000
 4586.00    0.63063   0.89306    0.000
 4587.00    0.74370   0.88907    0.000
 4588.00    0.83746   0.88651    0.000
 4589.00    0.72473   0.89283    0.000
 4590.00    0.64131   0.90980    0.000
 4591.00    0.77950   0.92370    0.000
 4592.00    0.91096   0.91977    0.000
 4593.00    1.00371   0.90051    0.000
 4594.00    1.05902   0.88459    0.000
 4595.00    0.94329   0.88302    0.000
 4596.00    0.84492   0.88582    0.000
 4597.00    0.81154   0.88151    0.000
 4598.00    0.77445   0.87682    0.000
 4599.00    0.72580   0.88068    0.000
 4600.00    0.64987   0.89074    0.000
 4601.00    0.50151   0.89898    0.000
 4602.00    0.44418   0.89328    0.000
 4603.00    0.59426   0.87844    0.000
 4604.00    0.70694   0.87550    0.000
 4605.00    0.74581   0.88456    0.000
 4606.00    0.66721   0.89225    0.000
 4607.00    0.38660   0.89089    0.000
 4608.00    0.35231   0.88676    0.000
 4609.00    0.68892   0.89263    0.000
 4610.00    0.87887   0.91189    0.000
 4611.00    0.87477   0.93078    0.000
 4612.00    0.85354   0.93340    0.000
 4613.00    0.81237   0.92437    0.000
 4614.00    0.79807   0.91500    0.000
 4615.00    0.81140   0.90571    0.000
 4616.00    0.89277   0.90450    0.000
 4617.00    1.03582   0.91497    0.000
 4618.00    0.96377   0.92038    0.000
 4619.00    0.71987   0.92051    0.000
 4620.00    0.66599   0.91612    0.000
 4621.00    0.74569   0.90094    0.000
 4622.00    0.70278   0.89450    0.000
 4623.00    0.58429   0.90793    0.000
 4624.00    0.57523   0.91902    0.000
 4625.00    0.62511   0.92099    0.000
 4626.00    0.63511   0.92196    0.000
 4627.00    0.62647   0.91742    0.000
 4628.00    0.68321   0.90853    0.000
 4629.00    0.76632   0.90661    0.000
 4630.00    0.84198   0.90720    0.000
 4631.00    0.91508   0.89748    0.000
 4632.00    0.91392   0.88822    0.000
 4633.00    0.89125   0.89674    0.000
 4634.00    0.84817   0.90787    0.000
 4635.00    0.80019   0.90024    0.000
 4636.00    0.84325   0.88666    0.000
 4637.00    0.90389   0.88418    0.000
 4638.00    0.77394   0.88700    0.000
 4639.00    0.61539   0.88173    0.000
 4640.00    0.63298   0.86741    0.000
 4641.00    0.66995   0.85474    0.000
 4642.00    0.69977   0.85064    0.000
 4643.00    0.72906   0.85771    0.000
 4644.00    0.55209   0.87035    0.000
 4645.00    0.36733   0.87784    0.000
 4646.00    0.54963   0.87853    0.000
 4647.00    0.72417   0.87083    0.000
 4648.00    0.54169   0.84679    0.000
 4649.00    0.37815   0.81903    0.000
 4650.00    0.52421   0.80977    0.000
 4651.00    0.67698   0.81842    0.000
 4652.00    0.89834   0.83187    0.000
 4653.00    1.08052   0.84550    0.000
 4654.00    0.97645   0.86225    0.000
 4655.00    0.87947   0.87680    0.000
 4656.00    0.82209   0.87212    0.000
 4657.00    0.75550   0.85524    0.000
 4658.00    0.64784   0.84787    0.000
 4659.00    0.60216   0.85622    0.000
 4660.00    0.78348   0.88020    0.000
 4661.00    0.88492   0.90918    0.000
 4662.00    0.74132   0.92350    0.000
 4663.00    0.62123   0.91373    0.000
 4664.00    0.56246   0.89019    0.000
 4665.00    0.54500   0.87149    0.000
 4666.00    0.62012   0.86662    0.000
 4667.00    0.72540   0.86648    0.000
 4668.00    0.88927   0.85034    0.000
 4669.00    0.89245   0.81664    0.000
 4670.00    0.62351   0.79499    0.000
 4671.00    0.43576   0.80489    0.000
 4672.00    0.36850   0.83334    0.000
 4673.00    0.44639   0.86054    0.000
 4674.00    0.71360   0.87251    0.000
 4675.00    0.82249   0.86651    0.000
 4676.00    0.74949   0.85682    0.000
 4677.00    0.76685   0.85660    0.000
 4678.00    0.87579   0.86703    0.000
 4679.00    0.85284   0.87634    0.000
 4680.00    0.71202   0.87298    0.000
 4681.00    0.69423   0.86058    0.000
 4682.00    0.77334   0.84922    0.000
 4683.00    0.83550   0.84118    0.000
 4684.00    0.88591   0.83871    0.000
 4685.00    0.86465   0.84710    0.000
 4686.00    0.79984   0.85592    0.000
 4687.00    0.79405   0.85098    0.000
 4688.00    0.81955   0.84233    0.000
 4689.00    0.87764   0.84296    0.000
 4690.00    0.95073   0.84953    0.000
 4691.00    0.85802   0.85700    0.000
 4692.00    0.69961   0.85956    0.000
 4693.00    0.61255   0.85384    0.000
 4694.00    0.54956   0.85124    0.000
 4695.00    0.73279   0.85782    0.000
 4696.00    0.98589   0.86626    0.000
 4697.00    0.98949   0.87522    0.000
 4698.00    0.93469   0.88370    0.000
 4699.00    0.78961   0.88070    0.000
 4700.00    0.62754   0.85773    0.000
 4701.00    0.50983   0.83184    0.000
 4702.00    0.39857   0.82760    0.000
 4703.00    0.52632   0.83610    0.000
 4704.00    0.67934   0.83423    0.000
 4705.00    0.69816   0.82477    0.000
 4706.00    0.70776   0.82536    0.000
 4707.00    0.66634   0.83656    0.000
 4708.00    0.62317   0.84244    0.000
 4709.00    0.63815   0.83652    0.000
 4710.00    0.64953   0.82648    0.000
 4711.00    0.54118   0.82051    0.000
 4712.00    0.44367   0.82595    0.000
 4713.00    0.51236   0.84484    0.000
 4714.00    0.59184   0.85339    0.000
 4715.00    0.77699   0.83714    0.000
 4716.00    0.92411   0.81819    0.000
 4717.00    0.80231   0.81881    0.000
 4718.00    0.69890   0.83585    0.000
 4719.00    0.69561   0.85550    0.000
 4720.00    0.67207   0.86871    0.000
 4721.00    0.56029   0.87763    0.000
 4722.00    0.48734   0.88500    0.000
 4723.00    0.55368   0.88604    0.000
 4724.00    0.62532   0.87831    0.000
 4725.00    0.71287   0.87081    0.000
 4726.00    0.75527   0.87514    0.000
 4727.00    0.68196   0.88585    0.000
 4728.00    0.65964   0.88433    0.000
 4729.00    0.74974   0.86000    0.000
 4730.00    0.85027   0.82843    0.000
 4731.00    0.97072   0.81405    0.000
 4732.00    1.01054   0.81653    0.000
 4733.00    0.91586   0.82273    0.000
 4734.00    0.81256   0.83144    0.000
 4735.00    0.69667   0.84182    0.000
 4736.00    0.64573   0.84920    0.000
 4737.00    0.67830   0.85492    0.000
 4738.00    0.70270   0.85182    0.000
 4739.00    0.71785   0.84103    0.000
 4740.00    0.79552   0.84462    0.000
 4741.00    0.93567   0.85886    0.000
 4742.00    0.82967   0.85953    0.000
 4743.00    0.50677   0.84841    0.000
 4744.00    0.41163   0.84408    0.000
 4745.00    0.49333   0.85197    0.000
 4746.00    0.58616   0.85954    0.000
 4747.00    0.68660   0.85802    0.000
 4748.00    0.81544   0.85858    0.000
 4749.00    0.96127   0.86608    0.000
 4750.00    0.94797   0.86891    0.000
 4751.00    0.85160   0.86657    0.000
 4752.00    0.84349   0.86664    0.000
 4753.00    0.87532   0.86604    0.000
 4754.00    0.87238   0.85885    0.000
 4755.00    0.85590   0.84953    0.000
 4756.00    0.89490   0.84292    0.000
 4757.00    0.95230   0.84000    0.000
 4758.00    0.82582   0.83964    0.000
 4759.00    0.64824   0.83957    0.000
 4760.00    0.67489   0.84006    0.000
 4761.00    0.74827   0.84327    0.015
 4762.00    0.67807   0.84807    0.015
 4763.00    0.58158   0.84387    0.015
 4764.00    0.68494   0.82560    0.015
 4765.00    0.81644   0.80828    0.015
 4766.00    0.87823   0.80179    0.015
 4767.00    0.93294   0.79731    0.015
 4768.00    0.91170   0.79209    0.015
 4769.00    0.88555   0.79562    0.015
 4770.00    0.83351   0.80886    0.015
 4771.00    0.78106   0.82467    0.015
 4772.00    0.91809   0.83628    0.015
 4773.00    1.05310   0.83409    0.015
 4774.00    1.12928   0.82205    0.015
 4775.00    1.19435   0.81918    0.015
 4776.00    1.09872   0.83191    0.015
 4777.00    1.00395   0.84523    0.015
 4778.00    0.91727   0.84672    0.015
 4779.00    0.85146   0.84507    0.015
 4780.00    0.92866   0.84597    0.014
 4781.00    0.99127   0.84084    0.014
 4782.00    0.97661   0.83200    0.014
 4783.00    0.95666   0.82894    0.014
 4784.00    0.91416   0.82626    0.014
 4785.00    0.85817   0.81608    0.014
 4786.00    0.75477   0.81023    0.014
 4787.00    0.67561   0.81544    0.014
 4788.00    0.66802   0.81425    0.014
 4789.00    0.71426   0.80657    0.014
 4790.00    0.89605   0.80714    0.014
 4791.00    0.97102   0.80884    0.014
 4792.00    0.81435   0.80841    0.014
 4793.00    0.75135   0.81318    0.014
 4794.00    0.86468   0.82026    0.014
 4795.00    0.93567   0.83038    0.015
 4796.00    0.93710   0.84676    0.014
 4797.00    0.83951   0.86002    0.014
 4798.00    0.59924   0.86010    0.014
 4799.00    0.51982   0.84949    0.014
 4800.00    0.64426   0.83431    0.015
 4801.00    0.71701   0.81898    0.015
 4802.00    0.73206   0.81192    0.015
 4803.00    0.74920   0.81934    0.014
 4804.00    0.76841   0.83454    0.014
 4805.00    0.76356   0.84369    0.014
 4806.00    0.73780   0.83919    0.014
 4807.00    0.76021   0.82511    0.014
 4808.00    0.81947   0.81479    0.014
 4809.00    0.79654   0.81132    0.014
 4810.00    0.71832   0.80789    0.014
 4811.00    0.78550   0.80827    0.014
 4812.00    0.93835   0.81486    0.014
 4813.00    1.01222   0.82006    0.014
 4814.00    1.04549   0.81978    0.015
 4815.00    1.07949   0.81750    0.014
 4816.00    1.11381   0.81767    0.014
 4817.00    0.94771   0.82058    0.014
 4818.00    0.70494   0.82528    0.014
 4819.00    0.62925   0.83233    0.014
 4820.00    0.60788   0.83826    0.014
 4821.00    0.66766   0.83915    0.014
 4822.00    0.74953   0.83682    0.014
 4823.00    0.93825   0.83513    0.014
 4824.00    1.15084   0.83013    0.014
 4825.00    1.08380   0.81146    0.014
 4826.00    0.96692   0.79150    0.014
 4827.00    0.77399   0.79502    0.014
 4828.00    0.57069   0.81408    0.014
 4829.00    0.61401   0.82299    0.014
 4830.00    0.68129   0.81519    0.014
 4831.00    0.74611   0.80450    0.014
 4832.00    0.81077   0.80456    0.014
 4833.00    0.89435   0.80616    0.014
 4834.00    0.97784   0.79714    0.014
 4835.00    0.95460   0.79316    0.014
 4836.00    0.92089   0.80503    0.014
 4837.00    0.61381   0.81613    0.014
 4838.00    0.34158   0.81602    0.014
 4839.00    0.54520   0.81393    0.014
 4840.00    0.71231   0.81246    0.014
 4841.00    0.54942   0.80304    0.014
 4842.00    0.43863   0.79074    0.013
 4843.00    0.67361   0.78901    0.013
 4844.00    0.85495   0.79381    0.013
 4845.00    0.75950   0.79084    0.013
 4846.00    0.71760   0.78692    0.014
 4847.00    0.89862   0.79645    0.014
 4848.00    1.01967   0.80921    0.000
 4849.00    0.93418   0.80737    0.000
 4850.00    0.87206   0.78995    0.000
 4851.00    0.87769   0.77437    0.000
 4852.00    0.87701   0.77642    0.000
 4853.00    0.86073   0.78453    0.000
 4854.00    0.81747   0.78307    0.000
 4855.00    0.71665   0.77655    0.000
 4856.00    0.65135   0.76225    0.000
 4857.00    0.65186   0.73288    0.000
 4858.00    0.62819   0.70778    0.000
 4859.00    0.56537   0.70463    0.000
 4860.00    0.59433   0.70185    0.000
 4861.00    0.75363   0.67075    0.000
 4862.00    0.91757   0.60731    0.000
 4863.00    1.08730   0.53614    0.000
 4864.00    0.92972   0.51301    0.000
 4865.00    0.41174   0.56087    0.000
 4866.00    0.26728   0.62643    0.000
 4867.00    0.48558   0.66854    0.000
 4868.00    0.61766   0.69801    0.000
 4869.00    0.67590   0.72096    0.000
 4870.00    0.68622   0.73461    0.000
 4871.00    0.66040   0.74483    0.000
 4872.00    0.73178   0.74604    0.000
 4873.00    0.86759   0.72619    0.000
 4874.00    0.85588   0.70722    0.000
 4875.00    0.75854   0.71870    0.013
 4876.00    0.72493   0.74494    0.013
 4877.00    0.72354   0.75747    0.013
 4878.00    0.77870   0.76070    0.013
 4879.00    0.85862   0.76784    0.013
 4880.00    0.91725   0.77635    0.013
 4881.00    0.96787   0.78802    0.013
 4882.00    0.98163   0.79929    0.013
 4883.00    0.98362   0.79155    0.013
 4884.00    0.96326   0.77456    0.014
 4885.00    0.93694   0.77332    0.014
 4886.00    0.73369   0.77835    0.013
 4887.00    0.49185   0.76992    0.013
 4888.00    0.65965   0.75556    0.013
 4889.00    0.89846   0.75280    0.013
 4890.00    0.98563   0.76103    0.013
 4891.00    1.05284   0.76505    0.013
 4892.00    0.86225   0.75323    0.013
 4893.00    0.64771   0.73105    0.013
 4894.00    0.79412   0.72938    0.013
 4895.00    0.96100   0.76151    0.013
 4896.00    0.90438   0.79824    0.014
 4897.00    0.84212   0.82095    0.014
 4898.00    0.72061   0.83180    0.014
 4899.00    0.61334   0.83346    0.014
 4900.00    0.84404   0.83011    0.013
 4901.00    1.04454   0.81825    0.013
 4902.00    0.85436   0.79898    0.013
 4903.00    0.67202   0.79111    0.013
 4904.00    0.55786   0.79587    0.013
 4905.00    0.49634   0.79262    0.014
 4906.00    0.77358   0.78479    0.014
 4907.00    0.98645   0.79227    0.014
 4908.00    0.87565   0.81042    0.014
 4909.00    0.80073   0.81741    0.013
 4910.00    0.87190   0.80761    0.013
 4911.00    0.95456   0.79012    0.013
 4912.00    1.07600   0.77187    0.013
 4913.00    1.07265   0.76343    0.013
 4914.00    0.71400   0.77217    0.013
 4915.00    0.49588   0.78635    0.013
 4916.00    0.61964   0.79559    0.013
 4917.00    0.68850   0.80499    0.013
 4918.00    0.64211   0.81383    0.013
 4919.00    0.62455   0.80798    0.013
 4920.00    0.65956   0.78012    0.013
 4921.00    0.64979   0.73928    0.013
 4922.00    0.56859   0.70275    0.013
 4923.00    0.54171   0.68351    0.013
 4924.00    0.59084   0.69146    0.013
 4925.00    0.74813   0.71872    0.014
 4926.00    1.03861   0.73699    0.014
 4927.00    1.11631   0.74330    0.013
 4928.00    0.96303   0.76051    0.013
 4929.00    0.93158   0.78772    0.013
 4930.00    1.01679   0.80441    0.014
 4931.00    0.98946   0.81398    0.014
 4932.00    0.86709   0.82106    0.013
 4933.00    0.78302   0.82121    0.013
 4934.00    0.72741   0.81370    0.013
 4935.00    0.69677   0.79157    0.013
 4936.00    0.68243   0.76506    0.013
 4937.00    0.69809   0.76443    0.013
 4938.00    0.73089   0.78248    0.013
 4939.00    0.78915   0.78205    0.014
 4940.00    0.86008   0.75711    0.000
 4941.00    0.91838   0.73447    0.000
 4942.00    0.97123   0.73902    0.000
 4943.00    0.80421   0.76592    0.000
 4944.00    0.55601   0.78647    0.000
 4945.00    0.56039   0.79347    0.000
 4946.00    0.64379   0.80140    0.000
 4947.00    0.87911   0.80508    0.000
 4948.00    1.15406   0.79873    0.000
 4949.00    1.06249   0.79690    0.000
 4950.00    0.89287   0.80543    0.000
 4951.00    0.90784   0.81245    0.000
 4952.00    0.95390   0.81514    0.000
 4953.00    1.04873   0.81857    0.000
 4954.00    1.14976   0.81855    0.000
 4955.00    1.03101   0.80924    0.000
 4956.00    0.89275   0.79678    0.000
 4957.00    0.70027   0.78574    0.000
 4958.00    0.50493   0.76661    0.000
 4959.00    0.70612   0.72833    0.000
 4960.00    0.91284   0.69547    0.000
 4961.00    0.95836   0.70957    0.000
 4962.00    0.99062   0.75304    0.000
 4963.00    0.73476   0.77833    0.000
 4964.00    0.50671   0.77955    0.000
 4965.00    0.62019   0.77711    0.000
 4966.00    0.70939   0.77572    0.000
 4967.00    0.59527   0.76423    0.000
 4968.00    0.50837   0.74747    0.000
 4969.00    0.59141   0.74112    0.000
 4970.00    0.65282   0.74354    0.000
 4971.00    0.60817   0.74741    0.000
 4972.00    0.62676   0.75216    0.000
 4973.00    0.89707   0.75776    0.000
 4974.00    1.04098   0.76629    0.000
 4975.00    0.76673   0.77514    0.000
 4976.00    0.54399   0.78131    0.000
 4977.00    0.46519   0.78476    0.000
 4978.00    0.41199   0.78241    0.000
 4979.00    0.42003   0.77542    0.000
 4980.00    0.44776   0.76404    0.000
 4981.00    0.51614   0.75090    0.000
 4982.00    0.61015   0.74430    0.000
 4983.00    0.75019   0.73664    0.000
 4984.00    0.81934   0.71473    0.000
 4985.00    0.77710   0.69121    0.000
 4986.00    0.77278   0.68879    0.000
 4987.00    0.82078   0.70417    0.000
 4988.00    0.86896   0.72152    0.000
 4989.00    0.91733   0.73977    0.000
 4990.00    0.87930   0.75596    0.000
 4991.00    0.74878   0.75889    0.000
 4992.00    0.70176   0.75020    0.000
 4993.00    0.73359   0.74048    0.000
 4994.00    0.75729   0.74051    0.000
 4995.00    0.77422   0.74745    0.000
 4996.00    0.74131   0.74619    0.000
 4997.00    0.67187   0.74500    0.000
 4998.00    0.75381   0.75341    0.000
 4999.00    0.93317   0.75865    0.000
 5000.00    0.91539   0.75489    0.000
 5001.00    0.78663   0.74202    0.000
 5002.00    0.68784   0.72078    0.000
 5003.00    0.60374   0.70448    0.000
 5004.00    0.67227   0.70207    0.000
 5005.00    0.80543   0.70986    0.000
 5006.00    0.91090   0.71656    0.000
 5007.00    1.00634   0.70798    0.000
 5008.00    0.87002   0.68897    0.000
 5009.00    0.66262   0.68249    0.000
 5010.00    0.59452   0.70176    0.000
 5011.00    0.56199   0.72725    0.000
 5012.00    0.71754   0.73551    0.000
 5013.00    0.91216   0.72787    0.000
 5014.00    0.81733   0.71184    0.000
 5015.00    0.67512   0.69081    0.000
 5016.00    0.61265   0.67256    0.000
 5017.00    0.55997   0.66303    0.000
 5018.00    0.70553   0.66860    0.000
 5019.00    0.86784   0.68375    0.000
 5020.00    0.73789   0.69196    0.000
 5021.00    0.59366   0.69681    0.000
 5022.00    0.69489   0.70780    0.000
 5023.00    0.79798   0.71612    0.000
 5024.00    0.78307   0.71060    0.000
 5025.00    0.76717   0.70421    0.000
 5026.00    0.73152   0.71303    0.000
 5027.00    0.69728   0.72620    0.000
 5028.00    0.67953   0.72893    0.000
 5029.00    0.66785   0.72107    0.012
 5030.00    0.70524   0.71122    0.012
 5031.00    0.72580   0.71621    0.012
 5032.00    0.64430   0.73114    0.013
 5033.00    0.60399   0.73901    0.013
 5034.00    0.76063   0.74526    0.013
 5035.00    0.86860   0.75646    0.013
 5036.00    0.78702   0.76203    0.013
 5037.00    0.67365   0.74732    0.013
 5038.00    0.45724   0.71877    0.013
 5039.00    0.32296   0.70588    0.013
 5040.00    0.41417   0.71263    0.013
 5041.00    0.50313   0.70844    0.012
 5042.00    0.58678   0.68183    0.012
 5043.00    0.70580   0.65016    0.012
 5044.00    0.89671   0.64540    0.012
 5045.00    0.92593   0.68000    0.013
 5046.00    0.66906   0.72030    0.013
 5047.00    0.57118   0.74250    0.013
 5048.00    0.71943   0.75652    0.013
 5049.00    0.74247   0.75781    0.013
 5050.00    0.59531   0.73778    0.012
 5051.00    0.55558   0.71152    0.012
 5052.00    0.64444   0.69976    0.013
 5053.00    0.71618   0.70089    0.013
 5054.00    0.76988   0.70422    0.013
 5055.00    0.79675   0.71287    0.013
 5056.00    0.79864   0.72815    0.013
 5057.00    0.73868   0.73928    0.012
 5058.00    0.62795   0.73981    0.013
 5059.00    0.57249   0.73881    0.013
 5060.00    0.55694   0.74419    0.013
 5061.00    0.59210   0.75080    0.013
 5062.00    0.65942   0.75227    0.013
 5063.00    0.63705   0.75657    0.013
 5064.00    0.56496   0.76258    0.012
 5065.00    0.50012   0.75805    0.013
 5066.00    0.43878   0.73549    0.013
 5067.00    0.50593   0.70584    0.013
 5068.00    0.62657   0.69670    0.013
 5069.00    0.70936   0.70856    0.013
 5070.00    0.77867   0.71332    0.013
 5071.00    0.68766   0.71052    0.013
 5072.00    0.54842   0.71757    0.013
 5073.00    0.55690   0.72620    0.012
 5074.00    0.60228   0.71855    0.012
 5075.00    0.56835   0.70814    0.012
 5076.00    0.51834   0.71374    0.012
 5077.00    0.53779   0.72108    0.012
 5078.00    0.56827   0.71789    0.012
 5079.00    0.49991   0.71718    0.012
 5080.00    0.41984   0.71889    0.012
 5081.00    0.56631   0.70149    0.012
 5082.00    0.73099   0.66991    0.012
 5083.00    0.73734   0.66035    0.012
 5084.00    0.73657   0.67520    0.012
 5085.00    0.65535   0.68673    0.012
 5086.00    0.57641   0.69032    0.011
 5087.00    0.65895   0.70038    0.012
 5088.00    0.73371   0.71352    0.012
 5089.00    0.66360   0.71763    0.012
 5090.00    0.60404   0.71627    0.012
 5091.00    0.66196   0.71891    0.012
 5092.00    0.70642   0.72302    0.012
 5093.00    0.64601   0.72287    0.012
 5094.00    0.59858   0.72479    0.012
 5095.00    0.62755   0.73385    0.012
 5096.00    0.65230   0.74137    0.012
 5097.00    0.65735   0.73684    0.012
 5098.00    0.66607   0.72351    0.012
 5099.00    0.68881   0.70981    0.012
 5100.00    0.69736   0.69518    0.012
 5101.00    0.66075   0.67815    0.012
 5102.00    0.64043   0.67243    0.012
 5103.00    0.66402   0.68878    0.012
 5104.00    0.67867   0.70940    0.012
 5105.00    0.67264   0.71565    0.012
 5106.00    0.66288   0.71032    0.012
 5107.00    0.64563   0.70405    0.012
 5108.00    0.62825   0.70042    0.012
 5109.00    0.61063   0.69337    0.012
 5110.00    0.62151   0.68430    0.012
 5111.00    0.67588   0.68292    0.012
 5112.00    0.75189   0.68372    0.012
 5113.00    0.85693   0.68386    0.012
 5114.00    0.84943   0.69388    0.012
 5115.00    0.70915   0.70455    0.012
 5116.00    0.63526   0.70802    0.012
 5117.00    0.63044   0.71285    0.013
 5118.00    0.64239   0.71924    0.012
 5119.00    0.66972   0.72665    0.012
 5120.00    0.62017   0.73428    0.012
 5121.00    0.50844   0.73414    0.012
 5122.00    0.47134   0.72514    0.012
 5123.00    0.48737   0.71266    0.012
 5124.00    0.52767   0.69914    0.012
 5125.00    0.58312   0.68309    0.012
 5126.00    0.69106   0.66621    0.012
 5127.00    0.82764   0.66168    0.012
 5128.00    0.80147   0.66926    0.012
 5129.00    0.69808   0.67269    0.012
 5130.00    0.70618   0.66945    0.012
 5131.00    0.75992   0.66739    0.012
 5132.00    0.72804   0.66932    0.012
 5133.00    0.66623   0.67722    0.012
 5134.00    0.61171   0.68857    0.012
 5135.00    0.55933   0.69305    0.012
 5136.00    0.56051   0.69431    0.012
 5137.00    0.57478   0.70369    0.012
 5138.00    0.59488   0.71326    0.012
 5139.00    0.61613   0.70536    0.012
 5140.00    0.70492   0.68862    0.012
 5141.00    0.80412   0.67492    0.012
 5142.00    0.73822   0.67095    0.012
 5143.00    0.65352   0.68315    0.012
 5144.00    0.59504   0.68595    0.012
 5145.00    0.53856   0.66905    0.012
 5146.00    0.59299   0.66626    0.012
 5147.00    0.65198   0.67690    0.012
 5148.00    0.61021   0.67526    0.012
 5149.00    0.56859   0.66709    0.012
 5150.00    0.56794   0.66702    0.012
 5151.00    0.56913   0.67476    0.012
 5152.00    0.60211   0.68135    0.012
 5153.00    0.63267   0.67433    0.012
 5154.00    0.63732   0.66208    0.012
 5155.00    0.65824   0.65698    0.012
 5156.00    0.80160   0.65743    0.012
 5157.00    0.89508   0.66305    0.012
 5158.00    0.70288   0.67730    0.012
 5159.00    0.55924   0.69611    0.012
 5160.00    0.63689   0.71131    0.012
 5161.00    0.68107   0.71590    0.012
 5162.00    0.60033   0.71258    0.012
 5163.00    0.53343   0.71283    0.012
 5164.00    0.50966   0.70953    0.012
 5165.00    0.49082   0.69898    0.012
 5166.00    0.48501   0.69156    0.012
 5167.00    0.46969   0.67754    0.012
 5168.00    0.43276   0.64036    0.012
 5169.00    0.40625   0.58994    0.012
 5170.00    0.40027   0.55399    0.012
 5171.00    0.39000   0.55616    0.012
 5172.00    0.37237   0.58818    0.012
 5173.00    0.42416   0.60772    0.012
 5174.00    0.58028   0.58320    0.012
 5175.00    0.66777   0.54624    0.012
 5176.00    0.66459   0.55535    0.012
 5177.00    0.66947   0.60659    0.012
 5178.00    0.68372   0.64740    0.012
 5179.00    0.65062   0.66111    0.012
 5180.00    0.56896   0.66644    0.011
 5181.00    0.54715   0.66954    0.011
 5182.00    0.57948   0.66507    0.011
 5183.00    0.63071   0.65380    0.011
 5184.00    0.69699   0.63035    0.011
 5185.00    0.67481   0.58613    0.011
 5186.00    0.59057   0.54463    0.011
 5187.00    0.55152   0.55379    0.011
 5188.00    0.54027   0.60842    0.011
 5189.00    0.49385   0.65503    0.011
 5190.00    0.42853   0.67072    0.000
 5191.00    0.47836   0.67118    0.000
 5192.00    0.58194   0.67708    0.000
 5193.00    0.64048   0.67615    0.000
 5194.00    0.68090   0.64832    0.000
 5195.00    0.74503   0.62360    0.000
 5196.00    0.81730   0.63061    0.000
 5197.00    0.84440   0.64631    0.000
 5198.00    0.85846   0.65120    0.000
 5199.00    0.83055   0.65935    0.000
 5200.00    0.79261   0.67173    0.000
 5201.00    0.80745   0.68083    0.000
 5202.00    0.83246   0.68718    0.000
 5203.00    0.75125   0.68681    0.000
 5204.00    0.65416   0.68055    0.000
 5205.00    0.63273   0.67323    0.000
 5206.00    0.61957   0.66158    0.000
 5207.00    0.59212   0.63565    0.000
 5208.00    0.56363   0.61020    0.000
 5209.00    0.50453   0.60540    0.000
 5210.00    0.44428   0.60792    0.000
 5211.00    0.58595   0.60352    0.012
 5212.00    0.72711   0.60968    0.012
 5213.00    0.81575   0.63104    0.012
 5214.00    0.88856   0.65643    0.012
 5215.00    0.70480   0.68078    0.012
 5216.00    0.54342   0.69481    0.012
 5217.00    0.60982   0.69033    0.012
 5218.00    0.66125   0.67249    0.012
 5219.00    0.60367   0.66262    0.012
 5220.00    0.55816   0.67138    0.012
 5221.00    0.57988   0.68835    0.012
 5222.00    0.60397   0.70050    0.012
 5223.00    0.63861   0.70630    0.012
 5224.00    0.67186   0.70925    0.012
 5225.00    0.70005   0.70378    0.012
 5226.00    0.71527   0.68555    0.012
 5227.00    0.69075   0.65881    0.012
 5228.00    0.65918   0.62935    0.012
 5229.00    0.60923   0.60602    0.012
 5230.00    0.60494   0.61087    0.012
 5231.00    0.70276   0.64923    0.012
 5232.00    0.76725   0.68445    0.012
 5233.00    0.76712   0.69801    0.012
 5234.00    0.82388   0.69794    0.012
 5235.00    0.97681   0.68058    0.012
 5236.00    1.01852   0.66041    0.012
 5237.00    0.89550   0.65950    0.012
 5238.00    0.80105   0.67451    0.012
 5239.00    0.74382   0.69507    0.011
 5240.00    0.71424   0.70881    0.011
 5241.00    0.71638   0.70957    0.011
 5242.00    0.74575   0.70399    0.011
 5243.00    0.80265   0.70128    0.011
 5244.00    0.84256   0.70226    0.011
 5245.00    0.86732   0.70071    0.011
 5246.00    0.81838   0.70202    0.011
 5247.00    0.71150   0.71070    0.011
 5248.00    0.61210   0.70731    0.011
 5249.00    0.51789   0.67939    0.011
 5250.00    0.54593   0.65652    0.011
 5251.00    0.64809   0.66013    0.012
 5252.00    0.75886   0.66381    0.012
 5253.00    0.87418   0.65414    0.011
 5254.00    0.88256   0.65590    0.011
 5255.00    0.84184   0.67113    0.011
 5256.00    0.79569   0.67837    0.011
 5257.00    0.74741   0.67044    0.011
 5258.00    0.79201   0.66572    0.012
 5259.00    0.86790   0.68403    0.012
 5260.00    0.83121   0.70938    0.012
 5261.00    0.76265   0.72020    0.012
 5262.00    0.72084   0.71488    0.012
 5263.00    0.68528   0.69807    0.012
 5264.00    0.53256   0.67368    0.012
 5265.00    0.35788   0.64589    0.012
 5266.00    0.42059   0.62123    0.012
 5267.00    0.51769   0.60387    0.012
 5268.00    0.64597   0.59503    0.012
 5269.00    0.77753   0.60372    0.012
 5270.00    0.67323   0.62585    0.012
 5271.00    0.55287   0.61912    0.012
 5272.00    0.51449   0.57978    0.013
 5273.00    0.47886   0.57296    0.013
 5274.00    0.56696   0.61565    0.013
 5275.00    0.64999   0.65261    0.012
 5276.00    0.56659   0.66063    0.012
 5277.00    0.49910   0.65699    0.012
 5278.00    0.67377   0.65198    0.012
 5279.00    0.83428   0.66326    0.012
 5280.00    0.85655   0.69326    0.012
 5281.00    0.87727   0.71191    0.012
 5282.00    0.88706   0.70725    0.012
 5283.00    0.88029   0.69079    0.012
 5284.00    0.78377   0.67392    0.012
 5285.00    0.70398   0.66072    0.012
 5286.00    0.69691   0.65296    0.012
 5287.00    0.68029   0.66225    0.012
 5288.00    0.62952   0.69300    0.012
 5289.00    0.61028   0.71961    0.012
 5290.00    0.68578   0.72321    0.012
 5291.00    0.74668   0.71499    0.012
 5292.00    0.77022   0.71269    0.012
 5293.00    0.80754   0.71785    0.012
 5294.00    0.87517   0.71935    0.012
 5295.00    0.88875   0.71285    0.012
 5296.00    0.79917   0.70660    0.012
 5297.00    0.75992   0.70553    0.012
 5298.00    0.80445   0.69619    0.012
 5299.00    0.81480   0.66825    0.012
 5300.00    0.77523   0.63734    0.011
 5301.00    0.73696   0.63243    0.011
 5302.00    0.70035   0.65527    0.012
 5303.00    0.68173   0.67261    0.012
 5304.00    0.68346   0.67134    0.011
 5305.00    0.70466   0.67465    0.011
 5306.00    0.74530   0.69285    0.011
 5307.00    0.68324   0.71336    0.011
 5308.00    0.53084   0.72001    0.011
 5309.00    0.52784   0.71111    0.011
 5310.00    0.64063   0.70060    0.011
 5311.00    0.66658   0.70307    0.011
 5312.00    0.63337   0.71343    0.011
 5313.00    0.66952   0.71720    0.011
 5314.00    0.74709   0.71345    0.011
 5315.00    0.84588   0.70770    0.011
 5316.00    0.95573   0.70276    0.011
 5317.00    0.91323   0.70088    0.011
 5318.00    0.80192   0.69627    0.011
 5319.00    0.76930   0.68695    0.011
 5320.00    0.76724   0.68496    0.011
 5321.00    0.78772   0.69105    0.011
 5322.00    0.81566   0.69301    0.011
 5323.00    0.75231   0.69098    0.011
 5324.00    0.66366   0.69027    0.011
 5325.00    0.62595   0.68540    0.011
 5326.00    0.59986   0.67158    0.011
 5327.00    0.73286   0.65937    0.011
 5328.00    0.89490   0.66264    0.011
 5329.00    0.79407   0.65693    0.012
 5330.00    0.65637   0.61686    0.012
 5331.00    0.73341   0.57812    0.012
 5332.00    0.83212   0.59408    0.012
 5333.00    0.91770   0.64218    0.012
 5334.00    1.00244   0.67141    0.012
 5335.00    0.89556   0.67456    0.012
 5336.00    0.78311   0.67558    0.013
 5337.00    0.72845   0.68775    0.013
 5338.00    0.67455   0.69634    0.012
 5339.00    0.64221   0.69200    0.013
 5340.00    0.61724   0.68634    0.013
 5341.00    0.69804   0.68241    0.012
 5342.00    0.78022   0.66593    0.012
 5343.00    0.87523   0.64276    0.012
 5344.00    0.94517   0.64270    0.012
 5345.00    0.84415   0.66573    0.012
 5346.00    0.74794   0.68211    0.012
 5347.00    0.67723   0.68283    0.011
 5348.00    0.62286   0.67250    0.011
 5349.00    0.63791   0.66762    0.012
 5350.00    0.62964   0.67086    0.012
 5351.00    0.53960   0.66456    0.011
 5352.00    0.51715   0.65650    0.011
 5353.00    0.69393   0.66787    0.012
 5354.00    0.82322   0.68935    0.012
 5355.00    0.83319   0.70044    0.011
 5356.00    0.83856   0.70241    0.011
 5357.00    0.83402   0.70994    0.011
 5358.00    0.83647   0.71930    0.011
 5359.00    0.85207   0.72111    0.011
 5360.00    0.82877   0.72069    0.011
 5361.00    0.74167   0.72076    0.011
 5362.00    0.67839   0.71860    0.011
 5363.00    0.64934   0.71054    0.011
 5364.00    0.64429   0.69602    0.011
 5365.00    0.66958   0.68427    0.011
 5366.00    0.66617   0.68159    0.011
 5367.00    0.63074   0.67888    0.011
 5368.00    0.64674   0.67402   -2.000
 5369.00    0.71331   0.67462   -2.000
 5370.00    0.81425   0.67638   -2.000
 5371.00    0.94498   0.67244   -2.000
 5372.00    1.08302   0.65493   -2.000
 5373.00    1.22664   0.62651   -2.000
 5374.00    1.13560   0.61283   -2.000
 5375.00    0.88701   0.63401   -2.000
 5376.00    0.78944   0.67240   -2.000
 5377.00    0.78070   0.69693   -2.000
 5378.00    0.74233   0.70329   -2.000
 5379.00    0.68876   0.69812   -2.000
 5380.00    0.62387   0.69363   -2.000
 5381.00    0.55394   0.69763   -2.000
 5382.00    0.55217   0.69911   -2.000
 5383.00    0.57641   0.69129    0.011
 5384.00    0.70242   0.68342    0.011
 5385.00    0.86143   0.67883    0.011
 5386.00    0.87532   0.67529    0.011
 5387.00    0.84981   0.67994    0.011
 5388.00    0.68597   0.68916    0.011
 5389.00    0.49131   0.69169    0.011
 5390.00    0.61158   0.68934    0.011
 5391.00    0.78778   0.68323    0.011
 5392.00    0.72776   0.67143    0.011
 5393.00    0.63569   0.66071    0.011
 5394.00    0.70884   0.65742    0.011
 5395.00    0.79794   0.65802    0.011
 5396.00    0.77946   0.65805    0.011
 5397.00    0.75450   0.65693    0.011
 5398.00    0.68552   0.65091    0.011
 5399.00    0.61572   0.63121    0.011
 5400.00    0.60138   0.61754    0.011
 5401.00    0.58931   0.63655    0.011
 5402.00    0.63577   0.66197    0.011
 5403.00    0.67074   0.66684    0.011
 5404.00    0.54986   0.66652    0.011
 5405.00    0.45374   0.66899    0.011
 5406.00    0.58044   0.65629    0.011
 5407.00    0.67631   0.62643    0.011
 5408.00    0.56835   0.60239    0.011
 5409.00    0.48982   0.60482    0.011
 5410.00    0.56269   0.62749    0.011
 5411.00    0.64504   0.63872    0.011
 5412.00    0.76676   0.62638    0.011
 5413.00    0.84908   0.61732    0.011
 5414.00    0.79608   0.63386    0.011
 5415.00    0.76759   0.65839    0.011
 5416.00    0.81003   0.66984    0.010
 5417.00    0.80944   0.66946    0.010
 5418.00    0.70259   0.67136    0.010
 5419.00    0.65444   0.68276    0.010
 5420.00    0.73129   0.69135    0.010
 5421.00    0.77051   0.68817    0.010
 5422.00    0.74012   0.67860    0.010
 5423.00    0.72342   0.67073    0.011
 5424.00    0.72883   0.67258    0.010
 5425.00    0.73689   0.67886    0.010
 5426.00    0.74870   0.67063    0.011
 5427.00    0.74797   0.65685    0.011
 5428.00    0.73160   0.66360    0.011
 5429.00    0.71009   0.68399    0.011
 5430.00    0.68293   0.69298    0.011
 5431.00    0.63471   0.67136    0.011
 5432.00    0.56608   0.63320    0.010
 5433.00    0.54166   0.62609    0.010
 5434.00    0.55504   0.64708    0.011
 5435.00    0.59894   0.64995    0.011
 5436.00    0.66582   0.63562    0.011
 5437.00    0.67080   0.62503    0.011
 5438.00    0.63484   0.62661    0.011
 5439.00    0.63843   0.63928    0.011
 5440.00    0.66495   0.65782    0.011
 5441.00    0.70543   0.67772    0.011
 5442.00    0.75298   0.69201    0.011
 5443.00    0.75577   0.69821    0.011
 5444.00    0.73901   0.69927    0.011
 5445.00    0.63116   0.69956    0.011
 5446.00    0.48916   0.69794    0.011
 5447.00    0.50060   0.68465    0.011
 5448.00    0.56086   0.65499    0.011
 5449.00    0.65988   0.62012    0.011
 5450.00    0.76920   0.60914    0.011
 5451.00    0.80304   0.63084    0.011
 5452.00    0.82046   0.65414    0.011
 5453.00    0.87721   0.66195    0.011
 5454.00    0.94076   0.66008    0.011
 5455.00    0.78350   0.65506    0.011
 5456.00    0.59730   0.64459    0.011
 5457.00    0.57989   0.62449    0.011
 5458.00    0.57808   0.60329    0.010
 5459.00    0.66993   0.60856    0.010
 5460.00    0.76705   0.63754    0.010
 5461.00    0.66208   0.66055    0.010
 5462.00    0.55456   0.66440    0.010
 5463.00    0.65130   0.65609    0.010
 5464.00    0.74029   0.64610    0.010
 5465.00    0.64729   0.63504    0.010
 5466.00    0.55837   0.62799    0.010
 5467.00    0.52190   0.63724    0.010
 5468.00    0.50450   0.64949    0.010
 5469.00    0.65208   0.65049    0.010
 5470.00    0.77681   0.65266    0.010
 5471.00    0.75498   0.65818    0.010
 5472.00    0.74300   0.65540    0.010
 5473.00    0.78035   0.64645    0.010
 5474.00    0.81174   0.64411    0.010
 5475.00    0.81900   0.64253    0.010
 5476.00    0.79194   0.63369    0.010
 5477.00    0.64936   0.62953    0.010
 5478.00    0.56583   0.62487   -2.000
 5479.00    0.64997   0.60545   -2.000
 5480.00    0.71551   0.59918   -2.000
 5481.00    0.73589   0.62391   -2.000
 5482.00    0.71545   0.64590   -2.000
 5483.00    0.60946   0.64001   -2.000
 5484.00    0.67554   0.62236   -2.000
 5485.00    1.05497   0.62179   -2.000
 5486.00    1.47990   0.63650   -2.000
 5487.00    1.97727   0.65346   -2.000
 5488.00    2.16054   0.66306   -2.000
 5489.00    1.90502   0.65641   -2.000
 5490.00    1.49033   0.64051   -2.000
 5491.00    0.87995   0.63616   -2.000
 5492.00    0.55372   0.64268   -2.000
 5493.00    0.53543   0.64539   -2.000
 5494.00    0.54159   0.64957   -2.000
 5495.00    0.57110   0.65335   -2.000
 5496.00    0.64608   0.64822   -2.000
 5497.00    0.75937   0.64598   -2.000
 5498.00    0.80535   0.65015   -2.000
 5499.00    0.80138   0.64511   -2.000
 5500.00    0.75697   0.63310   -2.000
 5501.00    0.68620   0.63808   -2.000
 5502.00    0.71929   0.65353    0.010
 5503.00    0.81162   0.65079    0.010
 5504.00    0.83486   0.63357    0.010
 5505.00    0.82377   0.62675    0.010
 5506.00    0.74016   0.63313    0.010
 5507.00    0.62539   0.63857    0.010
 5508.00    0.63176   0.63242    0.010
 5509.00    0.68275   0.61870    0.010
 5510.00    0.67918   0.62010    0.010
 5511.00    0.65858   0.63627    0.010
 5512.00    0.69664   0.64260    0.010
 5513.00    0.74995   0.63861    0.010
 5514.00    0.70874   0.62845    0.010
 5515.00    0.64746   0.61443    0.010
 5516.00    0.60471   0.60928    0.010
 5517.00    0.56506   0.61392    0.010
 5518.00    0.61371   0.62203    0.010
 5519.00    0.67353   0.63130    0.010
 5520.00    0.64092   0.64206    0.010
 5521.00    0.60016   0.65594    0.010
 5522.00    0.50090   0.66330    0.010
 5523.00    0.39859   0.66054    0.011
 5524.00    0.41833   0.65648    0.012
 5525.00    0.43926   0.65566    0.012
 5526.00    0.37787   0.65607    0.012
 5527.00    0.32390   0.65377    0.012
 5528.00    0.42948   0.64601    0.012
 5529.00    0.53173   0.63410    0.012
 5530.00    0.59324   0.61860    0.011
 5531.00    0.64700   0.60895    0.010
 5532.00    0.63611   0.62059    0.010
 5533.00    0.62474   0.64233    0.010
 5534.00    0.61039   0.65133    0.010
 5535.00    0.62230   0.64782    0.010
 5536.00    0.76251   0.64196    0.010
 5537.00    0.84095   0.63545    0.010
 5538.00    0.67415   0.63103    0.010
 5539.00    0.56204   0.63667    0.010
 5540.00    0.63043   0.64311    0.010
 5541.00    0.68048   0.64374    0.010
 5542.00    0.67937   0.64890    0.010
 5543.00    0.69534   0.65828    0.010
 5544.00    0.75207   0.66209    0.010
 5545.00    0.79126   0.65497    0.010
 5546.00    0.79430   0.64411    0.010
 5547.00    0.78794   0.64116    0.010
 5548.00    0.76474   0.64238    0.010
 5549.00    0.77627   0.64184    0.010
 5550.00    0.84228   0.64731    0.010
 5551.00    0.85422   0.65858    0.010
 5552.00    0.79172   0.66389    0.010
 5553.00    0.73714   0.66357    0.010
 5554.00    0.69216   0.66175    0.010
 5555.00    0.67572   0.65658    0.010
 5556.00    0.68976   0.64766    0.010
 5557.00    0.71055   0.64096    0.009
 5558.00    0.73771   0.64176    0.009
 5559.00    0.77079   0.64493    0.009
 5560.00    0.80878   0.64346    0.009
 5561.00    0.78904   0.64253    0.009
 5562.00    0.72707   0.64531    0.009
 5563.00    0.68547   0.64553    0.009
 5564.00    0.65695   0.64185    0.009
 5565.00    0.67221   0.63525    0.009
 5566.00    0.71205   0.63061    0.009
 5567.00    0.69542   0.63142    0.009
 5568.00    0.65116   0.62888    0.009
 5569.00    0.58277   0.62373    0.009
 5570.00    0.50418   0.62501    0.009
 5571.00    0.52479   0.62735    0.010
 5572.00    0.58128   0.62474    0.010
 5573.00    0.63477   0.62775    0.010
 5574.00    0.68734   0.63513    0.010
 5575.00    0.68400   0.62759    0.010
 5576.00    0.66642   0.62024    0.010
 5577.00    0.66892   0.63124    0.010
 5578.00    0.67558   0.63834    0.010
 5579.00    0.70625   0.63568    0.010
 5580.00    0.74084   0.63860    0.010
 5581.00    0.68411   0.64024    0.010
 5582.00    0.61622   0.63999    0.010
 5583.00    0.61448   0.64325    0.010
 5584.00    0.61830   0.64042    0.010
 5585.00    0.68567   0.63418    0.010
 5586.00    0.75610   0.63496    0.010
 5587.00    0.77648   0.63397    0.010
 5588.00    0.79555   0.62387    0.010
 5589.00    0.78171   0.60571    0.010
 5590.00    0.76463   0.58731    0.010
 5591.00    0.68328   0.57998    0.010
 5592.00    0.61023   0.58460    0.010
 5593.00    0.63374   0.59739    0.010
 5594.00    0.65731   0.60840    0.010
 5595.00    0.68133   0.61053    0.010
 5596.00    0.70318   0.60846    0.010
 5597.00    0.71189   0.60866    0.010
 5598.00    0.72333   0.62033    0.010
 5599.00    0.74778   0.63669    0.010
 5600.00    0.76263   0.63121    0.010
 5601.00    0.74020   0.60939    0.010
 5602.00    0.70896   0.60046    0.010
 5603.00    0.64921   0.60144    0.010
 5604.00    0.62522   0.59707    0.009
 5605.00    0.69918   0.59200    0.009
 5606.00    0.74953   0.59663    0.009
 5607.00    0.74450   0.61484    0.009
 5608.00    0.73180   0.63242    0.009
 5609.00    0.70356   0.64210    0.009
 5610.00    0.67152   0.64556    0.009
 5611.00    0.63280   0.64522    0.009
 5612.00    0.61820   0.64267    0.009
 5613.00    0.64088   0.64106    0.009
 5614.00    0.67356   0.64393    0.009
 5615.00    0.71980   0.64832    0.009
 5616.00    0.77193   0.64420    0.009
 5617.00    0.83109   0.61956    0.009
 5618.00    0.82153   0.58725    0.009
 5619.00    0.73959   0.58394    0.010
 5620.00    0.68434   0.60548    0.010
 5621.00    0.65390   0.61716    0.009
 5622.00    0.65545   0.61518    0.009
 5623.00    0.68323   0.61520    0.009
 5624.00    0.65358   0.62313    0.010
 5625.00    0.58251   0.62931    0.010
 5626.00    0.61055   0.61960    0.010
 5627.00    0.70129   0.59810    0.010
 5628.00    0.76936   0.59085    0.010
 5629.00    0.82489   0.60438    0.010
 5630.00    0.87085   0.61649    0.010
 5631.00    0.91219   0.62119    0.010
 5632.00    0.89029   0.62667    0.010
 5633.00    0.84211   0.63129    0.010
 5634.00    0.77837   0.63327    0.010
 5635.00    0.70910   0.63301    0.009
 5636.00    0.69011   0.63057    0.009
 5637.00    0.68620   0.62663    0.009
 5638.00    0.68846   0.62134    0.009
 5639.00    0.69226   0.61359    0.009
 5640.00    0.68254   0.60727    0.009
 5641.00    0.67009   0.60771    0.009
 5642.00    0.67945   0.61051    0.009
 5643.00    0.69225   0.60730    0.009
 5644.00    0.68704   0.60085    0.009
 5645.00    0.67970   0.60453    0.009
 5646.00    0.66415   0.61139    0.009
 5647.00    0.64794   0.61370    0.009
 5648.00    0.69697   0.61558    0.009
 5649.00    0.74890   0.61778    0.009
 5650.00    0.73000   0.61986    0.009
 5651.00    0.70925   0.62001    0.009
 5652.00    0.63786   0.61794    0.009
 5653.00    0.57170   0.61901    0.009
 5654.00    0.60187   0.62570    0.009
 5655.00    0.63020   0.63269    0.009
 5656.00    0.63821   0.63239    0.009
 5657.00    0.64329   0.62278    0.009
 5658.00    0.62561   0.61590    0.009
 5659.00    0.61281   0.61753    0.009
 5660.00    0.62869   0.60487    0.009
 5661.00    0.63240   0.57773    0.009
 5662.00    0.57951   0.57623    0.009
 5663.00    0.54469   0.59963    0.009
 5664.00    0.57855   0.60592    0.009
 5665.00    0.61521   0.59436    0.009
 5666.00    0.66074   0.59382    0.009
 5667.00    0.70829   0.60812    0.009
 5668.00    0.76127   0.61779    0.009
 5669.00    0.78670   0.61524    0.009
 5670.00    0.74856   0.60598    0.009
 5671.00    0.69772   0.60093    0.009
 5672.00    0.62154   0.60458    0.009
 5673.00    0.57586   0.60905    0.009
 5674.00    0.58323   0.61283    0.009
 5675.00    0.59021   0.62145    0.009
 5676.00    0.59659   0.63198    0.010
 5677.00    0.58713   0.63285    0.010
 5678.00    0.55647   0.62643    0.010
 5679.00    0.54100   0.62722    0.009
 5680.00    0.54342   0.63248    0.009
 5681.00    0.58574   0.62914    0.009
 5682.00    0.66948   0.62170    0.009
 5683.00    0.76203   0.62059    0.009
 5684.00    0.86264   0.61886    0.009
 5685.00    0.86648   0.60839    0.009
 5686.00    0.79218   0.60223    0.009
 5687.00    0.71904   0.60988    0.009
 5688.00    0.64673   0.61676    0.009
 5689.00    0.62678   0.61206    0.009
 5690.00    0.63948   0.60104    0.009
 5691.00    0.65198   0.59743    0.009
 5692.00    0.66438   0.60486    0.009
 5693.00    0.68315   0.61657    0.009
 5694.00    0.70492   0.62493    0.009
 5695.00    0.66805   0.63181    0.009
 5696.00    0.60722   0.63368    0.009
 5697.00    0.57644   0.62899    0.009
 5698.00    0.55614   0.62357    0.009
 5699.00    0.57958   0.62238    0.009
 5700.00    0.61589   0.61974    0.009
 5701.00    0.67086   0.61164    0.009
 5702.00    0.73038   0.60805    0.010
 5703.00    0.74397   0.60591    0.009
 5704.00    0.74853   0.59755    0.009
 5705.00    0.64894   0.59374    0.009
 5706.00    0.53335   0.60107    0.009
 5707.00    0.52408   0.61054    0.009
 5708.00    0.52686   0.61004    0.009
 5709.00    0.50109   0.59930    0.009
 5710.00    0.47315   0.58935    0.009
 5711.00    0.51397   0.58000    0.009
 5712.00    0.55759   0.57284    0.009
 5713.00    0.55442   0.57728    0.009
 5714.00    0.55144   0.58136    0.009
 5715.00    0.57114   0.58407    0.009
 5716.00    0.59191   0.60089    0.009
 5717.00    0.63112   0.61549    0.009
 5718.00    0.67086   0.61952    0.009
 5719.00    0.71622   0.62173    0.009
 5720.00    0.75409   0.62043    0.009
 5721.00    0.73572   0.61794    0.009
 5722.00    0.71478   0.62152    0.009
 5723.00    0.67913   0.62628    0.009
 5724.00    0.65269   0.62945    0.009
 5725.00    0.66810   0.63351    0.009
 5726.00    0.68296   0.63556    0.009
 5727.00    0.69573   0.63376    0.009
 5728.00    0.71773   0.63042    0.009
 5729.00    0.76846   0.62024    0.009
 5730.00    0.79588   0.60788    0.009
 5731.00    0.76167   0.61003    0.009
 5732.00    0.72391   0.62244    0.009
 5733.00    0.67806   0.62377    0.009
 5734.00    0.66577   0.61293    0.009
 5735.00    0.71939   0.61064    0.009
 5736.00    0.74822   0.62113    0.009
 5737.00    0.73458   0.62922    0.009
 5738.00    0.72722   0.63060    0.009
 5739.00    0.72928   0.62715    0.009
 5740.00    0.72435   0.62325    0.000
 5741.00    0.71020   0.62108    0.000
 5742.00    0.67077   0.61912    0.000
 5743.00    0.60198   0.61850    0.000
 5744.00    0.57283   0.61995    0.000
 5745.00    0.58427   0.62005    0.000
 5746.00    0.59762   0.61719    0.000
 5747.00    0.61268   0.62186    0.000
 5748.00    0.64362   0.63135    0.000
 5749.00    0.68720   0.63424    0.000
 5750.00    0.68866   0.62311    0.000
 5751.00    0.66062   0.60998    0.000
 5752.00    0.65925   0.61355    0.000
 5753.00    0.67427   0.62685    0.000
 5754.00    0.71472   0.62976    0.000
 5755.00    0.76881   0.61724    0.000
 5756.00    0.73825   0.60006    0.000
 5757.00    0.66825   0.59354    0.000
 5758.00    0.66622   0.60533    0.000
 5759.00    0.69147   0.62354    0.000
 5760.00    0.66586   0.63348    0.000
 5761.00    0.62284   0.63484    0.000
 5762.00    0.60445   0.62742    0.000
 5763.00    0.59315   0.61419    0.000
 5764.00    0.63047   0.60059    0.000
 5765.00    0.67936   0.58999    0.000
 5766.00    0.64353   0.59118    0.000
 5767.00    0.59144   0.60883    0.000
 5768.00    0.59290   0.62404    0.000
 5769.00    0.60233   0.62749    0.000
 5770.00    0.61683   0.62715    0.000
 5771.00    0.63189   0.62638    0.000
 5772.00    0.62420   0.62410    0.000
 5773.00    0.61488   0.62250    0.000
 5774.00    0.61777   0.62014    0.000
 5775.00    0.62111   0.61639    0.000
 5776.00    0.65002   0.61555    0.000
 5777.00    0.67927   0.61396    0.000
 5778.00    0.71695   0.61255    0.000
 5779.00    0.75503   0.61578    0.000
 5780.00    0.79950   0.61923    0.000
 5781.00    0.83497   0.61912    0.000
 5782.00    0.77944   0.61285    0.000
 5783.00    0.72412   0.59603    0.000
 5784.00    0.67031   0.57677    0.000
 5785.00    0.62799   0.57314    0.000
 5786.00    0.64947   0.58098    0.000
 5787.00    0.67363   0.58165    0.000
 5788.00    0.70962   0.57520    0.000
 5789.00    0.73743   0.58099    0.000
 5790.00    0.73542   0.59714    0.000
 5791.00    0.72515   0.60693   -2.000
 5792.00    0.68971   0.61107   -2.000
 5793.00    0.69120   0.60605   -2.000
 5794.00    0.78857   0.59762   -2.000
 5795.00    0.86293   0.60256   -2.000
 5796.00    0.88592   0.61327   -2.000
 5797.00    0.88504   0.62176   -2.000
 5798.00    0.83798   0.62770   -2.000
 5799.00    0.78815   0.62394   -2.000
 5800.00    0.73364   0.60896   -2.000
 5801.00    0.72527   0.60083   -2.000
 5802.00    0.78511   0.61271   -2.000
 5803.00    0.82363   0.62756   -2.000
 5804.00    0.83444   0.63360   -2.000
 5805.00    0.83769   0.63555   -2.000
 5806.00    0.83229   0.63103   -2.000
 5807.00    0.82007   0.61820   -2.000
 5808.00    0.80095   0.61087   -2.000
 5809.00    0.74750   0.61265   -2.000
 5810.00    0.66347   0.61671   -2.000
 5811.00    0.61077   0.61931    0.000
 5812.00    0.58264   0.61984    0.000
 5813.00    0.59284   0.62105    0.000
 5814.00    0.62947   0.62083    0.000
 5815.00    0.67006   0.61887    0.000
 5816.00    0.71305   0.61724    0.000
 5817.00    0.72294   0.61382    0.000
 5818.00    0.71534   0.60477    0.000
 5819.00    0.72541   0.59751    0.000
 5820.00    0.74357   0.60194    0.000
 5821.00    0.76230   0.61404    0.000
 5822.00    0.78125   0.62117    0.000
 5823.00    0.80465   0.62294    0.000
 5824.00    0.82954   0.62344    0.000
 5825.00    0.81116   0.62086    0.000
 5826.00    0.78057   0.61679    0.000
 5827.00    0.77536   0.61597    0.000
 5828.00    0.77605   0.61922    0.000
 5829.00    0.77571   0.62107    0.000
 5830.00    0.77518   0.62049    0.000
 5831.00    0.75455   0.62078    0.000
 5832.00    0.73102   0.62326    0.000
 5833.00    0.73827   0.62466    0.000
 5834.00    0.74874   0.62285    0.000
 5835.00    0.75318   0.62216    0.000
 5836.00    0.75721   0.62042    0.000
 5837.00    0.76637   0.61440    0.000
 5838.00    0.77571   0.61069    0.000
 5839.00    0.78867   0.61598    0.000
 5840.00    0.80063   0.61884    0.000
 5841.00    0.78121   0.61296    0.000
 5842.00    0.75992   0.61025    0.000
 5843.00    0.71052   0.61634    0.000
 5844.00    0.66709   0.62320    0.000
 5845.00    0.68159   0.62606    0.000
 5846.00    0.68600   0.62576    0.000
 5847.00    0.61959   0.62276    0.000
 5848.00    0.56161   0.61809    0.000
 5849.00    0.54919   0.61162    0.000
 5850.00    0.55323   0.60402    0.000
 5851.00    0.62858   0.60074    0.000
 5852.00    0.69063   0.60234    0.000
 5853.00    0.70522   0.60343    0.000
 5854.00    0.70160   0.59978    0.000
 5855.00    0.64342   0.58937    0.000
 5856.00    0.59930   0.57784    0.000
 5857.00    0.59101   0.57887    0.000
 5858.00    0.59466   0.58801    0.000
 5859.00    0.62451   0.58546    0.000
 5860.00    0.65223   0.57017    0.000
 5861.00    0.67591   0.56364    0.000
 5862.00    0.70207   0.57404    0.000
 5863.00    0.73235   0.58671    0.000
 5864.00    0.73302   0.59308    0.000
 5865.00    0.69057   0.58925    0.000
 5866.00    0.66790   0.58553    0.000
 5867.00    0.67059   0.58984    0.000
 5868.00    0.66302   0.59275    0.000
 5869.00    0.64388   0.58640    0.000
 5870.00    0.63504   0.58104    0.000
 5871.00    0.63648   0.58724    0.000
 5872.00    0.63106   0.59677    0.000
 5873.00    0.61961   0.60206    0.000
 5874.00    0.62846   0.60225    0.000
 5875.00    0.65301   0.59711    0.000
 5876.00    0.66098   0.59150    0.000
 5877.00    0.65768   0.58282    0.000
 5878.00    0.62171   0.57217    0.000
 5879.00    0.56627   0.56663    0.000
 5880.00    0.61429   0.57083    0.000
 5881.00    0.71610   0.58125    0.000
 5882.00    0.75337   0.57872    0.000
 5883.00    0.76153   0.57220    0.000
 5884.00    0.72934   0.57340    0.000
 5885.00    0.68151   0.58029    0.000
 5886.00    0.62610   0.58005    0.000
 5887.00    0.56818   0.57516    0.000
 5888.00    0.56823   0.57511    0.000
 5889.00    0.58430   0.57614    0.000
 5890.00    0.55439   0.56782    0.000
 5891.00    0.51403   0.53403    0.000
 5892.00    0.51186   0.47077    0.000
 5893.00    0.51665   0.42570    0.000
 5894.00    0.51711   0.44755    0.000
 5895.00    0.51697   0.49737    0.000
 5896.00    0.57143   0.52354    0.000
 5897.00    0.63137   0.52251    0.000
 5898.00    0.62871   0.48644    0.000
 5899.00    0.62207   0.45431    0.000
 5900.00    0.61278   0.47730    0.000
 5901.00    0.60333   0.52047    0.008
 5902.00    0.56469   0.54043    0.008
 5903.00    0.52892   0.55034    0.008
 5904.00    0.57408   0.56212    0.008
 5905.00    0.61914   0.56858    0.008
 5906.00    0.66267   0.57176    0.008
 5907.00    0.70172   0.57369    0.008
 5908.00    0.69900   0.57078    0.008
 5909.00    0.69770   0.56752    0.008
 5910.00    0.70604   0.57048    0.008
 5911.00    0.70550   0.57591    0.008
 5912.00    0.65814   0.57707    0.008
 5913.00    0.61900   0.57662    0.008
 5914.00    0.61464   0.58007    0.008
 5915.00    0.60742   0.58085    0.009
 5916.00    0.59017   0.57188    0.009
 5917.00    0.56324   0.55951    0.009
 5918.00    0.50788   0.55641    0.008
 5919.00    0.47727   0.55965    0.008
 5920.00    0.50870   0.56621    0.008
 5921.00    0.54209   0.57158    0.009
 5922.00    0.57968   0.57344    0.009
 5923.00    0.59843   0.57668    0.008
 5924.00    0.58187   0.57617    0.008
 5925.00    0.59272   0.57162    0.008
 5926.00    0.64843   0.57121    0.008
 5927.00    0.67259   0.57455    0.008
 5928.00    0.65147   0.57733    0.008
 5929.00    0.62808   0.57957    0.008
 5930.00    0.60183   0.57854    0.008
 5931.00    0.60070   0.57340    0.008
 5932.00    0.62753   0.56610    0.008
 5933.00    0.65085   0.56166    0.008
 5934.00    0.67073   0.56778    0.008
 5935.00    0.66810   0.57827    0.008
 5936.00    0.64599   0.57900    0.008
 5937.00    0.60043   0.57018    0.008
 5938.00    0.53697   0.56476    0.008
 5939.00    0.51252   0.57105    0.008
 5940.00    0.51421   0.57822    0.008
 5941.00    0.50829   0.58164    0.008
 5942.00    0.49789   0.58355    0.008
 5943.00    0.49367   0.57809    0.008
 5944.00    0.49261   0.56683    0.008
 5945.00    0.48506   0.56434    0.008
 5946.00    0.47463   0.57035    0.008
 5947.00    0.50141   0.57648    0.008
 5948.00    0.54237   0.58208    0.008
 5949.00    0.58322   0.58621    0.008
 5950.00    0.62403   0.58315    0.008
 5951.00    0.63247   0.57171    0.008
 5952.00    0.63215   0.56283    0.008
 5953.00    0.62897   0.56635    0.008
 5954.00    0.62516   0.57283    0.008
 5955.00    0.61125   0.56854    0.008
 5956.00    0.59556   0.56177    0.008
 5957.00    0.60806   0.56663    0.008
 5958.00    0.62437   0.57198    0.008
 5959.00    0.63115   0.56587    0.008
 5960.00    0.63701   0.55873    0.008
 5961.00    0.62878   0.56070    0.008
 5962.00    0.61970   0.56857    0.008
 5963.00    0.69705   0.57696    0.008
 5964.00    0.77614   0.58229    0.008
 5965.00    0.78102   0.58396    0.008
 5966.00    0.78500   0.58288    0.008
 5967.00    0.76618   0.58095    0.008
 5968.00    0.74742   0.57627    0.008
 5969.00    0.72945   0.57240    0.008
 5970.00    0.71087   0.57624    0.008
 5971.00    0.68683   0.58181    0.008
 5972.00    0.67018   0.58436    0.008
 5973.00    0.70218   0.58669    0.008
 5974.00    0.72226   0.58809    0.008
 5975.00    0.68130   0.58688    0.008
 5976.00    0.63255   0.58530    0.008
 5977.00    0.55157   0.58233    0.008
 5978.00    0.48997   0.57541    0.008
 5979.00    0.49472   0.56691    0.008
 5980.00    0.51107   0.56199    0.008
 5981.00    0.56091   0.56083    0.008
 5982.00    0.59569   0.56466    0.008
 5983.00    0.59338   0.57259    0.008
 5984.00    0.59246   0.57797    0.008
 5985.00    0.59450   0.57594    0.008
 5986.00    0.59882   0.56566    0.008
 5987.00    0.60736   0.55299    0.008
 5988.00    0.62975   0.55325    0.008
 5989.00    0.67445   0.56477    0.008
 5990.00    0.70343   0.57103    0.008
 5991.00    0.71015   0.57190    0.008
 5992.00    0.70909   0.57460    0.008
 5993.00    0.69833   0.57604    0.008
 5994.00    0.68703   0.57269    0.008
 5995.00    0.67514   0.57208    0.008
 5996.00    0.66620   0.58013    0.008
 5997.00    0.66011   0.58800    0.008
 5998.00    0.66468   0.58804    0.008
 5999.00    0.67834   0.58158    0.008
 6000.00    0.68416   0.57324    0.008
 6001.00    0.68408   0.56864    0.008
 6002.00    0.67269   0.56947    0.008
 6003.00    0.65381   0.57284    0.008
 6004.00    0.62880   0.57452    0.008
 6005.00    0.60022   0.56947    0.008
 6006.00    0.59116   0.56406    0.008
 6007.00    0.59193   0.56858    0.008
 6008.00    0.63216   0.57327    0.008
 6009.00    0.68960   0.56911    0.008
 6010.00    0.72147   0.55876    0.008
 6011.00    0.74377   0.54943    0.008
 6012.00    0.68927   0.55469    0.008
 6013.00    0.61040   0.57059    0.008
 6014.00    0.57682   0.57802    0.008
 6015.00    0.55524   0.57176    0.008
 6016.00    0.54368   0.56215    0.008
 6017.00    0.53429   0.56222    0.008
 6018.00    0.54894   0.56790    0.008
 6019.00    0.56773   0.56573    0.008
 6020.00    0.61216   0.56147    0.008
 6021.00    0.65995   0.56400    0.008
 6022.00    0.68635   0.56464    0.008
 6023.00    0.71079   0.55986    0.008
 6024.00    0.71740   0.55826    0.008
 6025.00    0.72303   0.56150    0.008
 6026.00    0.71284   0.56448    0.008
 6027.00    0.70234   0.56548    0.008
 6028.00    0.69469   0.57038    0.008
 6029.00    0.68667   0.57492    0.008
 6030.00    0.67024   0.57395    0.008
 6031.00    0.65791   0.57652    0.008
 6032.00    0.69787   0.58238    0.008
 6033.00    0.73676   0.58323    0.008
 6034.00    0.76656   0.58018    0.008
 6035.00    0.78762   0.58048    0.008
 6036.00    0.75281   0.58438    0.008
 6037.00    0.71388   0.58672    0.008
 6038.00    0.65440   0.58640    0.008
 6039.00    0.60337   0.58527    0.008
 6040.00    0.58656   0.58473    0.008
 6041.00    0.58119   0.58457    0.008
 6042.00    0.61426   0.58235    0.008
 6043.00    0.63851   0.57947    0.008
 6044.00    0.63778   0.57922    0.008
 6045.00    0.64439   0.57972    0.008
 6046.00    0.66875   0.58338    0.008
 6047.00    0.69402   0.58868    0.008
 6048.00    0.72122   0.59096    0.008
 6049.00    0.74304   0.59152    0.008
 6050.00    0.75510   0.59203    0.008
 6051.00    0.74931   0.59075    0.008
 6052.00    0.71516   0.58860    0.008
 6053.00    0.67825   0.58995    0.008
 6054.00    0.63746   0.59141    0.008
 6055.00    0.61506   0.58851    0.008
 6056.00    0.61521   0.58361    0.008
 6057.00    0.63005   0.58045    0.008
 6058.00    0.66077   0.57801    0.008
 6059.00    0.68069   0.57419    0.008
 6060.00    0.69028   0.57216    0.008
 6061.00    0.70210   0.57403    0.008
 6062.00    0.71579   0.57954    0.008
 6063.00    0.70072   0.58498    0.008
 6064.00    0.66435   0.58624    0.008
 6065.00    0.63891   0.58247    0.008
 6066.00    0.62057   0.57562    0.008
 6067.00    0.62155   0.56617    0.008
 6068.00    0.63353   0.55463    0.008
 6069.00    0.59836   0.55651    0.008
 6070.00    0.53983   0.57433    0.008
 6071.00    0.50558   0.58824    0.008
 6072.00    0.48174   0.59257    0.008
 6073.00    0.50683   0.59298    0.008
 6074.00    0.54991   0.59343    0.008
 6075.00    0.60961   0.59430    0.008
 6076.00    0.67448   0.59416    0.008
 6077.00    0.66866   0.59371    0.008
 6078.00    0.64449   0.59292    0.008
 6079.00    0.58256   0.59034    0.008
 6080.00    0.51263   0.58479    0.008
 6081.00    0.51806   0.57559    0.008
 6082.00    0.53609   0.57013    0.008
 6083.00    0.56517   0.57238    0.008
 6084.00    0.59564   0.57063    0.008
 6085.00    0.59542   0.56374    0.008
 6086.00    0.59251   0.56394    0.008
 6087.00    0.58179   0.56936    0.008
 6088.00    0.57066   0.56952    0.008
 6089.00    0.54512   0.56869    0.008
 6090.00    0.51995   0.57284    0.008
 6091.00    0.54068   0.57737    0.008
 6092.00    0.56178   0.57383    0.008
 6093.00    0.59072   0.56417    0.008
 6094.00    0.61671   0.56082    0.008
 6095.00    0.60690   0.56401    0.008
 6096.00    0.59679   0.56609    0.008
 6097.00    0.58424   0.57121    0.008
 6098.00    0.57335   0.58013    0.008
 6099.00    0.57278   0.58213    0.008
 6100.00    0.57300   0.57696    0.008
 6101.00    0.57706   0.57566    0.008
 6102.00    0.58583   0.58056    0.008
 6103.00    0.61328   0.58437    0.008
 6104.00    0.64026   0.57562    0.008
 6105.00    0.66572   0.54844    0.008
 6106.00    0.67639   0.52977    0.008
 6107.00    0.64592   0.54337    0.008
 6108.00    0.60421   0.56590    0.008
 6109.00    0.53575   0.57518    0.008
 6110.00    0.48545   0.57316    0.008
 6111.00    0.47253   0.56944    0.008
 6112.00    0.48679   0.57342    0.008
 6113.00    0.54969   0.57770    0.008
 6114.00    0.59452   0.57298    0.008
 6115.00    0.61105   0.56967    0.008
 6116.00    0.61252   0.57567    0.008
 6117.00    0.59328   0.58310    0.008
 6118.00    0.59435   0.58351    0.008
 6119.00    0.61998   0.57630    0.008
 6120.00    0.66274   0.57337    0.008
 6121.00    0.72375   0.57700    0.008
 6122.00    0.73452   0.57364    0.008
 6123.00    0.69802   0.56105    0.008
 6124.00    0.64229   0.54496    0.008
 6125.00    0.57062   0.53115    0.008
 6126.00    0.54488   0.53830    0.008
 6127.00    0.55267   0.56071    0.008
 6128.00    0.54243   0.57053    0.008
 6129.00    0.52062   0.56750    0.008
 6130.00    0.50504   0.56262    0.008
 6131.00    0.49296   0.55893    0.008
 6132.00    0.52572   0.56040    0.008
 6133.00    0.58036   0.56946    0.008
 6134.00    0.59291   0.57802    0.008
 6135.00    0.58771   0.58019    0.008
 6136.00    0.56141   0.57901    0.008
 6137.00    0.52750   0.57233    0.008
 6138.00    0.51261   0.55485    0.008
 6139.00    0.50352   0.52740    0.008
 6140.00    0.53261   0.50452    0.008
 6141.00    0.57139   0.51293    0.008
 6142.00    0.55620   0.54640    0.008
 6143.00    0.52987   0.56685    0.008
 6144.00    0.50517   0.55977    0.008
 6145.00    0.48074   0.54932    0.008
 6146.00    0.49918   0.55779    0.008
 6147.00    0.52283   0.57390    0.008
 6148.00    0.52080   0.58086    0.008
 6149.00    0.51663   0.57918    0.008
 6150.00    0.51475   0.57434    0.008
 6151.00    0.51298   0.56578    0.008
 6152.00    0.51525   0.55448    0.008
 6153.00    0.51809   0.54734    0.008
 6154.00    0.55084   0.55002    0.008
 6155.00    0.58430   0.55920    0.008
 6156.00    0.63197   0.56614    0.008
 6157.00    0.67530   0.56248    0.008
 6158.00    0.66860   0.55453    0.008
 6159.00    0.65461   0.55369    0.008
 6160.00    0.58227   0.55399    0.008
 6161.00    0.52253   0.55020    0.008
 6162.00    0.53856   0.54414    0.008
 6163.00    0.55786   0.53040    0.008
 6164.00    0.59271   0.50298    0.008
 6165.00    0.62164   0.47786    0.008
 6166.00    0.62760   0.47612    0.008
 6167.00    0.62999   0.49338    0.008
 6168.00    0.62087   0.51073    0.008
 6169.00    0.60925   0.51946    0.008
 6170.00    0.59078   0.52563    0.008
 6171.00    0.57522   0.52475    0.008
 6172.00    0.56651   0.50789    0.008
 6173.00    0.56503   0.49639    0.008
 6174.00    0.57821   0.50901    0.008
 6175.00    0.58289   0.52723    0.008
 6176.00    0.57260   0.53090    0.008
 6177.00    0.56639   0.52859    0.008
 6178.00    0.56647   0.52902    0.008
 6179.00    0.56901   0.52899    0.008
 6180.00    0.57487   0.52902    0.008
 6181.00    0.56405   0.53440    0.008
 6182.00    0.53335   0.53934    0.008
 6183.00    0.52141   0.53821    0.008
 6184.00    0.52920   0.53919    0.008
 6185.00    0.54366   0.54372    0.008
 6186.00    0.56433   0.54462    0.008
 6187.00    0.56500   0.54294    0.008
 6188.00    0.54932   0.54001    0.008
 6189.00    0.54811   0.53198    0.008
 6190.00    0.55731   0.52266    0.008
 6191.00    0.56090   0.51871    0.008
 6192.00    0.56094   0.51827    0.008
 6193.00    0.59461   0.51198    0.008
 6194.00    0.64685   0.49613    0.008
 6195.00    0.88462   0.49131    0.008
 6196.00    1.21148   0.50718   -2.000
 6197.00    1.51719   0.52299   -2.000
 6198.00    1.81413   0.52939   -2.000
 6199.00    1.70861   0.53310   -2.000
 6200.00    1.46044   0.53648   -2.000
 6201.00    1.00245   0.53425   -2.000
 6202.00    0.48167   0.52321   -2.000
 6203.00    0.23302   0.51397   -2.000
 6204.00    0.05197   0.51788   -2.000
 6205.00    0.12724   0.52916   -2.000
 6206.00    0.25412   0.53650   -2.000
 6207.00    0.39349   0.53714   -2.000
 6208.00    0.53483   0.53587    0.008
 6209.00    0.53508   0.53711    0.008
 6210.00    0.51881   0.53934    0.008
 6211.00    0.50603   0.54025    0.008
 6212.00    0.49354   0.53938    0.008
 6213.00    0.50111   0.53543    0.008
 6214.00    0.50957   0.53043    0.008
 6215.00    0.54482   0.52503    0.008
 6216.00    0.57854   0.51337    0.007
 6217.00    0.52547   0.50003    0.007
 6218.00    0.47400   0.49381    0.007
 6219.00    0.45195   0.49529    0.007
 6220.00    0.43738   0.50398    0.007
 6221.00    0.50520   0.51060    0.008
 6222.00    0.56732   0.50646    0.008
 6223.00    0.58547   0.50062    0.008
 6224.00    0.60117   0.50199    0.008
 6225.00    0.60258   0.50752    0.008
 6226.00    0.60979   0.51041    0.008
 6227.00    0.64389   0.50835    0.008
 6228.00    0.66766   0.50815    0.008
 6229.00    0.65229   0.51145    0.008
 6230.00    0.62591   0.51335    0.008
 6231.00    0.56469   0.51257    0.008
 6232.00    0.51507   0.50453    0.008
 6233.00    0.49659   0.48755    0.008
 6234.00    0.48818   0.47694    0.008
 6235.00    0.50296   0.48249    0.008
 6236.00    0.53163   0.49437    0.008
 6237.00    0.58796   0.50849    0.008
 6238.00    0.63030   0.52082    0.008
 6239.00    0.64835   0.52393    0.008
 6240.00    0.63692   0.51845    0.008
 6241.00    0.58070   0.50952    0.008
 6242.00    0.54576   0.49981    0.008
 6243.00    0.53921   0.49305    0.008
 6244.00    0.53891   0.49582    0.007
 6245.00    0.54594   0.49875    0.007
 6246.00    0.54075   0.49147    0.007
 6247.00    0.52291   0.48729    0.007
 6248.00    0.52655   0.48978    0.007
 6249.00    0.54985   0.49121    0.007
 6250.00    0.55723   0.49735    0.008
 6251.00    0.55179   0.50934    0.008
 6252.00    0.54487   0.51736    0.008
 6253.00    0.53690   0.51862    0.008
 6254.00    0.55124   0.51264    0.008
 6255.00    0.57946   0.49916    0.008
 6256.00    0.62336   0.48946    0.008
 6257.00    0.67578   0.48998    0.008
 6258.00    0.76551   0.49396    0.008
 6259.00    0.87287   0.49244    0.008
 6260.00    0.94210   0.48426    0.009
 6261.00    0.99580   0.47547    0.009
 6262.00    0.88311   0.47704    0.010
 6263.00    0.71252   0.49059    0.010
 6264.00    0.56401   0.50097    0.010
 6265.00    0.42198   0.50869    0.010
 6266.00    0.41731   0.51889    0.009
 6267.00    0.44599   0.52102    0.009
 6268.00    0.51500   0.51238    0.008
 6269.00    0.59192   0.50863    0.008
 6270.00    0.64640   0.51381    0.008
 6271.00    0.69744   0.51558    0.007
 6272.00    0.71698   0.51125    0.007
 6273.00    0.73296   0.50948    0.007
 6274.00    0.66214   0.51271    0.007
 6275.00    0.58479   0.51786    0.007
 6276.00    0.55120   0.52084    0.007
 6277.00    0.51938   0.51951    0.008
 6278.00    0.53483   0.51795    0.008
 6279.00    0.54990   0.51823    0.008
 6280.00    0.53586   0.51848    0.000
 6281.00    0.52234   0.51808    0.000
 6282.00    0.51763   0.51461    0.000
 6283.00    0.51571   0.50643    0.000
 6284.00    0.54307   0.50226    0.000
 6285.00    0.56836   0.50635    0.000
 6286.00    0.57824   0.51336    0.000
 6287.00    0.58832   0.51883    0.000
 6288.00    0.59955   0.51937    0.000
 6289.00    0.60528   0.52046    0.000
 6290.00    0.58609   0.52637    0.000
 6291.00    0.57006   0.53298    0.000
 6292.00    0.56582   0.53617    0.000
 6293.00    0.55569   0.53313    0.000
 6294.00    0.52730   0.52657    0.000
 6295.00    0.50134   0.52153    0.000
 6296.00    0.48178   0.51937    0.000
 6297.00    0.46590   0.52140    0.000
 6298.00    0.45835   0.52183    0.000
 6299.00    0.45703   0.51372    0.000
 6300.00    0.46791   0.50459    0.000
 6301.00    0.48463   0.50515    0.000
 6302.00    0.51133   0.51246    0.000
 6303.00    0.52963   0.51519    0.000
 6304.00    0.53536   0.50923    0.000
 6305.00    0.53715   0.50377    0.000
 6306.00    0.53376   0.50775    0.000
 6307.00    0.53664   0.51577    0.000
 6308.00    0.54679   0.51836    0.000
 6309.00    0.54969   0.51918    0.000
 6310.00    0.54516   0.52636    0.000
 6311.00    0.54497   0.53447    0.000
 6312.00    0.54868   0.53544    0.000
 6313.00    0.54386   0.53021    0.000
 6314.00    0.53228   0.52361    0.000
 6315.00    0.52903   0.52074    0.000
 6316.00    0.53160   0.52271    0.000
 6317.00    0.54148   0.52104    0.000
 6318.00    0.55585   0.51378    0.000
 6319.00    0.55713   0.51249    0.000
 6320.00    0.55140   0.51362    0.000
 6321.00    0.54440   0.50713    0.007
 6322.00    0.53682   0.50479    0.007
 6323.00    0.55775   0.51318    0.007
 6324.00    0.59010   0.52064    0.007
 6325.00    0.56946   0.52157    0.007
 6326.00    0.53070   0.52325    0.007
 6327.00    0.48342   0.52897    0.007
 6328.00    0.43368   0.53246    0.007
 6329.00    0.42605   0.53266    0.007
 6330.00    0.42841   0.53154    0.007
 6331.00    0.44662   0.53246    0.007
 6332.00    0.46787   0.53479    0.008
 6333.00    0.49230   0.53233    0.008
 6334.00    0.51720   0.53078    0.008
 6335.00    0.52637   0.53597    0.008
 6336.00    0.53384   0.54156    0.008
 6337.00    0.55701   0.53771    0.008
 6338.00    0.58129   0.52144    0.008
 6339.00    0.58838   0.50714    0.008
 6340.00    0.59484   0.50904    0.008
 6341.00    0.57964   0.51951    0.008
 6342.00    0.56404   0.52596    0.008
 6343.00    0.53722   0.53148    0.007
 6344.00    0.51058   0.53731    0.007
 6345.00    0.48700   0.53643    0.007
 6346.00    0.46490   0.52726    0.007
 6347.00    0.45772   0.51646    0.007
 6348.00    0.45203   0.51354    0.007
 6349.00    0.45706   0.51713    0.007
 6350.00    0.45488   0.52184    0.007
 6351.00    0.41281   0.52747    0.007
 6352.00    0.37811   0.53409    0.007
 6353.00    0.37600   0.53759    0.007
 6354.00    0.38382   0.53788    0.007
 6355.00    0.42774   0.53673    0.007
 6356.00    0.46157   0.53284    0.007
 6357.00    0.46465   0.52448    0.007
 6358.00    0.46874   0.51682    0.008
 6359.00    0.47542   0.51737    0.008
 6360.00    0.47371   0.51920    0.008
 6361.00    0.45329   0.51151    0.008
 6362.00    0.43621   0.50182    0.008
 6363.00    0.42556   0.50018    0.008
 6364.00    0.42707   0.50094    0.008
 6365.00    0.44907   0.49815    0.008
 6366.00    0.47068   0.49717    0.008
 6367.00    0.49172   0.50189    0.008
 6368.00    0.50131   0.50904    0.008
 6369.00    0.49607   0.51533    0.008
 6370.00    0.48229   0.52195    0.007
 6371.00    0.45877   0.52911    0.007
 6372.00    0.45034   0.53193    0.007
 6373.00    0.45714   0.52864    0.007
 6374.00    0.46761   0.52678    0.007
 6375.00    0.48133   0.53168    0.007
 6376.00    0.49266   0.53904    0.007
 6377.00    0.50210   0.54184    0.007
 6378.00    0.50459   0.54026    0.007
 6379.00    0.50230   0.53950    0.007
 6380.00    0.48848   0.53871    0.007
 6381.00    0.46768   0.53276    0.007
 6382.00    0.49259   0.52506    0.007
 6383.00    0.54158   0.52215    0.007
 6384.00    0.58353   0.52300    0.007
 6385.00    0.62226   0.52672    0.008
 6386.00    0.62117   0.53031    0.008
 6387.00    0.60441   0.52910    0.008
 6388.00    0.56314   0.52659    0.008
 6389.00    0.51366   0.52860    0.007
 6390.00    0.48048   0.53214    0.007
 6391.00    0.45189   0.53242    0.007
 6392.00    0.45472   0.53153    0.007
 6393.00    0.46485   0.53196    0.007
 6394.00    0.44459   0.53159    0.008
 6395.00    0.41866   0.52395    0.008
 6396.00    0.40142   0.50888    0.008
 6397.00    0.38544   0.50279    0.008
 6398.00    0.39282   0.51421    0.007
 6399.00    0.40265   0.52982    0.007
 6400.00    0.45875   0.53859    0.007
 6401.00    0.51797   0.53802    0.007
 6402.00    0.52684   0.52410    0.007
 6403.00    0.53407   0.50452    0.007
 6404.00    0.48331   0.50425    0.007
 6405.00    0.43284   0.52325    0.007
 6406.00    0.39142   0.53847    0.007
 6407.00    0.35450   0.54381    0.007
 6408.00    0.38484   0.54345    0.007
 6409.00    0.41705   0.53872    0.007
 6410.00    0.46740   0.52992    0.007
 6411.00    0.51174   0.52256    0.007
 6412.00    0.51417   0.52628    0.008
 6413.00    0.51545   0.53301    0.008
 6414.00    0.51057   0.52774    0.008
 6415.00    0.50458   0.51941    0.008
 6416.00    0.49376   0.51985    0.008
 6417.00    0.48589   0.52381    0.008
 6418.00    0.48857   0.52726    0.008
 6419.00    0.49452   0.53107    0.008
 6420.00    0.51029   0.53280    0.007
 6421.00    0.52385   0.53090    0.007
 6422.00    0.53176   0.52461    0.007
 6423.00    0.52803   0.51348    0.007
 6424.00    0.49878   0.50522    0.007
 6425.00    0.48128   0.51121    0.007
 6426.00    0.48610   0.52752    0.007
 6427.00    0.49637   0.53718    0.007
 6428.00    0.51570   0.53703    0.007
 6429.00    0.52934   0.53703    0.007
 6430.00    0.53470   0.54036    0.008
 6431.00    0.53524   0.54191    0.008
 6432.00    0.52962   0.53612    0.007
 6433.00    0.52003   0.52090    0.007
 6434.00    0.50595   0.50661    0.007
 6435.00    0.50166   0.50793    0.007
 6436.00    0.50709   0.52023    0.008
 6437.00    0.52781   0.53056    0.008
 6438.00    0.56192   0.53545    0.008
 6439.00    0.56539   0.53778    0.008
 6440.00    0.54521   0.53610    0.008
 6441.00    0.53854   0.52427    0.008
 6442.00    0.54104   0.51031    0.008
 6443.00    0.55700   0.51367    0.008
 6444.00    0.58098   0.53077    0.008
 6445.00    0.59751   0.54307    0.007
 6446.00    0.61018   0.54680    0.007
 6447.00    0.61300   0.54711    0.007
 6448.00    0.61139   0.54734    0.007
 6449.00    0.57957   0.54824    0.007
 6450.00    0.53605   0.54708    0.008
 6451.00    0.50155   0.53692    0.007
 6452.00    0.47002   0.51360    0.007
 6453.00    0.45231   0.49193    0.007
 6454.00    0.43841   0.49382    0.007
 6455.00    0.42946   0.51266    0.007
 6456.00    0.42164   0.52934    0.007
 6457.00    0.41627   0.53536    0.007
 6458.00    0.41135   0.52865    0.007
 6459.00    0.42786   0.51944    0.007
 6460.00    0.44736   0.52250    0.007
 6461.00    0.49692   0.53502    0.007
 6462.00    0.54947   0.54529    0.008
 6463.00    0.56593   0.54798    0.008
 6464.00    0.58011   0.53950    0.008
 6465.00    0.54879   0.51777    0.008
 6466.00    0.51621   0.50138    0.007
 6467.00    0.50041   0.50831    0.007
 6468.00    0.48638   0.52513    0.007
 6469.00    0.52150   0.53577    0.007
 6470.00    0.55606   0.54059    0.007
 6471.00    0.58276   0.54209    0.007
 6472.00    0.60335   0.53949    0.007
 6473.00    0.56743   0.53463    0.007
 6474.00    0.52940   0.52909    0.007
 6475.00    0.47713   0.52664    0.007
 6476.00    0.43103   0.52976    0.007
 6477.00    0.41731   0.52979    0.007
 6478.00    0.40616   0.52381    0.007
 6479.00    0.40583   0.52264    0.007
 6480.00    0.41727   0.52937    0.007
 6481.00    0.46974   0.53445    0.007
 6482.00    0.52295   0.53454    0.007
 6483.00    0.57831   0.53145    0.007
 6484.00    0.62153   0.52178    0.007
 6485.00    0.63439   0.50756    0.007
 6486.00    0.63658   0.50111    0.007
 6487.00    0.61578   0.50696    0.007
 6488.00    0.59481   0.51650    0.007
 6489.00    0.57351   0.52260    0.007
 6490.00    0.56471   0.52565    0.007
 6491.00    0.57634   0.52722    0.007
 6492.00    0.57607   0.52564    0.007
 6493.00    0.55874   0.51974    0.007
 6494.00    0.53656   0.51350    0.007
 6495.00    0.50824   0.50923    0.007
 6496.00    0.48678   0.49846    0.007
 6497.00    0.47293   0.47562    0.007
 6498.00    0.46233   0.45528    0.007
 6499.00    0.45490   0.45076    0.007
 6500.00    0.45336   0.45849    0.007
 6501.00    0.45690   0.47099    0.007
 6502.00    0.44421   0.48014    0.007
 6503.00    0.41918   0.48836    0.007
 6504.00    0.43076   0.49954    0.007
 6505.00    0.46683   0.50922    0.007
 6506.00    0.50755   0.51509    0.007
 6507.00    0.55101   0.51814    0.007
 6508.00    0.55356   0.52084    0.007
 6509.00    0.53522   0.52387    0.007
 6510.00    0.52726   0.52365    0.007
 6511.00    0.52388   0.51875    0.007
 6512.00    0.54580   0.51500    0.007
 6513.00    0.57734   0.51753    0.007
 6514.00    0.59987   0.52264    0.007
 6515.00    0.61950   0.52454    0.008
 6516.00    0.58600   0.52373    0.007
 6517.00    0.53816   0.52158    0.007
 6518.00    0.51002   0.51659    0.007
 6519.00    0.48624   0.51087    0.007
 6520.00    0.49629   0.50806    0.007
 6521.00    0.51231   0.50624    0.007
 6522.00    0.51430   0.50641    0.007
 6523.00    0.51440   0.51269    0.007
 6524.00    0.49292   0.52069    0.007
 6525.00    0.46937   0.52429    0.007
 6526.00    0.45641   0.52422    0.007
 6527.00    0.44406   0.52449    0.007
 6528.00    0.44170   0.52501    0.000
 6529.00    0.43955   0.52140    0.000
 6530.00    0.43354   0.51527    0.000
 6531.00    0.42806   0.51468    0.000
 6532.00    0.43604   0.52026    0.000
 6533.00    0.44506   0.52475    0.000
 6534.00    0.46809   0.52350    0.000
 6535.00    0.48949   0.51798    0.000
 6536.00    0.49646   0.51381    0.000
 6537.00    0.50155   0.51577    0.000
 6538.00    0.49428   0.52256    0.000
 6539.00    0.48803   0.52735    0.000
 6540.00    0.48692   0.52614    0.000
 6541.00    0.49551   0.52348    0.000
 6542.00    0.54415   0.52569    0.000
 6543.00    0.58118   0.53055    0.000
 6544.00    0.57850   0.53115    0.000
 6545.00    0.57320   0.52617    0.000
 6546.00    0.56037   0.51905    0.000
 6547.00    0.55228   0.51326    0.000
 6548.00    0.55583   0.50695    0.000
 6549.00    0.55562   0.49799    0.000
 6550.00    0.54741   0.49467    0.000
 6551.00    0.54415   0.50112    0.000
 6552.00    0.55001   0.50789    0.000
 6553.00    0.55300   0.50787    0.000
 6554.00    0.55140   0.50317    0.000
 6555.00    0.53902   0.49925    0.000
 6556.00    0.51141   0.49699    0.000
 6557.00    0.51118   0.49168    0.000
 6558.00    0.54495   0.48327    0.000
 6559.00    0.59155   0.47790    0.000
 6560.00    0.65221   0.47868    0.000
 6561.00    0.68693   0.48072    0.000
 6562.00    0.69660   0.47857    0.000
 6563.00    0.67735   0.47036    0.000
 6564.00    0.63347   0.44486    0.000
 6565.00    0.61459   0.38951    0.000
 6566.00    0.61448   0.33904    0.000
 6567.00    0.60742   0.35067    0.000
 6568.00    0.59578   0.40925    0.000
 6569.00    0.57167   0.45697    0.000
 6570.00    0.54035   0.47911    0.000
 6571.00    0.49606   0.48697    0.000
 6572.00    0.44524   0.48607    0.000
 6573.00    0.43453   0.48529    0.000
 6574.00    0.44127   0.48902    0.000
 6575.00    0.45755   0.48917    0.000
 6576.00    0.47739   0.48287    0.000
 6577.00    0.50293   0.47737    0.000
 6578.00    0.53027   0.47845    0.000
 6579.00    0.59501   0.48715    0.000
 6580.00    0.66964   0.49801    0.000
 6581.00    0.68137   0.50435    0.000
 6582.00    0.67950   0.50479    0.000
 6583.00    0.67069   0.50134    0.000
 6584.00    0.66070   0.49645    0.000
 6585.00    0.61263   0.49573    0.000
 6586.00    0.55961   0.50130    0.000
 6587.00    0.51382   0.50636    0.000
 6588.00    0.46868   0.50756    0.000
 6589.00    0.44322   0.50575    0.000
 6590.00    0.41885   0.50624    0.000
 6591.00    0.41529   0.51170    0.000
 6592.00    0.41246   0.51631    0.000
 6593.00    0.43692   0.51706    0.000
 6594.00    0.46023   0.51237    0.000
 6595.00    0.45712   0.49798    0.000
 6596.00    0.45548   0.47909    0.000
 6597.00    0.47255   0.47314    0.000
 6598.00    0.48984   0.48495    0.000
 6599.00    0.50911   0.49915    0.000
 6600.00    0.52783   0.50375    0.000
 6601.00    0.54302   0.50041    0.000
 6602.00    0.55264   0.49736    0.000
 6603.00    0.53453   0.50149    0.000
 6604.00    0.51318   0.50989    0.000
 6605.00    0.47872   0.51457    0.000
 6606.00    0.44758   0.51329    0.000
 6607.00    0.42756   0.50810    0.000
 6608.00    0.41778   0.50197    0.000
 6609.00    0.43696   0.49821    0.007
 6610.00    0.45696   0.49640    0.007
 6611.00    0.47898   0.49256    0.007
 6612.00    0.49908   0.48677    0.007
 6613.00    0.51519   0.48808    0.007
 6614.00    0.52390   0.49932    0.007
 6615.00    0.51923   0.50840    0.007
 6616.00    0.51209   0.50735    0.007
 6617.00    0.50107   0.50311    0.007
 6618.00    0.48264   0.50543    0.007
 6619.00    0.45392   0.51104    0.007
 6620.00    0.37844   0.51214    0.007
 6621.00    0.24571   0.50999    0.007
 6622.00    0.17771   0.50933    0.007
 6623.00    0.17960   0.51095    0.007
 6624.00    0.24503   0.51255    0.007
 6625.00    0.37097   0.51162    0.007
 6626.00    0.44235   0.50667    0.007
 6627.00    0.46789   0.49799    0.007
 6628.00    0.46276   0.49052    0.007
 6629.00    0.43495   0.49103    0.007
 6630.00    0.41756   0.49657    0.007
 6631.00    0.40694   0.50001    0.007
 6632.00    0.41279   0.50019    0.007
 6633.00    0.42800   0.49888    0.007
 6634.00    0.43531   0.49749    0.007
 6635.00    0.43870   0.49502    0.007
 6636.00    0.44177   0.48914    0.007
 6637.00    0.44470   0.48342    0.007
 6638.00    0.43814   0.48472    0.007
 6639.00    0.42810   0.49190    0.007
 6640.00    0.45290   0.49832    0.007
 6641.00    0.48852   0.50074    0.007
 6642.00    0.48349   0.49929    0.007
 6643.00    0.46796   0.49726    0.007
 6644.00    0.42559   0.49896    0.007
 6645.00    0.37756   0.50029    0.007
 6646.00    0.39803   0.49372    0.007
 6647.00    0.42991   0.48590    0.007
 6648.00    0.45705   0.48804    0.007
 6649.00    0.48359   0.49528    0.007
 6650.00    0.45970   0.49776    0.007
 6651.00    0.43142   0.49677    0.007
 6652.00    0.40186   0.49715    0.007
 6653.00    0.37224   0.49709    0.007
 6654.00    0.41954   0.49336    0.007
 6655.00    0.46796   0.48870    0.007
 6656.00    0.49974   0.48720    0.007
 6657.00    0.52910   0.48849    0.007
 6658.00    0.50744   0.49025    0.007
 6659.00    0.48337   0.49064    0.007
 6660.00    0.43030   0.48987    0.007
 6661.00    0.38314   0.49000    0.007
 6662.00    0.38478   0.49048    0.007
 6663.00    0.39168   0.48944    0.007
 6664.00    0.43106   0.48732    0.007
 6665.00    0.45756   0.48343    0.007
 6666.00    0.42151   0.47620    0.007
 6667.00    0.38516   0.47219    0.007
 6668.00    0.34762   0.47657    0.007
 6669.00    0.33095   0.48155    0.007
 6670.00    0.38285   0.48183    0.007
 6671.00    0.43140   0.48201    0.007
 6672.00    0.47067   0.48599    0.007
 6673.00    0.50012   0.49186    0.007
 6674.00    0.50624   0.49576    0.008
 6675.00    0.52913   0.49643    0.008
 6676.00    0.58646   0.49557    0.008
 6677.00    0.64100   0.49493    0.008
 6678.00    0.69056   0.49472    0.009
 6679.00    0.71673   0.49118    0.009
 6680.00    0.70635   0.47728    0.009
 6681.00    0.66494   0.45896    0.008
 6682.00    0.58098   0.45447    0.008
 6683.00    0.52604   0.46563    0.007
 6684.00    0.50615   0.47533    0.007
 6685.00    0.48425   0.47695    0.007
 6686.00    0.46020   0.47816    0.007
 6687.00    0.45886   0.48154    0.007
 6688.00    0.47884   0.48391    0.007
 6689.00    0.47890   0.48412    0.007
 6690.00    0.46247   0.48289    0.007
 6691.00    0.44396   0.48129    0.007
 6692.00    0.42395   0.48149    0.007
 6693.00    0.41953   0.48349    0.007
 6694.00    0.42507   0.48480    0.007
 6695.00    0.43265   0.48471    0.007
 6696.00    0.44135   0.48436    0.000
 6697.00    0.45553   0.48387    0.000
 6698.00    0.47237   0.48106    0.000
 6699.00    0.50196   0.47530    0.000
 6700.00    0.53691   0.47161    0.000
 6701.00    0.56963   0.47304    0.000
 6702.00    0.60154   0.47712    0.000
 6703.00    0.55899   0.48226    0.000
 6704.00    0.49377   0.48627    0.000
 6705.00    0.45079   0.48650    0.000
 6706.00    0.41344   0.48298    0.000
 6707.00    0.41971   0.47828    0.000
 6708.00    0.43496   0.47660    0.000
 6709.00    0.47465   0.47899    0.000
 6710.00    0.51830   0.48203    0.000
 6711.00    0.51240   0.48337    0.000
 6712.00    0.50052   0.48332    0.000
 6713.00    0.52039   0.48150    0.000
 6714.00    0.54291   0.47958    0.000
 6715.00    0.54827   0.47954    0.000
 6716.00    0.55281   0.47815    0.000
 6717.00    0.54824   0.47352    0.000
 6718.00    0.54371   0.46738    0.000
 6719.00    0.54922   0.46038    0.000
 6720.00    0.55351   0.45262    0.000
 6721.00    0.53428   0.44879    0.000
 6722.00    0.51739   0.45443    0.000
 6723.00    0.52739   0.46381    0.000
 6724.00    0.54338   0.46788    0.000
 6725.00    0.60712   0.46757    0.000
 6726.00    0.65485   0.46876    0.000
 6727.00    0.60655   0.47176    0.000
 6728.00    0.55941   0.47195    0.000
 6729.00    0.51779   0.46899    0.000
 6730.00    0.49019   0.46768    0.000
 6731.00    0.51676   0.46998    0.000
 6732.00    0.53990   0.47307    0.000
 6733.00    0.55203   0.47509    0.000
 6734.00    0.53964   0.47598    0.000
 6735.00    0.46038   0.47528    0.000
 6736.00    0.41058   0.47347    0.000
 6737.00    0.42960   0.47236    0.000
 6738.00    0.44898   0.47314    0.000
 6739.00    0.46909   0.47502    0.000
 6740.00    0.48148   0.47511    0.000
 6741.00    0.48029   0.47154    0.000
 6742.00    0.48740   0.46691    0.000
 6743.00    0.50728   0.46576    0.000
 6744.00    0.49727   0.46863    0.000
 6745.00    0.44685   0.46979    0.000
 6746.00    0.41093   0.46662    0.000
 6747.00    0.39229   0.46535    0.000
 6748.00    0.39057   0.46832    0.000
 6749.00    0.40663   0.46984    0.000
 6750.00    0.40530   0.46772    0.000
 6751.00    0.38786   0.46420    0.000
 6752.00    0.39759   0.46079    0.000
 6753.00    0.42948   0.45861    0.008
 6754.00    0.46477   0.45959    0.008
 6755.00    0.50250   0.46130    0.008
 6756.00    0.48050   0.45984    0.008
 6757.00    0.42084   0.46003    0.008
 6758.00    0.40686   0.46441    0.008
 6759.00    0.41805   0.46860    0.008
 6760.00    0.49685   0.47208    0.008
 6761.00    0.60806   0.47551    0.008
 6762.00    0.66523   0.47766    0.009
 6763.00    0.70004   0.47848    0.009
 6764.00    0.71187   0.47833    0.009
 6765.00    0.71558   0.47692    0.009
 6766.00    0.68255   0.47598    0.009
 6767.00    0.63857   0.47666    0.008
 6768.00    0.61185   0.47653    0.008
 6769.00    0.58941   0.47285    0.009
 6770.00    0.55196   0.46638    0.008
 6771.00    0.51150   0.46297    0.008
 6772.00    0.52977   0.46597    0.008
 6773.00    0.55727   0.46939    0.008
 6774.00    0.57387   0.46828    0.008
 6775.00    0.58921   0.46727    0.008
 6776.00    0.58583   0.47067    0.008
 6777.00    0.58098   0.47588    0.008
 6778.00    0.62036   0.47999    0.008
 6779.00    0.66166   0.48253    0.008
 6780.00    0.57387   0.48315    0.008
 6781.00    0.48539   0.48260    0.008
 6782.00    0.42750   0.48293    0.008
 6783.00    0.37241   0.48325    0.008
 6784.00    0.36804   0.48054    0.008
 6785.00    0.36411   0.47352    0.008
 6786.00    0.36499   0.46380    0.008
 6787.00    0.37059   0.45572    0.008
 6788.00    0.41249   0.45270    0.008
 6789.00    0.45432   0.45433    0.008
 6790.00    0.49581   0.45883    0.008
 6791.00    0.53299   0.46441    0.008
 6792.00    0.55022   0.46742    0.008
 6793.00    0.57166   0.46680    0.008
 6794.00    0.60904   0.46643    0.008
 6795.00    0.63130   0.46726    0.008
 6796.00    0.60584   0.46588    0.008
 6797.00    0.58120   0.46271    0.008
 6798.00    0.55875   0.46198    0.008
 6799.00    0.56236   0.46388    0.008
 6800.00    0.62583   0.46640    0.008
 6801.00    0.64295   0.46844    0.008
 6802.00    0.56789   0.46930    0.008
 6803.00    0.50010   0.47054    0.008
 6804.00    0.44492   0.47265    0.008
 6805.00    0.40629   0.47414    0.008
 6806.00    0.39277   0.47395    0.008
 6807.00    0.39614   0.47196    0.007
 6808.00    0.42204   0.47080    0.007
 6809.00    0.42787   0.47083    0.007
 6810.00    0.41016   0.46974    0.008
 6811.00    0.42060   0.46971    0.008
 6812.00    0.46019   0.47104    0.008
 6813.00    0.50446   0.47031    0.008
 6814.00    0.55300   0.46952    0.009
 6815.00    0.61026   0.47096    0.009
 6816.00    0.67454   0.47200    0.008
 6817.00    0.65554   0.47013    0.008
 6818.00    0.57758   0.46576    0.008
 6819.00    0.54556   0.46415    0.008
 6820.00    0.54208   0.46833    0.008
 6821.00    0.51674   0.47275    0.008
 6822.00    0.47953   0.47233    0.008
 6823.00    0.49539   0.46892    0.008
 6824.00    0.53626   0.46756    0.007
 6825.00    0.53117   0.47045    0.007
 6826.00    0.50739   0.47447    0.008
 6827.00    0.44664   0.47646    0.008
 6828.00    0.37307   0.47698    0.008
 6829.00    0.36409   0.47690    0.008
 6830.00    0.37402   0.47433    0.008
 6831.00    0.41602   0.46858    0.008
 6832.00    0.46578   0.46475    0.008
 6833.00    0.50250   0.46700    0.008
 6834.00    0.53666   0.47181    0.008
 6835.00    0.55853   0.47335    0.008
 6836.00    0.57854   0.47151    0.008
 6837.00    0.56358   0.47171    0.008
 6838.00    0.54470   0.47530    0.009
 6839.00    0.54299   0.47752    0.009
 6840.00    0.54255   0.47618    0.009
 6841.00    0.49982   0.47303    0.008
 6842.00    0.45542   0.46869    0.008
 6843.00    0.38147   0.46319    0.008
 6844.00    0.31318   0.45746    0.008
 6845.00    0.47779   0.45360    0.008
 6846.00    0.62990   0.45501    0.008
 6847.00    0.57067   0.46182    0.008
 6848.00    0.51909   0.46945    0.008
 6849.00    0.54755   0.47332    0.008
 6850.00    0.56653   0.47346    0.008
 6851.00    0.51503   0.47327    0.008
 6852.00    0.47154   0.47295    0.008
 6853.00    0.47343   0.47077    0.008
 6854.00    0.47530   0.46854    0.008
 6855.00    0.47707   0.46830    0.008
 6856.00    0.47851   0.46879    0.008
 6857.00    0.47876   0.46629    0.008
 6858.00    0.48022   0.45960    0.008
 6859.00    0.48550   0.45503    0.008
 6860.00    0.48556   0.45669    0.008
 6861.00    0.47193   0.46011    0.008
 6862.00    0.45628   0.46235    0.008
 6863.00    0.43608   0.46236    0.008
 6864.00    0.42311   0.45781    0.008
 6865.00    0.42432   0.45331    0.008
 6866.00    0.41323   0.45713    0.008
 6867.00    0.38116   0.46712    0.008
 6868.00    0.36475   0.47336    0.008
 6869.00    0.37174   0.47199    0.008
 6870.00    0.37181   0.46631    0.008
 6871.00    0.36277   0.45986    0.008
 6872.00    0.38341   0.45717    0.008
 6873.00    0.43842   0.46067    0.008
 6874.00    0.45405   0.46397    0.008
 6875.00    0.42952   0.46180    0.008
 6876.00    0.40091   0.45955    0.008
 6877.00    0.36862   0.46164    0.008
 6878.00    0.33812   0.46435    0.008
 6879.00    0.30903   0.46578    0.008
 6880.00    0.30278   0.46846    0.008
 6881.00    0.31247   0.47251    0.008
 6882.00    0.35910   0.47516    0.008
 6883.00    0.42834   0.47465    0.008
 6884.00    0.43933   0.47092    0.008
 6885.00    0.41921   0.46486    0.008
 6886.00    0.41069   0.45996    0.008
 6887.00    0.40756   0.46019    0.008
 6888.00    0.40767   0.46417    0.008
 6889.00    0.40909   0.46637    0.008
 6890.00    0.40812   0.46729    0.008
 6891.00    0.40635   0.47086    0.008
 6892.00    0.42887   0.47433    0.008
 6893.00    0.45836   0.47571    0.008
 6894.00    0.47104   0.47713    0.008
 6895.00    0.47975   0.47776    0.008
 6896.00    0.50607   0.47632    0.008
 6897.00    0.53574   0.47520    0.008
 6898.00    0.55896   0.47485    0.008
 6899.00    0.58123   0.47347    0.008
 6900.00    0.59507   0.47248    0.008
 6901.00    0.60799   0.47412    0.008
 6902.00    0.55475   0.47569    0.008
 6903.00    0.49683   0.47336    0.008
 6904.00    0.48043   0.47041    0.008
 6905.00    0.46553   0.47266    0.008
 6906.00    0.46813   0.47757    0.008
 6907.00    0.47108   0.47879    0.008
 6908.00    0.48449   0.47677    0.008
 6909.00    0.49512   0.47665    0.008
 6910.00    0.46197   0.48009    0.008
 6911.00    0.42909   0.48323    0.008
 6912.00    0.39906   0.48376    0.008
 6913.00    0.37281   0.48310    0.008
 6914.00    0.37382   0.48120    0.008
 6915.00    0.37545   0.47805    0.008
 6916.00    0.38054   0.47456    0.008
 6917.00    0.39242   0.47022    0.008
 6918.00    0.43418   0.46796    0.008
 6919.00    0.46539   0.47018    0.008
 6920.00    0.45838   0.47224    0.008
 6921.00    0.44822   0.47269    0.008
 6922.00    0.42846   0.47357    0.008
 6923.00    0.42793   0.47482    0.008
 6924.00    0.47710   0.47729    0.008
 6925.00    0.50220   0.47970    0.008
 6926.00    0.47381   0.47875    0.008
 6927.00    0.45619   0.47274    0.008
 6928.00    0.45933   0.46495    0.008
 6929.00    0.44795   0.46198    0.008
 6930.00    0.41217   0.46587    0.008
 6931.00    0.41163   0.47265    0.008
 6932.00    0.46301   0.47698    0.008
 6933.00    0.48891   0.47799    0.008
 6934.00    0.48182   0.47738    0.008
 6935.00    0.48468   0.47542    0.008
 6936.00    0.49888   0.47167    0.008
 6937.00    0.49684   0.46934    0.008
 6938.00    0.47848   0.47243    0.008
 6939.00    0.45056   0.47652    0.008
 6940.00    0.41415   0.47706    0.008
 6941.00    0.38709   0.47608    0.008
 6942.00    0.36733   0.47639    0.008
 6943.00    0.42880   0.47872    0.008
 6944.00    0.54612   0.48171    0.008
 6945.00    0.53597   0.48244    0.008
 6946.00    0.44899   0.47945    0.008
 6947.00    0.42689   0.47371    0.008
 6948.00    0.43892   0.46703    0.008
 6949.00    0.41977   0.46497    0.008
 6950.00    0.38640   0.47111    0.008
 6951.00    0.41852   0.47877    0.008
 6952.00    0.47636   0.48224    0.008
 6953.00    0.48742   0.48228    0.008
 6954.00    0.48283   0.47876    0.008
 6955.00    0.45254   0.47351    0.008
 6956.00    0.41503   0.47046    0.008
 6957.00    0.42869   0.46901    0.008
 6958.00    0.45420   0.46946    0.008
 6959.00    0.45136   0.47364    0.008
 6960.00    0.44325   0.47858    0.008
 6961.00    0.39801   0.48056    0.008
 6962.00    0.34746   0.48051    0.008
 6963.00    0.37686   0.48073    0.008
 6964.00    0.41455   0.48176    0.008
 6965.00    0.43180   0.48324    0.009
 6966.00    0.44769   0.48455    0.009
 6967.00    0.39313   0.48560    0.008
 6968.00    0.33633   0.48486    0.008
 6969.00    0.41110   0.48200    0.008
 6970.00    0.48196   0.48131    0.009
 6971.00    0.43284   0.48517    0.009
 6972.00    0.38418   0.48902    0.008
 6973.00    0.34242   0.48808    0.008
 6974.00    0.30137   0.48381    0.008
 6975.00    0.26726   0.48137    0.008
 6976.00    0.25202   0.48349    0.008
 6977.00    0.36811   0.48574    0.008
 6978.00    0.46094   0.48317    0.009
 6979.00    0.42891   0.47778    0.008
 6980.00    0.40680   0.47088    0.008
 6981.00    0.42741   0.45987    0.008
 6982.00    0.44676   0.44896    0.008
 6983.00    0.46166   0.45044    0.008
 6984.00    0.46819   0.46412    0.008
 6985.00    0.44975   0.47696    0.008
 6986.00    0.44342   0.48410    0.008
 6987.00    0.46785   0.48733    0.009
 6988.00    0.49166   0.48813    0.009
 6989.00    0.51414   0.48838    0.009
 6990.00    0.48805   0.48800    0.009
 6991.00    0.36983   0.48516    0.009
 6992.00    0.30167   0.47963    0.009
 6993.00    0.31637   0.47503    0.009
 6994.00    0.35237   0.47538    0.009
 6995.00    0.41931   0.47980    0.009
 6996.00    0.43982   0.48368    0.009
 6997.00    0.40106   0.48356    0.009
 6998.00    0.39228   0.48137    0.009
 6999.00    0.41720   0.48110    0.009
 7000.00    0.42419   0.48235    0.008
 7001.00    0.41338   0.48197    0.008
 7002.00    0.42464   0.47758    0.008
 7003.00    0.45519   0.47108    0.008
 7004.00    0.44804   0.46981    0.008
 7005.00    0.41183   0.47547    0.008
 7006.00    0.37757   0.48056    0.008
 7007.00    0.34463   0.47858    0.009
 7008.00    0.37273   0.47262    0.009
 7009.00    0.43708   0.47031    0.009
 7010.00    0.44813   0.47269    0.009
 7011.00    0.43158   0.47622    0.009
 7012.00    0.38635   0.47957    0.009
 7013.00    0.32824   0.48198    0.009
 7014.00    0.33716   0.48098    0.009
 7015.00    0.37195   0.47902    0.009
 7016.00    0.36060   0.48092    0.009
 7017.00    0.33411   0.48314    0.009
 7018.00    0.35818   0.47757    0.009
 7019.00    0.39617   0.46364    0.009
 7020.00    0.37261   0.45422    0.009
 7021.00    0.33513   0.46145    0.009
 7022.00    0.35850   0.47729    0.009
 7023.00    0.39286   0.48694    0.009
 7024.00    0.35710   0.48923    0.009
 7025.00    0.31162   0.48745    0.008
 7026.00    0.34724   0.48052    0.009
 7027.00    0.39091   0.47111    0.009
 7028.00    0.31918   0.46731    0.009
 7029.00    0.24021   0.47144    0.009
 7030.00    0.27732   0.47692    0.009
 7031.00    0.31772   0.47857    0.009
 7032.00    0.35481   0.47932    0.009
 7033.00    0.38892   0.48184    0.009
 7034.00    0.34106   0.48453    0.009
 7035.00    0.30204   0.48510    0.009
 7036.00    0.38724   0.48341    0.009
 7037.00    0.46759   0.48161    0.009
 7038.00    0.50331   0.48183    0.009
 7039.00    0.52596   0.48434    0.009
 7040.00    0.46052   0.48457    0.009
 7041.00    0.40409   0.47642    0.009
 7042.00    0.39473   0.46737    0.009
 7043.00    0.38444   0.47207    0.009
 7044.00    0.37017   0.48729    0.009
 7045.00    0.35056   0.49877    0.009
 7046.00    0.31236   0.50256    0.009
 7047.00    0.30303   0.50075    0.009
 7048.00    0.37820   0.49511    0.009
 7049.00    0.43104   0.49123    0.009
 7050.00    0.42815   0.49382   -2.000
 7051.00    0.43182   0.49960   -2.000
 7052.00    0.44960   0.50360   -2.000
 7053.00    0.45383   0.50336   -2.000
 7054.00    0.43276   0.49872   -2.000
 7055.00    0.41057   0.48991   -2.000
 7056.00    0.38654   0.47625   -2.000
 7057.00    0.38446   0.46082   -2.000
 7058.00    0.41378   0.44861   -2.000
 7059.00    0.44101   0.44470   -2.000
 7060.00    0.46563   0.45046   -2.000
 7061.00    0.49696   0.45755   -2.000
 7062.00    0.53574   0.45710   -2.000
 7063.00    0.50746   0.44957   -2.000
 7064.00    0.41359   0.44289   -2.000
 7065.00    0.39275   0.44247   -2.000
 7066.00    0.43490   0.44550   -2.000
 7067.00    0.43666   0.44879   -2.000
 7068.00    0.40774   0.45127   -2.000
 7069.00    0.43302   0.44947   -2.000
 7070.00    0.49448   0.44374   -2.000
 7071.00    0.50829   0.43868   -2.000
 7072.00    0.49423   0.43678   -2.000
 7073.00    0.48005   0.44145   -2.000
 7074.00    0.46580   0.45100   -2.000
 7075.00    0.47955   0.45800   -2.000
 7076.00    0.50567   0.46037   -2.000
 7077.00    0.52176   0.46110   -2.000
 7078.00    0.53404   0.46105   -2.000
 7079.00    0.55552   0.46008   -2.000
 7080.00    0.57997   0.45957   -2.000
 7081.00    0.52847   0.46043   -2.000
 7082.00    0.45651   0.46200   -2.000
 7083.00    0.44439   0.46362   -2.000
 7084.00    0.44549   0.46577   -2.000
 7085.00    0.41157   0.46580   -2.000
 7086.00    0.37151   0.45978   -2.000
 7087.00    0.41051   0.44843   -2.000
 7088.00    0.46011   0.43771   -2.000
 7089.00    0.41815   0.43477   -2.000
 7090.00    0.36750   0.43593   -2.000
 7091.00    0.36362   0.43045   -2.000
 7092.00    0.36249   0.42158   -2.000
 7093.00    0.39532   0.41791   -2.000
 7094.00    0.42975   0.41910   -2.000
 7095.00    0.56885   0.42286   -2.000
 7096.00    0.69923   0.42557   -2.000
 7097.00    0.61265   0.42479   -2.000
 7098.00    0.52435   0.42369   -2.000
 7099.00    0.41327   0.42292   -2.000
 7100.00    0.32161   0.42310   -2.000
 7101.00    0.40215   0.42506   -2.000
 7102.00    0.46588   0.42914   -2.000
 7103.00    0.41977   0.43399   -2.000
 7104.00    0.38442   0.43513   -2.000
 7105.00    0.40391   0.43252   -2.000
 7106.00    0.42534   0.42874   -2.000
 7107.00    0.45481   0.42810   -2.000
 7108.00    0.47562   0.43235   -2.000
 7109.00    0.46695   0.43689   -2.000
 7110.00    0.47343   0.43698   -2.000
 7111.00    0.52342   0.43569   -2.000
 7112.00    0.53226   0.43658   -2.000
 7113.00    0.44015   0.43634   -2.000
 7114.00    0.36862   0.43131   -2.000
 7115.00    0.34066   0.42623   -2.000
 7116.00    0.35021   0.42760   -2.000
 7117.00    0.42873   0.43323   -2.000
 7118.00    0.47302   0.43689   -2.000
 7119.00    0.46233   0.43830   -2.000
 7120.00    0.53301   0.44035   -2.000
 7121.00    0.71840   0.44183   -2.000
 7122.00    0.75788   0.44175   -2.000
 7123.00    0.61639   0.44123   -2.000
 7124.00    0.52336   0.44039   -2.000
 7125.00    0.48332   0.43835   -2.000
 7126.00    0.49316   0.43672   -2.000
 7127.00    0.55111   0.43842   -2.000
 7128.00    0.52659   0.43646   -2.000
 7129.00    0.43195   0.42514   -2.000
 7130.00    0.38408   0.41413   -2.000
 7131.00    0.37124   0.41259   -2.000
 7132.00    0.35537   0.41564   -2.000
 7133.00    0.33748   0.41387   -2.000
 7134.00    0.35486   0.40753   -2.000
 7135.00    0.39256   0.40474   -2.000
 7136.00    0.38449   0.40887   -2.000
 7137.00    0.35345   0.41514   -2.000
 7138.00    0.34211   0.42004   -2.000
 7139.00    0.33932   0.42233   -2.000
 7140.00    0.39634   0.42326   -2.000
 7141.00    0.47563   0.42378   -2.000
 7142.00    0.50524   0.42126   -2.000
 7143.00    0.51915   0.41865   -2.000
 7144.00    0.47217   0.42101   -2.000
 7145.00    0.40913   0.42537   -2.000
 7146.00    0.41091   0.42681   -2.000
 7147.00    0.42666   0.42657   -2.000
 7148.00    0.42767   0.42653   -2.000
 7149.00    0.42617   0.42614   -2.000
 7150.00    0.44032   0.42421   -2.000
 7151.00    0.45649   0.41767   -2.000
 7152.00    0.28692   0.41140   -2.000
 7153.00    0.10047   0.41423   -2.000
 7154.00    0.23024   0.42099   -2.000
 7155.00    0.37731   0.42587   -2.000
 7156.00    0.45214   0.43120   -2.000
 7157.00    0.52506   0.43547   -2.000
 7158.00    0.56215   0.43474   -2.000
 7159.00    0.58751   0.43266   -2.000
 7160.00    0.34692   0.43565   -2.000
 7161.00    0.14774   0.43979   -2.000
 7162.00    0.47003   0.43674   -2.000
 7163.00    0.74523   0.42976   -2.000
 7164.00    0.61869   0.42691   -2.000
 7165.00    0.53084   0.42980   -2.000
 7166.00    0.68816   0.43246   -2.000
 7167.00    0.79241   0.42725   -2.000
 7168.00    0.63316   0.41676   -2.000
 7169.00    0.50523   0.41331   -2.000
 7170.00    0.50336   0.42131   -2.000
 7171.00    0.47058   0.43129   -2.000
 7172.00    0.33450   0.43504   -2.000
 7173.00    0.26137   0.43382   -2.000
 7174.00    0.36582   0.43368   -2.000
 7175.00    0.41686   0.43701   -2.000
 7176.00    0.33909   0.44060   -2.000
 7177.00    0.28315   0.44129   -2.000
 7178.00    0.27268   0.43875   -2.000
 7179.00    0.30039   0.43459   -2.000
 7180.00    0.39721   0.43205   -2.000
 7181.00    0.41934   0.43449   -2.000
 7182.00    0.32323   0.43782   -2.000
 7183.00    0.28683   0.43432   -2.000
 7184.00    0.33340   0.42558   -2.000
 7185.00    0.35564   0.42124   -2.000
 7186.00    0.34813   0.42742   -2.000
 7187.00    0.32235   0.43879   -2.000
 7188.00    0.27687   0.44445   -2.000
 7189.00    0.27787   0.44152   -2.000
 7190.00    0.32307   0.43198   -2.000
 7191.00    0.42167   0.42032   -2.000
 7192.00    0.56503   0.41534   -2.000
 7193.00    0.58616   0.41902   -2.000
 7194.00    0.51707   0.42705   -2.000
 7195.00    0.46402   0.43348   -2.000
 7196.00    0.42137   0.43318   -2.000
 7197.00    0.45658   0.43134   -2.000
 7198.00    0.53595   0.43386   -2.000
 7199.00    0.52037   0.43707   -2.000
 7200.00    0.45789   0.43432   -2.000
 7201.00    0.37547   0.42842   -2.000
 7202.00    0.28454   0.42829   -2.000
 7203.00    0.34644   0.43279   -2.000
 7204.00    0.46425   0.43399   -2.000
 7205.00    0.56870   0.42961   -2.000
 7206.00    0.66901   0.42684   -2.000
 7207.00    0.56018   0.43237   -2.000
 7208.00    0.39737   0.43950   -2.000
 7209.00    0.36173   0.43834   -2.000
 7210.00    0.35285   0.42696   -2.000
 7211.00    0.25854   0.41441   -2.000
 7212.00    0.15003   0.41303   -2.000
 7213.00    0.20500   0.42047   -2.000
 7214.00    0.28039   0.43060   -2.000
 7215.00    0.20533   0.43881   -2.000
 7216.00    0.11723   0.43901   -2.000
 7217.00    0.14776   0.43389   -2.000
 7218.00    0.18432   0.43034   -2.000
