###################################################################
## OUTPUT of StarlightChains_v04.for    [Cid@UFSC - 01/Apr/2007] ##
###################################################################

## Some input info
KUG0210-078._42_43.txt                   [arq_obs]
Base.CB07.vall.4m                        [arq_base]
Masks.EmLines.NEW.gm                     [arq_masks]
StCv04.C11.config                        [arq_config]
   66                                    [N_base]
    0                                    [N_YAV_components = # of components with extra extinction!]
    0                                    [i_FitPowerLaw (1/0 = Yes/No)]
-9.99                                    [alpha_PowerLaw]
CCM                                      [red_law_option]
 1.458241                                [q_norm = A(l_norm)/A(V)]

## (Re)Sampling Parameters
 3741.00                                 [l_ini (A)]
 7218.00                                 [l_fin (A)]
    1.00                                 [dl    (A)]     (OBS: dl_cushion =    50.00 A)

## Normalization info
 4020.00                                 [l_norm (A) - for base]
 4010.00                                 [llow_norm (A) - window for f_obs]
 4060.00                                 [lupp_norm (A) - window for f_obs]
1.167376E-17                             [fobs_norm (in input units)]

## S/N
 3691.00                                 [llow_SN (A) - window for S/N]
 7268.00                                 [lupp_SN (A) - window for S/N]
   4.684                                 [S/N in S/N window]
   4.540                                 [S/N in norm. window]
   0.015                                 [S/N_err in S/N window]
   0.015                                 [S/N_err in norm. window]
  1.0000                                 [fscale_chi2]

## etc...
    -2007784                             [idum_orig]
  2412                                   [NOl_eff]
  2406                                   [Nl_eff]
     6    NSIGMA                         [Ntot_cliped & clip_method]
  1391880                                [Nglobal_steps]
   7                                     [N_chains]
  35                                     [NEX0s_base = N_base in EX0s-fits]
 0   0   1        6   2.0   1.174E+03    [Clip-Bug, RC-Crash & Burn-In warning-flags, n_censored_weights, wei_nsig_threshold & wei_limit]
    37     33.933     32.907      1.026  [idt_all, wdt_TotTime, wdt_UsrTime & wdt_SysTime (sec)]

## Synthesis Results - Best model ##

 1.23242E-05                             [chi2/Nl_eff]
    19.09631                             [adev (%)]

   104.04621                             [sum-of-x (%)]
 6.90086E-18                             [Flux_tot (units of input spectrum!)]
 4.73537E-13                             [Mini_tot (???)]
 2.39374E-13                             [Mcor_tot (???)]

-313.56                                  [v0_min  (km/s)]
 225.24                                  [vd_min  (km/s)]
-0.4209                                  [AV_min  (mag)]
 0.0000                                  [YAV_min (mag)]

# j     x_j(%)      Mini_j(%)     Mcor_j(%)     age_j(yr)     Z_j      (L/M)_j    YAV?  Mstars   component_j        a/Fe...       SSP_chi2r SSP_adev(%)   SSP_AV   SSP_x(%)
  1      0.0000     0.0000E+00    0.0000E+00    1.000000E+06  0.00400  1.094E-02    0   1.0000   age020_m42            0.0000     1.7098E-05    25.2725   3.4354    84.1015
  2      0.5576     1.9492E-04    3.8555E-04    3.160000E+06  0.00400  4.007E-02    0   0.9999   age045_m42            0.0000     1.5376E-05    23.6784   2.6904    90.5234
  3      0.0000     0.0000E+00    0.0000E+00    5.010000E+06  0.00400  2.539E-02    0   0.9488   age055_m42            0.0000     1.6097E-05    24.3949   3.0207    87.9692
  4      0.3883     2.0756E-04    3.7857E-04    6.610000E+06  0.00400  2.620E-02    0   0.9220   age061_m42            0.0000     1.5367E-05    23.6353   2.6201    90.6224
  5      0.0000     0.0000E+00    0.0000E+00    1.000000E+07  0.00400  1.322E-02    0   0.8862   age070_m42            0.0000     1.6285E-05    25.0864   2.3679    91.5650
  6      0.0000     0.0000E+00    0.0000E+00    1.445000E+07  0.00400  7.883E-03    0   0.8571   age078_m42            0.0000     1.6586E-05    25.3422   2.6940    89.2642
  7      0.0000     0.0000E+00    0.0000E+00    2.512000E+07  0.00400  5.251E-03    0   0.8174   age090_m42            0.0000     1.6331E-05    25.2359   2.2418    91.9711
  8      0.0000     0.0000E+00    0.0000E+00    4.000000E+07  0.00400  3.649E-03    0   0.7851   age104_m42            0.0000     1.5894E-05    24.7417   2.0075    92.9869
  9      0.0000     0.0000E+00    0.0000E+00    5.500000E+07  0.00400  3.098E-03    0   0.7629   age110_m42            0.0000     1.5281E-05    23.7388   2.1441    93.5680
 10      0.0000     0.0000E+00    0.0000E+00    1.015200E+08  0.00400  2.228E-03    0   0.7207   age116_m42            0.0000     1.4951E-05    23.0553   2.1537    94.1007
 11      0.0000     0.0000E+00    0.0000E+00    2.861200E+08  0.00400  1.093E-03    0   0.6648   age125_m42            0.0000     1.5006E-05    23.2997   1.5854    96.7398
 12      0.0000     0.0000E+00    0.0000E+00    5.088000E+08  0.00400  6.597E-04    0   0.6365   age130_m42            0.0000     1.4375E-05    22.1287   1.5566    98.2357
 13      0.0000     0.0000E+00    0.0000E+00    1.434000E+09  0.00400  2.132E-04    0   0.5798   age139_m42            0.0000     1.3257E-05    21.0907   0.5738   100.6454
 14      2.6694     6.3425E-01    6.7464E-01    4.250000E+09  0.00400  5.895E-05    0   0.5377   age158_m42            0.0000     1.3001E-05    20.8127   0.1192    97.1769
 15      0.0000     0.0000E+00    0.0000E+00    7.500000E+09  0.00400  3.510E-05    0   0.5212   age171_m42            0.0000     1.2922E-05    20.4488  -0.0791    96.8296
 16      0.0000     0.0000E+00    0.0000E+00    1.300000E+10  0.00400  2.005E-05    0   0.5034   age193_m42            0.0000     1.2873E-05    20.1476  -0.2531    96.5406
 17      0.0000     0.0000E+00    0.0000E+00    1.800000E+10  0.00400  1.525E-05    0   0.4967   age213_m42            0.0000     1.2960E-05    20.3254  -0.2732    96.0115
 18      0.0071     7.9895E-06    1.5805E-05    1.000000E+06  0.00800  1.238E-02    0   1.0000   age020_m52            0.0000     1.7116E-05    25.2741   3.4309    84.2873
 19      0.0000     0.0000E+00    0.0000E+00    3.160000E+06  0.00800  3.074E-02    0   0.9966   age045_m52            0.0000     1.6930E-05    25.0851   3.3541    85.0610
 20      0.0000     0.0000E+00    0.0000E+00    5.010000E+06  0.00800  2.668E-02    0   0.9443   age055_m52            0.0000     1.6344E-05    24.6141   3.1072    87.0652
 21      0.0000     0.0000E+00    0.0000E+00    6.610000E+06  0.00800  2.136E-02    0   0.9177   age061_m52            0.0000     1.5966E-05    24.9647   1.8677    92.6261
 22      0.0000     0.0000E+00    0.0000E+00    1.000000E+07  0.00800  1.215E-02    0   0.8827   age070_m52            0.0000     1.6876E-05    25.8355   2.5551    91.0658
 23      0.0000     0.0000E+00    0.0000E+00    1.445000E+07  0.00800  8.717E-03    0   0.8552   age078_m52            0.0000     1.6470E-05    25.2584   2.6616    90.4656
 24      0.0000     0.0000E+00    0.0000E+00    2.512000E+07  0.00800  5.592E-03    0   0.8162   age090_m52            0.0000     1.6321E-05    25.2588   2.3044    93.0928
 25      0.0000     0.0000E+00    0.0000E+00    4.000000E+07  0.00800  3.896E-03    0   0.7841   age104_m52            0.0000     1.5786E-05    24.5967   2.2048    94.2106
 26      0.0657     4.2849E-04    6.1252E-04    1.015200E+08  0.00800  2.148E-03    0   0.7226   age116_m52            0.0000     1.5105E-05    23.5163   2.1263    94.6515
 27      9.3136     1.3143E-01    1.7376E-01    2.861200E+08  0.00800  9.925E-04    0   0.6683   age125_m52            0.0000     1.4365E-05    22.0115   1.6224    99.1538
 28      0.0000     0.0000E+00    0.0000E+00    9.047900E+08  0.00800  3.141E-04    0   0.6138   age135_m52            0.0000     1.2955E-05    20.3485   0.7887   104.5454
 29      0.0000     0.0000E+00    0.0000E+00    1.434000E+09  0.00800  1.719E-04    0   0.5853   age139_m52            0.0000     1.2907E-05    20.8287   0.2105   102.2085
 30      0.0000     0.0000E+00    0.0000E+00    2.500000E+09  0.00800  7.872E-05    0   0.5600   age150_m52            0.0000     1.2603E-05    19.9236  -0.0741   100.0819
 31      0.0469     1.5136E-02    1.6247E-02    4.250000E+09  0.00800  4.336E-05    0   0.5426   age158_m52            0.0000     1.2715E-05    20.0077  -0.0893    99.1329
 32      0.0000     0.0000E+00    0.0000E+00    6.250000E+09  0.00800  3.159E-05    0   0.5319   age166_m52            0.0000     1.2570E-05    19.3633  -0.3091    99.7133
 33      0.0000     0.0000E+00    0.0000E+00    1.300000E+10  0.00800  1.361E-05    0   0.5073   age193_m52            0.0000     1.2532E-05    18.5348  -0.7988    99.7559
 34     12.3741     1.7531E+01    1.7306E+01    1.800000E+10  0.00800  9.886E-06    0   0.4990   age213_m52            0.0000     1.2592E-05    18.0221  -0.9268    99.9309
 35      0.0000     0.0000E+00    0.0000E+00    1.000000E+06  0.02000  1.544E-02    0   1.0000   age020_m62            0.0000     1.7185E-05    25.3222   3.4272    84.4684
 36      0.0000     0.0000E+00    0.0000E+00    3.160000E+06  0.02000  3.762E-02    0   0.9858   age045_m62            0.0000     1.7110E-05    25.2126   3.3673    85.1812
 37      0.0000     0.0000E+00    0.0000E+00    5.010000E+06  0.02000  3.296E-02    0   0.9342   age055_m62            0.0000     1.5738E-05    23.8764   2.9741    89.2927
 38      2.9423     3.5711E-03    6.2598E-03    8.710000E+06  0.02000  1.154E-02    0   0.8861   age067_m62            0.0000     2.0328E-05    29.8693   2.0577    91.6961
 39      0.0000     0.0000E+00    0.0000E+00    1.445000E+07  0.02000  7.663E-03    0   0.8472   age078_m62            0.0000     1.7524E-05    26.8815   2.2135    92.6445
 40      0.0000     0.0000E+00    0.0000E+00    2.512000E+07  0.02000  4.532E-03    0   0.8099   age090_m62            0.0000     1.7625E-05    26.9752   2.2062    92.3527
 41      1.2605     6.4598E-03    9.7057E-03    5.500000E+07  0.02000  2.733E-03    0   0.7595   age110_m62            0.0000     1.5886E-05    24.6941   2.1907    93.4198
 42      0.0000     0.0000E+00    0.0000E+00    1.609000E+08  0.02000  1.369E-03    0   0.6985   age120_m62            0.0000     1.4915E-05    22.8333   2.0007    97.0104
 43      0.0000     0.0000E+00    0.0000E+00    2.861200E+08  0.02000  9.013E-04    0   0.6714   age125_m62            0.0000     1.4397E-05    21.6125   1.7348   100.4089
 44      0.0000     0.0000E+00    0.0000E+00    5.088000E+08  0.02000  5.028E-04    0   0.6449   age130_m62            0.0000     1.3334E-05    20.0127   1.3232   104.3168
 45      0.0000     0.0000E+00    0.0000E+00    9.047900E+08  0.02000  2.428E-04    0   0.6179   age135_m62            0.0000     1.2607E-05    19.8276   0.7235   104.1504
 46     16.0648     1.7815E+00    2.0822E+00    1.434000E+09  0.02000  1.263E-04    0   0.5908   age139_m62            0.0000     1.2628E-05    19.9031   0.2763   102.6694
 47      0.0000     0.0000E+00    0.0000E+00    2.500000E+09  0.02000  5.985E-05    0   0.5673   age150_m62            0.0000     1.2568E-05    19.3564  -0.1076   101.8339
 48      0.5604     2.3997E-01    2.5957E-01    4.250000E+09  0.02000  3.271E-05    0   0.5468   age158_m62            0.0000     1.2464E-05    18.4857  -0.4396   101.8675
 49     18.1204     1.8662E+01    1.9075E+01    1.000000E+10  0.02000  1.360E-05    0   0.5167   age181_m62            0.0000     1.2670E-05    17.6660  -0.8216   102.5829
 50     19.3936     3.8129E+01    3.7812E+01    1.800000E+10  0.02000  7.124E-06    0   0.5013   age213_m62            0.0000     1.3092E-05    16.9861  -1.0000   100.9708
 51      0.0000     0.0000E+00    0.0000E+00    1.000000E+06  0.05000  2.592E-02    0   0.9998   age020_m72            0.0000     1.7441E-05    25.5540   3.4235    84.3544
 52      0.0000     0.0000E+00    0.0000E+00    3.160000E+06  0.05000  4.845E-02    0   0.9577   age045_m72            0.0000     1.6476E-05    24.5871   3.2417    86.6009
 53      0.3162     1.4416E-04    2.6085E-04    5.010000E+06  0.05000  3.072E-02    0   0.9147   age055_m72            0.0000     1.7384E-05    26.3796   2.7827    89.5665
 54      0.0000     0.0000E+00    0.0000E+00    6.610000E+06  0.05000  1.455E-02    0   0.8877   age061_m72            0.0000     2.3043E-05    32.5614   2.0998    91.9824
 55      0.0000     0.0000E+00    0.0000E+00    1.000000E+07  0.05000  9.074E-03    0   0.8524   age070_m72            0.0000     1.7847E-05    26.8394   2.9498    89.4800
 56      0.0000     0.0000E+00    0.0000E+00    2.512000E+07  0.05000  4.250E-03    0   0.7902   age090_m72            0.0000     1.6900E-05    25.9110   2.6534    91.3353
 57      0.0000     0.0000E+00    0.0000E+00    4.000000E+07  0.05000  3.087E-03    0   0.7618   age104_m72            0.0000     1.6853E-05    25.8848   2.4264    92.8426
 58      0.0000     0.0000E+00    0.0000E+00    1.015200E+08  0.05000  1.700E-03    0   0.7096   age116_m72            0.0000     1.5446E-05    23.6333   2.1537    96.2095
 59      2.5354     4.8092E-02    6.3105E-02    2.861200E+08  0.05000  7.384E-04    0   0.6633   age125_m72            0.0000     1.3918E-05    20.7662   1.5859   102.4239
 60      5.4482     1.9981E-01    2.5187E-01    5.088000E+08  0.05000  3.819E-04    0   0.6372   age130_m72            0.0000     1.2857E-05    19.7225   1.0660   105.1364
 61      0.0000     0.0000E+00    0.0000E+00    9.047900E+08  0.05000  1.676E-04    0   0.6110   age135_m72            0.0000     1.2459E-05    19.1945   0.3438   104.1548
 62      4.9186     7.7958E-01    9.0588E-01    1.434000E+09  0.05000  8.837E-05    0   0.5874   age139_m72            0.0000     1.2599E-05    19.2066  -0.1181   103.7021
 63      0.0059     1.9633E-03    2.1742E-03    2.500000E+09  0.05000  4.233E-05    0   0.5598   age150_m72            0.0000     1.2472E-05    18.3087  -0.4528   103.2074
 64      0.0000     0.0000E+00    0.0000E+00    6.250000E+09  0.05000  1.435E-05    0   0.5249   age166_m72            0.0000     1.2783E-05    17.7079  -0.9292   102.5209
 65      0.0000     0.0000E+00    0.0000E+00    1.300000E+10  0.05000  6.513E-06    0   0.5036   age193_m72            0.0000     1.4017E-05    16.8586  -1.0000    97.3480
 66      7.0573     2.1835E+01    2.1360E+01    1.800000E+10  0.05000  4.527E-06    0   0.4945   age213_m72            0.0000     1.5798E-05    17.4339  -1.0000    92.2627


## Synthesis Results - Average & Chains ##

# j      x_j: min, <> & last-chain-values for 1 ...  7 chains
  1      0.0000      1.4807      0.0000      0.0000      0.5547      0.0634      0.7132      0.0000      0.0700
  2      0.5576      1.7231      3.3083      4.0797      4.1084      3.8639      4.2191      3.4606      4.8618
  3      0.0000      1.2358      0.3051      0.4709      0.0000      1.1572      0.1421      0.0000      0.9333
  4      0.3883      1.3956      0.5593      0.4661      0.0000      0.0000      0.4268      0.5761      0.0000
  5      0.0000      1.6690      1.4104      2.1626      3.4404      2.6756      1.3589      2.3027      2.7263
  6      0.0000      1.5292      0.2532      0.0000      0.4887      0.0950      0.0000      0.0000      0.0000
  7      0.0000      1.6296      0.0000      1.2240      0.8264      2.4424      1.5647      2.6200      0.9357
  8      0.0000      1.1894      0.1029      0.4393      1.0397      0.7230      0.3802      0.3498      0.4433
  9      0.0000      1.2961      0.0000      0.6268      0.4040      0.3072      0.4780      0.0000      0.2230
 10      0.0000      1.2745      1.9726      0.5399      0.0807      0.1947      0.3509      0.2737      0.0240
 11      0.0000      1.3516      0.0000      0.2344      0.2360      0.3231      0.0787      0.5634      0.7715
 12      0.0000      1.5835      0.0000      0.9887      1.6202      1.7182      1.4745      1.5303      1.0568
 13      0.0000      1.5027      0.0937      2.9099      0.6340      0.6250      0.0000      0.1303      0.1131
 14      2.6694      1.8652      1.3701      1.2115      0.0000      0.2877      1.5220      0.0000      0.0000
 15      0.0000      1.2713      0.0794      0.8391      0.3711      0.5943      3.0437      0.0580      1.2113
 16      0.0000      1.8690      0.0000      0.0000      0.1041      0.2109      0.0000      0.0129      0.6184
 17      0.0000      1.6252      0.3533      0.0000      0.0000      0.8527      0.0000      0.2764      0.5080
 18      0.0071      1.4308      1.6106      0.4121      0.0000      0.6613      0.0000      0.2926      0.3661
 19      0.0000      1.2026      0.0000      0.0697      0.0000      0.1597      0.0000      1.2688      1.6174
 20      0.0000      1.6631      0.0000      0.1755      0.9854      0.0000      0.3407      0.3389      0.4801
 21      0.0000      1.2326      0.0000      0.7059      0.1448      0.3863      0.0000      0.7005      0.0000
 22      0.0000      1.2199      0.2048      0.8561      0.0584      0.0836      0.2054      0.2509      0.0000
 23      0.0000      1.7852      0.0508      0.0000      0.0240      1.8253      0.0000      0.4847      0.1974
 24      0.0000      1.2518      0.0000      0.5949      1.1686      0.2245      0.0000      1.4285      0.2500
 25      0.0000      1.4540      2.4742      0.0309      0.0000      0.7212      0.0000      0.0000      1.3861
 26      0.0657      1.4761      0.4392      1.3723      0.6208      0.2908      0.0000      0.0000      0.8262
 27      9.3136      1.6120      2.4113      0.4096      0.5250      0.6615      0.0000      0.7744      0.3238
 28      0.0000      1.4035      2.5544      1.0030      0.0000      0.0000      0.0000      0.7851      0.9546
 29      0.0000      3.1787     16.3215     18.2926     18.4041     16.8008     18.6614     17.2924     14.8175
 30      0.0000      1.3053      0.0000      1.4385      1.0943      1.1255      1.0116      0.8352      0.7349
 31      0.0469      2.1646      1.6860      4.4218      5.2596      4.4042      3.7581      4.7646      4.5897
 32      0.0000      1.3485      0.0000      0.4053      0.0703      2.0065      0.0771      0.4077      0.7883
 33      0.0000      1.4205      0.0000      0.0434      0.0000      0.0260      0.1163      0.6488      0.1383
 34     12.3741      1.0845      0.5375      0.7446      0.0000      1.2579      0.5745      0.8684      0.2870
 35      0.0000      1.2927      0.1659      0.2715      0.0146      0.4543      0.0000      0.2987      0.0000
 36      0.0000      1.4822      0.0000      0.0000      0.0000      0.3015      0.2010      0.3668      0.0011
 37      0.0000      1.5271      0.2089      0.0000      0.0000      0.0000      0.0000      0.0000      0.0000
 38      2.9423      1.6972      0.9355      0.0000      0.2376      0.2535      0.2116      0.6219      0.0000
 39      0.0000      1.4784      0.0000      0.4135      0.9099      0.0000      0.8012      0.7028      0.8942
 40      0.0000      1.5741      0.5763      0.5082      0.7155      0.2304      0.7081      0.1538      0.4916
 41      1.2605      1.1507      0.9690      0.5520      0.7395      1.6134      0.6485      1.0361      0.9893
 42      0.0000      1.4303      0.1090      0.1469      0.2951      0.0000      1.2718      0.1509      0.5432
 43      0.0000      1.4963      1.0997      0.8098      0.7866      1.8214      1.2957      1.5124      1.6615
 44      0.0000      1.7485      7.8066      1.7438      1.2463      1.7466      2.6135      1.5114      1.0935
 45      0.0000      1.8213      2.9516      4.0708      4.4936      4.7691      4.9093      4.1765      4.8502
 46     16.0648      1.6964      5.0735      5.0939      5.6691      4.9295      4.9333      6.3770      4.2636
 47      0.0000      1.9323      1.8398      2.8515      3.0087      1.8461      2.1586      2.8947      2.3499
 48      0.5604      1.6087      2.6736      3.0512      3.1203      2.7738      2.9121      3.2438      3.5393
 49     18.1204      1.7943      0.5903      0.6469      2.3638      0.0000      0.7768      0.7060      0.5552
 50     19.3936      1.5869      5.1051      1.9204      1.9966      1.4064      1.8446      2.3779      0.4054
 51      0.0000      1.6963      0.2341      0.1174      0.6978      0.0000      0.0000      0.0096      0.0000
 52      0.0000      1.3774      0.0000      0.1402      0.2980      0.0000      0.4159      0.3355      0.0515
 53      0.3162      1.7342      1.1063      3.9948      4.8360      3.5919      3.3893      3.4910      2.8334
 54      0.0000      1.5954      3.1562      0.6176      0.1509      0.5580      0.3200      0.5988      1.0800
 55      0.0000      1.5012      0.0000      0.0792      0.2906      0.0000      0.2163      0.0000      0.0000
 56      0.0000      1.5207      2.3397      0.2383      0.8658      0.6369      0.6118      1.6544      0.6694
 57      0.0000      1.0414      0.1731      1.3398      0.9115      0.9426      0.9427      0.6275      1.0607
 58      0.0000      1.2360      0.0000      0.2130      0.2364      0.1226      0.9549      0.0000      0.8308
 59      2.5354      1.3836      1.9833      2.5889      3.0459      1.9445      2.7647      3.5345      2.1775
 60      5.4482      1.5563      1.5020      2.0191      0.8825      1.2433      7.6160      1.8529      1.9639
 61      0.0000      2.5097     13.1674     13.1068     15.8177     16.7341     14.0176     13.8993     15.1188
 62      4.9186      1.4761      2.0361      3.2030      2.2358      2.0143      2.4915      2.2634      2.3853
 63      0.0059      2.3573      8.4164      4.8652      5.2682      6.1042      4.4790      4.7327     10.2311
 64      0.0000      1.4001      0.1154      0.4347      0.0000      0.2966      0.3523      0.3034      0.4467
 65      0.0000      1.6197      0.1775      0.2028      0.3210      0.0266      0.1170      0.7293      0.0000
 66      7.0573      1.2137      0.5895      0.9239      0.6897      0.5099      0.8142      0.0000      0.6981

# j      m_j: min, <> & last-chain-values for 1 ...  7 chains
  1  0.0000E+00  1.4489E-02  0.0000E+00  0.0000E+00  6.7630E-03  8.2950E-04  8.8445E-03  0.0000E+00  9.5024E-04
  2  3.8555E-04  4.6031E-03  9.3376E-03  1.3438E-02  1.3675E-02  1.3796E-02  1.4284E-02  1.1709E-02  1.8025E-02
  3  0.0000E+00  4.9438E-03  1.2896E-03  2.3229E-03  0.0000E+00  6.1874E-03  7.2063E-04  0.0000E+00  5.1816E-03
  4  3.7857E-04  5.2578E-03  2.2261E-03  2.1648E-03  0.0000E+00  0.0000E+00  2.0378E-03  2.7489E-03  0.0000E+00
  5  0.0000E+00  1.1977E-02  1.0694E-02  1.9135E-02  3.0763E-02  2.5663E-02  1.2358E-02  2.0930E-02  2.7154E-02
  6  0.0000E+00  1.7799E-02  3.1132E-03  0.0000E+00  7.0871E-03  1.4772E-03  0.0000E+00  0.0000E+00  0.0000E+00
  7  0.0000E+00  2.7156E-02  0.0000E+00  2.5149E-02  1.7159E-02  5.4401E-02  3.3046E-02  5.5300E-02  2.1641E-02
  8  0.0000E+00  2.7396E-02  2.5045E-03  1.2475E-02  2.9838E-02  2.2257E-02  1.1099E-02  1.0204E-02  1.4171E-02
  9  0.0000E+00  3.4168E-02  0.0000E+00  2.0375E-02  1.3270E-02  1.0825E-02  1.5971E-02  0.0000E+00  8.1579E-03
 10  0.0000E+00  4.4137E-02  7.2173E-02  2.3052E-02  3.4807E-03  9.0112E-03  1.5401E-02  1.2004E-02  1.1556E-03
 11  0.0000E+00  8.8007E-02  0.0000E+00  1.8816E-02  1.9144E-02  2.8117E-02  6.4933E-03  4.6466E-02  6.9719E-02
 12  0.0000E+00  1.6356E-01  0.0000E+00  1.2591E-01  2.0852E-01  2.3719E-01  1.9301E-01  2.0020E-01  1.5150E-01
 13  0.0000E+00  4.3750E-01  2.8822E-02  1.0445E+00  2.3000E-01  2.4322E-01  0.0000E+00  4.8054E-02  4.5717E-02
 14  6.7464E-01  1.8214E+00  1.4136E+00  1.4586E+00  0.0000E+00  3.7543E-01  1.8834E+00  0.0000E+00  0.0000E+00
 15  0.0000E+00  2.0209E+00  1.3335E-01  1.6447E+00  7.3499E-01  1.2626E+00  6.1317E+00  1.1672E-01  2.6724E+00
 16  0.0000E+00  5.0235E+00  0.0000E+00  0.0000E+00  3.4866E-01  7.5764E-01  0.0000E+00  4.3776E-02  2.3070E+00
 17  0.0000E+00  5.6669E+00  1.3016E+00  0.0000E+00  0.0000E+00  3.9738E+00  0.0000E+00  1.2207E+00  2.4584E+00
 18  1.5805E-05  1.2373E-02  1.4715E-02  4.3939E-03  0.0000E+00  7.6427E-03  0.0000E+00  3.2052E-03  4.3937E-03
 19  0.0000E+00  4.1738E-03  0.0000E+00  2.9847E-04  0.0000E+00  7.4097E-04  0.0000E+00  5.5775E-03  7.7908E-03
 20  0.0000E+00  6.3017E-03  0.0000E+00  8.1971E-04  4.6523E-03  0.0000E+00  1.6359E-03  1.6266E-03  2.5246E-03
 21  0.0000E+00  5.6691E-03  0.0000E+00  4.0031E-03  8.3006E-04  2.3747E-03  0.0000E+00  4.0809E-03  0.0000E+00
 22  0.0000E+00  9.4876E-03  1.6827E-03  8.2092E-03  5.6616E-04  8.6921E-04  2.0241E-03  2.4715E-03  0.0000E+00
 23  0.0000E+00  1.8750E-02  5.6339E-04  0.0000E+00  3.1350E-04  2.5623E-02  0.0000E+00  6.4471E-03  2.8775E-03
 24  0.0000E+00  1.9560E-02  0.0000E+00  1.1460E-02  2.2753E-02  4.6877E-03  0.0000E+00  2.8270E-02  5.4219E-03
 25  0.0000E+00  3.1327E-02  5.6322E-02  8.2141E-04  0.0000E+00  2.0767E-02  0.0000E+00  0.0000E+00  4.1447E-02
 26  6.1252E-04  5.3159E-02  1.6712E-02  6.0936E-02  2.7855E-02  1.3997E-02  0.0000E+00  0.0000E+00  4.1294E-02
 27  1.7376E-01  1.1620E-01  1.8365E-01  3.6408E-02  4.7155E-02  6.3737E-02  0.0000E+00  7.0700E-02  3.2392E-02
 28  0.0000E+00  2.9362E-01  5.6460E-01  2.5871E-01  0.0000E+00  0.0000E+00  0.0000E+00  2.0802E-01  2.7717E-01
 29  0.0000E+00  1.1587E+00  6.2857E+00  8.2211E+00  8.3587E+00  8.1850E+00  8.6206E+00  7.9835E+00  7.4961E+00
 30  0.0000E+00  9.9405E-01  0.0000E+00  1.3507E+00  1.0384E+00  1.1457E+00  9.7634E-01  8.0557E-01  7.7671E-01
 31  1.6247E-02  2.8998E+00  2.3864E+00  7.3036E+00  8.7795E+00  7.8858E+00  6.3803E+00  8.0844E+00  8.5336E+00
 32  0.0000E+00  2.4307E+00  0.0000E+00  9.0084E-01  1.5796E-01  4.8341E+00  1.7622E-01  9.3087E-01  1.9721E+00
 33  0.0000E+00  5.6681E+00  0.0000E+00  2.1339E-01  0.0000E+00  1.3889E-01  5.8824E-01  3.2791E+00  7.6565E-01
 34  1.7306E+01  5.8602E+00  3.0688E+00  4.9608E+00  0.0000E+00  9.0844E+00  3.9340E+00  5.9432E+00  2.1523E+00
 35  0.0000E+00  8.9630E-03  1.2151E-03  2.3210E-03  1.2600E-04  4.2101E-03  0.0000E+00  2.6227E-03  0.0000E+00
 36  0.0000E+00  4.1579E-03  0.0000E+00  0.0000E+00  0.0000E+00  1.1303E-03  7.1465E-04  1.3034E-03  4.1411E-06
 37  0.0000E+00  4.6336E-03  6.6966E-04  0.0000E+00  0.0000E+00  0.0000E+00  0.0000E+00  0.0000E+00  0.0000E+00
 38  6.2598E-03  1.3951E-02  8.1251E-03  0.0000E+00  2.4339E-03  2.7849E-03  2.2039E-03  6.4749E-03  0.0000E+00
 39  0.0000E+00  1.7498E-02  0.0000E+00  6.0338E-03  1.3419E-02  0.0000E+00  1.2018E-02  1.0536E-02  1.4689E-02
 40  0.0000E+00  3.0115E-02  1.1650E-02  1.1987E-02  1.7056E-02  5.8913E-03  1.7167E-02  3.7270E-03  1.3053E-02
 41  9.7057E-03  3.4232E-02  3.0459E-02  2.0248E-02  2.7414E-02  6.4153E-02  2.4450E-02  3.9040E-02  4.0846E-02
 42  0.0000E+00  7.8126E-02  6.2922E-03  9.8924E-03  2.0082E-02  0.0000E+00  8.8036E-02  1.0441E-02  4.1179E-02
 43  0.0000E+00  1.1933E-01  9.2658E-02  7.9627E-02  7.8165E-02  1.9414E-01  1.3095E-01  1.5276E-01  1.8389E-01
 44  0.0000E+00  2.4009E-01  1.1325E+00  2.9522E-01  2.1323E-01  3.2053E-01  4.5479E-01  2.6285E-01  2.0839E-01
 45  0.0000E+00  4.9621E-01  8.4960E-01  1.3674E+00  1.5254E+00  1.7366E+00  1.6950E+00  1.4412E+00  1.8339E+00
 46  2.0822E+00  8.4949E-01  2.6843E+00  3.1451E+00  3.5373E+00  3.2993E+00  3.1308E+00  4.0447E+00  2.9633E+00
 47  0.0000E+00  1.9608E+00  1.9725E+00  3.5676E+00  3.8041E+00  2.5037E+00  2.7760E+00  3.7204E+00  3.3094E+00
 48  2.5957E-01  2.8789E+00  5.0552E+00  6.7323E+00  6.9577E+00  6.6346E+00  6.6046E+00  7.3524E+00  8.7906E+00
 49  1.9075E+01  7.2978E+00  2.5366E+00  3.2442E+00  1.1979E+01  0.0000E+00  4.0042E+00  3.6371E+00  3.1339E+00
 50  3.7812E+01  1.1954E+01  4.0632E+01  1.7836E+01  1.8740E+01  1.4161E+01  1.7610E+01  2.2689E+01  4.2386E+00
 51  0.0000E+00  7.0044E-03  1.0212E-03  5.9756E-04  3.5903E-03  0.0000E+00  0.0000E+00  5.0183E-05  0.0000E+00
 52  0.0000E+00  2.9147E-03  0.0000E+00  3.6591E-04  7.8584E-04  0.0000E+00  1.1152E-03  8.9927E-04  1.5111E-04
 53  2.6085E-04  5.5278E-03  3.7260E-03  1.5700E-02  1.9207E-02  1.5303E-02  1.3692E-02  1.4094E-02  1.2535E-02
 54  0.0000E+00  1.0420E-02  2.1780E-02  4.9734E-03  1.2279E-03  4.8707E-03  2.6484E-03  4.9536E-03  9.7898E-03
 55  0.0000E+00  1.5097E-02  0.0000E+00  9.8250E-04  3.6415E-03  0.0000E+00  2.7565E-03  0.0000E+00  0.0000E+00
 56  0.0000E+00  3.0269E-02  4.9203E-02  5.8484E-03  2.1473E-02  1.6942E-02  1.5433E-02  4.1707E-02  1.8492E-02
 57  0.0000E+00  2.7513E-02  4.8303E-03  4.3640E-02  3.0004E-02  3.3284E-02  3.1561E-02  2.0995E-02  3.8893E-02
 58  0.0000E+00  5.5231E-02  0.0000E+00  1.1737E-02  1.3164E-02  7.3245E-03  5.4075E-02  0.0000E+00  5.1528E-02
 59  6.3105E-02  1.3306E-01  2.0151E-01  3.0696E-01  3.6497E-01  2.4993E-01  3.3695E-01  4.3051E-01  2.9063E-01
 60  2.5187E-01  2.7799E-01  2.8346E-01  4.4466E-01  1.9640E-01  2.9681E-01  1.7240E+00  4.1919E-01  4.8685E-01
 61  0.0000E+00  9.7947E-01  5.4295E+00  6.3069E+00  7.6919E+00  8.7288E+00  6.9331E+00  6.8705E+00  8.1892E+00
 62  9.0588E-01  1.0504E+00  1.5308E+00  2.8102E+00  1.9823E+00  1.9158E+00  2.2468E+00  2.0400E+00  2.3557E+00
 63  2.1742E-03  3.3374E+00  1.2589E+01  8.4925E+00  9.2932E+00  1.1550E+01  8.0363E+00  8.4864E+00  2.0103E+01
 64  0.0000E+00  5.4827E+00  4.7726E-01  2.0988E+00  0.0000E+00  1.5525E+00  1.7484E+00  1.5050E+00  2.4278E+00
 65  0.0000E+00  1.3407E+01  1.5523E+00  2.0700E+00  3.3105E+00  2.9432E-01  1.2278E+00  7.6457E+00  0.0000E+00
 66  2.1360E+01  1.4193E+01  7.2835E+00  1.3321E+01  1.0049E+01  7.9692E+00  1.2067E+01  0.0000E+00  1.1331E+01

# AV, chi2 & Mass for <> & i_chain = 1 ...  7 solutions
AV      -0.4209      0.4689      0.4535      0.4371      0.4414      0.4752      0.4249      0.4800      0.4598
chi2 1.2324E-05  1.8782E-05  1.3270E-05  1.3317E-05  1.3478E-05  1.3448E-05  1.3347E-05  1.3455E-05  1.3372E-05
Mass 2.3937E-13  2.0470E-13  1.8978E-13  1.5909E-13  1.5833E-13  1.5445E-13  1.5226E-13  1.6405E-13  1.4569E-13
-313.56                                  [v0_min (km/s) before EX0s...]
 225.24                                  [vd_min (km/s) before EX0s...]


## Synthetic spectrum (Best Model) ##l_obs f_obs f_syn wei
 3478    [Nl_obs]
 3741.00    0.93678   0.45896    0.000
 3742.00    0.74868   0.43638    0.000
 3743.00    0.25258   0.41899    0.000
 3744.00   -0.15640   0.41068    0.000
 3745.00   -0.51460   0.41555    0.000
 3746.00   -0.29233   0.43470    0.000
 3747.00    0.22471   0.46446    0.032
 3748.00    0.46267   0.49884    0.034
 3749.00    0.57791   0.53207    0.038
 3750.00    0.63871   0.55854    0.036
 3751.00    0.67895   0.57339    0.033
 3752.00    0.61583   0.57512    0.031
 3753.00    0.51959   0.56761    0.030
 3754.00    0.69688   0.55786    0.030
 3755.00    0.94747   0.55087    0.031
 3756.00    1.24453   0.54747    0.031
 3757.00    1.55178   0.54630    0.031
 3758.00    1.39802   0.54578    0.033
 3759.00    1.16377   0.54498    0.036
 3760.00    0.68014   0.54364    0.033
 3761.00    0.16340   0.54103    0.030
 3762.00    0.17428   0.53747    0.029
 3763.00    0.23475   0.53582    0.029
 3764.00    0.14712   0.53827    0.029
 3765.00    0.05094   0.54456    0.029
 3766.00   -0.11381   0.55476    0.000
 3767.00   -0.27527   0.56954    0.000
 3768.00    0.15941   0.58755    0.030
 3769.00    0.58089   0.60605    0.031
 3770.00    0.68154   0.62377    0.030
 3771.00    0.79838   0.64113    0.030
 3772.00    1.12750   0.65860    0.031
 3773.00    1.41292   0.67589    0.032
 3774.00    1.31469   0.69274    0.031
 3775.00    1.20086   0.70867    0.029
 3776.00    0.98582   0.72160    0.030
 3777.00    0.80480   0.72909    0.030
 3778.00    0.79595   0.73009    0.029
 3779.00    0.72888   0.72416    0.029
 3780.00    0.42351   0.71032    0.028
 3781.00    0.18782   0.68862    0.028
 3782.00    0.18850   0.66252    0.028
 3783.00    0.23371   0.63697    0.028
 3784.00    0.40626   0.61448    0.028
 3785.00    0.47561   0.59575    0.028
 3786.00    0.29282   0.58066    0.028
 3787.00    0.12415   0.56719    0.028
 3788.00   -0.01478   0.55205    0.000
 3789.00   -0.05586   0.53404    0.000
 3790.00    0.08233   0.51495    0.027
 3791.00    0.14571   0.49761    0.027
 3792.00    0.08934   0.48450    0.027
 3793.00    0.06338   0.47789    0.026
 3794.00    0.08014   0.48099    0.026
 3795.00    0.25078   0.49608    0.027
 3796.00    0.61163   0.52128    0.027
 3797.00    0.65562   0.55161    0.027
 3798.00    0.35439   0.58241    0.027
 3799.00    0.12978   0.61020    0.027
 3800.00   -0.02122   0.63209    0.000
 3801.00   -0.07451   0.64724    0.000
 3802.00   -0.04500   0.65699    0.000
 3803.00   -0.02764   0.66414    0.000
 3804.00   -0.01932   0.67053    0.000
 3805.00    0.08901   0.67464    0.027
 3806.00    0.26291   0.67373    0.027
 3807.00    0.40485   0.66629    0.028
 3808.00    0.52844   0.65234    0.028
 3809.00    0.47685   0.63395    0.028
 3810.00    0.33770   0.61472    0.027
 3811.00    0.16165   0.59725    0.027
 3812.00   -0.03035   0.58321    0.000
 3813.00    0.10339   0.57261    0.027
 3814.00    0.35793   0.56257    0.027
 3815.00    0.37160   0.55111    0.027
 3816.00    0.30956   0.53971    0.027
 3817.00    0.02301   0.53062    0.029
 3818.00   -0.32244   0.52258    0.000
 3819.00   -0.28090   0.51219    0.000
 3820.00   -0.15644   0.49880    0.000
 3821.00    0.03606   0.48520    0.025
 3822.00    0.24012   0.47326    0.026
 3823.00    0.26097   0.46266    0.025
 3824.00    0.25832   0.45236    0.025
 3825.00    0.12697   0.44160    0.025
 3826.00   -0.01593   0.42974    0.000
 3827.00   -0.05317   0.41604    0.000
 3828.00   -0.08473   0.40143    0.000
 3829.00   -0.01362   0.38891    0.000
 3830.00    0.05828   0.38097    0.026
 3831.00    0.02383   0.37893    0.026
 3832.00   -0.00006   0.38284    0.000
 3833.00    0.21061   0.39172    0.026
 3834.00    0.40778   0.40550    0.027
 3835.00    0.43710   0.42503    0.027
 3836.00    0.46961   0.44997    0.028
 3837.00    0.52907   0.47927    0.031
 3838.00    0.59725   0.51068    0.034
 3839.00    0.72025   0.54012    0.032
 3840.00    0.82535   0.56481    0.030
 3841.00    0.84217   0.58390    0.029
 3842.00    0.80048   0.59779    0.028
 3843.00    0.52453   0.60747    0.028
 3844.00    0.30245   0.61305    0.027
 3845.00    0.25941   0.61486    0.027
 3846.00    0.29622   0.61532    0.028
 3847.00    0.55725   0.61633    0.000
 3848.00    0.73189   0.61627    0.000
 3849.00    0.69907   0.61285    0.000
 3850.00    0.60591   0.60631    0.000
 3851.00    0.38762   0.59804    0.000
 3852.00    0.29607   0.58965    0.000
 3853.00    0.43310   0.58310    0.000
 3854.00    0.56629   0.57919    0.000
 3855.00    0.69342   0.57887    0.000
 3856.00    0.84744   0.58423    0.000
 3857.00    1.03868   0.59541    0.000
 3858.00    1.10424   0.60922    0.000
 3859.00    1.01664   0.62135    0.000
 3860.00    0.92846   0.62908    0.000
 3861.00    0.83965   0.63188    0.000
 3862.00    0.81314   0.63053    0.000
 3863.00    0.84567   0.62599    0.000
 3864.00    0.84111   0.61909    0.000
 3865.00    0.80557   0.61087    0.000
 3866.00    0.83628   0.60270    0.000
 3867.00    0.91570   0.59624    0.000
 3868.00    0.94698   0.59301    0.000
 3869.00    0.94717   0.59373    0.000
 3870.00    0.81345   0.59688    0.000
 3871.00    0.60405   0.59867    0.000
 3872.00    0.56194   0.59593    0.000
 3873.00    0.60211   0.58846    0.000
 3874.00    0.66552   0.57870    0.000
 3875.00    0.73880   0.56982    0.000
 3876.00    0.71280   0.56204    0.000
 3877.00    0.65063   0.55296    0.000
 3878.00    0.75225   0.54220    0.000
 3879.00    0.90436   0.53170    0.000
 3880.00    0.63202   0.52145    0.000
 3881.00    0.25072   0.50988    0.025
 3882.00    0.19333   0.49918    0.025
 3883.00    0.20365   0.49471    0.025
 3884.00    0.25370   0.49913    0.026
 3885.00    0.31030   0.51208    0.027
 3886.00    0.29285   0.53274    0.027
 3887.00    0.26623   0.55828    0.027
 3888.00    0.30857   0.58408    0.026
 3889.00    0.35681   0.60641    0.026
 3890.00    0.23612   0.62398    0.026
 3891.00    0.10701   0.63745    0.026
 3892.00    0.12720   0.64866    0.026
 3893.00    0.14852   0.65849    0.027
 3894.00    0.08469   0.66591    0.026
 3895.00    0.03019   0.67076    0.025
 3896.00    0.16673   0.67491    0.025
 3897.00    0.31220   0.67939    0.025
 3898.00    0.56332   0.68285    0.025
 3899.00    0.78470   0.68507    0.025
 3900.00    0.76381   0.68857    0.025
 3901.00    0.72532   0.69494    0.024
 3902.00    0.57927   0.70512    0.023
 3903.00    0.48088   0.72035    0.022
 3904.00    0.61177   0.73915    0.021
 3905.00    0.69817   0.75748    0.021
 3906.00    0.61029   0.77226    0.021
 3907.00    0.51269   0.78250    0.021
 3908.00    0.38341   0.78767    0.022
 3909.00    0.28173   0.78693    0.023
 3910.00    0.25616   0.78048    0.023
 3911.00    0.33357   0.76961    0.023
 3912.00    0.65415   0.75524    0.023
 3913.00    0.88002   0.73854    0.024
 3914.00    0.91263   0.72117    0.024
 3915.00    0.75522   0.70387    0.025
 3916.00    0.26034   0.68725    0.025
 3917.00    0.05816   0.67245    0.025
 3918.00    0.31079   0.65949    0.025
 3919.00    0.53036   0.64635    0.025
 3920.00    0.70484   0.63019    0.025
 3921.00    0.78895   0.60841    0.026
 3922.00    0.76450   0.57972    0.026
 3923.00    0.59935   0.54502    0.026
 3924.00    0.28519   0.50652    0.026
 3925.00    0.31930   0.46719    0.026
 3926.00    0.67876   0.43060    0.027
 3927.00    0.83803   0.40001    0.027
 3928.00    0.83245   0.37835    0.027
 3929.00    0.72987   0.36811    0.027
 3930.00    0.55698   0.37100    0.027
 3931.00    0.34177   0.38705    0.027
 3932.00    0.09964   0.41393    0.026
 3933.00    0.16214   0.44745    0.026
 3934.00    0.39417   0.48321    0.026
 3935.00    0.51038   0.51802    0.027
 3936.00    0.57051   0.54976    0.027
 3937.00    0.71137   0.57698    0.027
 3938.00    0.88597   0.59983    0.027
 3939.00    0.74795   0.61986    0.027
 3940.00    0.49809   0.63901    0.026
 3941.00    0.44346   0.65941    0.026
 3942.00    0.44784   0.68109    0.026
 3943.00    0.72870   0.70080    0.026
 3944.00    1.07900   0.71670    0.027
 3945.00    1.13688   0.73043    0.027
 3946.00    1.13513   0.74281    0.027
 3947.00    0.83111   0.75189    0.027
 3948.00    0.47869   0.75586    0.026
 3949.00    0.63346   0.75564    0.026
 3950.00    0.84879   0.75322    0.026
 3951.00    0.66585   0.74696    0.026
 3952.00    0.45047   0.73339    0.025
 3953.00    0.41199   0.71326    0.026
 3954.00    0.38164   0.68924    0.026
 3955.00    0.60620   0.66074    0.026
 3956.00    0.83092   0.62545    0.026
 3957.00    0.89500   0.58285    0.026
 3958.00    0.95894   0.53614    0.027
 3959.00    1.02042   0.48998    0.027
 3960.00    1.05118   0.44624    0.000
 3961.00    0.73569   0.40513    0.000
 3962.00    0.45845   0.36877    0.000
 3963.00    0.48190   0.34091    0.000
 3964.00    0.50752   0.32529    0.000
 3965.00    0.54605   0.32458    0.000
 3966.00    0.53539   0.33956    0.000
 3967.00    0.29375   0.36878    0.000
 3968.00    0.14959   0.40916    0.000
 3969.00    0.37899   0.45697    0.000
 3970.00    0.59522   0.50879    0.000
 3971.00    0.76932   0.56177    0.000
 3972.00    0.91317   0.61275    0.000
 3973.00    0.97510   0.65885    0.000
 3974.00    1.01538   0.69925    0.000
 3975.00    1.00541   0.73383    0.000
 3976.00    1.01823   0.76201    0.000
 3977.00    1.07686   0.78354    0.000
 3978.00    1.07659   0.79953    0.000
 3979.00    0.97330   0.81309    0.000
 3980.00    0.80107   0.82642    0.000
 3981.00    0.52332   0.83983    0.026
 3982.00    0.61074   0.85311    0.027
 3983.00    1.18925   0.86553    0.028
 3984.00    1.33565   0.87714    0.028
 3985.00    0.97032   0.88723    0.027
 3986.00    0.76997   0.89382    0.027
 3987.00    0.74188   0.89790    0.027
 3988.00    0.76616   0.90098    0.027
 3989.00    0.83866   0.90240    0.027
 3990.00    0.75200   0.90235    0.027
 3991.00    0.53612   0.90179    0.026
 3992.00    0.69692   0.90230    0.026
 3993.00    1.12684   0.90544    0.026
 3994.00    1.35282   0.91176    0.026
 3995.00    1.45093   0.92044    0.026
 3996.00    1.24021   0.92861    0.026
 3997.00    0.86023   0.93265    0.026
 3998.00    0.63721   0.93208    0.026
 3999.00    0.48895   0.92925    0.025
 4000.00    0.34757   0.92484    0.025
 4001.00    0.20900   0.91895    0.025
 4002.00    0.47083   0.91569    0.025
 4003.00    0.87328   0.92063    0.025
 4004.00    1.02964   0.93262    0.025
 4005.00    1.11310   0.94603    0.026
 4006.00    0.96611   0.95826    0.026
 4007.00    0.76252   0.96932    0.026
 4008.00    0.76451   0.97865    0.025
 4009.00    0.80738   0.98609    0.025
 4010.00    0.89526   0.99251    0.025
 4011.00    0.99013   0.99778    0.026
 4012.00    0.97136   1.00188    0.025
 4013.00    0.93952   1.00396    0.025
 4014.00    0.83542   1.00389    0.025
 4015.00    0.72574   1.00390    0.025
 4016.00    0.82070   1.00385    0.025
 4017.00    0.92428   1.00153    0.024
 4018.00    0.86929   0.99805    0.025
 4019.00    0.80813   0.99570    0.025
 4020.00    0.53998   0.99370    0.026
 4021.00    0.30713   0.98953    0.027
 4022.00    0.69655   0.98322    0.027
 4023.00    1.05853   0.97496    0.027
 4024.00    1.12525   0.96269    0.028
 4025.00    1.17823   0.94597    0.028
 4026.00    1.12686   0.92639    0.027
 4027.00    1.03050   0.90819    0.026
 4028.00    0.67472   0.89906    0.026
 4029.00    0.41752   0.90206    0.025
 4030.00    0.61207   0.91417    0.025
 4031.00    0.83383   0.93281    0.025
 4032.00    1.15766   0.95490    0.025
 4033.00    1.33323   0.97646    0.025
 4034.00    1.04399   0.99228    0.025
 4035.00    0.85827   0.99680    0.025
 4036.00    0.94790   0.98827    0.025
 4037.00    1.00897   0.96991    0.025
 4038.00    1.00481   0.94874    0.025
 4039.00    1.02139   0.92975    0.025
 4040.00    1.07898   0.91270    0.025
 4041.00    1.11230   0.89904    0.026
 4042.00    1.10382   0.89497    0.026
 4043.00    1.07415   0.90497    0.026
 4044.00    1.01255   0.92544    0.026
 4045.00    0.95856   0.94579    0.026
 4046.00    0.91465   0.95968    0.026
 4047.00    0.93348   0.96734    0.026
 4048.00    1.02555   0.96843    0.026
 4049.00    1.02719   0.96238    0.026
 4050.00    0.93570   0.95220    0.026
 4051.00    1.03060   0.94164    0.026
 4052.00    1.29474   0.93303    0.026
 4053.00    1.25190   0.92604    0.026
 4054.00    0.96337   0.91742    0.025
 4055.00    1.00000   0.90776    0.025
 4056.00    1.26561   0.90096    0.026
 4057.00    1.31926   0.89639    0.026
 4058.00    1.24200   0.89007    0.025
 4059.00    1.04554   0.88198    0.025
 4060.00    0.78476   0.87804    0.025
 4061.00    0.72385   0.88380    0.025
 4062.00    0.75660   0.89544    0.025
 4063.00    0.78016   0.90402    0.025
 4064.00    0.80000   0.90945    0.024
 4065.00    0.72001   0.91614    0.024
 4066.00    0.60560   0.92122    0.024
 4067.00    0.61195   0.91859    0.024
 4068.00    0.65336   0.90889    0.024
 4069.00    0.66868   0.90009    0.024
 4070.00    0.67773   0.89675    0.024
 4071.00    0.92430   0.89530    0.025
 4072.00    1.21689   0.89390    0.025
 4073.00    1.46883   0.89541    0.025
 4074.00    1.71466   0.90266    0.025
 4075.00    1.49253   0.91656    0.025
 4076.00    1.21865   0.93436    0.025
 4077.00    1.23446   0.95177    0.025
 4078.00    1.27148   0.96629    0.025
 4079.00    0.98029   0.97705    0.024
 4080.00    0.67653   0.98550    0.024
 4081.00    0.68015   0.99381    0.024
 4082.00    0.69283   1.00227    0.024
 4083.00    0.98268   1.01013    0.024
 4084.00    1.25890   1.01599    0.024
 4085.00    1.31059   1.01785    0.024
 4086.00    1.33375   1.01320    0.025
 4087.00    1.06333   1.00038    0.024
 4088.00    0.81043   0.98097    0.024
 4089.00    0.68609   0.95755    0.024
 4090.00    0.58050   0.93193    0.024
 4091.00    0.58011   0.90344    0.024
 4092.00    0.60865   0.87021    0.000
 4093.00    0.76662   0.83564    0.000
 4094.00    0.80883   0.80628    0.000
 4095.00    0.42595   0.78482    0.000
 4096.00    0.19394   0.77049    0.000
 4097.00    0.42595   0.76350    0.000
 4098.00    0.61907   0.76634    0.000
 4099.00    0.71054   0.78103    0.000
 4100.00    0.74208   0.80456    0.000
 4101.00    0.63900   0.83019    0.000
 4102.00    0.65933   0.85408    0.000
 4103.00    0.91978   0.87502    0.000
 4104.00    1.03698   0.89190    0.000
 4105.00    0.91110   0.90532    0.000
 4106.00    0.89914   0.91649    0.000
 4107.00    1.05653   0.92671    0.000
 4108.00    1.09043   0.93740    0.000
 4109.00    0.96300   0.94800    0.000
 4110.00    0.83729   0.95643    0.000
 4111.00    0.71357   0.96147    0.000
 4112.00    0.68674   0.96391    0.000
 4113.00    0.75826   0.96423    0.024
 4114.00    0.79573   0.96170    0.024
 4115.00    0.80270   0.95710    0.024
 4116.00    0.70549   0.95451    0.024
 4117.00    0.52607   0.95624    0.024
 4118.00    0.58199   0.95884    0.024
 4119.00    0.80123   0.95918    0.024
 4120.00    0.93127   0.95795    0.024
 4121.00    1.00705   0.95627    0.024
 4122.00    1.03339   0.95246    0.024
 4123.00    1.03348   0.94382    0.024
 4124.00    0.87615   0.93118    0.024
 4125.00    0.64623   0.91861    0.024
 4126.00    0.74808   0.90946    0.024
 4127.00    0.98166   0.90500    0.024
 4128.00    1.10369   0.90523    0.024
 4129.00    1.18796   0.90984    0.024
 4130.00    1.02466   0.91992    0.024
 4131.00    0.79093   0.93450    0.024
 4132.00    0.71204   0.95008    0.023
 4133.00    0.66952   0.96180    0.023
 4134.00    0.90569   0.96459    0.023
 4135.00    1.19447   0.95834    0.023
 4136.00    1.01023   0.94709    0.023
 4137.00    0.75692   0.93460    0.023
 4138.00    0.81582   0.92229    0.023
 4139.00    0.90790   0.91049    0.023
 4140.00    0.91798   0.90228    0.023
 4141.00    0.92239   0.90168    0.024
 4142.00    0.87278   0.90769    0.023
 4143.00    0.82130   0.91477    0.023
 4144.00    1.05754   0.91901    0.023
 4145.00    1.28176   0.91999    0.023
 4146.00    1.09018   0.91825    0.023
 4147.00    0.90373   0.91538    0.022
 4148.00    0.79662   0.91314    0.022
 4149.00    0.71816   0.91198    0.023
 4150.00    0.92203   0.91306    0.023
 4151.00    1.10100   0.91762    0.023
 4152.00    1.10313   0.92572    0.023
 4153.00    1.08230   0.93619    0.023
 4154.00    0.93613   0.94862    0.023
 4155.00    0.83064   0.96278    0.023
 4156.00    0.90300   0.97540    0.022
 4157.00    0.95655   0.98348    0.022
 4158.00    0.94243   0.98722    0.022
 4159.00    0.90993   0.98762    0.022
 4160.00    0.82200   0.98433    0.022
 4161.00    0.82974   0.97757    0.022
 4162.00    1.08313   0.96896    0.022
 4163.00    1.31086   0.95836    0.023
 4164.00    1.48189   0.94448    0.023
 4165.00    1.50627   0.92930    0.023
 4166.00    1.24972   0.91605    0.022
 4167.00    1.07055   0.90457    0.023
 4168.00    1.02071   0.89323    0.023
 4169.00    0.96149   0.88269    0.023
 4170.00    0.88852   0.87653    0.022
 4171.00    0.88999   0.87730    0.022
 4172.00    0.98736   0.88313    0.022
 4173.00    0.91425   0.89000    0.022
 4174.00    0.64770   0.89574    0.022
 4175.00    0.63342   0.90184    0.022
 4176.00    0.87163   0.91025    0.022
 4177.00    1.13460   0.91955    0.023
 4178.00    1.41945   0.92637    0.023
 4179.00    1.37976   0.92913    0.023
 4180.00    1.08764   0.93053    0.022
 4181.00    0.98813   0.93436    0.022
 4182.00    1.02034   0.93958    0.022
 4183.00    0.89804   0.94187    0.022
 4184.00    0.68314   0.94166    0.022
 4185.00    0.74955   0.94509    0.022
 4186.00    0.96310   0.95247    0.022
 4187.00    1.05673   0.95614    0.022
 4188.00    1.09597   0.95253    0.022
 4189.00    0.95068   0.94543    0.022
 4190.00    0.73336   0.93700    0.022
 4191.00    0.76871   0.92460    0.022
 4192.00    0.88796   0.90912    0.022
 4193.00    0.86912   0.89517    0.022
 4194.00    0.81180   0.88491    0.022
 4195.00    0.78512   0.87939    0.022
 4196.00    0.76549   0.88069    0.022
 4197.00    0.81876   0.88832    0.022
 4198.00    0.88544   0.89925    0.022
 4199.00    1.08122   0.91294    0.022
 4200.00    1.29525   0.93018    0.022
 4201.00    1.29694   0.94845    0.022
 4202.00    1.27699   0.96346    0.021
 4203.00    1.03658   0.97457    0.021
 4204.00    0.78182   0.98338    0.021
 4205.00    0.93358   0.98919    0.021
 4206.00    1.09753   0.98955    0.022
 4207.00    1.07224   0.98453    0.021
 4208.00    1.04442   0.97782    0.021
 4209.00    0.94261   0.97458    0.022
 4210.00    0.85636   0.97607    0.022
 4211.00    0.99655   0.97901    0.022
 4212.00    1.11592   0.98236    0.022
 4213.00    1.03838   0.98856    0.022
 4214.00    0.96114   0.99634    0.022
 4215.00    0.88594   0.99763    0.021
 4216.00    0.84136   0.98728    0.021
 4217.00    0.95958   0.96674    0.021
 4218.00    1.08302   0.93799    0.021
 4219.00    1.22874   0.90326    0.021
 4220.00    1.31008   0.87067    0.021
 4221.00    1.16460   0.85011    0.021
 4222.00    1.00942   0.84249    0.021
 4223.00    0.82552   0.84529    0.021
 4224.00    0.72208   0.85950    0.021
 4225.00    0.82171   0.88279    0.021
 4226.00    0.90009   0.90769    0.021
 4227.00    0.93230   0.92820    0.021
 4228.00    0.97161   0.94101    0.021
 4229.00    1.02433   0.94588    0.021
 4230.00    1.07387   0.94703    0.020
 4231.00    1.11817   0.94846    0.020
 4232.00    1.09744   0.95117    0.020
 4233.00    0.98285   0.95641    0.020
 4234.00    1.01725   0.96651    0.020
 4235.00    1.24079   0.97983    0.020
 4236.00    1.38365   0.99370    0.020
 4237.00    1.43625   1.00877    0.020
 4238.00    1.39932   1.02217    0.020
 4239.00    1.27404   1.02825    0.020
 4240.00    1.22165   1.02616    0.020
 4241.00    1.23269   1.01987    0.020
 4242.00    1.16731   1.00924    0.020
 4243.00    1.04336   0.99152    0.020
 4244.00    1.01685   0.97266    0.020
 4245.00    1.05602   0.95972    0.021
 4246.00    1.05405   0.95012    0.021
 4247.00    1.02779   0.94030    0.021
 4248.00    1.14244   0.93508    0.022
 4249.00    1.32963   0.93895    0.022
 4250.00    1.40721   0.94583    0.022
 4251.00    1.43588   0.94761    0.022
 4252.00    1.21413   0.94647    0.022
 4253.00    0.89636   0.94816    0.022
 4254.00    0.87468   0.95387    0.021
 4255.00    0.94949   0.96207    0.021
 4256.00    0.75862   0.97144    0.021
 4257.00    0.49523   0.98275    0.021
 4258.00    0.61161   0.99754    0.021
 4259.00    0.81311   1.01378    0.021
 4260.00    0.91483   1.02425    0.021
 4261.00    0.99871   1.02423    0.022
 4262.00    1.03343   1.01448    0.022
 4263.00    1.06143   0.99519    0.022
 4264.00    0.91144   0.96628    0.021
 4265.00    0.74405   0.93481    0.021
 4266.00    0.97344   0.90955    0.021
 4267.00    1.22709   0.89054    0.022
 4268.00    1.10219   0.87791    0.021
 4269.00    0.96828   0.87791    0.021
 4270.00    1.07024   0.89250    0.021
 4271.00    1.15462   0.91404    0.021
 4272.00    0.77432   0.93413    0.021
 4273.00    0.43899   0.95172    0.021
 4274.00    0.72183   0.96801    0.021
 4275.00    0.99023   0.97963    0.021
 4276.00    1.12752   0.98367    0.021
 4277.00    1.27494   0.98095    0.021
 4278.00    1.48981   0.97337    0.022
 4279.00    1.63947   0.96399    0.022
 4280.00    1.45158   0.95434    0.021
 4281.00    1.28583   0.94286    0.021
 4282.00    1.21255   0.92716   -2.000
 4283.00    1.09970   0.91036   -2.000
 4284.00    0.85027   0.89964   -2.000
 4285.00    0.66934   0.89582   -2.000
 4286.00    0.68750   0.89350   -2.000
 4287.00    0.82374   0.88998   -2.000
 4288.00    1.25289   0.88895   -2.000
 4289.00    1.53717   0.89042   -2.000
 4290.00    1.51178   0.88743   -2.000
 4291.00    1.49294   0.87480   -2.000
 4292.00    1.48625   0.85407   -2.000
 4293.00    1.38483   0.83173   -2.000
 4294.00    1.12975   0.81101   -2.000
 4295.00    0.95804   0.79056   -2.000
 4296.00    0.90491   0.77078   -2.000
 4297.00    0.90267   0.75574   -2.000
 4298.00    0.96411   0.74745    0.022
 4299.00    1.07280   0.74245    0.022
 4300.00    1.23360   0.73712    0.021
 4301.00    1.24133   0.73269    0.021
 4302.00    1.10013   0.73262    0.021
 4303.00    0.88074   0.73807    0.021
 4304.00    0.59426   0.74971    0.021
 4305.00    0.50658   0.76912    0.020
 4306.00    0.56912   0.79761    0.020
 4307.00    0.62828   0.83457    0.020
 4308.00    0.68518   0.87829    0.020
 4309.00    0.85072   0.92720    0.021
 4310.00    1.07942   0.97606    0.020
 4311.00    1.16837   1.01821    0.021
 4312.00    1.18649   1.05087    0.021
 4313.00    1.20471   1.07362    0.020
 4314.00    1.22297   1.08311    0.020
 4315.00    1.17673   1.07675    0.020
 4316.00    1.10620   1.05746    0.020
 4317.00    1.08949   1.02963    0.020
 4318.00    1.08998   0.99785    0.020
 4319.00    1.05724   0.96941    0.020
 4320.00    1.01561   0.95252    0.020
 4321.00    1.04858   0.94904    0.020
 4322.00    1.09787   0.95571    0.020
 4323.00    1.07799   0.97002    0.020
 4324.00    1.04608   0.99231    0.020
 4325.00    1.10561   1.01921    0.020
 4326.00    1.17723   1.04056    0.020
 4327.00    0.92868   1.05001    0.020
 4328.00    0.65021   1.04973    0.020
 4329.00    0.67997   1.04095    0.020
 4330.00    0.72736   1.01977    0.000
 4331.00    0.73200   0.98765    0.000
 4332.00    0.73723   0.95269    0.000
 4333.00    0.92451   0.91852    0.000
 4334.00    1.10627   0.88770    0.000
 4335.00    1.15555   0.86858    0.000
 4336.00    1.17780   0.86559    0.000
 4337.00    0.84819   0.87417    0.000
 4338.00    0.56689   0.89311    0.000
 4339.00    0.70765   0.92297    0.000
 4340.00    0.84425   0.95468    0.000
 4341.00    0.95395   0.98034    0.000
 4342.00    1.03840   1.00260    0.000
 4343.00    0.99544   1.02064    0.000
 4344.00    0.94717   1.02600    0.000
 4345.00    0.87718   1.02104    0.000
 4346.00    0.82963   1.01839    0.000
 4347.00    0.85800   1.01998    0.000
 4348.00    0.91173   1.01869    0.000
 4349.00    1.03784   1.01794    0.000
 4350.00    1.07388   1.02756    0.000
 4351.00    0.89034   1.04421    0.021
 4352.00    0.80164   1.05753    0.021
 4353.00    0.91242   1.06890    0.021
 4354.00    1.06344   1.08521    0.021
 4355.00    1.28800   1.10261    0.021
 4356.00    1.39194   1.11392    0.021
 4357.00    1.30316   1.12246    0.021
 4358.00    1.25526   1.13395    0.021
 4359.00    1.26466   1.14310    0.021
 4360.00    1.23878   1.14230    0.021
 4361.00    1.16937   1.13493    0.021
 4362.00    1.06400   1.12790    0.021
 4363.00    0.91952   1.11914    0.021
 4364.00    0.84036   1.10453    0.021
 4365.00    0.82386   1.08862    0.021
 4366.00    0.83242   1.07642    0.021
 4367.00    0.86216   1.06526    0.021
 4368.00    0.93519   1.05278    0.021
 4369.00    1.04046   1.04359    0.021
 4370.00    1.04316   1.04072    0.021
 4371.00    0.97875   1.03993    0.021
 4372.00    0.91555   1.03584    0.021
 4373.00    0.85307   1.02824    0.021
 4374.00    0.80593   1.01897    0.021
 4375.00    0.76646   1.00559    0.021
 4376.00    0.89821   0.98243    0.021
 4377.00    1.10383   0.95213    0.021
 4378.00    0.99363   0.92766    0.021
 4379.00    0.76657   0.91585    0.021
 4380.00    0.92057   0.91131    0.021
 4381.00    1.19408   0.91133    0.021
 4382.00    1.20658   0.92203    0.021
 4383.00    1.15081   0.94289    0.021
 4384.00    0.92919   0.96409    0.021
 4385.00    0.67215   0.98177    0.021
 4386.00    0.91705   0.99951    0.021
 4387.00    1.24684   1.01637    0.021
 4388.00    1.18437   1.02883    0.021
 4389.00    1.07178   1.04008    0.021
 4390.00    1.07925   1.05369    0.021
 4391.00    1.09744   1.06543    0.021
 4392.00    1.02356   1.07050    0.021
 4393.00    0.94478   1.06963    0.021
 4394.00    0.91817   1.06468    0.021
 4395.00    0.89377   1.05767    0.021
 4396.00    0.96591   1.04820    0.021
 4397.00    1.03051   1.03108    0.021
 4398.00    0.92933   1.00855    0.021
 4399.00    0.84989   0.99528    0.020
 4400.00    1.03896   0.99455    0.021
 4401.00    1.20015   0.99388    0.021
 4402.00    1.12678   0.99410    0.021
 4403.00    1.08858   1.00818    0.021
 4404.00    1.27078   1.03178    0.021
 4405.00    1.38068   1.05040    0.021
 4406.00    1.13499   1.06450    0.021
 4407.00    0.97675   1.07779    0.021
 4408.00    1.16761   1.08388    0.021
 4409.00    1.29815   1.08298    0.021
 4410.00    1.22867   1.08419    0.021
 4411.00    1.14208   1.08688    0.021
 4412.00    1.00756   1.08750    0.021
 4413.00    0.93402   1.09157    0.021
 4414.00    1.00660   1.10080    0.021
 4415.00    1.04080   1.10716    0.021
 4416.00    0.99555   1.10831    0.021
 4417.00    1.06673   1.10985    0.021
 4418.00    1.34749   1.11206    0.021
 4419.00    1.38822   1.10979    0.021
 4420.00    1.05110   1.10418    0.021
 4421.00    0.89864   1.10213    0.021
 4422.00    1.00133   1.10416    0.021
 4423.00    1.09010   1.10255    0.021
 4424.00    1.16194   1.09530    0.021
 4425.00    1.11404   1.09062    0.021
 4426.00    0.93775   1.08993    0.021
 4427.00    0.79246   1.08553    0.021
 4428.00    0.67648   1.07745    0.021
 4429.00    0.79254   1.07481    0.021
 4430.00    1.10209   1.07988    0.021
 4431.00    1.19416   1.08699    0.021
 4432.00    1.12655   1.09349    0.022
 4433.00    1.10259   1.10124    0.022
 4434.00    1.10675   1.10953    0.022
 4435.00    1.11497   1.11524    0.022
 4436.00    1.12547   1.11712    0.021
 4437.00    1.14440   1.11756    0.021
 4438.00    1.16747   1.12083    0.022
 4439.00    1.26037   1.12787    0.022
 4440.00    1.38291   1.13443    0.021
 4441.00    1.31636   1.14003    0.021
 4442.00    1.18108   1.14923    0.022
 4443.00    1.00980   1.15712    0.022
 4444.00    0.82744   1.15479    0.021
 4445.00    0.98572   1.14626    0.021
 4446.00    1.23120   1.13760    0.021
 4447.00    1.30171   1.12363    0.021
 4448.00    1.33576   1.10119    0.021
 4449.00    1.43000   1.07844    0.021
 4450.00    1.53414   1.06184    0.021
 4451.00    1.55149   1.04686    0.021
 4452.00    1.55815   1.03091    0.021
 4453.00    1.53852   1.02103    0.021
 4454.00    1.51665   1.02051    0.021
 4455.00    1.33447   1.02184    0.021
 4456.00    1.14438   1.02461    0.021
 4457.00    1.15815   1.03592    0.021
 4458.00    1.17387   1.05054    0.021
 4459.00    1.10853   1.06048    0.021
 4460.00    1.04624   1.07071    0.021
 4461.00    1.04584   1.08497    0.000
 4462.00    1.05326   1.09640    0.000
 4463.00    1.15254   1.10319    0.000
 4464.00    1.25755   1.11275    0.000
 4465.00    1.40896   1.12605    0.000
 4466.00    1.50100   1.13981    0.000
 4467.00    1.23174   1.15497    0.000
 4468.00    0.99329   1.17165    0.000
 4469.00    0.90265   1.18512    0.000
 4470.00    0.86030   1.19467    0.000
 4471.00    1.00654   1.20193    0.000
 4472.00    1.15240   1.20316    0.000
 4473.00    1.29704   1.19608    0.000
 4474.00    1.42466   1.18572    0.000
 4475.00    1.50547   1.17700    0.000
 4476.00    1.48588   1.17057    0.000
 4477.00    1.22968   1.16774    0.000
 4478.00    1.07928   1.16881    0.000
 4479.00    1.14441   1.17247    0.000
 4480.00    1.20226   1.17800    0.000
 4481.00    1.24720   1.18324    0.000
 4482.00    1.27241   1.18395    0.020
 4483.00    1.26700   1.17938    0.020
 4484.00    1.17820   1.17281    0.020
 4485.00    0.97580   1.16637    0.020
 4486.00    0.88422   1.16015    0.020
 4487.00    0.92553   1.15375    0.020
 4488.00    1.13022   1.14824    0.020
 4489.00    1.50766   1.14767    0.021
 4490.00    1.56370   1.15221    0.021
 4491.00    1.32004   1.15829    0.020
 4492.00    1.17759   1.16618    0.020
 4493.00    1.11834   1.17950    0.020
 4494.00    1.02231   1.19599    0.020
 4495.00    0.89965   1.21092    0.020
 4496.00    1.00004   1.22697    0.020
 4497.00    1.24213   1.24581    0.020
 4498.00    1.29480   1.26136    0.020
 4499.00    1.24227   1.27080    0.020
 4500.00    1.13052   1.27887    0.020
 4501.00    0.99016   1.28590    0.020
 4502.00    1.16126   1.28720    0.021
 4503.00    1.46229   1.28387    0.021
 4504.00    1.30962   1.27902    0.020
 4505.00    0.99502   1.27198    0.020
 4506.00    1.04465   1.26243    0.020
 4507.00    1.20409   1.25244    0.020
 4508.00    1.28628   1.24260    0.020
 4509.00    1.34911   1.23341    0.020
 4510.00    1.25310   1.22664    0.020
 4511.00    1.12479   1.22173    0.020
 4512.00    1.13692   1.21737    0.020
 4513.00    1.17145   1.21532    0.020
 4514.00    1.20441   1.21544    0.020
 4515.00    1.23718   1.21323    0.020
 4516.00    1.11376   1.20504    0.020
 4517.00    0.97771   1.19313    0.020
 4518.00    1.04201   1.17983    0.020
 4519.00    1.11543   1.16252    0.020
 4520.00    1.24443   1.13975    0.020
 4521.00    1.36692   1.11698    0.020
 4522.00    1.12237   1.09884    0.020
 4523.00    0.89208   1.08427    0.019
 4524.00    0.92956   1.07344    0.019
 4525.00    0.96693   1.06773    0.020
 4526.00    1.00313   1.06850    0.020
 4527.00    1.02462   1.07470    0.020
 4528.00    0.93098   1.08366    0.020
 4529.00    0.87105   1.09421    0.019
 4530.00    1.01054   1.10922    0.019
 4531.00    1.13734   1.12740    0.019
 4532.00    1.20476   1.14321    0.020
 4533.00    1.25811   1.15585    0.020
 4534.00    1.25766   1.16755    0.020
 4535.00    1.20366   1.17686    0.020
 4536.00    0.97897   1.18120    0.020
 4537.00    0.85044   1.18256    0.020
 4538.00    0.98180   1.18066    0.020
 4539.00    1.10556   1.17515    0.020
 4540.00    1.21171   1.17046    0.020
 4541.00    1.28378   1.16757    0.020
 4542.00    1.28754   1.16218    0.020
 4543.00    1.32678   1.15399    0.020
 4544.00    1.42797   1.14937    0.020
 4545.00    1.40801   1.14906    0.020
 4546.00    1.20294   1.14776    0.019
 4547.00    1.07341   1.14622    0.019
 4548.00    1.04527   1.15018    0.020
 4549.00    1.09738   1.15838    0.020
 4550.00    1.24436   1.16746    0.000
 4551.00    1.26047   1.17945    0.000
 4552.00    1.14017   1.19330    0.000
 4553.00    1.07082   1.20563    0.000
 4554.00    1.04831   1.21538    0.000
 4555.00    1.01539   1.22240    0.000
 4556.00    0.97403   1.22560    0.000
 4557.00    0.96664   1.22464    0.000
 4558.00    0.98347   1.22089    0.000
 4559.00    1.13921   1.21738    0.000
 4560.00    1.38188   1.21667    0.000
 4561.00    1.35874   1.21766    0.000
 4562.00    1.19022   1.21812    0.000
 4563.00    1.19737   1.22006    0.000
 4564.00    1.28803   1.22531    0.000
 4565.00    1.29159   1.22824    0.000
 4566.00    1.25944   1.22741    0.000
 4567.00    1.26544   1.22962    0.000
 4568.00    1.28482   1.23241    0.000
 4569.00    1.15093   1.22882    0.000
 4570.00    0.97175   1.22389    0.000
 4571.00    1.12789   1.22097    0.000
 4572.00    1.36617   1.21389    0.000
 4573.00    1.41031   1.20221    0.000
 4574.00    1.41598   1.19034    0.000
 4575.00    1.32651   1.18026    0.000
 4576.00    1.22232   1.17276    0.000
 4577.00    1.16789   1.16717    0.000
 4578.00    1.11915   1.16460    0.000
 4579.00    0.98350   1.16711    0.000
 4580.00    0.84117   1.17310    0.000
 4581.00    0.88888   1.17962    0.000
 4582.00    0.94449   1.18646    0.000
 4583.00    1.04477   1.19287    0.000
 4584.00    1.14541   1.19674    0.000
 4585.00    1.24501   1.19733    0.000
 4586.00    1.32880   1.19466    0.000
 4587.00    1.13636   1.19045    0.000
 4588.00    0.96937   1.18519    0.000
 4589.00    1.07467   1.17874    0.000
 4590.00    1.19019   1.17388    0.000
 4591.00    1.38284   1.17117    0.000
 4592.00    1.53988   1.16967    0.000
 4593.00    1.49230   1.17028    0.000
 4594.00    1.45247   1.17193    0.000
 4595.00    1.44813   1.17340    0.000
 4596.00    1.48506   1.17679    0.000
 4597.00    1.67641   1.18281    0.000
 4598.00    1.72315   1.18882    0.000
 4599.00    1.31766   1.19690    0.000
 4600.00    1.05795   1.20825    0.000
 4601.00    1.18524   1.22009    0.000
 4602.00    1.24601   1.23222    0.000
 4603.00    1.15520   1.24417    0.000
 4604.00    1.16720   1.25341    0.000
 4605.00    1.38206   1.25968    0.000
 4606.00    1.48007   1.26449    0.000
 4607.00    1.37718   1.26602    0.000
 4608.00    1.30654   1.26542    0.000
 4609.00    1.28444   1.26559    0.000
 4610.00    1.28196   1.26479    0.000
 4611.00    1.30543   1.26386    0.000
 4612.00    1.28964   1.26618    0.000
 4613.00    1.22809   1.26718    0.000
 4614.00    1.10241   1.26577    0.000
 4615.00    0.91082   1.26818    0.000
 4616.00    0.92476   1.27007    0.000
 4617.00    1.12501   1.26755    0.000
 4618.00    1.20289   1.26745    0.000
 4619.00    1.18301   1.26889    0.000
 4620.00    1.13809   1.26525    0.000
 4621.00    1.07558   1.26179    0.000
 4622.00    1.13463   1.26231    0.000
 4623.00    1.26862   1.25969    0.000
 4624.00    1.37706   1.25357    0.000
 4625.00    1.47173   1.25072    0.000
 4626.00    1.35115   1.24847    0.000
 4627.00    1.12988   1.24076    0.000
 4628.00    1.08076   1.23131    0.000
 4629.00    1.10104   1.22461    0.000
 4630.00    1.09048   1.21677    0.000
 4631.00    1.06932   1.20601    0.000
 4632.00    1.09315   1.19775    0.000
 4633.00    1.13001   1.19276    0.000
 4634.00    1.07816   1.18693    0.000
 4635.00    1.00507   1.18098    0.000
 4636.00    1.06084   1.17768    0.000
 4637.00    1.14149   1.17268    0.000
 4638.00    0.99212   1.16445    0.000
 4639.00    0.80822   1.15805    0.000
 4640.00    0.90237   1.15233    0.000
 4641.00    1.02712   1.14541    0.000
 4642.00    1.18350   1.14216    0.000
 4643.00    1.34218   1.14435    0.000
 4644.00    1.24211   1.14916    0.000
 4645.00    1.13226   1.15577    0.000
 4646.00    1.00346   1.16439    0.000
 4647.00    0.88391   1.17413    0.000
 4648.00    1.11080   1.18314    0.000
 4649.00    1.32193   1.19059    0.000
 4650.00    1.27555   1.19878    0.000
 4651.00    1.23393   1.20779    0.000
 4652.00    1.24098   1.21555    0.000
 4653.00    1.23974   1.22275    0.000
 4654.00    1.17788   1.22729    0.000
 4655.00    1.14657   1.22674    0.000
 4656.00    1.28604   1.22141    0.000
 4657.00    1.38462   1.20962    0.000
 4658.00    1.30075   1.19157    0.000
 4659.00    1.22450   1.17254    0.000
 4660.00    1.17619   1.15489    0.000
 4661.00    1.16426   1.13759    0.000
 4662.00    1.26392   1.12555    0.000
 4663.00    1.34037   1.12310    0.000
 4664.00    1.35627   1.12655    0.000
 4665.00    1.30078   1.13348    0.000
 4666.00    1.08528   1.14548    0.000
 4667.00    0.96444   1.15991    0.000
 4668.00    1.02747   1.17220    0.000
 4669.00    1.05572   1.18122    0.000
 4670.00    1.02506   1.18761    0.000
 4671.00    1.05579   1.19145    0.000
 4672.00    1.17762   1.19085    0.000
 4673.00    1.23837   1.18710    0.000
 4674.00    1.21946   1.18453    0.000
 4675.00    1.24884   1.18207    0.000
 4676.00    1.33370   1.17853    0.000
 4677.00    1.34459   1.17788    0.000
 4678.00    1.28055   1.18036    0.000
 4679.00    1.23830   1.18183    0.000
 4680.00    1.21555   1.18337    0.000
 4681.00    1.21096   1.18647    0.000
 4682.00    1.22067   1.18729    0.000
 4683.00    1.25328   1.18692    0.000
 4684.00    1.30175   1.18856    0.000
 4685.00    1.28755   1.18931    0.000
 4686.00    1.23528   1.18914    0.000
 4687.00    1.18676   1.19155    0.000
 4688.00    1.14023   1.19389    0.000
 4689.00    1.14666   1.19305    0.000
 4690.00    1.17745   1.19127    0.000
 4691.00    1.04384   1.18869    0.000
 4692.00    0.84509   1.18243    0.000
 4693.00    0.94550   1.17276    0.000
 4694.00    1.14693   1.16345    0.000
 4695.00    1.25986   1.15591    0.000
 4696.00    1.34767   1.14835    0.000
 4697.00    1.17402   1.14172    0.000
 4698.00    0.93917   1.13826    0.000
 4699.00    0.90197   1.13827    0.000
 4700.00    0.90196   1.13913    0.000
 4701.00    0.95564   1.13969    0.000
 4702.00    1.01713   1.14245    0.000
 4703.00    1.01732   1.14736    0.000
 4704.00    1.01104   1.15180    0.000
 4705.00    1.00227   1.15686    0.000
 4706.00    0.99333   1.16423    0.000
 4707.00    1.08846   1.17221    0.000
 4708.00    1.18714   1.18064    0.000
 4709.00    1.25722   1.18967    0.000
 4710.00    1.32301   1.20042    0.000
 4711.00    1.25075   1.21377    0.000
 4712.00    1.17660   1.22592    0.000
 4713.00    1.07344   1.23647    0.000
 4714.00    0.97387   1.24743    0.000
 4715.00    0.90959   1.25546    0.000
 4716.00    0.88266   1.25849    0.000
 4717.00    1.11989   1.25765    0.000
 4718.00    1.30519   1.25275    0.000
 4719.00    1.20793   1.24366    0.000
 4720.00    1.14101   1.23168    0.000
 4721.00    1.20634   1.21737    0.000
 4722.00    1.24750   1.20109    0.000
 4723.00    1.20198   1.18736    0.000
 4724.00    1.15157   1.17832    0.000
 4725.00    1.08644   1.17133    0.000
 4726.00    1.07287   1.16894    0.000
 4727.00    1.19144   1.17283    0.000
 4728.00    1.25668   1.17733    0.000
 4729.00    1.20433   1.18299    0.000
 4730.00    1.20011   1.19261    0.000
 4731.00    1.28790   1.19902    0.000
 4732.00    1.25276   1.20311    0.000
 4733.00    1.01256   1.21139    0.000
 4734.00    0.91234   1.21811    0.000
 4735.00    1.01678   1.22112    0.000
 4736.00    1.09603   1.22575    0.000
 4737.00    1.14291   1.23171    0.000
 4738.00    1.20286   1.23706    0.000
 4739.00    1.27763   1.24087    0.000
 4740.00    1.25180   1.24379    0.000
 4741.00    1.12547   1.24824    0.000
 4742.00    1.04423   1.25113    0.000
 4743.00    1.00271   1.24973    0.000
 4744.00    0.99766   1.24766    0.000
 4745.00    1.02090   1.24529    0.000
 4746.00    1.10775   1.23956    0.000
 4747.00    1.23802   1.23211    0.000
 4748.00    1.26848   1.22601    0.000
 4749.00    1.23923   1.21993    0.000
 4750.00    1.25726   1.21383    0.000
 4751.00    1.29997   1.20932    0.000
 4752.00    1.39400   1.20564    0.000
 4753.00    1.51126   1.20055    0.000
 4754.00    1.47066   1.19457    0.000
 4755.00    1.36861   1.18908    0.000
 4756.00    1.44659   1.18083    0.000
 4757.00    1.58423   1.17044    0.000
 4758.00    1.31670   1.16347    0.000
 4759.00    0.93652   1.15886    0.000
 4760.00    0.95125   1.15463    0.000
 4761.00    1.05630   1.15528    0.019
 4762.00    1.17679   1.16161    0.019
 4763.00    1.30011   1.16884    0.019
 4764.00    1.24744   1.17804    0.019
 4765.00    1.16999   1.19030    0.018
 4766.00    1.17742   1.20109    0.018
 4767.00    1.19345   1.21010    0.019
 4768.00    1.27937   1.21976    0.019
 4769.00    1.36981   1.22952    0.019
 4770.00    1.27470   1.23557    0.018
 4771.00    1.17407   1.23753    0.018
 4772.00    1.12513   1.23993    0.018
 4773.00    1.08119   1.24022    0.019
 4774.00    1.18191   1.23432    0.019
 4775.00    1.26951   1.22682    0.019
 4776.00    1.16759   1.22140    0.018
 4777.00    1.08200   1.21329    0.018
 4778.00    1.15013   1.20190    0.018
 4779.00    1.22350   1.19621    0.018
 4780.00    1.33270   1.19384    0.018
 4781.00    1.40286   1.18772    0.018
 4782.00    1.26621   1.18724    0.018
 4783.00    1.15192   1.19349    0.018
 4784.00    1.13286   1.19738    0.018
 4785.00    1.13129   1.20452    0.017
 4786.00    1.19113   1.21679    0.017
 4787.00    1.22871   1.22658    0.017
 4788.00    1.20051   1.23508    0.017
 4789.00    1.17262   1.24403    0.017
 4790.00    1.14553   1.24883    0.017
 4791.00    1.13429   1.24914    0.018
 4792.00    1.15742   1.24835    0.017
 4793.00    1.18143   1.24614    0.017
 4794.00    1.20708   1.24232    0.017
 4795.00    1.22790   1.23914    0.017
 4796.00    1.24076   1.23674    0.017
 4797.00    1.26440   1.23429    0.018
 4798.00    1.30355   1.23235    0.018
 4799.00    1.29100   1.22899    0.018
 4800.00    1.21292   1.22437    0.018
 4801.00    1.12460   1.22235    0.018
 4802.00    1.02483   1.22028    0.018
 4803.00    1.01713   1.21748    0.018
 4804.00    1.10014   1.21857    0.018
 4805.00    1.21411   1.22195    0.018
 4806.00    1.35498   1.22520    0.018
 4807.00    1.31767   1.23023    0.018
 4808.00    1.14402   1.23698    0.018
 4809.00    1.09641   1.24335    0.018
 4810.00    1.13358   1.24911    0.018
 4811.00    1.17459   1.25463    0.018
 4812.00    1.21788   1.25769    0.018
 4813.00    1.24656   1.25825    0.018
 4814.00    1.26773   1.25727    0.018
 4815.00    1.26972   1.25169    0.018
 4816.00    1.26318   1.24445    0.018
 4817.00    1.31565   1.23859    0.018
 4818.00    1.39069   1.22999    0.018
 4819.00    1.35196   1.22204    0.018
 4820.00    1.27626   1.21803    0.018
 4821.00    1.13963   1.21409    0.018
 4822.00    0.98642   1.21111    0.018
 4823.00    1.02749   1.20900    0.018
 4824.00    1.11198   1.20644    0.018
 4825.00    1.15567   1.20636    0.018
 4826.00    1.19209   1.20628    0.018
 4827.00    1.18111   1.20407    0.018
 4828.00    1.16367   1.20403    0.018
 4829.00    1.10664   1.20544    0.018
 4830.00    1.04576   1.20413    0.018
 4831.00    1.14027   1.20118    0.018
 4832.00    1.24421   1.19910    0.018
 4833.00    1.26347   1.19694    0.018
 4834.00    1.28082   1.19286    0.019
 4835.00    1.35990   1.18851    0.019
 4836.00    1.43666   1.18748    0.019
 4837.00    1.45293   1.18761    0.019
 4838.00    1.46620   1.18626    0.018
 4839.00    1.43837   1.18699    0.018
 4840.00    1.39011   1.18797    0.018
 4841.00    1.15721   1.18672    0.018
 4842.00    0.95758   1.18597    0.018
 4843.00    0.97871   1.18214    0.018
 4844.00    1.00785   1.17490    0.018
 4845.00    1.07829   1.16901    0.019
 4846.00    1.15221   1.15870    0.019
 4847.00    1.24057   1.14216    0.019
 4848.00    1.29534   1.12696    0.000
 4849.00    1.23446   1.10952    0.000
 4850.00    1.18380   1.08490    0.000
 4851.00    1.16278   1.06123    0.000
 4852.00    1.11496   1.03914    0.000
 4853.00    1.00081   1.01369    0.000
 4854.00    0.99422   0.99422    0.000
 4855.00    1.21708   0.98338    0.000
 4856.00    1.37352   0.97414    0.000
 4857.00    1.40687   0.97437    0.000
 4858.00    1.41858   0.98611    0.000
 4859.00    1.39526   0.99827    0.000
 4860.00    1.32876   1.01215    0.000
 4861.00    1.20093   1.03109    0.000
 4862.00    1.05874   1.04595    0.000
 4863.00    0.89859   1.05353    0.000
 4864.00    0.81937   1.06185    0.000
 4865.00    0.82926   1.07055    0.000
 4866.00    0.86755   1.07425    0.000
 4867.00    0.93341   1.07907    0.000
 4868.00    1.07605   1.09077    0.000
 4869.00    1.28444   1.10254    0.000
 4870.00    1.29919   1.11226    0.000
 4871.00    1.16787   1.12717    0.000
 4872.00    1.12514   1.14202    0.000
 4873.00    1.14111   1.14903    0.000
 4874.00    1.18581   1.15551    0.000
 4875.00    1.24717   1.16138    0.019
 4876.00    1.19573   1.15873    0.019
 4877.00    1.08723   1.15267    0.019
 4878.00    1.12168   1.14777    0.019
 4879.00    1.21872   1.13950    0.019
 4880.00    1.22915   1.12894    0.019
 4881.00    1.20704   1.12245    0.019
 4882.00    1.24653   1.11860    0.019
 4883.00    1.30568   1.11519    0.019
 4884.00    1.28956   1.11918    0.019
 4885.00    1.25338   1.12946    0.019
 4886.00    1.19631   1.14097    0.019
 4887.00    1.13468   1.15928    0.019
 4888.00    1.21963   1.18118    0.019
 4889.00    1.32999   1.19961    0.019
 4890.00    1.11120   1.21827    0.019
 4891.00    0.84905   1.23333    0.019
 4892.00    1.01448   1.24040    0.019
 4893.00    1.21964   1.24518    0.019
 4894.00    1.19439   1.24625    0.019
 4895.00    1.15608   1.24160    0.019
 4896.00    1.16766   1.23772    0.019
 4897.00    1.18146   1.23502    0.019
 4898.00    1.31336   1.23027    0.018
 4899.00    1.43609   1.22568    0.018
 4900.00    1.34093   1.22273    0.019
 4901.00    1.25102   1.21895    0.019
 4902.00    1.22902   1.21285    0.018
 4903.00    1.20774   1.20734    0.018
 4904.00    1.19278   1.20343    0.018
 4905.00    1.19355   1.19853    0.018
 4906.00    1.29559   1.19411    0.018
 4907.00    1.37054   1.19169    0.018
 4908.00    1.30923   1.18757    0.018
 4909.00    1.24602   1.18024    0.018
 4910.00    1.17515   1.17078    0.018
 4911.00    1.12492   1.15833    0.018
 4912.00    1.14437   1.14280    0.018
 4913.00    1.17087   1.12700    0.018
 4914.00    1.21746   1.11470    0.018
 4915.00    1.26285   1.10713    0.018
 4916.00    1.30533   1.10466    0.018
 4917.00    1.31132   1.11025    0.018
 4918.00    1.24073   1.12363    0.018
 4919.00    1.24031   1.13944    0.018
 4920.00    1.36794   1.15773    0.018
 4921.00    1.43687   1.17929    0.018
 4922.00    1.41221   1.19648    0.018
 4923.00    1.28964   1.20849    0.018
 4924.00    1.03005   1.21926    0.017
 4925.00    0.97249   1.22231    0.017
 4926.00    1.16374   1.21806    0.017
 4927.00    1.29275   1.21335    0.018
 4928.00    1.35418   1.20390    0.018
 4929.00    1.35629   1.19111    0.018
 4930.00    1.30158   1.18218    0.017
 4931.00    1.22245   1.17435    0.017
 4932.00    1.12271   1.16890    0.017
 4933.00    1.08600   1.17014    0.017
 4934.00    1.09615   1.17452    0.018
 4935.00    1.12816   1.18274    0.018
 4936.00    1.17443   1.19617    0.017
 4937.00    1.08312   1.20912    0.017
 4938.00    0.91316   1.22149    0.018
 4939.00    0.99689   1.23534    0.017
 4940.00    1.20691   1.24605    0.000
 4941.00    1.24482   1.25291    0.000
 4942.00    1.20861   1.25899    0.000
 4943.00    1.10363   1.26235    0.000
 4944.00    0.97325   1.26120    0.000
 4945.00    0.95245   1.25708    0.000
 4946.00    0.96591   1.24943    0.000
 4947.00    1.01217   1.23784    0.000
 4948.00    1.06699   1.22431    0.000
 4949.00    1.01834   1.20832    0.000
 4950.00    0.94766   1.19262    0.000
 4951.00    1.05723   1.18204    0.000
 4952.00    1.19717   1.17358    0.000
 4953.00    1.18925   1.16845    0.000
 4954.00    1.16252   1.17064    0.000
 4955.00    1.19223   1.17485    0.000
 4956.00    1.22695   1.17864    0.000
 4957.00    1.23311   1.18272    0.000
 4958.00    1.23777   1.18545    0.000
 4959.00    1.07925   1.18618    0.000
 4960.00    0.92191   1.18451    0.000
 4961.00    1.10102   1.18303    0.000
 4962.00    1.26408   1.18338    0.000
 4963.00    1.07841   1.18416    0.000
 4964.00    0.91675   1.18723    0.000
 4965.00    1.05000   1.19224    0.000
 4966.00    1.16679   1.19719    0.000
 4967.00    1.14573   1.20183    0.000
 4968.00    1.13486   1.20374    0.000
 4969.00    1.18771   1.20267    0.000
 4970.00    1.22310   1.19799    0.000
 4971.00    1.17284   1.18786    0.000
 4972.00    1.13648   1.17496    0.000
 4973.00    1.15542   1.15991    0.000
 4974.00    1.15820   1.14218    0.000
 4975.00    1.10746   1.12584    0.000
 4976.00    1.09596   1.11324    0.000
 4977.00    1.19413   1.10343    0.000
 4978.00    1.23135   1.09826    0.000
 4979.00    1.12278   1.10019    0.000
 4980.00    1.03819   1.10591    0.000
 4981.00    1.00312   1.11369    0.000
 4982.00    1.05047   1.12504    0.000
 4983.00    1.24587   1.13562    0.000
 4984.00    1.34435   1.14430    0.000
 4985.00    1.29053   1.15292    0.000
 4986.00    1.18321   1.15765    0.000
 4987.00    1.00210   1.16064    0.000
 4988.00    0.94814   1.16314    0.000
 4989.00    1.04854   1.16093    0.000
 4990.00    1.09809   1.15781    0.000
 4991.00    1.09321   1.15358    0.000
 4992.00    1.04688   1.14465    0.000
 4993.00    0.96142   1.13545    0.000
 4994.00    0.99927   1.12557    0.000
 4995.00    1.13977   1.11336    0.000
 4996.00    1.15313   1.10293    0.000
 4997.00    1.07331   1.09413    0.000
 4998.00    1.04357   1.08584    0.000
 4999.00    1.04606   1.08042    0.000
 5000.00    1.06148   1.07800    0.000
 5001.00    1.08418   1.07619    0.000
 5002.00    1.18696   1.07504    0.000
 5003.00    1.32897   1.07524    0.000
 5004.00    1.32523   1.07356    0.000
 5005.00    1.25977   1.06988    0.000
 5006.00    1.26775   1.06631    0.000
 5007.00    1.30234   1.06101    0.000
 5008.00    1.26984   1.05584    0.000
 5009.00    1.21674   1.05285    0.000
 5010.00    1.24053   1.05064    0.000
 5011.00    1.28395   1.05120    0.000
 5012.00    1.23793   1.05446    0.000
 5013.00    1.17332   1.05876    0.000
 5014.00    1.02870   1.06458    0.000
 5015.00    0.87098   1.07152    0.000
 5016.00    1.00869   1.07914    0.000
 5017.00    1.18266   1.08607    0.000
 5018.00    1.14297   1.09350    0.000
 5019.00    1.08523   1.10212    0.000
 5020.00    0.97597   1.10893    0.000
 5021.00    0.86419   1.11698    0.000
 5022.00    0.99839   1.12628    0.000
 5023.00    1.13467   1.13333    0.000
 5024.00    1.16601   1.14127    0.000
 5025.00    1.19230   1.14782    0.000
 5026.00    1.11711   1.15041    0.000
 5027.00    1.05453   1.15105    0.000
 5028.00    1.13930   1.14641    0.000
 5029.00    1.21142   1.13758    0.018
 5030.00    1.18142   1.12658    0.017
 5031.00    1.14811   1.11138    0.017
 5032.00    1.09471   1.09758    0.017
 5033.00    1.05700   1.08652    0.017
 5034.00    1.09438   1.07687    0.017
 5035.00    1.14250   1.07509    0.018
 5036.00    1.23243   1.07884    0.017
 5037.00    1.27235   1.08528    0.017
 5038.00    1.15003   1.09723    0.017
 5039.00    1.02956   1.10957    0.017
 5040.00    0.91419   1.11934    0.017
 5041.00    0.86393   1.12755    0.017
 5042.00    0.96677   1.13230    0.017
 5043.00    1.09427   1.13407    0.017
 5044.00    1.27187   1.13467    0.017
 5045.00    1.32068   1.13578    0.017
 5046.00    1.14160   1.13864    0.018
 5047.00    1.03915   1.14353    0.018
 5048.00    1.05531   1.15120    0.018
 5049.00    1.09996   1.16042    0.018
 5050.00    1.18335   1.17018    0.018
 5051.00    1.24532   1.17970    0.018
 5052.00    1.28164   1.18695    0.018
 5053.00    1.31748   1.19215    0.018
 5054.00    1.35280   1.19374    0.018
 5055.00    1.29049   1.19113    0.018
 5056.00    1.13728   1.18656    0.018
 5057.00    1.10945   1.17803    0.018
 5058.00    1.18452   1.16720    0.018
 5059.00    1.20316   1.15757    0.018
 5060.00    1.18104   1.14738    0.018
 5061.00    1.10998   1.13829    0.018
 5062.00    1.00790   1.13231    0.018
 5063.00    1.09043   1.12836    0.018
 5064.00    1.27529   1.12566    0.018
 5065.00    1.14901   1.12385    0.018
 5066.00    0.87270   1.12299    0.018
 5067.00    0.90875   1.12146    0.018
 5068.00    1.07483   1.11812    0.018
 5069.00    1.11820   1.11344    0.018
 5070.00    1.11787   1.10746    0.018
 5071.00    1.14387   1.10004    0.018
 5072.00    1.17779   1.09124    0.018
 5073.00    1.05896   1.08340    0.018
 5074.00    0.90199   1.07769    0.018
 5075.00    0.92462   1.07384    0.018
 5076.00    0.98364   1.07373    0.017
 5077.00    0.91188   1.07774    0.018
 5078.00    0.81934   1.08461    0.018
 5079.00    0.89685   1.09424    0.018
 5080.00    0.99447   1.10555    0.018
 5081.00    1.10623   1.11700    0.018
 5082.00    1.21912   1.12834    0.017
 5083.00    1.31216   1.13851    0.017
 5084.00    1.40432   1.14636    0.017
 5085.00    1.15909   1.15207    0.017
 5086.00    0.91530   1.15487    0.017
 5087.00    0.94176   1.15443    0.016
 5088.00    0.97470   1.15088    0.016
 5089.00    1.12815   1.14415    0.016
 5090.00    1.25945   1.13611    0.017
 5091.00    1.14397   1.12714    0.017
 5092.00    1.03607   1.11780    0.017
 5093.00    0.98728   1.11108    0.017
 5094.00    0.95717   1.10602    0.017
 5095.00    1.03708   1.10263    0.016
 5096.00    1.10324   1.10181    0.016
 5097.00    1.10520   1.10058    0.016
 5098.00    1.11555   1.10003    0.016
 5099.00    1.15785   1.09988    0.016
 5100.00    1.19586   1.09706    0.016
 5101.00    1.22022   1.09602    0.016
 5102.00    1.22408   1.09639    0.016
 5103.00    1.17266   1.09543    0.016
 5104.00    1.13369   1.09914    0.016
 5105.00    1.12349   1.10510    0.016
 5106.00    1.11834   1.11067    0.016
 5107.00    1.12329   1.12046    0.017
 5108.00    1.14246   1.12971    0.017
 5109.00    1.18642   1.13684    0.017
 5110.00    1.14834   1.14412    0.017
 5111.00    0.98512   1.14713    0.017
 5112.00    0.91648   1.14644    0.017
 5113.00    0.97457   1.14231    0.017
 5114.00    1.05899   1.13339    0.017
 5115.00    1.17449   1.12277    0.018
 5116.00    1.27715   1.10956    0.018
 5117.00    1.36645   1.09522    0.018
 5118.00    1.32612   1.08352    0.018
 5119.00    1.16680   1.07284    0.017
 5120.00    1.05794   1.06488    0.017
 5121.00    0.98988   1.06179    0.017
 5122.00    0.95648   1.06113    0.017
 5123.00    0.94774   1.06305    0.017
 5124.00    0.89485   1.06819    0.017
 5125.00    0.81436   1.07485    0.017
 5126.00    0.91100   1.08056    0.017
 5127.00    1.10434   1.08588    0.018
 5128.00    1.19553   1.09131    0.018
 5129.00    1.23828   1.09193    0.018
 5130.00    1.23718   1.09123    0.018
 5131.00    1.21815   1.09091    0.018
 5132.00    1.13757   1.08401    0.017
 5133.00    1.03548   1.07887    0.017
 5134.00    1.01568   1.07649    0.017
 5135.00    1.02013   1.06833    0.017
 5136.00    0.96605   1.06399    0.018
 5137.00    0.89768   1.06298    0.018
 5138.00    0.95348   1.05812    0.018
 5139.00    1.03380   1.05662    0.018
 5140.00    1.11099   1.05621    0.018
 5141.00    1.18770   1.05369    0.018
 5142.00    1.20908   1.05433    0.018
 5143.00    1.22416   1.05460    0.017
 5144.00    1.18098   1.05415    0.018
 5145.00    1.13336   1.05732    0.018
 5146.00    1.05834   1.06089    0.018
 5147.00    0.98221   1.06537    0.017
 5148.00    1.03356   1.07313    0.017
 5149.00    1.08507   1.08079    0.017
 5150.00    1.09960   1.08922    0.018
 5151.00    1.11210   1.09759    0.018
 5152.00    1.08956   1.10117    0.018
 5153.00    1.07404   1.10250    0.018
 5154.00    1.13328   1.09918    0.017
 5155.00    1.18179   1.08654    0.017
 5156.00    1.14954   1.06948    0.017
 5157.00    1.12445   1.04680    0.018
 5158.00    1.14031   1.01732    0.017
 5159.00    1.14812   0.98679    0.017
 5160.00    1.11921   0.95560    0.017
 5161.00    1.09368   0.92588    0.017
 5162.00    1.08073   0.90168    0.017
 5163.00    1.09474   0.88449    0.016
 5164.00    1.19289   0.87441    0.017
 5165.00    1.23521   0.87027    0.017
 5166.00    1.12963   0.87500    0.017
 5167.00    1.04415   0.88878    0.017
 5168.00    1.00436   0.90537    0.017
 5169.00    0.96025   0.92318    0.017
 5170.00    0.90765   0.94234    0.017
 5171.00    0.86936   0.95856    0.017
 5172.00    0.85562   0.96858    0.017
 5173.00    0.90089   0.97196    0.017
 5174.00    1.03488   0.97072    0.017
 5175.00    1.11270   0.96616    0.017
 5176.00    1.11634   0.95729    0.016
 5177.00    1.05421   0.95146    0.016
 5178.00    0.91558   0.95289    0.016
 5179.00    0.88884   0.95682    0.016
 5180.00    0.97690   0.96637    0.016
 5181.00    1.01175   0.97948    0.016
 5182.00    0.99848   0.99307    0.016
 5183.00    1.01327   1.00969    0.016
 5184.00    1.05046   1.02093    0.016
 5185.00    1.14114   1.02686    0.017
 5186.00    1.26935   1.03625    0.017
 5187.00    1.25000   1.04307    0.016
 5188.00    1.13985   1.04558    0.016
 5189.00    1.11431   1.05210    0.017
 5190.00    1.13424   1.05978    0.000
 5191.00    1.10281   1.06532    0.000
 5192.00    1.04740   1.07160    0.000
 5193.00    1.04702   1.07598    0.000
 5194.00    1.06876   1.07610    0.000
 5195.00    1.02436   1.07246    0.000
 5196.00    0.95725   1.06572    0.000
 5197.00    1.12194   1.05516    0.000
 5198.00    1.35361   1.04056    0.000
 5199.00    1.31196   1.02836    0.000
 5200.00    1.20503   1.01950    0.000
 5201.00    1.25072   1.01049    0.000
 5202.00    1.32579   1.00878    0.000
 5203.00    1.23468   1.01446    0.000
 5204.00    1.11872   1.02216    0.000
 5205.00    1.05721   1.03512    0.000
 5206.00    1.00165   1.05074    0.000
 5207.00    1.11853   1.06572    0.000
 5208.00    1.24787   1.08004    0.000
 5209.00    1.20951   1.09267    0.000
 5210.00    1.16490   1.10349    0.000
 5211.00    1.13933   1.11199    0.018
 5212.00    1.11339   1.11778    0.018
 5213.00    1.07023   1.12038    0.018
 5214.00    1.03753   1.12010    0.017
 5215.00    1.17440   1.11652    0.017
 5216.00    1.28211   1.10894    0.017
 5217.00    1.09299   1.09843    0.017
 5218.00    0.92869   1.08765    0.017
 5219.00    0.94492   1.07670    0.017
 5220.00    0.96760   1.06629    0.016
 5221.00    1.02617   1.06301    0.017
 5222.00    1.06733   1.06328    0.017
 5223.00    1.03102   1.06406    0.017
 5224.00    1.00240   1.07268    0.017
 5225.00    1.00185   1.08209    0.017
 5226.00    1.01452   1.08984    0.017
 5227.00    1.06769   1.10220    0.017
 5228.00    1.08055   1.11268    0.017
 5229.00    0.98850   1.12264    0.017
 5230.00    0.90833   1.13465    0.017
 5231.00    0.85472   1.14419    0.016
 5232.00    0.88485   1.15344    0.016
 5233.00    1.07727   1.16192    0.016
 5234.00    1.19310   1.16778    0.016
 5235.00    1.17947   1.17118    0.016
 5236.00    1.18081   1.17138    0.016
 5237.00    1.20431   1.16965    0.016
 5238.00    1.23950   1.16561    0.016
 5239.00    1.28991   1.15771    0.016
 5240.00    1.27382   1.14791    0.016
 5241.00    1.18146   1.14011    0.016
 5242.00    1.09201   1.13199    0.016
 5243.00    1.00551   1.12218    0.016
 5244.00    0.99694   1.11764    0.016
 5245.00    1.05790   1.11666    0.016
 5246.00    1.14557   1.11607    0.017
 5247.00    1.25423   1.11907    0.017
 5248.00    1.25999   1.12315    0.017
 5249.00    1.19458   1.12884    0.017
 5250.00    1.06599   1.13412    0.017
 5251.00    0.89910   1.13442    0.017
 5252.00    0.92345   1.13272    0.017
 5253.00    1.04899   1.12633    0.016
 5254.00    1.12824   1.11279    0.017
 5255.00    1.18624   1.09517    0.017
 5256.00    1.18639   1.07334    0.017
 5257.00    1.16369   1.04928    0.017
 5258.00    1.09881   1.02578    0.017
 5259.00    1.01972   1.00344    0.017
 5260.00    1.05394   0.98676    0.017
 5261.00    1.12024   0.97609    0.017
 5262.00    1.09813   0.96770    0.018
 5263.00    1.05538   0.96767    0.018
 5264.00    0.96541   0.97736    0.018
 5265.00    0.86659   0.98806    0.018
 5266.00    1.00447   1.00197    0.018
 5267.00    1.17664   1.02368    0.018
 5268.00    1.16915   1.04474    0.018
 5269.00    1.14275   1.06403    0.018
 5270.00    1.09055   1.08498    0.018
 5271.00    1.03658   1.10131    0.018
 5272.00    1.03805   1.11429    0.018
 5273.00    1.04137   1.12648    0.018
 5274.00    0.96933   1.13421    0.018
 5275.00    0.90144   1.14034    0.018
 5276.00    0.96937   1.14611    0.018
 5277.00    1.02868   1.15133    0.018
 5278.00    0.95687   1.15987    0.017
 5279.00    0.89681   1.16957    0.017
 5280.00    0.95142   1.17869    0.017
 5281.00    1.00558   1.18962    0.017
 5282.00    1.05656   1.19988    0.017
 5283.00    1.11278   1.20693    0.017
 5284.00    1.19731   1.21031    0.017
 5285.00    1.27203   1.20957    0.017
 5286.00    1.30410   1.20513    0.017
 5287.00    1.33983   1.19767    0.016
 5288.00    1.38860   1.18668    0.017
 5289.00    1.39218   1.17338    0.017
 5290.00    1.26000   1.16108    0.016
 5291.00    1.18221   1.15070    0.016
 5292.00    1.24349   1.14391    0.016
 5293.00    1.24608   1.14075    0.016
 5294.00    1.11954   1.14107    0.016
 5295.00    1.07002   1.14799    0.016
 5296.00    1.16745   1.15881    0.017
 5297.00    1.21570   1.17002    0.017
 5298.00    1.18203   1.18258    0.017
 5299.00    1.15996   1.19553    0.016
 5300.00    1.15478   1.20707    0.016
 5301.00    1.15784   1.21655    0.016
 5302.00    1.17147   1.22358    0.016
 5303.00    1.19531   1.22758    0.016
 5304.00    1.23068   1.22929    0.016
 5305.00    1.18731   1.22967    0.016
 5306.00    1.06541   1.22758    0.016
 5307.00    1.03473   1.22339    0.016
 5308.00    1.08428   1.21862    0.016
 5309.00    1.11560   1.21231    0.016
 5310.00    1.13279   1.20576    0.016
 5311.00    1.18792   1.19946    0.016
 5312.00    1.26890   1.19072    0.016
 5313.00    1.27192   1.18202    0.017
 5314.00    1.22838   1.17334    0.016
 5315.00    1.25041   1.16120    0.017
 5316.00    1.30660   1.14728    0.017
 5317.00    1.23463   1.13280    0.017
 5318.00    1.10477   1.11820    0.016
 5319.00    1.11551   1.10359    0.016
 5320.00    1.18088   1.08935    0.016
 5321.00    1.23161   1.07928    0.017
 5322.00    1.27750   1.07660    0.017
 5323.00    1.17976   1.07761    0.017
 5324.00    1.04218   1.08049    0.017
 5325.00    1.05939   1.09109    0.016
 5326.00    1.11191   1.10646    0.016
 5327.00    1.04906   1.12092    0.016
 5328.00    0.96516   1.13294    0.017
 5329.00    1.00432   1.14254    0.016
 5330.00    1.06073   1.15090    0.016
 5331.00    1.16619   1.15532    0.016
 5332.00    1.27661   1.15580    0.017
 5333.00    1.09374   1.15398    0.016
 5334.00    0.89207   1.15215    0.016
 5335.00    0.98559   1.15161    0.016
 5336.00    1.08761   1.14852    0.016
 5337.00    1.07087   1.14735    0.016
 5338.00    1.05786   1.15041    0.016
 5339.00    1.15102   1.15220    0.016
 5340.00    1.23287   1.15534    0.016
 5341.00    1.15228   1.15918    0.016
 5342.00    1.08367   1.16372    0.016
 5343.00    1.12703   1.17241    0.016
 5344.00    1.16923   1.18094    0.016
 5345.00    1.20352   1.18997    0.015
 5346.00    1.22480   1.20168    0.015
 5347.00    1.17741   1.21398    0.015
 5348.00    1.12582   1.22543    0.015
 5349.00    1.05642   1.23402    0.015
 5350.00    1.02809   1.24089    0.015
 5351.00    1.14373   1.24597    0.015
 5352.00    1.24949   1.24634    0.015
 5353.00    1.32616   1.24307    0.015
 5354.00    1.36034   1.23743    0.015
 5355.00    1.28776   1.22856    0.015
 5356.00    1.23736   1.21785    0.015
 5357.00    1.23498   1.20557    0.016
 5358.00    1.22168   1.19114    0.016
 5359.00    1.18787   1.17825    0.015
 5360.00    1.13718   1.16587    0.015
 5361.00    1.05881   1.15323    0.016
 5362.00    1.02272   1.14363    0.016
 5363.00    1.04745   1.13683    0.015
 5364.00    1.12255   1.13388    0.015
 5365.00    1.26139   1.13476    0.016
 5366.00    1.28455   1.13877    0.016
 5367.00    1.17876   1.14544    0.016
 5368.00    1.08498   1.15563   -2.000
 5369.00    1.00300   1.16841   -2.000
 5370.00    0.95182   1.17876   -2.000
 5371.00    0.92737   1.18734   -2.000
 5372.00    0.88512   1.19409   -2.000
 5373.00    0.82927   1.19768   -2.000
 5374.00    0.90433   1.19972   -2.000
 5375.00    1.06728   1.20035   -2.000
 5376.00    1.05277   1.19864   -2.000
 5377.00    0.93387   1.19591   -2.000
 5378.00    1.01340   1.19322   -2.000
 5379.00    1.19468   1.18871   -2.000
 5380.00    1.29242   1.18371   -2.000
 5381.00    1.35304   1.17871   -2.000
 5382.00    1.39373   1.17142   -2.000
 5383.00    1.42680   1.16341    0.016
 5384.00    1.32751   1.15502    0.016
 5385.00    1.18529   1.14525    0.016
 5386.00    1.13513   1.13661    0.016
 5387.00    1.10998   1.12822    0.016
 5388.00    1.15898   1.11974    0.015
 5389.00    1.22450   1.11423    0.015
 5390.00    1.13584   1.10972    0.015
 5391.00    1.01979   1.10649    0.015
 5392.00    1.14581   1.10401    0.015
 5393.00    1.30467   1.10056    0.015
 5394.00    1.31310   1.09931    0.015
 5395.00    1.30698   1.09775    0.015
 5396.00    1.27531   1.09277    0.015
 5397.00    1.24210   1.08751    0.015
 5398.00    1.16568   1.08418    0.015
 5399.00    1.08894   1.08105    0.014
 5400.00    1.14683   1.07797    0.015
 5401.00    1.19964   1.07737    0.015
 5402.00    1.12137   1.08131    0.015
 5403.00    1.04863   1.08965    0.014
 5404.00    1.05090   1.10027    0.015
 5405.00    1.05719   1.11122    0.015
 5406.00    1.09954   1.12283    0.015
 5407.00    1.12687   1.13710    0.015
 5408.00    1.05493   1.15073    0.015
 5409.00    1.00289   1.16130    0.014
 5410.00    1.05328   1.16978    0.015
 5411.00    1.10711   1.17539    0.015
 5412.00    1.17522   1.17959    0.015
 5413.00    1.22293   1.18273    0.015
 5414.00    1.20061   1.18208    0.015
 5415.00    1.16022   1.17931    0.015
 5416.00    1.06755   1.17679    0.015
 5417.00    1.00809   1.17331    0.015
 5418.00    1.03063   1.17043    0.015
 5419.00    1.04352   1.16614    0.015
 5420.00    1.03588   1.15758    0.015
 5421.00    1.04607   1.15163    0.015
 5422.00    1.08921   1.14729    0.015
 5423.00    1.12218   1.14017    0.015
 5424.00    1.13869   1.13399    0.015
 5425.00    1.16993   1.12685    0.015
 5426.00    1.22205   1.12297    0.015
 5427.00    1.23460   1.12526    0.015
 5428.00    1.19779   1.12753    0.015
 5429.00    1.19307   1.13298    0.015
 5430.00    1.22361   1.14171    0.015
 5431.00    1.16129   1.15187    0.015
 5432.00    1.00892   1.16328    0.015
 5433.00    0.95098   1.17319    0.015
 5434.00    0.97377   1.18155    0.015
 5435.00    1.02947   1.18624    0.015
 5436.00    1.10996   1.18682    0.015
 5437.00    1.16831   1.18319    0.015
 5438.00    1.21203   1.17679    0.015
 5439.00    1.19728   1.17114    0.015
 5440.00    1.14865   1.16404    0.014
 5441.00    1.12501   1.15681    0.014
 5442.00    1.11398   1.15088    0.015
 5443.00    1.17012   1.14624    0.015
 5444.00    1.25562   1.14506    0.015
 5445.00    1.28573   1.14380    0.014
 5446.00    1.29506   1.14058    0.014
 5447.00    1.24559   1.13902    0.014
 5448.00    1.17742   1.13894    0.014
 5449.00    1.16775   1.13858    0.014
 5450.00    1.17364   1.13895    0.014
 5451.00    1.22757   1.13843    0.014
 5452.00    1.29195   1.13956    0.014
 5453.00    1.33665   1.14265    0.014
 5454.00    1.37795   1.14366    0.014
 5455.00    1.31941   1.14557    0.014
 5456.00    1.24777   1.14718    0.015
 5457.00    1.10146   1.14734    0.014
 5458.00    0.94826   1.14839    0.014
 5459.00    0.98334   1.14855    0.014
 5460.00    1.02901   1.14893    0.014
 5461.00    1.13099   1.14889    0.014
 5462.00    1.23399   1.14677    0.015
 5463.00    1.31217   1.14445    0.015
 5464.00    1.38239   1.14027    0.015
 5465.00    1.26566   1.13492    0.015
 5466.00    1.16262   1.12909    0.015
 5467.00    1.23547   1.12072    0.015
 5468.00    1.29196   1.11369    0.015
 5469.00    1.20691   1.10871    0.015
 5470.00    1.13315   1.10460    0.015
 5471.00    1.13180   1.10262    0.015
 5472.00    1.13007   1.10051    0.015
 5473.00    1.12646   1.10153    0.015
 5474.00    1.11185   1.10676    0.015
 5475.00    1.05260   1.11228    0.015
 5476.00    0.99715   1.11819    0.015
 5477.00    0.95453   1.12344    0.015
 5478.00    0.95818   1.12876   -2.000
 5479.00    1.09326   1.13464   -2.000
 5480.00    1.16823   1.13978   -2.000
 5481.00    1.09731   1.14327   -2.000
 5482.00    1.05087   1.14585   -2.000
 5483.00    1.05574   1.14759   -2.000
 5484.00    0.98632   1.14844   -2.000
 5485.00    0.78163   1.15022   -2.000
 5486.00    0.69294   1.15117   -2.000
 5487.00    0.78889   1.15131   -2.000
 5488.00    0.86384   1.15117   -2.000
 5489.00    0.90944   1.15067   -2.000
 5490.00    1.11181   1.15088   -2.000
 5491.00    1.50689   1.15011   -2.000
 5492.00    1.67793   1.14781   -2.000
 5493.00    1.60619   1.14529   -2.000
 5494.00    1.54015   1.14312   -2.000
 5495.00    1.47959   1.14085   -2.000
 5496.00    1.42045   1.13770   -2.000
 5497.00    1.36251   1.13314   -2.000
 5498.00    1.31204   1.12976   -2.000
 5499.00    1.26711   1.12801   -2.000
 5500.00    1.25312   1.12511   -2.000
 5501.00    1.25930   1.12272   -2.000
 5502.00    1.25071   1.12038    0.014
 5503.00    1.23368   1.11798    0.014
 5504.00    1.20529   1.11788    0.014
 5505.00    1.17124   1.11745    0.014
 5506.00    1.10112   1.11752    0.014
 5507.00    1.01550   1.11994    0.014
 5508.00    1.00479   1.12286    0.014
 5509.00    1.02168   1.12844    0.015
 5510.00    1.04829   1.13529    0.014
 5511.00    1.07795   1.14177    0.014
 5512.00    1.10271   1.14900    0.014
 5513.00    1.12618   1.15491    0.014
 5514.00    1.15833   1.15944    0.014
 5515.00    1.19232   1.16227    0.014
 5516.00    1.20092   1.16200    0.015
 5517.00    1.20526   1.15991    0.015
 5518.00    1.17533   1.15633    0.015
 5519.00    1.14107   1.15124    0.015
 5520.00    1.15785   1.14678    0.015
 5521.00    1.17913   1.14271    0.015
 5522.00    1.20507   1.13909    0.015
 5523.00    1.23126   1.13719    0.015
 5524.00    1.22422   1.13643    0.014
 5525.00    1.21685   1.13771    0.014
 5526.00    1.23083   1.13996    0.014
 5527.00    1.24382   1.14254    0.014
 5528.00    1.23539   1.14566    0.014
 5529.00    1.21638   1.14852    0.014
 5530.00    1.06829   1.15249    0.014
 5531.00    0.93955   1.15609    0.014
 5532.00    0.97208   1.15948    0.014
 5533.00    1.00797   1.16308    0.014
 5534.00    1.06471   1.16554    0.014
 5535.00    1.11667   1.16844    0.014
 5536.00    1.14524   1.17113    0.014
 5537.00    1.16707   1.17290    0.014
 5538.00    1.16212   1.17497    0.014
 5539.00    1.16098   1.17707    0.015
 5540.00    1.17244   1.17912    0.036
 5541.00    1.19447   1.18152   -1.000
 5542.00    1.24599   1.18341   -1.000
 5543.00    1.27012   1.18471   -1.000
 5544.00    1.22885   1.18565   -1.000
 5545.00    1.20211   1.18546   -1.000
 5546.00    1.20534   1.18427   -1.000
 5547.00    1.20181   1.18245    0.075
 5548.00    1.18616   1.17966    0.020
 5549.00    1.21301   1.17638    0.014
 5550.00    1.30650   1.17331    0.014
 5551.00    1.30931   1.16964    0.014
 5552.00    1.18727   1.16598    0.014
 5553.00    1.12600   1.16226    0.014
 5554.00    1.13837   1.15782    0.014
 5555.00    1.14171   1.15401    0.014
 5556.00    1.13538   1.14958    0.014
 5557.00    1.11617   1.14501    0.014
 5558.00    1.08481   1.14114    0.014
 5559.00    1.12361   1.13725    0.014
 5560.00    1.22072   1.13459    0.014
 5561.00    1.23205   1.13217    0.014
 5562.00    1.18064   1.13078    0.014
 5563.00    1.14216   1.13047    0.014
 5564.00    1.11198   1.13067    0.014
 5565.00    1.16742   1.13267    0.014
 5566.00    1.27096   1.13457    0.014
 5567.00    1.29933   1.13692    0.014
 5568.00    1.29095   1.14030    0.014
 5569.00    1.20585   1.14305    0.014
 5570.00    1.08834   1.14584    0.014
 5571.00    1.04815   1.14813    0.014
 5572.00    1.03592   1.14842    0.014
 5573.00    1.05504   1.14757    0.014
 5574.00    1.08375   1.14531    0.014
 5575.00    1.06841   1.14021    0.014
 5576.00    1.04184   1.13332    0.014
 5577.00    1.03757   1.12499    0.014
 5578.00    1.03792   1.11485    0.013
 5579.00    1.06584   1.10541    0.014
 5580.00    1.09826   1.09612    0.014
 5581.00    1.10614   1.08760    0.014
 5582.00    1.11101   1.08204    0.014
 5583.00    1.17037   1.07814    0.014
 5584.00    1.23431   1.07789    0.014
 5585.00    1.24966   1.08041    0.014
 5586.00    1.26265   1.08369    0.014
 5587.00    1.25282   1.08838    0.013
 5588.00    1.24161   1.09259    0.013
 5589.00    1.16882   1.09667    0.013
 5590.00    1.09930   1.10063    0.013
 5591.00    1.09459   1.10300    0.014
 5592.00    1.08758   1.10439    0.014
 5593.00    1.05384   1.10623    0.014
 5594.00    1.01754   1.10822    0.014
 5595.00    0.96067   1.11189    0.014
 5596.00    0.91768   1.11727    0.014
 5597.00    0.95857   1.12352    0.014
 5598.00    0.99915   1.13209    0.014
 5599.00    1.03831   1.14080    0.014
 5600.00    1.05971   1.14976    0.014
 5601.00    1.01212   1.15766    0.014
 5602.00    1.00981   1.16291    0.014
 5603.00    1.15398   1.16556    0.014
 5604.00    1.25645   1.16429    0.014
 5605.00    1.24472   1.16120    0.014
 5606.00    1.22550   1.15609    0.014
 5607.00    1.18872   1.14913    0.014
 5608.00    1.14943   1.14129    0.014
 5609.00    1.10504   1.13238    0.014
 5610.00    1.09737   1.12583    0.014
 5611.00    1.15453   1.12136    0.014
 5612.00    1.19265   1.11814    0.014
 5613.00    1.20135   1.11615    0.014
 5614.00    1.18405   1.11467    0.014
 5615.00    1.13148   1.11490    0.013
 5616.00    1.13919   1.11595    0.013
 5617.00    1.21892   1.11743    0.014
 5618.00    1.24807   1.11920    0.014
 5619.00    1.22393   1.12161    0.013
 5620.00    1.19908   1.12546    0.013
 5621.00    1.17357   1.12983    0.013
 5622.00    1.16791   1.13468    0.013
 5623.00    1.17850   1.13937    0.013
 5624.00    1.19895   1.14300    0.013
 5625.00    1.22650   1.14555    0.013
 5626.00    1.23863   1.14633    0.013
 5627.00    1.24100   1.14570    0.013
 5628.00    1.22884   1.14369    0.013
 5629.00    1.20864   1.14046    0.013
 5630.00    1.14727   1.13624    0.013
 5631.00    1.06609   1.13217    0.013
 5632.00    1.04293   1.12890    0.013
 5633.00    1.04387   1.12631    0.013
 5634.00    1.04388   1.12496    0.013
 5635.00    1.04356   1.12403    0.013
 5636.00    1.01691   1.12466    0.013
 5637.00    0.98237   1.12629    0.013
 5638.00    1.06878   1.12807    0.013
 5639.00    1.18531   1.13081    0.013
 5640.00    1.21406   1.13335    0.014
 5641.00    1.22508   1.13596    0.014
 5642.00    1.18279   1.13787    0.014
 5643.00    1.13205   1.13829    0.014
 5644.00    1.10309   1.13797    0.014
 5645.00    1.07669   1.13704    0.014
 5646.00    1.08254   1.13454    0.014
 5647.00    1.09097   1.12984    0.014
 5648.00    1.09731   1.12435    0.014
 5649.00    1.10356   1.11874    0.014
 5650.00    1.10103   1.11332    0.014
 5651.00    1.09806   1.10766    0.014
 5652.00    1.07843   1.10208    0.014
 5653.00    1.05938   1.09933    0.014
 5654.00    1.05108   1.09897    0.013
 5655.00    1.04602   1.09980    0.013
 5656.00    1.07674   1.10159    0.013
 5657.00    1.10984   1.10475    0.013
 5658.00    1.16131   1.10956    0.013
 5659.00    1.19813   1.11485    0.013
 5660.00    1.14892   1.12031    0.013
 5661.00    1.09696   1.12553    0.013
 5662.00    1.03221   1.13109    0.013
 5663.00    0.98940   1.13668    0.013
 5664.00    1.03006   1.14209    0.013
 5665.00    1.06754   1.14768    0.013
 5666.00    1.09495   1.15304    0.013
 5667.00    1.11112   1.15770    0.013
 5668.00    1.09709   1.16103    0.012
 5669.00    1.08464   1.16287    0.012
 5670.00    1.07585   1.16367    0.013
 5671.00    1.08033   1.16281    0.013
 5672.00    1.11134   1.16027    0.013
 5673.00    1.12924   1.15668    0.013
 5674.00    1.12433   1.15237    0.013
 5675.00    1.10680   1.14763    0.013
 5676.00    1.07004   1.14207    0.014
 5677.00    1.05013   1.13760    0.014
 5678.00    1.05276   1.13456    0.014
 5679.00    1.05802   1.13297    0.014
 5680.00    1.06636   1.13218    0.014
 5681.00    1.05923   1.13252    0.014
 5682.00    1.03602   1.13444    0.014
 5683.00    1.06871   1.13733    0.014
 5684.00    1.15261   1.14134    0.014
 5685.00    1.19917   1.14475    0.014
 5686.00    1.21558   1.14799    0.014
 5687.00    1.21203   1.14957    0.014
 5688.00    1.19428   1.14950    0.014
 5689.00    1.20492   1.14834    0.014
 5690.00    1.23327   1.14529    0.014
 5691.00    1.20640   1.14133    0.014
 5692.00    1.14945   1.13543    0.013
 5693.00    1.10923   1.12928    0.013
 5694.00    1.07693   1.12305    0.013
 5695.00    1.09300   1.11569    0.013
 5696.00    1.12884   1.10906    0.013
 5697.00    1.19184   1.10295    0.013
 5698.00    1.26431   1.09711    0.013
 5699.00    1.26764   1.09196    0.013
 5700.00    1.25065   1.08672    0.013
 5701.00    1.20530   1.08305    0.013
 5702.00    1.15306   1.08147    0.013
 5703.00    1.11974   1.08114    0.013
 5704.00    1.09014   1.08418    0.013
 5705.00    1.05811   1.08912    0.013
 5706.00    1.02571   1.09556    0.012
 5707.00    1.06556   1.10510    0.012
 5708.00    1.11361   1.11534    0.012
 5709.00    1.18627   1.12585    0.013
 5710.00    1.26079   1.13663    0.013
 5711.00    1.23127   1.14649    0.013
 5712.00    1.19751   1.15541    0.013
 5713.00    1.15751   1.16329    0.013
 5714.00    1.11747   1.16935    0.013
 5715.00    1.07777   1.17393    0.013
 5716.00    1.04272   1.17698    0.013
 5717.00    1.08770   1.17850    0.014
 5718.00    1.13013   1.17864    0.014
 5719.00    1.14558   1.17769    0.015
 5720.00    1.15781   1.17595    0.016
 5721.00    1.14594   1.17341    0.016
 5722.00    1.13046   1.17196    0.016
 5723.00    1.09430   1.17116    0.015
 5724.00    1.08714   1.17032    0.015
 5725.00    1.21170   1.16925    0.014
 5726.00    1.32097   1.16901    0.013
 5727.00    1.37334   1.17035    0.014
 5728.00    1.40051   1.17141    0.014
 5729.00    1.34927   1.17231    0.013
 5730.00    1.29161   1.17282    0.013
 5731.00    1.21699   1.17298    0.013
 5732.00    1.15670   1.17324    0.013
 5733.00    1.12889   1.17328    0.013
 5734.00    1.13062   1.17311    0.013
 5735.00    1.19041   1.17266    0.013
 5736.00    1.21792   1.17192    0.013
 5737.00    1.19014   1.17088    0.013
 5738.00    1.17329   1.17022    0.013
 5739.00    1.17284   1.16933    0.013
 5740.00    1.17210   1.16765    0.000
 5741.00    1.17097   1.16501    0.000
 5742.00    1.16737   1.16176    0.000
 5743.00    1.16091   1.15955    0.000
 5744.00    1.17279   1.15768    0.000
 5745.00    1.20346   1.15557    0.000
 5746.00    1.25906   1.15310    0.000
 5747.00    1.33719   1.15095    0.000
 5748.00    1.36939   1.14968    0.000
 5749.00    1.36504   1.14971    0.000
 5750.00    1.30371   1.15047    0.000
 5751.00    1.20247   1.15092    0.000
 5752.00    1.16692   1.15127    0.000
 5753.00    1.17171   1.15138    0.000
 5754.00    1.17510   1.15175    0.000
 5755.00    1.17773   1.15264    0.000
 5756.00    1.20733   1.15434    0.000
 5757.00    1.24948   1.15673    0.000
 5758.00    1.23025   1.16062    0.000
 5759.00    1.18637   1.16435    0.000
 5760.00    1.15139   1.16761    0.000
 5761.00    1.11946   1.17046    0.000
 5762.00    1.16285   1.17250    0.000
 5763.00    1.22795   1.17377    0.000
 5764.00    1.28845   1.17369    0.000
 5765.00    1.34785   1.17273    0.000
 5766.00    1.36870   1.17012    0.000
 5767.00    1.38214   1.16666    0.000
 5768.00    1.33927   1.16192    0.000
 5769.00    1.28800   1.15621    0.000
 5770.00    1.27801   1.15018    0.000
 5771.00    1.27252   1.14286    0.000
 5772.00    1.31958   1.13467    0.000
 5773.00    1.37041   1.12615    0.000
 5774.00    1.33252   1.11793    0.000
 5775.00    1.29136   1.11019    0.000
 5776.00    1.24870   1.10486    0.000
 5777.00    1.20682   1.10150    0.000
 5778.00    1.19341   1.10015    0.000
 5779.00    1.17987   1.10089    0.000
 5780.00    1.16416   1.10391    0.000
 5781.00    1.14798   1.10974    0.000
 5782.00    1.12698   1.11583    0.000
 5783.00    1.10981   1.12283    0.000
 5784.00    1.12047   1.12973    0.000
 5785.00    1.13454   1.13587    0.000
 5786.00    1.16759   1.14294    0.000
 5787.00    1.18404   1.14915    0.000
 5788.00    1.12685   1.15468    0.000
 5789.00    1.07722   1.15954    0.000
 5790.00    1.05510   1.16321    0.000
 5791.00    1.04335   1.16645   -2.000
 5792.00    1.06321   1.16906   -2.000
 5793.00    1.08490   1.17194   -2.000
 5794.00    1.11132   1.17436   -2.000
 5795.00    1.15003   1.17531   -2.000
 5796.00    1.21616   1.17554   -2.000
 5797.00    1.28415   1.17512   -2.000
 5798.00    1.35570   1.17410   -2.000
 5799.00    1.38690   1.17324   -2.000
 5800.00    1.35003   1.17262   -2.000
 5801.00    1.33911   1.17201   -2.000
 5802.00    1.36655   1.17151   -2.000
 5803.00    1.36057   1.17091   -2.000
 5804.00    1.31116   1.17072   -2.000
 5805.00    1.25887   1.17084   -2.000
 5806.00    1.20327   1.17078   -2.000
 5807.00    1.17143   1.17102   -2.000
 5808.00    1.16356   1.17128   -2.000
 5809.00    1.19655   1.17196   -2.000
 5810.00    1.26591   1.17327   -2.000
 5811.00    1.28923   1.17522    0.000
 5812.00    1.27641   1.17807    0.000
 5813.00    1.23692   1.18073    0.000
 5814.00    1.17903   1.18328    0.000
 5815.00    1.14581   1.18573    0.000
 5816.00    1.12752   1.18777    0.000
 5817.00    1.15953   1.18973    0.000
 5818.00    1.21811   1.19101    0.000
 5819.00    1.24909   1.19213    0.000
 5820.00    1.26742   1.19255    0.000
 5821.00    1.22585   1.19255    0.000
 5822.00    1.16066   1.19222    0.000
 5823.00    1.13671   1.19159    0.000
 5824.00    1.12663   1.19083    0.000
 5825.00    1.18135   1.18957    0.000
 5826.00    1.25437   1.18835    0.000
 5827.00    1.24066   1.18713    0.000
 5828.00    1.20676   1.18620    0.000
 5829.00    1.18410   1.18547    0.000
 5830.00    1.16355   1.18515    0.000
 5831.00    1.21539   1.18529    0.000
 5832.00    1.27767   1.18538    0.000
 5833.00    1.22610   1.18573    0.000
 5834.00    1.16261   1.18601    0.000
 5835.00    1.18235   1.18585    0.000
 5836.00    1.20771   1.18490    0.000
 5837.00    1.29178   1.18297    0.000
 5838.00    1.37778   1.18010    0.000
 5839.00    1.34191   1.17613    0.000
 5840.00    1.30558   1.17148    0.000
 5841.00    1.25721   1.16617    0.000
 5842.00    1.20906   1.16036    0.000
 5843.00    1.16436   1.15415    0.000
 5844.00    1.12253   1.14757    0.000
 5845.00    1.10857   1.14079    0.000
 5846.00    1.09768   1.13444    0.000
 5847.00    1.10841   1.12858    0.000
 5848.00    1.12837   1.12349    0.000
 5849.00    1.19815   1.11928    0.000
 5850.00    1.25572   1.11601    0.000
 5851.00    1.26040   1.11429    0.000
 5852.00    1.25370   1.11368    0.000
 5853.00    1.20641   1.11517    0.000
 5854.00    1.18705   1.11710    0.000
 5855.00    1.25138   1.12016    0.000
 5856.00    1.29861   1.12359    0.000
 5857.00    1.30221   1.12731    0.000
 5858.00    1.27475   1.13121    0.000
 5859.00    1.17909   1.13490    0.000
 5860.00    1.10257   1.13888    0.000
 5861.00    1.06249   1.14222    0.000
 5862.00    1.03329   1.14558    0.000
 5863.00    1.02217   1.14816    0.000
 5864.00    1.02228   1.15010    0.000
 5865.00    1.03876   1.15097    0.000
 5866.00    1.06224   1.15122    0.000
 5867.00    1.09468   1.15059    0.000
 5868.00    1.13615   1.14878    0.000
 5869.00    1.18780   1.14621    0.000
 5870.00    1.22946   1.14240    0.000
 5871.00    1.26118   1.13777    0.000
 5872.00    1.27386   1.13179    0.000
 5873.00    1.26984   1.12501    0.000
 5874.00    1.26308   1.11666    0.000
 5875.00    1.25420   1.10640    0.000
 5876.00    1.26043   1.09446    0.000
 5877.00    1.27695   1.08020    0.000
 5878.00    1.26690   1.06359    0.000
 5879.00    1.24102   1.04473    0.000
 5880.00    1.26342   1.02376    0.000
 5881.00    1.31091   1.00122    0.000
 5882.00    1.31989   0.97917    0.000
 5883.00    1.31152   0.96103    0.000
 5884.00    1.25063   0.94640    0.000
 5885.00    1.16939   0.93608    0.000
 5886.00    1.10652   0.93110    0.000
 5887.00    1.04972   0.92929    0.000
 5888.00    1.01592   0.93209    0.000
 5889.00    0.98849   0.94109    0.000
 5890.00    1.01252   0.95443    0.000
 5891.00    1.04826   0.97106    0.000
 5892.00    1.02609   0.99001    0.000
 5893.00    0.99338   1.00975    0.000
 5894.00    1.04891   1.02880    0.000
 5895.00    1.11676   1.04673    0.000
 5896.00    1.15219   1.06352    0.000
 5897.00    1.18437   1.07788    0.000
 5898.00    1.17971   1.08994    0.000
 5899.00    1.17271   1.09979    0.000
 5900.00    1.14888   1.10705    0.000
 5901.00    1.12453   1.11204    0.013
 5902.00    1.08925   1.11527    0.013
 5903.00    1.05539   1.11713    0.012
 5904.00    1.06175   1.11767    0.012
 5905.00    1.07118   1.11728    0.012
 5906.00    1.12446   1.11595    0.012
 5907.00    1.16890   1.11505    0.012
 5908.00    1.13096   1.11407    0.012
 5909.00    1.09046   1.11398    0.012
 5910.00    1.03258   1.11451    0.012
 5911.00    0.98569   1.11536    0.012
 5912.00    0.99666   1.11720    0.012
 5913.00    1.01051   1.11889    0.012
 5914.00    1.03655   1.12087    0.012
 5915.00    1.06739   1.12277    0.012
 5916.00    1.11501   1.12473    0.012
 5917.00    1.15499   1.12609    0.012
 5918.00    1.17251   1.12705    0.012
 5919.00    1.18506   1.12732    0.012
 5920.00    1.18517   1.12682    0.012
 5921.00    1.16772   1.12616    0.012
 5922.00    1.11240   1.12494    0.012
 5923.00    1.05941   1.12454    0.012
 5924.00    1.01081   1.12418    0.012
 5925.00    1.00641   1.12387    0.012
 5926.00    1.07435   1.12351    0.012
 5927.00    1.11899   1.12329    0.012
 5928.00    1.13018   1.12422    0.012
 5929.00    1.13981   1.12480    0.013
 5930.00    1.14746   1.12561    0.013
 5931.00    1.13454   1.12651    0.013
 5932.00    1.09871   1.12701    0.012
 5933.00    1.07325   1.12699    0.012
 5934.00    1.05796   1.12709    0.012
 5935.00    1.05958   1.12733    0.012
 5936.00    1.07582   1.12727    0.012
 5937.00    1.11004   1.12725    0.012
 5938.00    1.15797   1.12684    0.012
 5939.00    1.16827   1.12602    0.012
 5940.00    1.15336   1.12459    0.012
 5941.00    1.12304   1.12299    0.012
 5942.00    1.08369   1.12177    0.012
 5943.00    1.10196   1.12061    0.012
 5944.00    1.14973   1.11917    0.012
 5945.00    1.15251   1.11762    0.012
 5946.00    1.13533   1.11715    0.012
 5947.00    1.10539   1.11705    0.012
 5948.00    1.07059   1.11712    0.012
 5949.00    1.06463   1.11784    0.012
 5950.00    1.06800   1.11956    0.012
 5951.00    1.08810   1.12186    0.012
 5952.00    1.11274   1.12475    0.012
 5953.00    1.15556   1.12777    0.012
 5954.00    1.20241   1.13099    0.012
 5955.00    1.15076   1.13390    0.012
 5956.00    1.08169   1.13681    0.012
 5957.00    1.07515   1.13931    0.012
 5958.00    1.07706   1.14131    0.012
 5959.00    1.13892   1.14357    0.013
 5960.00    1.20655   1.14518    0.013
 5961.00    1.19111   1.14647    0.013
 5962.00    1.17072   1.14713    0.012
 5963.00    1.14796   1.14734    0.012
 5964.00    1.12510   1.14670    0.012
 5965.00    1.09555   1.14533    0.012
 5966.00    1.06806   1.14325    0.012
 5967.00    1.09292   1.14032    0.012
 5968.00    1.11828   1.13693    0.012
 5969.00    1.15034   1.13340    0.012
 5970.00    1.18042   1.12993    0.012
 5971.00    1.19282   1.12656    0.012
 5972.00    1.20714   1.12367    0.012
 5973.00    1.23413   1.12086    0.012
 5974.00    1.26080   1.11827    0.012
 5975.00    1.28584   1.11614    0.011
 5976.00    1.29680   1.11439    0.011
 5977.00    1.24945   1.11362    0.012
 5978.00    1.20383   1.11386    0.012
 5979.00    1.16419   1.11446    0.012
 5980.00    1.12937   1.11584    0.012
 5981.00    1.10850   1.11758    0.012
 5982.00    1.09201   1.11981    0.012
 5983.00    1.08635   1.12198    0.012
 5984.00    1.08922   1.12416    0.012
 5985.00    1.11023   1.12640    0.012
 5986.00    1.12851   1.12790    0.012
 5987.00    1.14174   1.12871    0.012
 5988.00    1.15722   1.12864    0.012
 5989.00    1.17633   1.12782    0.012
 5990.00    1.19534   1.12652    0.012
 5991.00    1.21419   1.12496    0.013
 5992.00    1.23315   1.12299    0.013
 5993.00    1.25226   1.12081    0.012
 5994.00    1.26318   1.11854    0.012
 5995.00    1.26512   1.11606    0.012
 5996.00    1.24332   1.11383    0.012
 5997.00    1.19855   1.11163    0.012
 5998.00    1.17181   1.10928    0.012
 5999.00    1.16045   1.10752    0.012
 6000.00    1.13152   1.10591    0.012
 6001.00    1.08939   1.10491    0.012
 6002.00    1.06344   1.10417    0.012
 6003.00    1.04818   1.10342    0.011
 6004.00    1.01203   1.10282    0.011
 6005.00    0.96380   1.10223    0.011
 6006.00    0.94178   1.10170    0.011
 6007.00    0.93296   1.10109    0.011
 6008.00    0.98644   1.10041    0.011
 6009.00    1.06708   1.09966    0.011
 6010.00    1.11241   1.09899    0.012
 6011.00    1.14453   1.09862    0.012
 6012.00    1.13899   1.09830    0.012
 6013.00    1.12150   1.09884    0.012
 6014.00    1.09541   1.09988    0.012
 6015.00    1.06704   1.10200    0.012
 6016.00    1.06964   1.10471    0.012
 6017.00    1.07897   1.10807    0.012
 6018.00    1.13962   1.11231    0.012
 6019.00    1.20912   1.11662    0.012
 6020.00    1.21696   1.12165    0.012
 6021.00    1.21675   1.12629    0.013
 6022.00    1.18713   1.13123    0.013
 6023.00    1.15482   1.13560    0.012
 6024.00    1.13299   1.13970    0.012
 6025.00    1.11175   1.14322    0.012
 6026.00    1.11594   1.14604    0.012
 6027.00    1.12101   1.14840    0.012
 6028.00    1.15844   1.15004    0.012
 6029.00    1.19544   1.15121    0.012
 6030.00    1.22231   1.15183    0.012
 6031.00    1.24693   1.15235    0.012
 6032.00    1.24270   1.15243    0.012
 6033.00    1.23818   1.15292    0.012
 6034.00    1.23123   1.15336    0.012
 6035.00    1.21957   1.15404    0.012
 6036.00    1.17789   1.15494    0.011
 6037.00    1.13933   1.15586    0.011
 6038.00    1.11638   1.15692    0.011
 6039.00    1.10180   1.15757    0.011
 6040.00    1.12110   1.15828    0.011
 6041.00    1.13718   1.15823    0.012
 6042.00    1.14240   1.15783    0.012
 6043.00    1.15076   1.15664    0.012
 6044.00    1.16799   1.15488    0.012
 6045.00    1.17641   1.15281    0.012
 6046.00    1.16347   1.15003    0.012
 6047.00    1.14758   1.14755    0.012
 6048.00    1.12552   1.14477    0.012
 6049.00    1.09819   1.14263    0.012
 6050.00    1.06127   1.14042    0.012
 6051.00    1.04966   1.13862    0.012
 6052.00    1.07827   1.13698    0.012
 6053.00    1.07947   1.13538    0.012
 6054.00    1.04245   1.13438    0.012
 6055.00    1.02992   1.13308    0.012
 6056.00    1.04744   1.13303    0.012
 6057.00    1.08068   1.13371    0.012
 6058.00    1.13092   1.13515    0.012
 6059.00    1.16412   1.13737    0.012
 6060.00    1.18105   1.14015    0.012
 6061.00    1.18208   1.14365    0.012
 6062.00    1.16973   1.14715    0.012
 6063.00    1.16155   1.15070    0.012
 6064.00    1.15646   1.15347    0.012
 6065.00    1.15590   1.15547    0.011
 6066.00    1.15828   1.15616    0.011
 6067.00    1.17937   1.15553    0.011
 6068.00    1.21110   1.15342    0.011
 6069.00    1.24372   1.15007    0.011
 6070.00    1.27677   1.14614    0.012
 6071.00    1.26522   1.14135    0.012
 6072.00    1.23453   1.13633    0.012
 6073.00    1.15270   1.13154    0.012
 6074.00    1.05207   1.12736    0.012
 6075.00    1.00571   1.12346    0.012
 6076.00    0.97624   1.12041    0.012
 6077.00    0.99972   1.11804    0.012
 6078.00    1.03693   1.11637    0.012
 6079.00    1.06978   1.11521    0.012
 6080.00    1.10169   1.11421    0.012
 6081.00    1.11459   1.11389    0.012
 6082.00    1.12431   1.11386    0.012
 6083.00    1.07345   1.11409    0.012
 6084.00    1.01495   1.11457    0.012
 6085.00    0.97856   1.11550    0.012
 6086.00    0.94410   1.11625    0.012
 6087.00    0.95536   1.11693    0.012
 6088.00    0.96899   1.11747    0.012
 6089.00    1.02504   1.11760    0.012
 6090.00    1.08128   1.11706    0.012
 6091.00    1.09518   1.11574    0.011
 6092.00    1.10877   1.11370    0.011
 6093.00    1.11580   1.11125    0.011
 6094.00    1.12048   1.10954    0.011
 6095.00    1.09679   1.10773    0.011
 6096.00    1.07716   1.10666    0.011
 6097.00    1.09112   1.10633    0.011
 6098.00    1.10898   1.10698    0.011
 6099.00    1.15097   1.10881    0.012
 6100.00    1.18508   1.11133    0.012
 6101.00    1.18086   1.11429    0.011
 6102.00    1.16715   1.11733    0.011
 6103.00    1.11588   1.12055    0.012
 6104.00    1.07805   1.12301    0.012
 6105.00    1.08445   1.12496    0.012
 6106.00    1.09927   1.12570    0.012
 6107.00    1.13752   1.12529    0.012
 6108.00    1.14774   1.12382    0.012
 6109.00    1.09121   1.12125    0.012
 6110.00    1.05717   1.11751    0.012
 6111.00    1.06938   1.11354    0.012
 6112.00    1.08287   1.10910    0.012
 6113.00    1.09866   1.10502    0.012
 6114.00    1.11515   1.10166    0.012
 6115.00    1.13278   1.09878    0.012
 6116.00    1.14745   1.09700    0.012
 6117.00    1.15808   1.09617    0.012
 6118.00    1.14351   1.09645    0.012
 6119.00    1.09846   1.09736    0.011
 6120.00    1.04766   1.09866    0.011
 6121.00    0.99073   1.09979    0.011
 6122.00    0.96769   1.10032    0.011
 6123.00    0.97654   1.09998    0.011
 6124.00    1.00214   1.09818    0.011
 6125.00    1.04162   1.09502    0.011
 6126.00    1.07856   1.09108    0.011
 6127.00    1.11366   1.08642    0.011
 6128.00    1.14721   1.08214    0.011
 6129.00    1.17976   1.07815    0.011
 6130.00    1.17452   1.07535    0.011
 6131.00    1.14808   1.07423    0.012
 6132.00    1.08797   1.07483    0.012
 6133.00    1.01143   1.07730    0.012
 6134.00    1.00147   1.08101    0.012
 6135.00    1.01959   1.08583    0.012
 6136.00    1.06729   1.09076    0.012
 6137.00    1.12566   1.09574    0.012
 6138.00    1.13989   1.09999    0.012
 6139.00    1.14064   1.10343    0.012
 6140.00    1.13484   1.10568    0.012
 6141.00    1.12737   1.10672    0.012
 6142.00    1.12929   1.10639    0.012
 6143.00    1.13314   1.10515    0.012
 6144.00    1.15664   1.10316    0.012
 6145.00    1.18333   1.10025    0.012
 6146.00    1.14545   1.09640    0.011
 6147.00    1.09972   1.09153    0.011
 6148.00    1.08833   1.08564    0.011
 6149.00    1.07980   1.07815    0.011
 6150.00    1.07508   1.06978    0.011
 6151.00    1.07054   1.06078    0.011
 6152.00    1.05858   1.05160    0.011
 6153.00    1.04693   1.04256    0.011
 6154.00    1.05926   1.03398    0.011
 6155.00    1.07096   1.02688    0.011
 6156.00    1.07018   1.02125    0.011
 6157.00    1.06577   1.01736    0.012
 6158.00    1.01948   1.01549    0.011
 6159.00    0.97828   1.01571    0.011
 6160.00    0.97784   1.01759    0.012
 6161.00    0.98053   1.02050    0.012
 6162.00    1.00207   1.02464    0.012
 6163.00    1.02199   1.02938    0.012
 6164.00    1.03421   1.03482    0.012
 6165.00    1.04205   1.04036    0.012
 6166.00    1.03292   1.04613    0.012
 6167.00    1.03020   1.05181    0.012
 6168.00    1.04819   1.05710    0.012
 6169.00    1.06374   1.06238    0.012
 6170.00    1.07264   1.06707    0.012
 6171.00    1.07931   1.07133    0.011
 6172.00    1.08072   1.07468    0.011
 6173.00    1.08055   1.07732    0.011
 6174.00    1.07717   1.07853    0.011
 6175.00    1.06487   1.07873    0.011
 6176.00    1.03683   1.07774    0.011
 6177.00    1.01604   1.07552    0.011
 6178.00    1.00642   1.07243    0.011
 6179.00    1.00719   1.06831    0.011
 6180.00    1.02202   1.06410    0.011
 6181.00    1.04049   1.05996    0.011
 6182.00    1.06329   1.05629    0.011
 6183.00    1.08506   1.05358    0.011
 6184.00    1.10572   1.05193    0.011
 6185.00    1.12038   1.05161    0.011
 6186.00    1.12945   1.05244    0.012
 6187.00    1.11498   1.05438    0.012
 6188.00    1.08124   1.05705    0.011
 6189.00    1.07132   1.06034    0.011
 6190.00    1.07853   1.06378    0.012
 6191.00    1.09720   1.06711    0.012
 6192.00    1.12311   1.07039    0.012
 6193.00    1.14916   1.07329    0.012
 6194.00    1.17527   1.07613    0.012
 6195.00    1.22228   1.07850    0.012
 6196.00    1.27932   1.08040   -2.000
 6197.00    1.35316   1.08177   -2.000
 6198.00    1.43395   1.08243   -2.000
 6199.00    1.40712   1.08201   -2.000
 6200.00    1.34215   1.08054   -2.000
 6201.00    1.22709   1.07775   -2.000
 6202.00    1.09704   1.07378   -2.000
 6203.00    0.98904   1.06873   -2.000
 6204.00    0.88650   1.06270   -2.000
 6205.00    0.89767   1.05614   -2.000
 6206.00    0.93174   1.04939   -2.000
 6207.00    0.98797   1.04307   -2.000
 6208.00    1.04770   1.03743    0.011
 6209.00    1.05358   1.03285    0.011
 6210.00    1.05315   1.02933    0.011
 6211.00    1.07273   1.02713    0.011
 6212.00    1.09389   1.02597    0.011
 6213.00    1.13061   1.02575    0.011
 6214.00    1.16801   1.02619    0.011
 6215.00    1.17732   1.02681    0.011
 6216.00    1.18480   1.02747    0.011
 6217.00    1.11967   1.02773    0.011
 6218.00    1.05605   1.02778    0.011
 6219.00    1.01980   1.02706    0.012
 6220.00    0.98934   1.02622    0.012
 6221.00    1.02269   1.02489    0.012
 6222.00    1.05363   1.02387    0.012
 6223.00    1.06600   1.02286    0.012
 6224.00    1.07846   1.02242    0.012
 6225.00    1.09138   1.02249    0.012
 6226.00    1.10155   1.02287    0.012
 6227.00    1.09895   1.02382    0.012
 6228.00    1.09655   1.02446    0.012
 6229.00    1.09487   1.02493    0.012
 6230.00    1.09484   1.02467    0.012
 6231.00    1.10000   1.02394    0.011
 6232.00    1.09790   1.02240    0.011
 6233.00    1.07633   1.02058    0.011
 6234.00    1.05723   1.01851    0.011
 6235.00    1.04382   1.01643    0.011
 6236.00    1.03704   1.01473    0.011
 6237.00    1.04349   1.01347    0.011
 6238.00    1.04197   1.01264    0.011
 6239.00    1.02665   1.01236    0.011
 6240.00    1.01287   1.01211    0.011
 6241.00    1.00145   1.01189    0.011
 6242.00    0.97830   1.01101    0.011
 6243.00    0.93948   1.00969    0.011
 6244.00    0.91803   1.00755    0.011
 6245.00    0.91701   1.00484    0.012
 6246.00    0.93786   1.00207    0.012
 6247.00    0.98139   0.99913    0.012
 6248.00    1.01400   0.99695    0.012
 6249.00    1.03663   0.99543    0.012
 6250.00    1.05091   0.99540    0.012
 6251.00    1.05845   0.99645    0.012
 6252.00    1.05366   0.99919    0.011
 6253.00    1.04012   1.00302    0.011
 6254.00    1.05151   1.00785    0.011
 6255.00    1.07841   1.01335    0.011
 6256.00    1.09863   1.01886    0.011
 6257.00    1.11522   1.02440    0.011
 6258.00    1.15054   1.02923    0.011
 6259.00    1.19472   1.03378    0.012
 6260.00    1.27024   1.03745    0.012
 6261.00    1.35854   1.04073    0.013
 6262.00    1.34675   1.04328    0.014
 6263.00    1.30014   1.04537    0.014
 6264.00    1.16525   1.04702    0.014
 6265.00    1.00447   1.04830    0.013
 6266.00    0.94999   1.04923    0.013
 6267.00    0.92134   1.04982    0.012
 6268.00    0.97508   1.05023    0.012
 6269.00    1.04499   1.05022    0.012
 6270.00    1.10344   1.05019    0.012
 6271.00    1.16014   1.05003    0.012
 6272.00    1.13004   1.05025    0.012
 6273.00    1.09015   1.05062    0.012
 6274.00    1.07947   1.05159    0.011
 6275.00    1.07099   1.05293    0.011
 6276.00    1.08685   1.05480    0.011
 6277.00    1.10370   1.05703    0.012
 6278.00    1.10701   1.05931    0.011
 6279.00    1.11027   1.06155    0.011
 6280.00    1.11587   1.06323    0.000
 6281.00    1.12115   1.06443    0.000
 6282.00    1.12089   1.06463    0.000
 6283.00    1.12053   1.06414    0.000
 6284.00    1.11910   1.06255    0.000
 6285.00    1.11717   1.06022    0.000
 6286.00    1.11151   1.05719    0.000
 6287.00    1.10421   1.05372    0.000
 6288.00    1.08754   1.05014    0.000
 6289.00    1.07669   1.04661    0.000
 6290.00    1.09214   1.04343    0.000
 6291.00    1.10727   1.04081    0.000
 6292.00    1.12117   1.03896    0.000
 6293.00    1.12679   1.03804    0.000
 6294.00    1.10670   1.03806    0.000
 6295.00    1.09099   1.03899    0.000
 6296.00    1.08681   1.04067    0.000
 6297.00    1.08625   1.04290    0.000
 6298.00    1.09392   1.04540    0.000
 6299.00    1.09377   1.04786    0.000
 6300.00    1.07827   1.04993    0.000
 6301.00    1.05847   1.05124    0.000
 6302.00    1.03130   1.05171    0.000
 6303.00    1.03469   1.05112    0.000
 6304.00    1.08384   1.04971    0.000
 6305.00    1.11045   1.04744    0.000
 6306.00    1.10741   1.04471    0.000
 6307.00    1.11776   1.04175    0.000
 6308.00    1.14364   1.03908    0.000
 6309.00    1.14394   1.03694    0.000
 6310.00    1.11811   1.03568    0.000
 6311.00    1.09765   1.03545    0.000
 6312.00    1.08203   1.03647    0.000
 6313.00    1.08263   1.03852    0.000
 6314.00    1.09614   1.04163    0.000
 6315.00    1.07112   1.04536    0.000
 6316.00    1.01917   1.04948    0.000
 6317.00    0.97992   1.05370    0.000
 6318.00    0.94847   1.05762    0.000
 6319.00    0.95390   1.06107    0.000
 6320.00    0.97908   1.06361    0.000
 6321.00    1.01596   1.06549    0.011
 6322.00    1.05827   1.06618    0.011
 6323.00    1.10421   1.06602    0.011
 6324.00    1.15159   1.06491    0.011
 6325.00    1.13885   1.06318    0.011
 6326.00    1.10557   1.06093    0.011
 6327.00    1.07786   1.05839    0.011
 6328.00    1.05176   1.05590    0.011
 6329.00    1.05482   1.05364    0.011
 6330.00    1.06481   1.05177    0.011
 6331.00    1.05014   1.05052    0.011
 6332.00    1.03075   1.04967    0.011
 6333.00    0.99907   1.04959    0.011
 6334.00    0.96556   1.04980    0.011
 6335.00    0.95772   1.05056    0.011
 6336.00    0.95266   1.05156    0.010
 6337.00    0.97600   1.05287    0.010
 6338.00    1.00137   1.05441    0.010
 6339.00    1.02739   1.05593    0.011
 6340.00    1.05343   1.05735    0.011
 6341.00    1.06460   1.05835    0.011
 6342.00    1.07543   1.05894    0.011
 6343.00    1.07612   1.05866    0.011
 6344.00    1.07359   1.05754    0.011
 6345.00    1.01948   1.05537    0.011
 6346.00    0.97095   1.05223    0.011
 6347.00    0.97866   1.04816    0.011
 6348.00    0.98726   1.04334    0.011
 6349.00    1.00221   1.03809    0.011
 6350.00    1.01199   1.03282    0.011
 6351.00    0.99312   1.02788    0.011
 6352.00    0.97831   1.02372    0.011
 6353.00    0.98151   1.02067    0.011
 6354.00    0.98653   1.01905    0.011
 6355.00    0.99819   1.01896    0.011
 6356.00    1.00149   1.02055    0.011
 6357.00    0.97930   1.02365    0.011
 6358.00    0.96535   1.02812    0.011
 6359.00    0.97277   1.03353    0.011
 6360.00    0.99388   1.03961    0.011
 6361.00    1.04550   1.04603    0.011
 6362.00    1.08039   1.05230    0.011
 6363.00    1.08294   1.05815    0.011
 6364.00    1.06359   1.06330    0.011
 6365.00    1.00732   1.06764    0.011
 6366.00    0.96103   1.07096    0.011
 6367.00    0.92945   1.07332    0.011
 6368.00    0.91695   1.07474    0.011
 6369.00    0.92922   1.07535    0.011
 6370.00    0.97442   1.07535    0.011
 6371.00    1.05726   1.07484    0.011
 6372.00    1.08808   1.07417    0.011
 6373.00    1.06646   1.07339    0.011
 6374.00    1.05075   1.07270    0.011
 6375.00    1.04028   1.07209    0.011
 6376.00    1.04824   1.07160    0.011
 6377.00    1.07063   1.07119    0.011
 6378.00    1.07364   1.07072    0.011
 6379.00    1.06330   1.07007    0.011
 6380.00    1.09496   1.06910    0.011
 6381.00    1.15198   1.06783    0.011
 6382.00    1.18708   1.06613    0.011
 6383.00    1.21064   1.06415    0.011
 6384.00    1.19652   1.06193    0.011
 6385.00    1.16519   1.05969    0.011
 6386.00    1.12147   1.05753    0.011
 6387.00    1.07289   1.05576    0.010
 6388.00    1.04755   1.05436    0.010
 6389.00    1.03000   1.05346    0.010
 6390.00    1.04200   1.05313    0.010
 6391.00    1.06233   1.05325    0.011
 6392.00    1.07239   1.05396    0.011
 6393.00    1.08007   1.05488    0.011
 6394.00    1.04918   1.05621    0.011
 6395.00    1.01112   1.05746    0.012
 6396.00    1.00893   1.05886    0.011
 6397.00    1.01190   1.05984    0.011
 6398.00    1.00410   1.06050    0.011
 6399.00    0.99518   1.06070    0.011
 6400.00    0.97261   1.06046    0.011
 6401.00    0.94913   1.05989    0.011
 6402.00    0.97673   1.05912    0.011
 6403.00    1.00599   1.05833    0.011
 6404.00    0.98982   1.05739    0.011
 6405.00    0.97240   1.05656    0.011
 6406.00    0.91640   1.05586    0.011
 6407.00    0.86542   1.05536    0.011
 6408.00    0.88982   1.05501    0.011
 6409.00    0.91367   1.05488    0.010
 6410.00    0.93218   1.05500    0.010
 6411.00    0.94892   1.05542    0.010
 6412.00    0.95329   1.05608    0.010
 6413.00    0.95532   1.05709    0.010
 6414.00    0.94483   1.05855    0.011
 6415.00    0.94011   1.06017    0.011
 6416.00    0.96028   1.06200    0.011
 6417.00    0.98095   1.06366    0.011
 6418.00    1.00337   1.06518    0.011
 6419.00    1.01319   1.06612    0.011
 6420.00    0.98533   1.06670    0.011
 6421.00    0.96642   1.06663    0.011
 6422.00    0.97030   1.06622    0.011
 6423.00    0.98850   1.06554    0.011
 6424.00    1.03806   1.06479    0.011
 6425.00    1.07695   1.06414    0.011
 6426.00    1.09559   1.06367    0.011
 6427.00    1.09158   1.06370    0.011
 6428.00    1.05002   1.06408    0.011
 6429.00    1.03351   1.06496    0.011
 6430.00    1.05341   1.06617    0.011
 6431.00    1.07917   1.06773    0.011
 6432.00    1.11242   1.06945    0.011
 6433.00    1.12574   1.07125    0.011
 6434.00    1.11660   1.07284    0.011
 6435.00    1.08951   1.07390    0.011
 6436.00    1.04461   1.07430    0.011
 6437.00    1.00953   1.07379    0.011
 6438.00    0.98306   1.07239    0.011
 6439.00    0.97406   1.07005    0.011
 6440.00    0.97855   1.06714    0.011
 6441.00    0.97750   1.06387    0.011
 6442.00    0.97269   1.06081    0.011
 6443.00    0.96582   1.05800    0.011
 6444.00    0.95773   1.05611    0.011
 6445.00    0.99045   1.05498    0.011
 6446.00    1.04436   1.05498    0.011
 6447.00    1.08783   1.05561    0.012
 6448.00    1.12661   1.05698    0.012
 6449.00    1.14015   1.05849    0.012
 6450.00    1.14393   1.06008    0.011
 6451.00    1.12726   1.06141    0.011
 6452.00    1.10388   1.06251    0.011
 6453.00    1.08947   1.06331    0.011
 6454.00    1.07752   1.06370    0.011
 6455.00    1.06950   1.06411    0.011
 6456.00    1.06236   1.06430    0.011
 6457.00    1.05429   1.06490    0.011
 6458.00    1.04605   1.06537    0.011
 6459.00    1.02318   1.06637    0.011
 6460.00    0.99827   1.06705    0.011
 6461.00    0.98394   1.06810    0.011
 6462.00    0.97067   1.06866    0.010
 6463.00    0.96921   1.06932    0.011
 6464.00    0.96850   1.06950    0.011
 6465.00    0.97310   1.06960    0.011
 6466.00    0.97791   1.06934    0.011
 6467.00    1.00033   1.06871    0.011
 6468.00    1.02324   1.06790    0.011
 6469.00    1.05988   1.06663    0.011
 6470.00    1.09279   1.06530    0.011
 6471.00    1.07300   1.06351    0.011
 6472.00    1.05214   1.06176    0.011
 6473.00    1.02145   1.05968    0.011
 6474.00    0.98995   1.05771    0.011
 6475.00    0.95300   1.05553    0.011
 6476.00    0.92454   1.05333    0.011
 6477.00    0.94061   1.05082    0.011
 6478.00    0.96565   1.04793    0.011
 6479.00    1.02855   1.04429    0.011
 6480.00    1.07390   1.03972    0.011
 6481.00    1.05804   1.03403    0.011
 6482.00    1.03561   1.02715    0.011
 6483.00    0.99390   1.01925    0.010
 6484.00    0.96598   1.01069    0.010
 6485.00    0.97257   1.00203    0.010
 6486.00    0.98049   0.99382    0.010
 6487.00    0.99127   0.98692    0.010
 6488.00    1.00591   0.98173    0.010
 6489.00    1.02779   0.97909    0.011
 6490.00    1.03147   0.97884    0.011
 6491.00    1.00542   0.98144    0.011
 6492.00    0.97730   0.98613    0.011
 6493.00    0.94620   0.99299    0.011
 6494.00    0.94249   1.00090    0.011
 6495.00    0.97331   1.00962    0.011
 6496.00    0.99935   1.01828    0.011
 6497.00    1.02008   1.02651    0.011
 6498.00    1.02378   1.03388    0.011
 6499.00    1.01080   1.04000    0.011
 6500.00    1.01956   1.04502    0.011
 6501.00    1.04711   1.04855    0.011
 6502.00    1.06865   1.05113    0.011
 6503.00    1.08561   1.05241    0.011
 6504.00    1.11217   1.05303    0.011
 6505.00    1.14514   1.05274    0.011
 6506.00    1.15271   1.05217    0.010
 6507.00    1.14541   1.05114    0.010
 6508.00    1.11424   1.05024    0.010
 6509.00    1.07089   1.04930    0.010
 6510.00    1.06005   1.04879    0.010
 6511.00    1.06360   1.04855    0.011
 6512.00    1.06969   1.04880    0.011
 6513.00    1.07676   1.04933    0.011
 6514.00    1.08392   1.05015    0.011
 6515.00    1.09112   1.05109    0.011
 6516.00    1.09627   1.05199    0.011
 6517.00    1.10087   1.05278    0.011
 6518.00    1.08389   1.05333    0.011
 6519.00    1.06212   1.05369    0.011
 6520.00    1.06129   1.05378    0.011
 6521.00    1.06415   1.05382    0.011
 6522.00    1.07820   1.05374    0.011
 6523.00    1.09376   1.05375    0.011
 6524.00    1.08788   1.05384    0.011
 6525.00    1.07995   1.05412    0.011
 6526.00    1.02002   1.05452    0.011
 6527.00    0.95702   1.05504    0.010
 6528.00    0.93868   1.05552    0.000
 6529.00    0.92197   1.05585    0.000
 6530.00    0.97797   1.05587    0.000
 6531.00    1.03237   1.05539    0.000
 6532.00    1.04675   1.05434    0.000
 6533.00    1.06086   1.05257    0.000
 6534.00    1.07120   1.05017    0.000
 6535.00    1.08113   1.04707    0.000
 6536.00    1.08735   1.04355    0.000
 6537.00    1.09267   1.03953    0.000
 6538.00    1.09215   1.03537    0.000
 6539.00    1.08278   1.03096    0.000
 6540.00    1.02811   1.02654    0.000
 6541.00    0.98826   1.02191    0.000
 6542.00    1.00955   1.01708    0.000
 6543.00    1.03439   1.01185    0.000
 6544.00    1.07136   1.00596    0.000
 6545.00    1.09906   0.99935    0.000
 6546.00    1.10005   0.99165    0.000
 6547.00    1.09543   0.98296    0.000
 6548.00    1.07697   0.97304    0.000
 6549.00    1.05589   0.96231    0.000
 6550.00    1.02926   0.95078    0.000
 6551.00    1.01442   0.93932    0.000
 6552.00    1.02131   0.92817    0.000
 6553.00    1.04559   0.91859    0.000
 6554.00    1.09786   0.91081    0.000
 6555.00    1.18710   0.90610    0.000
 6556.00    1.32858   0.90421    0.000
 6557.00    1.48816   0.90604    0.000
 6558.00    1.67027   0.91053    0.000
 6559.00    1.80305   0.91799    0.000
 6560.00    1.88181   0.92688    0.000
 6561.00    1.86762   0.93716    0.000
 6562.00    1.76362   0.94734    0.000
 6563.00    1.59470   0.95746    0.000
 6564.00    1.37049   0.96654    0.000
 6565.00    1.19990   0.97494    0.000
 6566.00    1.06956   0.98214    0.000
 6567.00    1.00636   0.98878    0.000
 6568.00    0.98742   0.99445    0.000
 6569.00    0.99897   0.99979    0.000
 6570.00    1.02812   1.00442    0.000
 6571.00    1.04193   1.00885    0.000
 6572.00    1.04803   1.01267    0.000
 6573.00    1.04148   1.01621    0.000
 6574.00    1.02943   1.01914    0.000
 6575.00    1.04373   1.02161    0.000
 6576.00    1.06788   1.02345    0.000
 6577.00    1.15851   1.02467    0.000
 6578.00    1.27019   1.02524    0.000
 6579.00    1.38631   1.02510    0.000
 6580.00    1.50362   1.02432    0.000
 6581.00    1.49587   1.02292    0.000
 6582.00    1.46108   1.02104    0.000
 6583.00    1.35117   1.01889    0.000
 6584.00    1.22837   1.01667    0.000
 6585.00    1.12512   1.01472    0.000
 6586.00    1.02441   1.01319    0.000
 6587.00    0.97188   1.01236    0.000
 6588.00    0.92375   1.01223    0.000
 6589.00    0.89973   1.01286    0.000
 6590.00    0.87704   1.01407    0.000
 6591.00    0.88968   1.01569    0.000
 6592.00    0.90342   1.01742    0.000
 6593.00    0.95001   1.01905    0.000
 6594.00    0.99551   1.02029    0.000
 6595.00    1.01623   1.02113    0.000
 6596.00    1.03777   1.02137    0.000
 6597.00    1.06964   1.02131    0.000
 6598.00    1.09851   1.02085    0.000
 6599.00    1.10165   1.02048    0.000
 6600.00    1.10098   1.02015    0.000
 6601.00    1.07602   1.02031    0.000
 6602.00    1.04496   1.02091    0.000
 6603.00    0.98353   1.02212    0.000
 6604.00    0.92849   1.02389    0.000
 6605.00    0.89929   1.02602    0.000
 6606.00    0.87893   1.02852    0.000
 6607.00    0.88821   1.03089    0.000
 6608.00    0.90899   1.03328    0.000
 6609.00    0.96227   1.03510    0.011
 6610.00    1.00595   1.03658    0.011
 6611.00    1.02641   1.03723    0.011
 6612.00    1.03097   1.03735    0.011
 6613.00    1.00233   1.03666    0.011
 6614.00    0.98500   1.03542    0.011
 6615.00    0.98816   1.03361    0.011
 6616.00    0.99836   1.03138    0.011
 6617.00    1.01971   1.02887    0.011
 6618.00    1.03696   1.02619    0.010
 6619.00    1.04850   1.02344    0.010
 6620.00    1.05898   1.02075    0.010
 6621.00    1.06817   1.01813    0.010
 6622.00    1.08254   1.01581    0.010
 6623.00    1.10249   1.01360    0.010
 6624.00    1.10409   1.01195    0.010
 6625.00    1.08821   1.01046    0.010
 6626.00    1.06422   1.00970    0.011
 6627.00    1.03340   1.00910    0.011
 6628.00    0.99477   1.00922    0.011
 6629.00    0.95035   1.00940    0.011
 6630.00    0.92531   1.01011    0.011
 6631.00    0.91286   1.01069    0.011
 6632.00    0.92460   1.01152    0.011
 6633.00    0.95010   1.01211    0.011
 6634.00    0.97208   1.01277    0.011
 6635.00    0.99231   1.01320    0.011
 6636.00    0.97975   1.01369    0.011
 6637.00    0.95317   1.01403    0.011
 6638.00    0.93969   1.01449    0.010
 6639.00    0.93101   1.01487    0.011
 6640.00    0.93466   1.01538    0.010
 6641.00    0.94214   1.01577    0.010
 6642.00    0.95290   1.01622    0.010
 6643.00    0.96451   1.01644    0.010
 6644.00    0.96540   1.01659    0.010
 6645.00    0.96403   1.01641    0.010
 6646.00    0.94224   1.01601    0.010
 6647.00    0.91706   1.01523    0.010
 6648.00    0.92852   1.01411    0.010
 6649.00    0.94457   1.01266    0.010
 6650.00    0.92609   1.01081    0.010
 6651.00    0.90461   1.00882    0.011
 6652.00    0.89581   1.00653    0.011
 6653.00    0.88767   1.00437    0.011
 6654.00    0.93636   1.00221    0.011
 6655.00    0.98546   1.00051    0.011
 6656.00    0.99238   0.99916    0.011
 6657.00    0.99797   0.99844    0.011
 6658.00    0.97564   0.99832    0.011
 6659.00    0.95460   0.99874    0.011
 6660.00    0.94919   0.99969    0.010
 6661.00    0.94623   1.00078    0.010
 6662.00    0.96356   1.00209    0.010
 6663.00    0.97582   1.00302    0.010
 6664.00    0.95684   1.00379    0.010
 6665.00    0.94482   1.00382    0.010
 6666.00    0.96666   1.00356    0.010
 6667.00    0.98809   1.00255    0.010
 6668.00    1.00790   1.00150    0.010
 6669.00    1.02945   1.00008    0.010
 6670.00    1.05669   0.99899    0.010
 6671.00    1.07555   0.99804    0.011
 6672.00    1.07113   0.99774    0.011
 6673.00    1.05399   0.99788    0.011
 6674.00    1.00665   0.99868    0.011
 6675.00    0.96201   0.99987    0.011
 6676.00    0.92294   1.00142    0.011
 6677.00    0.90853   1.00305    0.011
 6678.00    0.93819   1.00468    0.011
 6679.00    0.95539   1.00598    0.011
 6680.00    0.95311   1.00705    0.011
 6681.00    0.94991   1.00751    0.011
 6682.00    0.94545   1.00769    0.011
 6683.00    0.95292   1.00721    0.010
 6684.00    0.97478   1.00651    0.010
 6685.00    0.97810   1.00531    0.010
 6686.00    0.96166   1.00406    0.010
 6687.00    0.94924   1.00260    0.010
 6688.00    0.94058   1.00124    0.010
 6689.00    0.94869   1.00000    0.010
 6690.00    0.97068   0.99893    0.010
 6691.00    0.98999   0.99822    0.010
 6692.00    1.00734   0.99759    0.010
 6693.00    1.00633   0.99736    0.010
 6694.00    0.99358   0.99705    0.010
 6695.00    0.99961   0.99697    0.011
 6696.00    1.01614   0.99669    0.000
 6697.00    1.03331   0.99636    0.000
 6698.00    1.05078   0.99576    0.000
 6699.00    1.01379   0.99487    0.000
 6700.00    0.95390   0.99366    0.000
 6701.00    0.92115   0.99203    0.000
 6702.00    0.89818   0.99006    0.000
 6703.00    0.92592   0.98770    0.000
 6704.00    0.96911   0.98511    0.000
 6705.00    1.00959   0.98239    0.000
 6706.00    1.04939   0.97976    0.000
 6707.00    1.06264   0.97737    0.000
 6708.00    1.07042   0.97547    0.000
 6709.00    1.12396   0.97407    0.000
 6710.00    1.18491   0.97355    0.000
 6711.00    1.21340   0.97353    0.000
 6712.00    1.23797   0.97453    0.000
 6713.00    1.22713   0.97576    0.000
 6714.00    1.21336   0.97787    0.000
 6715.00    1.17641   0.97981    0.000
 6716.00    1.13835   0.98227    0.000
 6717.00    1.10527   0.98432    0.000
 6718.00    1.07252   0.98650    0.000
 6719.00    1.05456   0.98822    0.000
 6720.00    1.03717   0.98981    0.000
 6721.00    1.03090   0.99099    0.000
 6722.00    1.02565   0.99185    0.000
 6723.00    1.03202   0.99240    0.000
 6724.00    1.04108   0.99250    0.000
 6725.00    1.07145   0.99239    0.000
 6726.00    1.10453   0.99177    0.000
 6727.00    1.15390   0.99098    0.000
 6728.00    1.19222   0.98977    0.000
 6729.00    1.17816   0.98843    0.000
 6730.00    1.15293   0.98689    0.000
 6731.00    1.08455   0.98526    0.000
 6732.00    1.02334   0.98368    0.000
 6733.00    0.98519   0.98201    0.000
 6734.00    0.96045   0.98058    0.000
 6735.00    0.97225   0.97904    0.000
 6736.00    0.97687   0.97789    0.000
 6737.00    0.96474   0.97663    0.000
 6738.00    0.95527   0.97584    0.000
 6739.00    0.95115   0.97496    0.000
 6740.00    0.95424   0.97457    0.000
 6741.00    0.97000   0.97430    0.000
 6742.00    0.99093   0.97457    0.000
 6743.00    1.01981   0.97515    0.000
 6744.00    1.04125   0.97618    0.000
 6745.00    1.05264   0.97775    0.000
 6746.00    1.04667   0.97957    0.000
 6747.00    1.02005   0.98191    0.000
 6748.00    0.99848   0.98421    0.000
 6749.00    0.98222   0.98679    0.000
 6750.00    0.97172   0.98899    0.000
 6751.00    0.96655   0.99105    0.000
 6752.00    0.96152   0.99258    0.000
 6753.00    0.95659   0.99355    0.011
 6754.00    0.94308   0.99400    0.011
 6755.00    0.92340   0.99376    0.011
 6756.00    0.92309   0.99316    0.012
 6757.00    0.93499   0.99207    0.012
 6758.00    0.97190   0.99094    0.012
 6759.00    1.02259   0.98972    0.012
 6760.00    1.10581   0.98880    0.013
 6761.00    1.20463   0.98820    0.013
 6762.00    1.26116   0.98810    0.013
 6763.00    1.30020   0.98848    0.013
 6764.00    1.27326   0.98933    0.013
 6765.00    1.22298   0.99057    0.013
 6766.00    1.19552   0.99201    0.013
 6767.00    1.17488   0.99343    0.012
 6768.00    1.12634   0.99463    0.012
 6769.00    1.07089   0.99537    0.011
 6770.00    1.04197   0.99565    0.011
 6771.00    1.01837   0.99514    0.012
 6772.00    1.06299   0.99419    0.011
 6773.00    1.11833   0.99244    0.011
 6774.00    1.10217   0.99056    0.011
 6775.00    1.07768   0.98821    0.011
 6776.00    1.06937   0.98615    0.011
 6777.00    1.06233   0.98405    0.011
 6778.00    1.10311   0.98249    0.012
 6779.00    1.14598   0.98124    0.012
 6780.00    1.08485   0.98051    0.012
 6781.00    1.02458   0.98018    0.012
 6782.00    1.05551   0.98021    0.012
 6783.00    1.08418   0.98053    0.012
 6784.00    1.07185   0.98098    0.012
 6785.00    1.05875   0.98155    0.012
 6786.00    1.03727   0.98217    0.012
 6787.00    1.01780   0.98277    0.012
 6788.00    1.01372   0.98349    0.012
 6789.00    1.01277   0.98410    0.012
 6790.00    1.03007   0.98487    0.011
 6791.00    1.04292   0.98548    0.011
 6792.00    1.03515   0.98623    0.011
 6793.00    1.02793   0.98673    0.011
 6794.00    1.02278   0.98729    0.011
 6795.00    1.01735   0.98756    0.011
 6796.00    1.01099   0.98777    0.011
 6797.00    1.02519   0.98775    0.011
 6798.00    1.09440   0.98764    0.011
 6799.00    1.13067   0.98739    0.011
 6800.00    1.09124   0.98709    0.011
 6801.00    1.04811   0.98675    0.012
 6802.00    0.99765   0.98645    0.012
 6803.00    0.95604   0.98622    0.012
 6804.00    0.92978   0.98608    0.012
 6805.00    0.89408   0.98609    0.012
 6806.00    0.84405   0.98624    0.011
 6807.00    0.82755   0.98652    0.011
 6808.00    0.85573   0.98701    0.011
 6809.00    0.89997   0.98759    0.011
 6810.00    0.96307   0.98833    0.011
 6811.00    1.01083   0.98910    0.011
 6812.00    1.04273   0.98994    0.011
 6813.00    1.04043   0.99071    0.011
 6814.00    1.00690   0.99147    0.011
 6815.00    0.97721   0.99203    0.011
 6816.00    0.95060   0.99251    0.011
 6817.00    0.93602   0.99271    0.011
 6818.00    0.92995   0.99279    0.011
 6819.00    0.93904   0.99266    0.011
 6820.00    0.95755   0.99242    0.011
 6821.00    0.96823   0.99199    0.011
 6822.00    0.97466   0.99144    0.011
 6823.00    0.99786   0.99069    0.011
 6824.00    1.02897   0.98976    0.011
 6825.00    1.02508   0.98857    0.012
 6826.00    1.00695   0.98713    0.012
 6827.00    0.97743   0.98540    0.012
 6828.00    0.94396   0.98339    0.011
 6829.00    0.96595   0.98125    0.011
 6830.00    1.00416   0.97895    0.011
 6831.00    1.05264   0.97681    0.011
 6832.00    1.10361   0.97482    0.012
 6833.00    1.11642   0.97337    0.011
 6834.00    1.12176   0.97236    0.011
 6835.00    1.12590   0.97204    0.011
 6836.00    1.12985   0.97220    0.011
 6837.00    1.12850   0.97292    0.011
 6838.00    1.12656   0.97391    0.012
 6839.00    1.06327   0.97504    0.012
 6840.00    0.99539   0.97609    0.012
 6841.00    0.93334   0.97684    0.012
 6842.00    0.87153   0.97721    0.012
 6843.00    0.82995   0.97704    0.011
 6844.00    0.79174   0.97639    0.011
 6845.00    0.88214   0.97527    0.011
 6846.00    0.96720   0.97383    0.011
 6847.00    0.96205   0.97224    0.011
 6848.00    0.95731   0.97062    0.011
 6849.00    0.95701   0.96915    0.011
 6850.00    0.95714   0.96792    0.011
 6851.00    0.96050   0.96702    0.011
 6852.00    0.96150   0.96643    0.011
 6853.00    0.94905   0.96619    0.011
 6854.00    0.94529   0.96616    0.011
 6855.00    0.98074   0.96641    0.011
 6856.00    1.00607   0.96672    0.011
 6857.00    0.99395   0.96710    0.011
 6858.00    0.97284   0.96736    0.011
 6859.00    0.92386   0.96767    0.011
 6860.00    0.89820   0.96781    0.011
 6861.00    0.93391   0.96807    0.011
 6862.00    0.95206   0.96828    0.011
 6863.00    0.93050   0.96866    0.011
 6864.00    0.90989   0.96900    0.011
 6865.00    0.89113   0.96957    0.011
 6866.00    0.86749   0.97016    0.011
 6867.00    0.83553   0.97097    0.011
 6868.00    0.84823   0.97173    0.011
 6869.00    0.92771   0.97267    0.012
 6870.00    0.96407   0.97335    0.012
 6871.00    0.94377   0.97419    0.011
 6872.00    0.92518   0.97480    0.011
 6873.00    0.90858   0.97569    0.011
 6874.00    0.92093   0.97640    0.011
 6875.00    0.96282   0.97747    0.011
 6876.00    0.96037   0.97854    0.011
 6877.00    0.91801   0.98001    0.011
 6878.00    0.89253   0.98154    0.011
 6879.00    0.88044   0.98331    0.011
 6880.00    0.87198   0.98516    0.011
 6881.00    0.86605   0.98698    0.011
 6882.00    0.87489   0.98878    0.011
 6883.00    0.89276   0.99035    0.011
 6884.00    0.92603   0.99172    0.011
 6885.00    0.96751   0.99274    0.011
 6886.00    0.99127   0.99350    0.011
 6887.00    1.00680   0.99412    0.011
 6888.00    0.98777   0.99446    0.011
 6889.00    0.95491   0.99483    0.011
 6890.00    0.95153   0.99506    0.011
 6891.00    0.95819   0.99546    0.011
 6892.00    0.95081   0.99577    0.011
 6893.00    0.93940   0.99631    0.011
 6894.00    0.94839   0.99680    0.011
 6895.00    0.96220   0.99735    0.011
 6896.00    0.96569   0.99782    0.011
 6897.00    0.96720   0.99820    0.011
 6898.00    0.96422   0.99835    0.011
 6899.00    0.96058   0.99822    0.011
 6900.00    0.94229   0.99785    0.011
 6901.00    0.92243   0.99717    0.011
 6902.00    0.93354   0.99626    0.011
 6903.00    0.94684   0.99500    0.011
 6904.00    0.93115   0.99376    0.011
 6905.00    0.91441   0.99235    0.011
 6906.00    0.90007   0.99114    0.011
 6907.00    0.88624   0.98995    0.011
 6908.00    0.88999   0.98899    0.011
 6909.00    0.89587   0.98825    0.011
 6910.00    0.93540   0.98763    0.011
 6911.00    0.97194   0.98726    0.011
 6912.00    0.97864   0.98685    0.011
 6913.00    0.98231   0.98661    0.011
 6914.00    0.96425   0.98622    0.011
 6915.00    0.94674   0.98599    0.011
 6916.00    0.93236   0.98556    0.011
 6917.00    0.91901   0.98523    0.011
 6918.00    0.91022   0.98496    0.010
 6919.00    0.91039   0.98475    0.010
 6920.00    0.94296   0.98475    0.011
 6921.00    0.96079   0.98482    0.011
 6922.00    0.93379   0.98514    0.011
 6923.00    0.92239   0.98551    0.011
 6924.00    0.95131   0.98607    0.011
 6925.00    0.95794   0.98671    0.011
 6926.00    0.91503   0.98741    0.011
 6927.00    0.89152   0.98804    0.011
 6928.00    0.90536   0.98856    0.011
 6929.00    0.93936   0.98888    0.011
 6930.00    1.00725   0.98912    0.012
 6931.00    1.02501   0.98901    0.012
 6932.00    0.96894   0.98881    0.011
 6933.00    0.92250   0.98826    0.011
 6934.00    0.88853   0.98772    0.011
 6935.00    0.89216   0.98685    0.011
 6936.00    0.93870   0.98600    0.011
 6937.00    0.98769   0.98509    0.011
 6938.00    1.03914   0.98431    0.011
 6939.00    1.06074   0.98363    0.011
 6940.00    1.05585   0.98314    0.011
 6941.00    1.02285   0.98282    0.011
 6942.00    0.96787   0.98272    0.011
 6943.00    0.94989   0.98285    0.011
 6944.00    0.95735   0.98323    0.011
 6945.00    0.95394   0.98388    0.011
 6946.00    0.94396   0.98484    0.011
 6947.00    0.96045   0.98590    0.011
 6948.00    0.99085   0.98723    0.011
 6949.00    1.00618   0.98861    0.012
 6950.00    1.01462   0.99023    0.012
 6951.00    0.99852   0.99172    0.012
 6952.00    0.97278   0.99350    0.011
 6953.00    0.95994   0.99488    0.011
 6954.00    0.95142   0.99642    0.011
 6955.00    0.91951   0.99750    0.011
 6956.00    0.88104   0.99854    0.011
 6957.00    0.83668   0.99906    0.011
 6958.00    0.79095   0.99938    0.011
 6959.00    0.82343   0.99924    0.011
 6960.00    0.87043   0.99867    0.011
 6961.00    0.90903   0.99764    0.011
 6962.00    0.94644   0.99605    0.011
 6963.00    0.95627   0.99403    0.011
 6964.00    0.96325   0.99151    0.011
 6965.00    0.96111   0.98868    0.012
 6966.00    0.95836   0.98571    0.012
 6967.00    0.91956   0.98280    0.012
 6968.00    0.87963   0.98014    0.012
 6969.00    0.92895   0.97792    0.012
 6970.00    0.97658   0.97646    0.012
 6971.00    0.97268   0.97584    0.012
 6972.00    0.96636   0.97618    0.012
 6973.00    0.92409   0.97733    0.011
 6974.00    0.88521   0.97915    0.011
 6975.00    0.87896   0.98160    0.011
 6976.00    0.87477   0.98430    0.011
 6977.00    0.88500   0.98711    0.011
 6978.00    0.88874   0.98973    0.011
 6979.00    0.85766   0.99222    0.011
 6980.00    0.84604   0.99421    0.011
 6981.00    0.91820   0.99567    0.011
 6982.00    0.96442   0.99661    0.012
 6983.00    0.91853   0.99710    0.012
 6984.00    0.88865   0.99715    0.011
 6985.00    0.90653   0.99686    0.012
 6986.00    0.93386   0.99624    0.012
 6987.00    0.98517   0.99536    0.012
 6988.00    1.00302   0.99419    0.012
 6989.00    0.94773   0.99291    0.012
 6990.00    0.92447   0.99149    0.012
 6991.00    0.96197   0.99004    0.012
 6992.00    0.98414   0.98852    0.011
 6993.00    0.98091   0.98712    0.012
 6994.00    0.99110   0.98586    0.012
 6995.00    1.02076   0.98480    0.011
 6996.00    1.02823   0.98397    0.011
 6997.00    1.00740   0.98324    0.011
 6998.00    0.96941   0.98278    0.011
 6999.00    0.91213   0.98226    0.011
 7000.00    0.89033   0.98202    0.011
 7001.00    0.90375   0.98159    0.011
 7002.00    0.95255   0.98120    0.012
 7003.00    1.03231   0.98049    0.012
 7004.00    1.04966   0.97986    0.012
 7005.00    1.01891   0.97908    0.012
 7006.00    0.99129   0.97844    0.012
 7007.00    0.96578   0.97775    0.012
 7008.00    0.95729   0.97731    0.012
 7009.00    0.95889   0.97695    0.012
 7010.00    0.91856   0.97687    0.012
 7011.00    0.85651   0.97698    0.012
 7012.00    0.82745   0.97738    0.012
 7013.00    0.81321   0.97792    0.011
 7014.00    0.87686   0.97853    0.011
 7015.00    0.97057   0.97927    0.012
 7016.00    0.94539   0.98011    0.011
 7017.00    0.88119   0.98125    0.011
 7018.00    0.88806   0.98225    0.011
 7019.00    0.91448   0.98334    0.012
 7020.00    0.94249   0.98436    0.012
 7021.00    0.97086   0.98553    0.012
 7022.00    0.95972   0.98661    0.012
 7023.00    0.94145   0.98784    0.012
 7024.00    0.93464   0.98908    0.012
 7025.00    0.92942   0.99041    0.012
 7026.00    0.93204   0.99174    0.012
 7027.00    0.93543   0.99314    0.012
 7028.00    0.90714   0.99475    0.012
 7029.00    0.87685   0.99656    0.012
 7030.00    0.93294   0.99862    0.012
 7031.00    0.99104   1.00092    0.012
 7032.00    0.93462   1.00334    0.012
 7033.00    0.88070   1.00592    0.012
 7034.00    0.89547   1.00825    0.012
 7035.00    0.90847   1.01048    0.012
 7036.00    0.89653   1.01203    0.012
 7037.00    0.89096   1.01302    0.011
 7038.00    0.94424   1.01307    0.012
 7039.00    0.97893   1.01249    0.012
 7040.00    0.88834   1.01068    0.012
 7041.00    0.82285   1.00788    0.012
 7042.00    0.88849   1.00407    0.012
 7043.00    0.93270   0.99949    0.012
 7044.00    0.88668   0.99433    0.012
 7045.00    0.87523   0.98883    0.012
 7046.00    0.98405   0.98327    0.012
 7047.00    1.07139   0.97771    0.013
 7048.00    1.09589   0.97237    0.013
 7049.00    1.10225   0.96742    0.013
 7050.00    1.06332   0.96290   -2.000
 7051.00    1.00652   0.95900   -2.000
 7052.00    0.91130   0.95555   -2.000
 7053.00    0.88382   0.95284   -2.000
 7054.00    0.98286   0.95056   -2.000
 7055.00    1.04043   0.94889   -2.000
 7056.00    1.03038   0.94759   -2.000
 7057.00    1.01823   0.94677   -2.000
 7058.00    1.00307   0.94635   -2.000
 7059.00    0.99386   0.94638   -2.000
 7060.00    0.99213   0.94701   -2.000
 7061.00    1.01107   0.94804   -2.000
 7062.00    1.05294   0.94953   -2.000
 7063.00    1.06378   0.95116   -2.000
 7064.00    1.04427   0.95311   -2.000
 7065.00    1.01028   0.95483   -2.000
 7066.00    0.96380   0.95649   -2.000
 7067.00    0.93562   0.95769   -2.000
 7068.00    0.92135   0.95840   -2.000
 7069.00    0.96720   0.95846   -2.000
 7070.00    1.05320   0.95768   -2.000
 7071.00    1.12703   0.95594   -2.000
 7072.00    1.19374   0.95326   -2.000
 7073.00    1.17619   0.94981   -2.000
 7074.00    1.11569   0.94559   -2.000
 7075.00    1.02572   0.94086   -2.000
 7076.00    0.92274   0.93581   -2.000
 7077.00    1.00502   0.93058   -2.000
 7078.00    1.15754   0.92549   -2.000
 7079.00    1.11983   0.92066   -2.000
 7080.00    1.02087   0.91633   -2.000
 7081.00    0.99540   0.91265   -2.000
 7082.00    0.98973   0.90953   -2.000
 7083.00    0.76673   0.90746   -2.000
 7084.00    0.49575   0.90582   -2.000
 7085.00    0.74275   0.90547   -2.000
 7086.00    1.08080   0.90520   -2.000
 7087.00    1.09703   0.90598   -2.000
 7088.00    1.07015   0.90675   -2.000
 7089.00    1.02963   0.90833   -2.000
 7090.00    0.98781   0.90975   -2.000
 7091.00    0.98171   0.91148   -2.000
 7092.00    0.97772   0.91316   -2.000
 7093.00    1.05821   0.91453   -2.000
 7094.00    1.13940   0.91610   -2.000
 7095.00    1.03104   0.91680   -2.000
 7096.00    0.92768   0.91793   -2.000
 7097.00    0.94863   0.91812   -2.000
 7098.00    0.97152   0.91873   -2.000
 7099.00    1.02006   0.91855   -2.000
 7100.00    1.05245   0.91867   -2.000
 7101.00    0.94163   0.91839   -2.000
 7102.00    0.85288   0.91835   -2.000
 7103.00    0.90832   0.91829   -2.000
 7104.00    0.94986   0.91836   -2.000
 7105.00    0.92056   0.91852   -2.000
 7106.00    0.89347   0.91851   -2.000
 7107.00    0.87552   0.91884   -2.000
 7108.00    0.87602   0.91887   -2.000
 7109.00    0.93942   0.91898   -2.000
 7110.00    1.00827   0.91857   -2.000
 7111.00    1.09279   0.91813   -2.000
 7112.00    1.14636   0.91734   -2.000
 7113.00    1.12403   0.91616   -2.000
 7114.00    1.12185   0.91472   -2.000
 7115.00    1.16232   0.91276   -2.000
 7116.00    1.20901   0.91096   -2.000
 7117.00    1.26713   0.90867   -2.000
 7118.00    1.27851   0.90686   -2.000
 7119.00    1.21479   0.90485   -2.000
 7120.00    1.14521   0.90340   -2.000
 7121.00    1.06736   0.90219   -2.000
 7122.00    1.06849   0.90147   -2.000
 7123.00    1.16759   0.90138   -2.000
 7124.00    1.21741   0.90155   -2.000
 7125.00    1.21335   0.90238   -2.000
 7126.00    1.18246   0.90338   -2.000
 7127.00    1.12571   0.90496   -2.000
 7128.00    1.07195   0.90641   -2.000
 7129.00    1.02075   0.90797   -2.000
 7130.00    1.06876   0.90931   -2.000
 7131.00    1.19106   0.91056   -2.000
 7132.00    1.15527   0.91145   -2.000
 7133.00    1.01547   0.91199   -2.000
 7134.00    0.94063   0.91217   -2.000
 7135.00    0.90322   0.91207   -2.000
 7136.00    0.87221   0.91193   -2.000
 7137.00    0.84442   0.91167   -2.000
 7138.00    0.91671   0.91145   -2.000
 7139.00    1.03245   0.91142   -2.000
 7140.00    0.95440   0.91170   -2.000
 7141.00    0.80415   0.91219   -2.000
 7142.00    0.83953   0.91296   -2.000
 7143.00    0.93356   0.91415   -2.000
 7144.00    0.88692   0.91536   -2.000
 7145.00    0.80318   0.91678   -2.000
 7146.00    0.91429   0.91804   -2.000
 7147.00    1.06740   0.91923   -2.000
 7148.00    0.99610   0.92015   -2.000
 7149.00    0.88644   0.92084   -2.000
 7150.00    0.87597   0.92098   -2.000
 7151.00    0.87835   0.92071   -2.000
 7152.00    0.88875   0.92049   -2.000
 7153.00    0.89989   0.91983   -2.000
 7154.00    1.05276   0.91943   -2.000
 7155.00    1.21338   0.91884   -2.000
 7156.00    1.14854   0.91887   -2.000
 7157.00    1.07972   0.91899   -2.000
 7158.00    1.07834   0.91961   -2.000
 7159.00    1.08011   0.92056   -2.000
 7160.00    1.15332   0.92177   -2.000
 7161.00    1.21767   0.92327   -2.000
 7162.00    1.17035   0.92457   -2.000
 7163.00    1.12277   0.92590   -2.000
 7164.00    1.07297   0.92698   -2.000
 7165.00    1.00722   0.92780   -2.000
 7166.00    0.84039   0.92807   -2.000
 7167.00    0.74839   0.92776   -2.000
 7168.00    1.02784   0.92713   -2.000
 7169.00    1.22244   0.92615   -2.000
 7170.00    1.07547   0.92491   -2.000
 7171.00    0.95346   0.92335   -2.000
 7172.00    0.91485   0.92171   -2.000
 7173.00    0.88781   0.91972   -2.000
 7174.00    0.89337   0.91788   -2.000
 7175.00    0.92495   0.91607   -2.000
 7176.00    1.01930   0.91443   -2.000
 7177.00    1.05756   0.91317   -2.000
 7178.00    0.97901   0.91174   -2.000
 7179.00    0.99070   0.91064   -2.000
 7180.00    1.16576   0.90964   -2.000
 7181.00    1.15953   0.90935   -2.000
 7182.00    0.86632   0.90919   -2.000
 7183.00    0.73067   0.90933   -2.000
 7184.00    0.81392   0.90973   -2.000
 7185.00    0.85977   0.91041   -2.000
 7186.00    0.85987   0.91135   -2.000
 7187.00    0.86208   0.91233   -2.000
 7188.00    0.86658   0.91357   -2.000
 7189.00    0.86535   0.91474   -2.000
 7190.00    0.85865   0.91594   -2.000
 7191.00    0.89259   0.91685   -2.000
 7192.00    0.96061   0.91741   -2.000
 7193.00    0.95008   0.91755   -2.000
 7194.00    0.88156   0.91767   -2.000
 7195.00    0.89236   0.91742   -2.000
 7196.00    0.95457   0.91716   -2.000
 7197.00    0.89933   0.91693   -2.000
 7198.00    0.77746   0.91671   -2.000
 7199.00    0.83804   0.91663   -2.000
 7200.00    0.98873   0.91654   -2.000
 7201.00    1.11701   0.91689   -2.000
 7202.00    1.23571   0.91734   -2.000
 7203.00    1.09713   0.91843   -2.000
 7204.00    0.86441   0.91957   -2.000
 7205.00    0.76233   0.92095   -2.000
 7206.00    0.70073   0.92248   -2.000
 7207.00    0.71276   0.92403   -2.000
 7208.00    0.74379   0.92599   -2.000
 7209.00    0.81350   0.92759   -2.000
 7210.00    0.89136   0.92946   -2.000
 7211.00    0.89132   0.93112   -2.000
 7212.00    0.87836   0.93269   -2.000
 7213.00    0.91372   0.93456   -2.000
 7214.00    0.95513   0.93617   -2.000
 7215.00    1.02301   0.93813   -2.000
 7216.00    1.09319   0.93992   -2.000
 7217.00    0.97689   0.94196   -2.000
 7218.00    0.85112   0.94396   -2.000
