###################################################################
## OUTPUT of StarlightChains_v04.for    [Cid@UFSC - 01/Apr/2007] ##
###################################################################

## Some input info
KUG0210-078._20_28.txt                   [arq_obs]
Base.CB07.vall.4m                        [arq_base]
Masks.EmLines.NEW.gm                     [arq_masks]
StCv04.C11.config                        [arq_config]
   66                                    [N_base]
    0                                    [N_YAV_components = # of components with extra extinction!]
    0                                    [i_FitPowerLaw (1/0 = Yes/No)]
-9.99                                    [alpha_PowerLaw]
CCM                                      [red_law_option]
 1.458241                                [q_norm = A(l_norm)/A(V)]

## (Re)Sampling Parameters
 3741.00                                 [l_ini (A)]
 7218.00                                 [l_fin (A)]
    1.00                                 [dl    (A)]     (OBS: dl_cushion =    50.00 A)

## Normalization info
 4020.00                                 [l_norm (A) - for base]
 4010.00                                 [llow_norm (A) - window for f_obs]
 4060.00                                 [lupp_norm (A) - window for f_obs]
1.294902E-17                             [fobs_norm (in input units)]

## S/N
 3691.00                                 [llow_SN (A) - window for S/N]
 7268.00                                 [lupp_SN (A) - window for S/N]
   2.238                                 [S/N in S/N window]
   3.896                                 [S/N in norm. window]
   0.009                                 [S/N_err in S/N window]
   0.016                                 [S/N_err in norm. window]
  1.0000                                 [fscale_chi2]

## etc...
    -2007221                             [idum_orig]
  2405                                   [NOl_eff]
  2288                                   [Nl_eff]
   117    NSIGMA                         [Ntot_cliped & clip_method]
  2292150                                [Nglobal_steps]
   7                                     [N_chains]
  33                                     [NEX0s_base = N_base in EX0s-fits]
 0   0   1      117   2.0   6.105E+03    [Clip-Bug, RC-Crash & Burn-In warning-flags, n_censored_weights, wei_nsig_threshold & wei_limit]
    34     33.606     33.126      0.480  [idt_all, wdt_TotTime, wdt_UsrTime & wdt_SysTime (sec)]

## Synthesis Results - Best model ##

 3.19178E-05                             [chi2/Nl_eff]
    31.55477                             [adev (%)]

    93.35517                             [sum-of-x (%)]
 2.03200E-17                             [Flux_tot (units of input spectrum!)]
 6.98085E-15                             [Mini_tot (???)]
 4.37279E-15                             [Mcor_tot (???)]

 497.32                                  [v0_min  (km/s)]
  91.08                                  [vd_min  (km/s)]
 0.3867                                  [AV_min  (mag)]
 0.0000                                  [YAV_min (mag)]

# j     x_j(%)      Mini_j(%)     Mcor_j(%)     age_j(yr)     Z_j      (L/M)_j    YAV?  Mstars   component_j        a/Fe...       SSP_chi2r SSP_adev(%)   SSP_AV   SSP_x(%)
  1      1.1316     3.2251E-01    5.1487E-01    1.000000E+06  0.00400  1.094E-02    0   1.0000   age020_m42            0.0000     3.4299E-05    37.2876   1.2684    88.9793
  2      0.0000     0.0000E+00    0.0000E+00    3.160000E+06  0.00400  4.007E-02    0   0.9999   age045_m42            0.0000     3.4399E-05    36.8691   0.5691    93.6458
  3      0.3744     4.5973E-02    6.9634E-02    5.010000E+06  0.00400  2.539E-02    0   0.9488   age055_m42            0.0000     3.4424E-05    36.9420   0.8946    91.6380
  4      0.0000     0.0000E+00    0.0000E+00    6.610000E+06  0.00400  2.620E-02    0   0.9220   age061_m42            0.0000     3.4453E-05    36.5975   0.5236    93.3319
  5      0.0000     0.0000E+00    0.0000E+00    1.000000E+07  0.00400  1.322E-02    0   0.8862   age070_m42            0.0000     3.3557E-05    34.8500   0.3543    93.5821
  6      0.0000     0.0000E+00    0.0000E+00    1.445000E+07  0.00400  7.883E-03    0   0.8571   age078_m42            0.0000     3.3763E-05    35.2606   0.6563    91.8037
  7      0.0000     0.0000E+00    0.0000E+00    2.512000E+07  0.00400  5.251E-03    0   0.8174   age090_m42            0.0000     3.3496E-05    34.4722   0.2430    93.7200
  8      0.0000     0.0000E+00    0.0000E+00    4.000000E+07  0.00400  3.649E-03    0   0.7851   age104_m42            0.0000     3.3721E-05    34.6252  -0.0011    94.6305
  9      0.0000     0.0000E+00    0.0000E+00    5.500000E+07  0.00400  3.098E-03    0   0.7629   age110_m42            0.0000     3.4196E-05    35.3155   0.1178    94.9905
 10      0.0000     0.0000E+00    0.0000E+00    1.015200E+08  0.00400  2.228E-03    0   0.7207   age116_m42            0.0000     3.4503E-05    35.6947   0.1174    95.3424
 11      0.0000     0.0000E+00    0.0000E+00    2.861200E+08  0.00400  1.093E-03    0   0.6648   age125_m42            0.0000     3.4317E-05    35.0150  -0.4183    97.4536
 12      0.0000     0.0000E+00    0.0000E+00    5.088000E+08  0.00400  6.597E-04    0   0.6365   age130_m42            0.0000     3.5092E-05    35.7774  -0.4826    98.9740
 13      0.0000     0.0000E+00    0.0000E+00    1.434000E+09  0.00400  2.132E-04    0   0.5798   age139_m42            0.0000     3.7342E-05    34.5913  -1.0000    96.2050
 14      0.4129     2.1840E+01    1.8747E+01    4.250000E+09  0.00400  5.895E-05    0   0.5377   age158_m42            0.0000     4.4418E-05    37.7620  -1.0000    86.8343
 15      0.0000     0.0000E+00    0.0000E+00    7.500000E+09  0.00400  3.510E-05    0   0.5212   age171_m42            0.0000     4.8263E-05    39.6410  -1.0000    83.0811
 16      0.0000     0.0000E+00    0.0000E+00    1.300000E+10  0.00400  2.005E-05    0   0.5034   age193_m42            0.0000     5.2019E-05    41.4754  -1.0000    79.6323
 17      0.0000     0.0000E+00    0.0000E+00    1.800000E+10  0.00400  1.525E-05    0   0.4967   age213_m42            0.0000     5.2153E-05    41.7304  -1.0000    78.9239
 18      0.0000     0.0000E+00    0.0000E+00    1.000000E+06  0.00800  1.238E-02    0   1.0000   age020_m52            0.0000     3.4342E-05    37.3150   1.2602    89.1858
 19      0.0000     0.0000E+00    0.0000E+00    3.160000E+06  0.00800  3.074E-02    0   0.9966   age045_m52            0.0000     3.4440E-05    37.2938   1.1916    89.7710
 20      0.0000     0.0000E+00    0.0000E+00    5.010000E+06  0.00800  2.668E-02    0   0.9443   age055_m52            0.0000     3.4484E-05    36.9181   0.9793    90.8854
 21      0.0000     0.0000E+00    0.0000E+00    6.610000E+06  0.00800  2.136E-02    0   0.9177   age061_m52            0.0000     3.3924E-05    35.3165  -0.2012    95.8940
 22      0.0000     0.0000E+00    0.0000E+00    1.000000E+07  0.00800  1.215E-02    0   0.8827   age070_m52            0.0000     3.3352E-05    34.4454   0.5572    93.1473
 23      6.7227     2.4047E+00    3.2830E+00    1.445000E+07  0.00800  8.717E-03    0   0.8552   age078_m52            0.0000     3.3684E-05    35.0873   0.6315    92.8662
 24      0.0000     0.0000E+00    0.0000E+00    2.512000E+07  0.00800  5.592E-03    0   0.8162   age090_m52            0.0000     3.3522E-05    34.3084   0.3156    94.6284
 25      0.0000     0.0000E+00    0.0000E+00    4.000000E+07  0.00800  3.896E-03    0   0.7841   age104_m52            0.0000     3.3888E-05    34.6286   0.2077    95.4671
 26      0.0000     0.0000E+00    0.0000E+00    1.015200E+08  0.00800  2.148E-03    0   0.7226   age116_m52            0.0000     3.4523E-05    35.3553   0.1041    95.8141
 27      0.0000     0.0000E+00    0.0000E+00    2.861200E+08  0.00800  9.925E-04    0   0.6683   age125_m52            0.0000     3.5249E-05    35.6127  -0.4033    99.6048
 28      0.2217     2.2004E+00    2.1562E+00    9.047900E+08  0.00800  3.141E-04    0   0.6138   age135_m52            0.0000     3.9091E-05    35.5492  -1.0000   101.9868
 29      0.0000     0.0000E+00    0.0000E+00    1.434000E+09  0.00800  1.719E-04    0   0.5853   age139_m52            0.0000     4.2490E-05    36.1122  -1.0000    92.3248
 30      0.0000     0.0000E+00    0.0000E+00    2.500000E+09  0.00800  7.872E-05    0   0.5600   age150_m52            0.0000     4.8433E-05    39.5082  -1.0000    85.6143
 31      0.0000     0.0000E+00    0.0000E+00    4.250000E+09  0.00800  4.336E-05    0   0.5426   age158_m52            0.0000     4.9437E-05    39.7403  -1.0000    84.5467
 32      0.0000     0.0000E+00    0.0000E+00    6.250000E+09  0.00800  3.159E-05    0   0.5319   age166_m52            0.0000     5.4211E-05    42.0462  -1.0000    80.7153
 33      0.0000     0.0000E+00    0.0000E+00    1.300000E+10  0.00800  1.361E-05    0   0.5073   age193_m52            0.0000     6.5413E-05    48.2123  -1.0000    70.5569
 34      0.0000     0.0000E+00    0.0000E+00    1.800000E+10  0.00800  9.886E-06    0   0.4990   age213_m52            0.0000     6.9682E-05    49.6224  -1.0000    67.7179
 35     10.7291     2.1667E+00    3.4590E+00    1.000000E+06  0.02000  1.544E-02    0   1.0000   age020_m62            0.0000     3.4343E-05    37.3101   1.2616    89.3701
 36      0.0000     0.0000E+00    0.0000E+00    3.160000E+06  0.02000  3.762E-02    0   0.9858   age045_m62            0.0000     3.4510E-05    37.3509   1.2040    90.0449
 37      0.0127     1.2044E-03    1.7962E-03    5.010000E+06  0.02000  3.296E-02    0   0.9342   age055_m62            0.0000     3.4560E-05    37.0221   0.8500    92.6343
 38     10.5929     2.8621E+00    4.0487E+00    8.710000E+06  0.02000  1.154E-02    0   0.8861   age067_m62            0.0000     3.1825E-05    31.0363   0.1767    93.5848
 39      0.0000     0.0000E+00    0.0000E+00    1.445000E+07  0.02000  7.663E-03    0   0.8472   age078_m62            0.0000     3.2961E-05    33.4535   0.2506    94.6129
 40      2.2072     1.5186E+00    1.9634E+00    2.512000E+07  0.02000  4.532E-03    0   0.8099   age090_m62            0.0000     3.2916E-05    33.1420   0.2653    93.8346
 41      0.0000     0.0000E+00    0.0000E+00    5.500000E+07  0.02000  2.733E-03    0   0.7595   age110_m62            0.0000     3.3778E-05    34.6509   0.1919    94.8892
 42      0.0000     0.0000E+00    0.0000E+00    1.609000E+08  0.02000  1.369E-03    0   0.6985   age120_m62            0.0000     3.4622E-05    35.2968  -0.0093    97.5960
 43      0.0000     0.0000E+00    0.0000E+00    2.861200E+08  0.02000  9.013E-04    0   0.6714   age125_m62            0.0000     3.5492E-05    35.5644  -0.2798   100.4406
 44      2.8002     1.7365E+01    1.7878E+01    5.088000E+08  0.02000  5.028E-04    0   0.6449   age130_m62            0.0000     3.7597E-05    36.9248  -0.7732   104.8523
 45      0.0000     0.0000E+00    0.0000E+00    9.047900E+08  0.02000  2.428E-04    0   0.6179   age135_m62            0.0000     4.0511E-05    36.1855  -1.0000   101.0034
 46      0.0000     0.0000E+00    0.0000E+00    1.434000E+09  0.02000  1.263E-04    0   0.5908   age139_m62            0.0000     4.4711E-05    36.8859  -1.0000    93.5192
 47      0.0000     0.0000E+00    0.0000E+00    2.500000E+09  0.02000  5.985E-05    0   0.5673   age150_m62            0.0000     5.1107E-05    40.2631  -1.0000    86.1834
 48      0.0000     0.0000E+00    0.0000E+00    4.250000E+09  0.02000  3.271E-05    0   0.5468   age158_m62            0.0000     5.8267E-05    43.7659  -1.0000    79.4944
 49      0.0461     1.0571E+01    8.7194E+00    1.000000E+10  0.02000  1.360E-05    0   0.5167   age181_m62            0.0000     6.8481E-05    47.9315  -1.0000    71.5516
 50      0.0000     0.0000E+00    0.0000E+00    1.800000E+10  0.02000  7.124E-06    0   0.5013   age213_m62            0.0000     7.5576E-05    50.4410  -1.0000    66.1810
 51      0.8893     1.0697E-01    1.7074E-01    1.000000E+06  0.05000  2.592E-02    0   0.9998   age020_m72            0.0000     3.4385E-05    37.2886   1.2556    89.4255
 52      3.3086     2.1292E-01    3.2554E-01    3.160000E+06  0.05000  4.845E-02    0   0.9577   age045_m72            0.0000     3.4660E-05    37.3300   1.0916    90.8532
 53      0.0796     8.0802E-03    1.1799E-02    5.010000E+06  0.05000  3.072E-02    0   0.9147   age055_m72            0.0000     3.3580E-05    35.0687   0.7523    92.5050
 54     50.3172     1.0783E+01    1.5281E+01    6.610000E+06  0.05000  1.455E-02    0   0.8877   age061_m72            0.0000     3.1355E-05    30.0160   0.2808    93.3618
 55      1.1206     3.8507E-01    5.2401E-01    1.000000E+07  0.05000  9.074E-03    0   0.8524   age070_m72            0.0000     3.3549E-05    35.2240   0.9372    92.0381
 56      0.0000     0.0000E+00    0.0000E+00    2.512000E+07  0.05000  4.250E-03    0   0.7902   age090_m72            0.0000     3.3641E-05    34.6764   0.6662    92.9063
 57      2.3365     2.3600E+00    2.8701E+00    4.000000E+07  0.05000  3.087E-03    0   0.7618   age104_m72            0.0000     3.3524E-05    34.1987   0.4663    93.8340
 58      0.0000     0.0000E+00    0.0000E+00    1.015200E+08  0.05000  1.700E-03    0   0.7096   age116_m72            0.0000     3.4298E-05    34.7668   0.1739    96.5521
 59      0.0000     0.0000E+00    0.0000E+00    2.861200E+08  0.05000  7.384E-04    0   0.6633   age125_m72            0.0000     3.6623E-05    36.3130  -0.4752   102.7252
 60      0.0000     0.0000E+00    0.0000E+00    5.088000E+08  0.05000  3.819E-04    0   0.6372   age130_m72            0.0000     3.8786E-05    37.2337  -1.0000   105.8251
 61      0.0000     0.0000E+00    0.0000E+00    9.047900E+08  0.05000  1.676E-04    0   0.6110   age135_m72            0.0000     4.5502E-05    37.6518  -1.0000    95.8345
 62      0.0000     0.0000E+00    0.0000E+00    1.434000E+09  0.05000  8.837E-05    0   0.5874   age139_m72            0.0000     5.2027E-05    40.2805  -1.0000    87.4042
 63      0.0000     0.0000E+00    0.0000E+00    2.500000E+09  0.05000  4.233E-05    0   0.5598   age150_m72            0.0000     5.9477E-05    43.9412  -1.0000    80.1097
 64      0.0000     0.0000E+00    0.0000E+00    6.250000E+09  0.05000  1.435E-05    0   0.5249   age166_m72            0.0000     7.1048E-05    49.3278  -1.0000    69.2046
 65      0.0519     2.4847E+01    1.9976E+01    1.300000E+10  0.05000  6.513E-06    0   0.5036   age193_m72            0.0000     8.0725E-05    52.2787  -1.0000    63.2370
 66      0.0000     0.0000E+00    0.0000E+00    1.800000E+10  0.05000  4.527E-06    0   0.4945   age213_m72            0.0000     8.6659E-05    53.5520  -1.0000    59.2778


## Synthesis Results - Average & Chains ##

# j      x_j: min, <> & last-chain-values for 1 ...  7 chains
  1      1.1316      5.8695     17.7624     17.4403     17.5160     16.5277     15.6342     17.7379     17.3007
  2      0.0000      1.1529      1.6226      0.2438      0.3596      0.2622      0.0757      0.2758      0.3749
  3      0.3744      1.4831      0.7611      0.2868      0.6066      1.1292      1.2877      0.8544      0.9544
  4      0.0000      1.0734      1.6084      0.4967      0.9709      1.1627      0.0000      0.6548      0.5536
  5      0.0000      1.1995      0.5711      0.7851      0.5864      1.1774      0.0000      0.9114      0.9623
  6      0.0000      1.4624      0.9526      0.8976      0.9387      0.8796      1.8781      0.9715      0.6515
  7      0.0000      1.2725      0.6110      0.9635      0.7910      0.4642      0.5799      0.7723      0.0869
  8      0.0000      1.3787      1.0028      1.2755      0.8796      1.4322      0.8405      0.8929      0.4689
  9      0.0000      1.3316      0.4169      0.2169      0.2998      1.6398      0.3677      0.0000      0.2751
 10      0.0000      1.8319      0.2208      0.0824      1.1618      0.0000      0.0000      0.5040      0.0000
 11      0.0000      1.4896      1.6490      0.1112      0.1776      0.5807      0.0647      0.0000      0.0000
 12      0.0000      0.9192      0.0000      0.0771      0.5050      1.2064      0.2644      0.0000      0.0000
 13      0.0000      1.3754      1.0277      0.0000      0.3183      0.0000      0.0000      0.1318      0.7610
 14      0.4129      1.2943      0.2391      0.1113      0.6850      0.0363      0.5293      0.0413      0.0000
 15      0.0000      1.1107      0.7520      0.1329      0.0000      0.0493      0.0000      0.0629      0.0273
 16      0.0000      1.1419      0.5005      0.3075      0.1583      0.0392      0.0000      0.5008      0.4807
 17      0.0000      2.0667      0.0000      0.0000      0.0000      0.0000      0.3350      0.0000      0.2021
 18      0.0000      6.9301     18.1983     24.4390     22.3436     21.9922     19.4983     23.9539     21.2814
 19      0.0000      1.4257      1.2453      0.7417      0.0000      0.7004      0.0000      0.7796      1.5707
 20      0.0000      1.6259      1.5428      0.8479      0.0000      0.5181      1.5396      0.7374      2.0774
 21      0.0000      1.5722      0.0000      0.3239      0.6433      0.7677      0.1045      0.2786      0.0000
 22      0.0000      1.3790      1.3535      0.7485      3.4600      0.5974      3.2586      0.5890      0.1636
 23      6.7227      1.3741      1.8863      0.7667      0.9408      1.2332      1.2642      1.0035      0.6055
 24      0.0000      1.2416      1.7482      0.7729      0.0000      0.7105      2.4497      0.8536      2.2682
 25      0.0000      1.0132      0.0000      0.6042      0.9257      0.2969      0.8476      0.1904      0.0000
 26      0.0000      1.1956      0.6031      0.0436      0.0000      0.3101      0.0000      0.0000      0.2077
 27      0.0000      0.9673      0.2846      0.0000      0.0000      0.0000      0.1548      0.0000      0.6827
 28      0.2217      0.6832      0.0463      0.6801      0.2266      0.0000      0.4553      0.1776      0.9267
 29      0.0000      1.3473      0.3357      0.3005      0.0000      0.0145      0.0000      0.1324      0.0000
 30      0.0000      0.9999      0.0117      0.2312      0.2178      0.1069      0.0204      0.0194      0.2825
 31      0.0000      1.1014      0.0000      0.2029      0.0000      0.1943      0.0000      0.0000      0.0000
 32      0.0000      1.2719      0.3827      0.5714      0.0771      0.0000      0.0000      0.2866      0.5849
 33      0.0000      1.1859      0.7664      0.2015      0.7712      0.0000      0.0163      0.0579      0.3673
 34      0.0000      0.9009      0.3165      0.5175      0.1234      0.4473      0.2372      0.4459      0.0000
 35     10.7291      0.7431      0.5449      0.2436      0.1807      0.0000      0.6460      0.0292      0.2200
 36      0.0000      1.4532      0.0000      1.1382      0.5552      1.7933      1.3898      0.9012      1.0816
 37      0.0127      1.1624      1.0419      0.3291      0.9025      0.0000      1.9425      0.8416      0.0620
 38     10.5929      1.5233      0.9972      0.6110      0.5088      0.5482      2.0352      0.7018      0.4813
 39      0.0000      1.2047      0.5276      0.9309      2.2294      0.3130      0.3552      0.8910      0.3245
 40      2.2072      1.0897      0.4135      1.0493      1.5271      0.9173      1.7984      0.7498      1.3570
 41      0.0000      1.4505      2.1705      0.7377      0.8156      2.7896      0.7322      1.1122      1.3875
 42      0.0000      1.5746      0.0000      0.3821      0.0000      0.1853      0.0000      0.7508      0.0000
 43      0.0000      1.1291      1.1137      0.8351      0.1606      0.2609      0.0077      0.0000      0.7516
 44      2.8002      1.1588      0.2365      0.1634      0.0000      0.5262      1.3290      0.2607      0.8952
 45      0.0000      1.3140      0.0000      0.4005      0.1579      1.1843      1.0232      0.1520      0.0200
 46      0.0000      0.9593      0.4542      0.2829      0.0562      0.0462      0.0000      0.2149      0.1662
 47      0.0000      1.0402      0.3368      0.0000      0.0000      0.0000      0.0000      0.0120      0.4539
 48      0.0000      1.0587      0.0000      0.0000      0.0642      0.3926      0.0487      0.2204      0.0118
 49      0.0461      1.1884      0.5059      0.0380      0.0848      0.0643      0.7010      0.0000      0.0000
 50      0.0000      1.1844      0.0258      0.0778      0.0000      0.0000      0.0022      0.0000      0.2264
 51      0.8893      4.5603      9.1334     10.7054     10.5981     10.5128      8.1699     11.0929      7.9340
 52      3.3086      1.1060      0.5125      0.7778      0.0155      1.0199      0.8060      0.7700      0.8568
 53      0.0796      1.3236      1.0634      1.1550      1.3384      1.2895      3.3192      0.7923      2.7567
 54     50.3172      1.2687      1.3052      0.8060      0.7146      0.9223      1.3437      1.1007      1.3123
 55      1.1206      1.9121      2.1188      0.8923      0.9512      1.0274      3.0048      1.3836      2.3372
 56      0.0000      1.3268      0.6213      0.9342      1.0545      0.3566      0.8364      0.8372      0.1016
 57      2.3365      1.0724      0.3151      0.8261      0.6105      1.1637      0.3978      0.9280      1.1381
 58      0.0000      1.3286      0.0792      0.1596      1.4410      0.5594      0.0146      0.0000      0.0000
 59      0.0000      1.0049      0.1609      0.1110      0.9193      0.0000      0.0669      0.5573      1.7601
 60      0.0000      1.1882      1.4986      0.1338      0.0000      0.0000      0.0000      0.0000      0.0000
 61      0.0000      1.0695      0.0000      0.3798      0.1465      0.1006      0.0409      0.1089      0.0000
 62      0.0000      1.1262      0.2423      0.0000      0.0529      0.0000      0.4126      0.0000      0.0534
 63      0.0000      1.2427      0.6860      0.1580      0.0000      0.1691      0.0000      0.1182      0.3725
 64      0.0000      1.2457      0.0000      0.0159      0.0000      0.1639      0.0000      0.0000      0.0000
 65      0.0519      3.8757      7.5102     10.3827      9.1789      9.9956      9.0827     10.5046      9.6015
 66      0.0000      5.3691     10.7011     12.6333     12.8274     12.0760     10.7261     13.7799     12.7958

# j      m_j: min, <> & last-chain-values for 1 ...  7 chains
  1  5.1487E-01  3.8202E-02  8.6404E-02  7.0400E-02  7.3615E-02  7.0259E-02  7.3473E-02  6.8216E-02  7.1077E-02
  2  0.0000E+00  2.0484E-03  2.1547E-03  2.6865E-04  4.1262E-04  3.0426E-04  9.7138E-05  2.8953E-04  4.2046E-04
  3  6.9634E-02  3.9462E-03  1.5136E-03  4.7333E-04  1.0423E-03  1.9623E-03  2.4739E-03  1.3432E-03  1.6029E-03
  4  0.0000E+00  2.6897E-03  3.0121E-03  7.7198E-04  1.5710E-03  1.9029E-03  0.0000E+00  9.6946E-04  8.7555E-04
  5  0.0000E+00  5.7252E-03  2.0374E-03  2.3240E-03  1.8074E-03  3.6706E-03  0.0000E+00  2.5705E-03  2.8994E-03
  6  0.0000E+00  1.1322E-02  5.5121E-03  4.3100E-03  4.6924E-03  4.4475E-03  1.0498E-02  4.4443E-03  3.1835E-03
  7  0.0000E+00  1.4105E-02  5.0619E-03  6.6237E-03  5.6610E-03  3.3608E-03  4.6410E-03  5.0579E-03  6.0822E-04
  8  0.0000E+00  2.1122E-02  1.1482E-02  1.2119E-02  8.7017E-03  1.4331E-02  9.2976E-03  8.0829E-03  4.5342E-03
  9  0.0000E+00  2.3348E-02  5.4638E-03  2.3588E-03  3.3945E-03  1.8779E-02  4.6554E-03  0.0000E+00  3.0449E-03
 10  0.0000E+00  4.2194E-02  3.8012E-03  1.1775E-03  1.7278E-02  0.0000E+00  0.0000E+00  6.8596E-03  0.0000E+00
 11  0.0000E+00  6.4511E-02  5.3376E-02  2.9858E-03  4.9670E-03  1.6426E-02  2.0236E-03  0.0000E+00  0.0000E+00
 12  0.0000E+00  6.3150E-02  0.0000E+00  3.2867E-03  2.2402E-02  5.4131E-02  1.3114E-02  0.0000E+00  0.0000E+00
 13  0.0000E+00  2.6633E-01  1.4874E-01  0.0000E+00  3.9801E-02  0.0000E+00  0.0000E+00  1.5076E-02  9.3015E-02
 14  1.8747E+01  8.4062E-01  1.1606E-01  4.4821E-02  2.8726E-01  1.5401E-02  2.4823E-01  1.5850E-02  0.0000E+00
 15  0.0000E+00  1.1744E+00  5.9422E-01  8.7119E-02  0.0000E+00  3.4018E-02  0.0000E+00  3.9312E-02  1.8241E-02
 16  0.0000E+00  2.0414E+00  6.6869E-01  3.4099E-01  1.8269E-01  4.5742E-02  0.0000E+00  5.2898E-01  5.4239E-01
 17  0.0000E+00  4.7929E+00  0.0000E+00  0.0000E+00  0.0000E+00  0.0000E+00  5.6096E-01  0.0000E+00  2.9579E-01
 18  0.0000E+00  3.9859E-02  7.8227E-02  8.7177E-02  8.2982E-02  8.2614E-02  8.0974E-02  8.1406E-02  7.7261E-02
 19  0.0000E+00  3.2910E-03  2.1485E-03  1.0619E-03  0.0000E+00  1.0560E-03  0.0000E+00  1.0633E-03  2.2887E-03
 20  0.0000E+00  4.0975E-03  2.9059E-03  1.3253E-03  0.0000E+00  8.5282E-04  2.8016E-03  1.0980E-03  3.3046E-03
 21  0.0000E+00  4.8095E-03  0.0000E+00  6.1455E-04  1.2708E-03  1.5338E-03  2.3073E-04  5.0360E-04  0.0000E+00
 22  0.0000E+00  7.1336E-03  5.2327E-03  2.4016E-03  1.1558E-02  2.0184E-03  1.2172E-02  1.8003E-03  5.3435E-04
 23  3.2830E+00  9.5986E-03  9.8484E-03  3.3218E-03  4.2439E-03  5.6266E-03  6.3767E-03  4.1420E-03  2.6698E-03
 24  0.0000E+00  1.2904E-02  1.3579E-02  4.9816E-03  0.0000E+00  4.8228E-03  1.8383E-02  5.2417E-03  1.4880E-02
 25  0.0000E+00  1.4520E-02  0.0000E+00  5.3698E-03  8.5661E-03  2.7786E-03  8.7704E-03  1.6125E-03  0.0000E+00
 26  0.0000E+00  2.8638E-02  1.0797E-02  6.4720E-04  0.0000E+00  4.8522E-03  0.0000E+00  0.0000E+00  3.1399E-03
 27  0.0000E+00  4.6375E-02  1.0197E-02  0.0000E+00  0.0000E+00  0.0000E+00  5.3587E-03  0.0000E+00  2.0661E-02
 28  2.1562E+00  9.5056E-02  4.8159E-03  5.8692E-02  2.0363E-02  0.0000E+00  4.5745E-02  1.4605E-02  8.1393E-02
 29  0.0000E+00  3.2665E-01  6.0829E-02  4.5182E-02  0.0000E+00  2.2950E-03  0.0000E+00  1.8967E-02  0.0000E+00
 30  0.0000E+00  5.0649E-01  4.4297E-03  7.2627E-02  7.1250E-02  3.5361E-02  7.4498E-03  5.8007E-03  9.0321E-02
 31  0.0000E+00  9.8138E-01  0.0000E+00  1.1213E-01  0.0000E+00  1.1310E-01  0.0000E+00  0.0000E+00  0.0000E+00
 32  0.0000E+00  1.5249E+00  3.4292E-01  4.2489E-01  5.9666E-02  0.0000E+00  0.0000E+00  2.0301E-01  4.4266E-01
 33  0.0000E+00  3.1475E+00  1.5202E+00  3.3176E-01  1.3217E+00  0.0000E+00  3.1269E-02  9.0745E-02  6.1533E-01
 34  0.0000E+00  3.2378E+00  8.5029E-01  1.1536E+00  2.8640E-01  1.0500E+00  6.1544E-01  9.4683E-01  0.0000E+00
 35  3.4590E+00  3.4269E-03  1.8780E-03  6.9676E-04  5.3820E-04  0.0000E+00  2.1512E-03  7.9597E-05  6.4031E-04
 36  0.0000E+00  2.7114E-03  0.0000E+00  1.3171E-03  6.6894E-04  2.1854E-03  1.8724E-03  9.9352E-04  1.2738E-03
 37  1.7962E-03  2.3459E-03  1.5715E-03  4.1198E-04  1.1762E-03  0.0000E+00  2.8306E-03  1.0036E-03  7.9000E-05
 38  4.0487E+00  8.3286E-03  4.0748E-03  2.0718E-03  1.7962E-03  1.9575E-03  8.0345E-03  2.2674E-03  1.6609E-03
 39  0.0000E+00  9.4832E-03  3.1040E-03  4.5448E-03  1.1332E-02  1.6091E-03  2.0191E-03  4.1444E-03  1.6123E-03
 40  1.9634E+00  1.3866E-02  3.9321E-03  8.2807E-03  1.2547E-02  7.6233E-03  1.6524E-02  5.6379E-03  1.0900E-02
 41  0.0000E+00  2.8702E-02  3.2100E-02  9.0534E-03  1.0421E-02  3.6053E-02  1.0461E-02  1.3004E-02  1.7330E-02
 42  0.0000E+00  5.7204E-02  0.0000E+00  8.6099E-03  0.0000E+00  4.3974E-03  0.0000E+00  1.6118E-02  0.0000E+00
 43  0.0000E+00  5.9890E-02  4.4149E-02  2.7473E-02  5.5014E-03  9.0378E-03  2.9319E-04  0.0000E+00  2.5165E-02
 44  1.7878E+01  1.0583E-01  1.6142E-02  9.2542E-03  0.0000E+00  3.1388E-02  8.7641E-02  1.4068E-02  5.1604E-02
 45  0.0000E+00  2.3810E-01  0.0000E+00  4.5008E-02  1.8476E-02  1.4016E-01  1.3388E-01  1.6271E-02  2.2839E-03
 46  0.0000E+00  3.1953E-01  1.1306E-01  5.8435E-02  1.2092E-02  1.0044E-02  0.0000E+00  4.2285E-02  3.4935E-02
 47  0.0000E+00  7.0202E-01  1.6989E-01  0.0000E+00  0.0000E+00  0.0000E+00  0.0000E+00  4.7886E-03  1.9338E-01
 48  0.0000E+00  1.2602E+00  0.0000E+00  0.0000E+00  4.9335E-02  3.0523E-01  4.1835E-02  1.5504E-01  8.8476E-03
 49  8.7194E+00  3.2149E+00  1.0228E+00  6.3822E-02  1.4819E-01  1.1353E-01  1.3694E+00  0.0000E+00  0.0000E+00
 50  0.0000E+00  5.9343E+00  9.6789E-02  2.4163E-01  0.0000E+00  0.0000E+00  7.8775E-03  0.0000E+00  7.1590E-01
 51  1.7074E-01  1.2525E-02  1.8748E-02  1.8236E-02  1.8796E-02  1.8858E-02  1.6202E-02  1.8002E-02  1.3755E-02
 52  3.2554E-01  1.5567E-03  5.3911E-04  6.7896E-04  1.4120E-05  9.3755E-04  8.1913E-04  6.4036E-04  7.6118E-04
 53  1.1799E-02  2.8062E-03  1.6850E-03  1.5187E-03  1.8323E-03  1.7857E-03  5.0811E-03  9.9257E-04  3.6892E-03
 54  1.5281E+01  5.5115E-03  4.2378E-03  2.1717E-03  2.0045E-03  2.6168E-03  4.2148E-03  2.8253E-03  3.5985E-03
 55  5.2401E-01  1.2789E-02  1.0592E-02  3.7017E-03  4.1083E-03  4.4885E-03  1.4512E-02  5.4685E-03  9.8679E-03
 56  0.0000E+00  1.7565E-02  6.1475E-03  7.6707E-03  9.0144E-03  3.0832E-03  7.9955E-03  6.5491E-03  8.4913E-04
 57  2.8701E+00  1.8844E-02  4.1385E-03  9.0029E-03  6.9266E-03  1.3355E-02  5.0468E-03  9.6354E-03  1.2623E-02
 58  0.0000E+00  3.9488E-02  1.7594E-03  2.9416E-03  2.7654E-02  1.0859E-02  3.1225E-04  0.0000E+00  0.0000E+00
 59  0.0000E+00  6.4276E-02  7.6924E-03  4.4021E-03  3.7968E-02  0.0000E+00  3.0917E-03  2.1063E-02  7.1062E-02
 60  0.0000E+00  1.4116E-01  1.3306E-01  9.8609E-03  0.0000E+00  0.0000E+00  0.0000E+00  0.0000E+00  0.0000E+00
 61  0.0000E+00  2.7762E-01  0.0000E+00  6.1150E-02  2.4555E-02  1.7058E-02  7.6695E-03  1.6696E-02  0.0000E+00
 62  0.0000E+00  5.3304E-01  8.5724E-02  0.0000E+00  1.6154E-02  0.0000E+00  1.4099E-01  0.0000E+00  1.5944E-02
 63  0.0000E+00  1.1702E+00  4.8278E-01  9.2288E-02  0.0000E+00  1.0402E-01  0.0000E+00  6.5742E-02  2.2140E-01
 64  0.0000E+00  3.2445E+00  0.0000E+00  2.5689E-02  0.0000E+00  2.7877E-01  0.0000E+00  0.0000E+00  0.0000E+00
 65  1.9976E+01  2.1338E+01  3.0903E+01  3.5453E+01  3.2632E+01  3.5944E+01  3.6107E+01  3.4173E+01  3.3368E+01
 66  0.0000E+00  4.1760E+01  6.2206E+01  6.0941E+01  6.4423E+01  6.1346E+01  6.0238E+01  6.3329E+01  6.2821E+01

# AV, chi2 & Mass for <> & i_chain = 1 ...  7 solutions
AV       0.3867     -0.8985     -0.9774     -1.0000     -1.0000     -1.0000     -0.9209     -1.0000     -1.0000
chi2 3.1918E-05  3.4545E-05  3.3084E-05  3.3116E-05  3.3019E-05  3.3057E-05  3.2874E-05  3.3088E-05  3.3104E-05
Mass 4.3728E-15  5.4402E-14  6.5475E-14  7.6542E-14  7.3518E-14  7.2683E-14  7.3112E-14  8.0341E-14  7.5207E-14
 497.32                                  [v0_min (km/s) before EX0s...]
  91.08                                  [vd_min (km/s) before EX0s...]


## Synthetic spectrum (Best Model) ##l_obs f_obs f_syn wei
 3478    [Nl_obs]
 3741.00    0.89022   0.75691    0.000
 3742.00    0.53695   0.78407    0.000
 3743.00    0.06227   0.82829    0.000
 3744.00   -0.04768   0.87463    0.000
 3745.00    0.05488   0.91375   -1.000
 3746.00    1.20234   0.94242   -1.000
 3747.00    2.88040   0.96070   -1.000
 3748.00    2.46524   0.96895   -1.000
 3749.00    1.12964   0.96697   -1.000
 3750.00    0.54731   0.95458   -1.000
 3751.00    0.24936   0.93190   -1.000
 3752.00   -0.29891   0.89915    0.000
 3753.00   -0.92742   0.85607    0.000
 3754.00   -0.26119   0.80435    0.000
 3755.00    0.75201   0.75436   -1.000
 3756.00    1.10967   0.72586   -1.000
 3757.00    1.32344   0.73399   -1.000
 3758.00    1.17578   0.77425   -1.000
 3759.00    0.96502   0.82712   -1.000
 3760.00    0.61198   0.87527   -1.000
 3761.00    0.24004   0.91220   -1.000
 3762.00    0.04374   0.93875   -1.000
 3763.00   -0.13606   0.95738    0.000
 3764.00    0.39443   0.96984   -1.000
 3765.00    0.96588   0.97753   -1.000
 3766.00    1.32312   0.98218   -1.000
 3767.00    1.67305   0.98441   -1.000
 3768.00    1.75491   0.98305   -1.000
 3769.00    1.82156   0.97726   -1.000
 3770.00    1.51894   0.96627   -1.000
 3771.00    1.21232   0.94741   -1.000
 3772.00    0.85346   0.91773   -1.000
 3773.00    0.56580   0.87614   -1.000
 3774.00    0.90328   0.82364   -1.000
 3775.00    1.17167   0.76643   -1.000
 3776.00    0.99208   0.72056   -1.000
 3777.00    0.75159   0.70622   -1.000
 3778.00    0.20291   0.73084   -1.000
 3779.00   -0.12638   0.78160    0.000
 3780.00    0.44236   0.83820   -1.000
 3781.00    0.92089   0.88765   -1.000
 3782.00    1.09348   0.92565   -1.000
 3783.00    1.29961   0.95273   -1.000
 3784.00    1.60170   0.97244   -1.000
 3785.00    1.80744   0.98921   -1.000
 3786.00    1.77778   1.00484   -1.000
 3787.00    1.73827   1.01757   -1.000
 3788.00    1.67802   1.02495   -1.000
 3789.00    1.38144   1.02633   -1.000
 3790.00    0.65196   1.02323   -1.000
 3791.00   -0.04522   1.01863    0.000
 3792.00   -0.69072   1.01483    0.000
 3793.00   -0.52696   1.01133    0.000
 3794.00    0.77353   1.00575   -1.000
 3795.00    1.83106   0.99578   -1.000
 3796.00    2.58831   0.97996   -1.000
 3797.00    2.31879   0.95887   -1.000
 3798.00    0.93061   0.93413   -1.000
 3799.00    0.45257   0.90417   -1.000
 3800.00    0.84916   0.86377   -1.000
 3801.00    0.94811   0.80983   -1.000
 3802.00    0.79486   0.74734   -1.000
 3803.00    0.10501   0.69184   -1.000
 3804.00   -0.98525   0.66509    0.000
 3805.00   -1.43766   0.68040    0.000
 3806.00   -1.47192   0.73007    0.000
 3807.00   -1.23281   0.79227    0.000
 3808.00   -0.83681   0.84867    0.000
 3809.00   -0.40932   0.89197    0.000
 3810.00    0.03391   0.92086   -1.000
 3811.00   -0.02184   0.93628    0.000
 3812.00   -0.29338   0.94483    0.000
 3813.00   -0.07025   0.95741    0.000
 3814.00    0.33634   0.97782   -1.000
 3815.00    0.73041   0.99911   -1.000
 3816.00    1.12054   1.01408   -1.000
 3817.00    0.81002   1.02182   -1.000
 3818.00    0.31571   1.02440   -1.000
 3819.00    0.45074   1.02356   -1.000
 3820.00    0.72060   1.02065   -1.000
 3821.00    1.01940   1.01586   -1.000
 3822.00    1.32311   1.00639   -1.000
 3823.00    1.09769   0.98589   -1.000
 3824.00    0.80437   0.95027   -1.000
 3825.00    1.20075   0.91012   -1.000
 3826.00    1.65904   0.89029   -1.000
 3827.00    0.86824   0.90490   -1.000
 3828.00    0.01030   0.93991   -1.000
 3829.00   -0.35552   0.97049    0.000
 3830.00   -0.69359   0.98495    0.000
 3831.00    0.47760   0.98601   -1.000
 3832.00    1.57896   0.97975   -1.000
 3833.00    1.12915   0.96908   -1.000
 3834.00    0.69409   0.95381   -1.000
 3835.00    0.44248   0.93258   -1.000
 3836.00    0.15092   0.90377   -1.000
 3837.00   -0.47831   0.86547    0.000
 3838.00   -0.94493   0.81605    0.000
 3839.00   -0.38864   0.75646    0.000
 3840.00    0.14113   0.69477   -1.000
 3841.00    0.54004   0.64905   -1.000
 3842.00    0.78815   0.63870   -1.000
 3843.00    0.43256   0.66778   -1.000
 3844.00    0.24907   0.72196   -1.000
 3845.00    0.63774   0.78262   -1.000
 3846.00    0.93039   0.83751   -1.000
 3847.00    0.95342   0.88115    0.000
 3848.00    1.00266   0.91331    0.000
 3849.00    1.11487   0.93713    0.000
 3850.00    1.24529   0.95572    0.000
 3851.00    1.41345   0.97027    0.000
 3852.00    1.59960   0.98079    0.000
 3853.00    1.81820   0.98762    0.000
 3854.00    1.77209   0.99164    0.000
 3855.00    1.30850   0.99325    0.000
 3856.00    0.79067   0.99301    0.000
 3857.00    0.19776   0.99343    0.000
 3858.00   -0.02935   0.99669    0.000
 3859.00    0.18926   1.00044    0.000
 3860.00    0.63100   1.00031    0.000
 3861.00    1.31242   0.99596    0.000
 3862.00    1.36129   0.99221    0.000
 3863.00    0.81081   0.99368    0.000
 3864.00    0.56839   0.99902    0.000
 3865.00    0.58334   1.00253    0.000
 3866.00    0.66107   1.00136    0.000
 3867.00    0.78500   0.99743    0.000
 3868.00    0.95725   0.99286    0.000
 3869.00    1.16073   0.98802    0.000
 3870.00    0.79966   0.98386    0.000
 3871.00    0.11955   0.98147    0.000
 3872.00    0.04122   0.97915    0.000
 3873.00    0.25890   0.97600    0.000
 3874.00    0.37043   0.97600    0.000
 3875.00    0.43680   0.98066    0.000
 3876.00    0.64223   0.98249    0.000
 3877.00    0.89831   0.97531    0.000
 3878.00    1.01864   0.96503    0.000
 3879.00    1.09713   0.96112    0.000
 3880.00    0.81994   0.96202    0.000
 3881.00    0.45144   0.95845   -1.000
 3882.00    0.60903   0.94886   -1.000
 3883.00    0.87660   0.94126   -1.000
 3884.00    0.72566   0.94008   -1.000
 3885.00    0.50571   0.94065   -1.000
 3886.00    0.61025   0.93631    0.086
 3887.00    0.75498   0.92408    0.041
 3888.00    1.15032   0.90510    0.040
 3889.00    1.56711   0.88238    0.041
 3890.00    1.47966   0.85602    0.042
 3891.00    1.36708   0.82125    0.042
 3892.00    1.17335   0.77312    0.042
 3893.00    0.98059   0.71262    0.042
 3894.00    0.93685   0.65133    0.042
 3895.00    0.88168   0.61166    0.043
 3896.00    0.59263   0.61362    0.042
 3897.00    0.33562   0.65599    0.042
 3898.00    0.45755   0.71772    0.041
 3899.00    0.56591   0.77754    0.040
 3900.00    0.56367   0.82581    0.039
 3901.00    0.48575   0.86202    0.037
 3902.00   -0.05438   0.88862    0.000
 3903.00   -0.42078   0.90734    0.000
 3904.00    0.04887   0.91913    0.034
 3905.00    0.44998   0.92694    0.035
 3906.00    0.58267   0.93576    0.036
 3907.00    0.62776   0.94748    0.036
 3908.00    0.38733   0.95921    0.036
 3909.00    0.19890   0.96784    0.036
 3910.00    0.15385   0.97295    0.037
 3911.00    0.24001   0.97552    0.037
 3912.00    0.63603   0.97693    0.038
 3913.00    0.97397   0.97885    0.040
 3914.00    1.19340   0.98206    0.040
 3915.00    1.37558   0.98514    0.041
 3916.00    1.49161   0.98522    0.041
 3917.00    1.37457   0.98106    0.041
 3918.00    0.89537   0.97605    0.039
 3919.00    0.65991   0.97535    0.039
 3920.00    0.75699   0.97936    0.039
 3921.00    0.66118   0.98362    0.039
 3922.00    0.33366   0.98371    0.039
 3923.00    0.26912   0.97652    0.039
 3924.00    0.48311   0.96032    0.039
 3925.00    0.47995   0.93879    0.039
 3926.00    0.27394   0.92273    0.039
 3927.00    0.08286   0.92154    0.038
 3928.00   -0.09592   0.93282    0.000
 3929.00    0.09603   0.94421    0.038
 3930.00    0.55673   0.94633    0.038
 3931.00    0.44860   0.93996    0.038
 3932.00   -0.02156   0.93135    0.000
 3933.00    0.37252   0.92713    0.039
 3934.00    1.24756   0.93073    0.039
 3935.00    1.39151   0.93932    0.040
 3936.00    1.18155   0.94656    0.040
 3937.00    1.11370   0.94747    0.040
 3938.00    1.10526   0.94025    0.040
 3939.00    1.36065   0.92842    0.041
 3940.00    1.71041   0.92029    0.042
 3941.00    1.51583   0.92216    0.041
 3942.00    1.15670   0.93218    0.041
 3943.00    1.26213   0.94397    0.041
 3944.00    1.48424   0.95342    0.042
 3945.00    1.47962   0.95971    0.042
 3946.00    1.42876   0.96354    0.042
 3947.00    0.99939   0.96525    0.042
 3948.00    0.50940   0.96437    0.042
 3949.00    0.56540   0.96045    0.041
 3950.00    0.68659   0.95419    0.040
 3951.00    1.14657   0.94857    0.040
 3952.00    1.63413   0.94681    0.041
 3953.00    1.06386   0.94868    0.040
 3954.00    0.44498   0.95122    0.040
 3955.00    0.41925   0.95284    0.039
 3956.00    0.41027   0.95348    0.039
 3957.00    0.88147   0.95241    0.039
 3958.00    1.32845   0.94832    0.039
 3959.00    1.31665   0.94085    0.039
 3960.00    1.26901   0.93178    0.000
 3961.00    0.81757   0.92464    0.000
 3962.00    0.42711   0.92177    0.000
 3963.00    0.51605   0.92193    0.000
 3964.00    0.56377   0.92161    0.000
 3965.00    0.36687   0.91756    0.000
 3966.00    0.17929   0.90763    0.000
 3967.00    0.03550   0.89161    0.000
 3968.00   -0.03411   0.87117    0.000
 3969.00    0.18060   0.84711    0.000
 3970.00    0.44154   0.81862    0.000
 3971.00    0.85026   0.78702    0.000
 3972.00    1.12724   0.75421    0.000
 3973.00    1.04741   0.71624    0.000
 3974.00    0.87634   0.66739    0.000
 3975.00    0.49341   0.61324    0.000
 3976.00    0.43308   0.57369    0.000
 3977.00    1.02072   0.56892    0.000
 3978.00    1.38716   0.60133    0.000
 3979.00    1.36670   0.65502    0.000
 3980.00    1.26374   0.71203    0.000
 3981.00    1.03448   0.76269    0.040
 3982.00    0.97200   0.80341    0.040
 3983.00    1.13383   0.83375    0.039
 3984.00    0.96624   0.85565    0.039
 3985.00    0.40856   0.87174    0.040
 3986.00    0.35321   0.88376    0.039
 3987.00    0.82241   0.89204    0.039
 3988.00    0.91505   0.89653    0.039
 3989.00    0.66088   0.89936    0.039
 3990.00    0.80765   0.90425    0.039
 3991.00    1.27996   0.91238    0.039
 3992.00    1.34221   0.92135    0.039
 3993.00    1.11150   0.92867    0.038
 3994.00    0.84524   0.93368    0.038
 3995.00    0.55669   0.93654    0.038
 3996.00    0.87082   0.93783    0.038
 3997.00    1.51521   0.93853    0.038
 3998.00    1.21235   0.93877    0.038
 3999.00    0.45828   0.93707    0.037
 4000.00    0.65989   0.93224    0.037
 4001.00    1.25432   0.92667    0.038
 4002.00    1.23927   0.92478    0.038
 4003.00    1.01017   0.92731    0.038
 4004.00    1.02602   0.93088    0.037
 4005.00    1.11443   0.93332    0.038
 4006.00    1.34916   0.93510    0.038
 4007.00    1.61984   0.93618    0.038
 4008.00    1.41714   0.93544    0.037
 4009.00    1.12032   0.93252    0.037
 4010.00    0.63360   0.92817    0.036
 4011.00    0.11737   0.92329    0.035
 4012.00    0.58537   0.91778    0.035
 4013.00    1.16655   0.90944    0.036
 4014.00    1.44316   0.89604    0.036
 4015.00    1.69622   0.88149    0.036
 4016.00    1.37137   0.87603    0.036
 4017.00    1.02218   0.88523    0.036
 4018.00    1.17791   0.90286    0.036
 4019.00    1.34006   0.91875    0.036
 4020.00    1.58124   0.92850    0.036
 4021.00    1.78293   0.93317    0.036
 4022.00    1.28811   0.93483    0.036
 4023.00    0.84810   0.93486    0.036
 4024.00    0.99768   0.93433    0.036
 4025.00    1.21711   0.93372    0.035
 4026.00    1.96682   0.93205    0.036
 4027.00    2.47947   0.92734    0.037
 4028.00    1.62476   0.91761    0.036
 4029.00    0.90097   0.90044    0.036
 4030.00    0.77719   0.87288    0.035
 4031.00    0.78928   0.83637    0.034
 4032.00    1.31103   0.80392    0.036
 4033.00    1.61340   0.79518    0.036
 4034.00    1.22799   0.81659    0.036
 4035.00    0.92373   0.85272    0.035
 4036.00    0.83536   0.88313    0.036
 4037.00    0.74590   0.89979    0.036
 4038.00    0.65394   0.90580    0.035
 4039.00    0.71919   0.90661    0.035
 4040.00    1.09524   0.90599    0.036
 4041.00    1.23140   0.90666    0.037
 4042.00    0.95429   0.91082    0.037
 4043.00    0.74296   0.91807    0.037
 4044.00    0.63086   0.92463    0.037
 4045.00    0.69718   0.92677    0.037
 4046.00    1.00000   0.92401    0.037
 4047.00    0.98129   0.91857    0.037
 4048.00    0.58721   0.91329    0.036
 4049.00    0.68190   0.90951    0.036
 4050.00    1.27981   0.90694    0.037
 4051.00    1.50351   0.90553    0.037
 4052.00    1.38739   0.90601    0.037
 4053.00    1.07827   0.90844    0.036
 4054.00    0.61467   0.91185    0.036
 4055.00    0.79099   0.91525    0.036
 4056.00    1.41790   0.91815    0.036
 4057.00    1.36069   0.91978    0.036
 4058.00    0.88090   0.91886    0.035
 4059.00    0.76828   0.91502    0.035
 4060.00    0.85377   0.90979    0.034
 4061.00    0.97564   0.90579    0.034
 4062.00    1.11455   0.90441    0.034
 4063.00    0.99297   0.90479    0.034
 4064.00    0.76614   0.90480    0.033
 4065.00    0.68605   0.90282    0.033
 4066.00    0.65656   0.89886    0.034
 4067.00    0.90115   0.89477    0.033
 4068.00    1.22533   0.89239    0.033
 4069.00    1.49298   0.89206    0.033
 4070.00    1.74706   0.89346    0.033
 4071.00    1.59242   0.89621    0.033
 4072.00    1.35859   0.89855    0.033
 4073.00    1.14729   0.89758    0.033
 4074.00    0.93938   0.89127    0.033
 4075.00    0.94845   0.88025    0.033
 4076.00    0.98151   0.86815    0.032
 4077.00    0.90947   0.85971    0.033
 4078.00    0.82974   0.85730    0.034
 4079.00    0.78745   0.85937    0.033
 4080.00    0.74660   0.86112    0.033
 4081.00    1.01718   0.85841    0.033
 4082.00    1.28198   0.85331    0.033
 4083.00    1.26411   0.85210    0.034
 4084.00    1.23558   0.85686    0.034
 4085.00    1.03132   0.86412    0.033
 4086.00    0.86517   0.87058    0.033
 4087.00    1.09130   0.87488    0.034
 4088.00    1.26635   0.87590    0.034
 4089.00    1.06654   0.87309    0.033
 4090.00    0.94907   0.86749    0.033
 4091.00    1.29355   0.86161    0.034
 4092.00    1.60555   0.85737    0.000
 4093.00    1.77219   0.85392    0.000
 4094.00    1.73583   0.84905    0.000
 4095.00    0.95397   0.84332    0.000
 4096.00    0.52327   0.83998    0.000
 4097.00    1.17255   0.83928    0.000
 4098.00    1.66172   0.83674    0.000
 4099.00    1.73248   0.82867    0.000
 4100.00    1.72062   0.81506    0.000
 4101.00    1.52324   0.79605    0.000
 4102.00    1.42102   0.77095    0.000
 4103.00    1.50398   0.74093    0.000
 4104.00    1.57179   0.70805    0.000
 4105.00    1.61389   0.67091    0.000
 4106.00    1.61531   0.62637    0.000
 4107.00    1.55626   0.57882    0.000
 4108.00    1.32270   0.54504    0.000
 4109.00    0.86114   0.54279    0.000
 4110.00    0.57704   0.57384    0.000
 4111.00    0.49723   0.62337    0.000
 4112.00    0.64487   0.67466    0.000
 4113.00    1.02339   0.71847    0.034
 4114.00    1.17107   0.75184    0.033
 4115.00    1.11206   0.77516    0.033
 4116.00    1.07665   0.79066    0.033
 4117.00    1.05987   0.80152    0.033
 4118.00    0.97266   0.81094    0.032
 4119.00    0.83657   0.82035    0.033
 4120.00    0.89982   0.82848    0.032
 4121.00    1.08436   0.83358    0.032
 4122.00    1.09528   0.83609    0.032
 4123.00    1.01396   0.83719    0.032
 4124.00    0.90262   0.83504    0.032
 4125.00    0.77744   0.82601    0.031
 4126.00    0.98295   0.81162    0.031
 4127.00    1.31978   0.80109    0.032
 4128.00    1.28449   0.80399    0.032
 4129.00    1.12327   0.82056    0.033
 4130.00    0.83844   0.84161    0.032
 4131.00    0.51845   0.85741    0.031
 4132.00    0.65958   0.86391    0.030
 4133.00    0.90897   0.86176    0.030
 4134.00    0.95091   0.85456    0.031
 4135.00    0.95369   0.84708    0.031
 4136.00    1.35820   0.84180    0.031
 4137.00    1.82138   0.83822    0.031
 4138.00    1.67134   0.83643    0.031
 4139.00    1.45614   0.83819    0.032
 4140.00    0.73242   0.84419    0.032
 4141.00   -0.02647   0.85233    0.000
 4142.00    0.42537   0.85901    0.031
 4143.00    0.91898   0.86186    0.031
 4144.00    0.99658   0.86128    0.031
 4145.00    1.07565   0.85908    0.032
 4146.00    1.23052   0.85549    0.032
 4147.00    1.37677   0.84775    0.032
 4148.00    1.38979   0.83197    0.032
 4149.00    1.38816   0.80888    0.032
 4150.00    1.24204   0.78885    0.032
 4151.00    1.07434   0.78532    0.032
 4152.00    0.75332   0.80052    0.031
 4153.00    0.50088   0.82303    0.031
 4154.00    0.62272   0.84043    0.032
 4155.00    0.70871   0.84833    0.033
 4156.00    0.63802   0.84906    0.032
 4157.00    0.61892   0.84695    0.032
 4158.00    0.78542   0.84437    0.031
 4159.00    0.97285   0.84165    0.031
 4160.00    1.22345   0.84007    0.032
 4161.00    1.33190   0.84135    0.032
 4162.00    1.07532   0.84470    0.032
 4163.00    0.81779   0.84843    0.032
 4164.00    0.55821   0.85245    0.032
 4165.00    0.49914   0.85655    0.032
 4166.00    0.82420   0.85905    0.032
 4167.00    1.06346   0.85858    0.033
 4168.00    1.15933   0.85543    0.032
 4169.00    1.20359   0.85110    0.032
 4170.00    1.17222   0.84733    0.033
 4171.00    1.19969   0.84518    0.033
 4172.00    1.30294   0.84434    0.032
 4173.00    1.28194   0.84305    0.032
 4174.00    1.11995   0.83967    0.032
 4175.00    1.08805   0.83521    0.032
 4176.00    1.18633   0.83288    0.032
 4177.00    0.97384   0.83360    0.032
 4178.00    0.48702   0.83472    0.031
 4179.00    0.49996   0.83427    0.031
 4180.00    0.90158   0.83326    0.031
 4181.00    0.92626   0.83312    0.031
 4182.00    0.69317   0.83383    0.030
 4183.00    0.72187   0.83485    0.030
 4184.00    0.90749   0.83618    0.031
 4185.00    1.02081   0.83809    0.031
 4186.00    1.09631   0.84057    0.030
 4187.00    1.03929   0.84302    0.030
 4188.00    0.92215   0.84447    0.030
 4189.00    0.71197   0.84423    0.030
 4190.00    0.46549   0.84216    0.030
 4191.00    0.44345   0.83860    0.030
 4192.00    0.49594   0.83475    0.029
 4193.00    0.68883   0.83206    0.030
 4194.00    0.92086   0.83050    0.030
 4195.00    1.02644   0.82877    0.030
 4196.00    1.10301   0.82704    0.030
 4197.00    1.10753   0.82773    0.030
 4198.00    1.09882   0.83201    0.030
 4199.00    0.89498   0.83752    0.029
 4200.00    0.66354   0.84083    0.029
 4201.00    0.53166   0.84051    0.028
 4202.00    0.40993   0.83740    0.028
 4203.00    0.61970   0.83302    0.028
 4204.00    0.85106   0.82807    0.028
 4205.00    0.53927   0.82258    0.028
 4206.00    0.21163   0.81764    0.028
 4207.00    0.42157   0.81537    0.028
 4208.00    0.62731   0.81682    0.028
 4209.00    0.70960   0.82080    0.028
 4210.00    0.77318   0.82513    0.028
 4211.00    0.56457   0.82854    0.028
 4212.00    0.41009   0.83106    0.028
 4213.00    0.76749   0.83328    0.028
 4214.00    1.03597   0.83524    0.028
 4215.00    0.69316   0.83629    0.028
 4216.00    0.41659   0.83589    0.028
 4217.00    0.49210   0.83432    0.028
 4218.00    0.61446   0.83251    0.028
 4219.00    0.93691   0.83099    0.028
 4220.00    1.14951   0.82942    0.027
 4221.00    0.97512   0.82719    0.027
 4222.00    0.81271   0.82470    0.027
 4223.00    0.68576   0.82344    0.027
 4224.00    0.59093   0.82418    0.027
 4225.00    0.57720   0.82568    0.027
 4226.00    0.49127   0.82606    0.027
 4227.00    0.24849   0.82435    0.027
 4228.00    0.25282   0.82069    0.026
 4229.00    0.72316   0.81618    0.027
 4230.00    0.97217   0.81183    0.027
 4231.00    0.85680   0.80742    0.027
 4232.00    0.75174   0.80243    0.027
 4233.00    0.66155   0.79785    0.026
 4234.00    0.63185   0.79606    0.026
 4235.00    0.67895   0.79855    0.026
 4236.00    0.60895   0.80385    0.026
 4237.00    0.40796   0.80864    0.026
 4238.00    0.24864   0.81076    0.026
 4239.00    0.13046   0.81042    0.026
 4240.00    0.18808   0.80930    0.026
 4241.00    0.39871   0.80850    0.025
 4242.00    0.59326   0.80741    0.026
 4243.00    0.77550   0.80558    0.027
 4244.00    0.84623   0.80452    0.027
 4245.00    0.84184   0.80543    0.027
 4246.00    0.68381   0.80691    0.028
 4247.00    0.43509   0.80688    0.029
 4248.00    0.39853   0.80602    0.029
 4249.00    0.47120   0.80716    0.029
 4250.00    0.41141   0.81122    0.029
 4251.00    0.29252   0.81532    0.028
 4252.00    0.43480   0.81618    0.028
 4253.00    0.67721   0.81388    0.029
 4254.00    0.87847   0.81103    0.029
 4255.00    1.06631   0.80904    0.028
 4256.00    1.13353   0.80712    0.028
 4257.00    1.16781   0.80418    0.027
 4258.00    1.04038   0.79963    0.027
 4259.00    0.87672   0.79301    0.028
 4260.00    0.63239   0.78602    0.028
 4261.00    0.37364   0.78326    0.028
 4262.00    0.54685   0.78714    0.028
 4263.00    0.77916   0.79420    0.028
 4264.00    0.86782   0.79932    0.028
 4265.00    0.94246   0.80085    0.027
 4266.00    0.90212   0.80020    0.027
 4267.00    0.85474   0.79946    0.027
 4268.00    0.82326   0.80014    0.027
 4269.00    0.79183   0.80244    0.026
 4270.00    0.68830   0.80432    0.027
 4271.00    0.59288   0.80136    0.027
 4272.00    0.71204   0.78938    0.027
 4273.00    0.81512   0.77078    0.027
 4274.00    0.69698   0.75686    0.026
 4275.00    0.57469   0.75747    0.026
 4276.00    0.41471   0.76921    0.026
 4277.00    0.30998   0.78050    0.026
 4278.00    0.57319   0.78492    0.026
 4279.00    0.80293   0.78389    0.026
 4280.00    0.85935   0.78021    0.026
 4281.00    0.91019   0.77480    0.027
 4282.00    0.93770   0.76900   -2.000
 4283.00    1.08551   0.76641   -2.000
 4284.00    1.64863   0.77016   -2.000
 4285.00    1.90253   0.77904   -2.000
 4286.00    1.25763   0.78765   -2.000
 4287.00    0.62233   0.79100   -2.000
 4288.00    0.01083   0.78809   -2.000
 4289.00   -0.32622   0.78172   -2.000
 4290.00   -0.07655   0.77577   -2.000
 4291.00    0.13669   0.77302   -2.000
 4292.00    0.28227   0.77412   -2.000
 4293.00    0.40222   0.77728   -2.000
 4294.00    0.48061   0.77901   -2.000
 4295.00    0.51671   0.77699   -2.000
 4296.00    0.49267   0.77275   -2.000
 4297.00    0.49893   0.77029   -2.000
 4298.00    0.54311   0.77187    0.026
 4299.00    0.53920   0.77574    0.026
 4300.00    0.48225   0.77810    0.025
 4301.00    0.41380   0.77755    0.025
 4302.00    0.33416   0.77642    0.025
 4303.00    0.43867   0.77694    0.025
 4304.00    0.70116   0.77815    0.025
 4305.00    0.81073   0.77780    0.025
 4306.00    0.80474   0.77540    0.025
 4307.00    0.63416   0.77204    0.025
 4308.00    0.35427   0.76810    0.025
 4309.00    0.27139   0.76307    0.025
 4310.00    0.30308   0.75810    0.025
 4311.00    0.42336   0.75598    0.025
 4312.00    0.58854   0.75721    0.025
 4313.00    0.67091   0.75883    0.025
 4314.00    0.71695   0.75843    0.025
 4315.00    0.59020   0.75717    0.025
 4316.00    0.39838   0.75790    0.025
 4317.00    0.52242   0.76150    0.025
 4318.00    0.74744   0.76562    0.025
 4319.00    0.94730   0.76709    0.026
 4320.00    1.14044   0.76523    0.026
 4321.00    0.94579   0.76229    0.026
 4322.00    0.66628   0.76058    0.025
 4323.00    0.42205   0.76019    0.025
 4324.00    0.18395   0.75985    0.025
 4325.00    0.35733   0.75899    0.025
 4326.00    0.58515   0.75846    0.026
 4327.00    0.58239   0.75964    0.026
 4328.00    0.55808   0.76242    0.026
 4329.00    0.55974   0.76428    0.026
 4330.00    0.56287   0.76186    0.000
 4331.00    0.56201   0.75409    0.000
 4332.00    0.56235   0.74402    0.000
 4333.00    0.71289   0.73717    0.000
 4334.00    0.85402   0.73642    0.000
 4335.00    0.76939   0.73917    0.000
 4336.00    0.69637   0.74033    0.000
 4337.00    0.77441   0.73692    0.000
 4338.00    0.84440   0.72915    0.000
 4339.00    0.84415   0.71889    0.000
 4340.00    0.84346   0.70755    0.000
 4341.00    0.83995   0.69432    0.000
 4342.00    0.84654   0.67578    0.000
 4343.00    0.90407   0.64805    0.000
 4344.00    0.90929   0.60993    0.000
 4345.00    0.70102   0.56456    0.000
 4346.00    0.56041   0.52018    0.000
 4347.00    0.64876   0.49035    0.000
 4348.00    0.73067   0.48779    0.000
 4349.00    0.79425   0.51341    0.000
 4350.00    0.79464   0.55415    0.000
 4351.00    0.64099   0.59435    0.026
 4352.00    0.60146   0.62643    0.026
 4353.00    0.80201   0.65063    0.026
 4354.00    0.85234   0.66948    0.026
 4355.00    0.62804   0.68435    0.027
 4356.00    0.38026   0.69509    0.027
 4357.00    0.09493   0.70153    0.026
 4358.00    0.11464   0.70546    0.025
 4359.00    0.56201   0.71044    0.026
 4360.00    0.74571   0.71888    0.026
 4361.00    0.60410   0.73010    0.026
 4362.00    0.44423   0.74148    0.026
 4363.00    0.26449   0.75050    0.026
 4364.00    0.29393   0.75567    0.026
 4365.00    0.52403   0.75702    0.026
 4366.00    0.58436   0.75614    0.026
 4367.00    0.50108   0.75522    0.025
 4368.00    0.46515   0.75587    0.025
 4369.00    0.46447   0.75834    0.025
 4370.00    0.58515   0.76134    0.025
 4371.00    0.78525   0.76268    0.025
 4372.00    0.84782   0.76094    0.025
 4373.00    0.83163   0.75661    0.025
 4374.00    0.82409   0.75209    0.025
 4375.00    0.82086   0.74990    0.025
 4376.00    0.76015   0.75027    0.025
 4377.00    0.67463   0.75107    0.025
 4378.00    0.58279   0.75020    0.025
 4379.00    0.48862   0.74769    0.025
 4380.00    0.56142   0.74520    0.025
 4381.00    0.68657   0.74423    0.025
 4382.00    0.66027   0.74531    0.025
 4383.00    0.59435   0.74821    0.025
 4384.00    0.61334   0.75171    0.025
 4385.00    0.65046   0.75421    0.024
 4386.00    0.63877   0.75505    0.024
 4387.00    0.61883   0.75442    0.024
 4388.00    0.45478   0.75166    0.024
 4389.00    0.27232   0.74556    0.024
 4390.00    0.35840   0.73674    0.024
 4391.00    0.46845   0.72782    0.024
 4392.00    0.59664   0.71991    0.024
 4393.00    0.72581   0.71098    0.025
 4394.00    0.66839   0.70070    0.024
 4395.00    0.60896   0.69486    0.023
 4396.00    0.68227   0.69991    0.024
 4397.00    0.74385   0.71447    0.024
 4398.00    0.54755   0.73084    0.024
 4399.00    0.36755   0.74287    0.024
 4400.00    0.38896   0.74866    0.024
 4401.00    0.41642   0.74907    0.024
 4402.00    0.49477   0.74737    0.024
 4403.00    0.54407   0.74782    0.024
 4404.00    0.41129   0.75167    0.024
 4405.00    0.29150   0.75592    0.024
 4406.00    0.23555   0.75723    0.024
 4407.00    0.23261   0.75581    0.024
 4408.00    0.44128   0.75401    0.024
 4409.00    0.57617   0.75245    0.024
 4410.00    0.46635   0.74932    0.023
 4411.00    0.39452   0.74382    0.023
 4412.00    0.42908   0.73826    0.023
 4413.00    0.45531   0.73564    0.023
 4414.00    0.46159   0.73644    0.023
 4415.00    0.42206   0.73901    0.023
 4416.00    0.28773   0.74178    0.023
 4417.00    0.23201   0.74394    0.023
 4418.00    0.31782   0.74498    0.023
 4419.00    0.41443   0.74408    0.024
 4420.00    0.52807   0.73977    0.024
 4421.00    0.59629   0.73146    0.024
 4422.00    0.60176   0.72214    0.024
 4423.00    0.65205   0.71722    0.024
 4424.00    0.75688   0.71965    0.023
 4425.00    0.80788   0.72768    0.023
 4426.00    0.80116   0.73695    0.024
 4427.00    0.72190   0.74384    0.024
 4428.00    0.57402   0.74720    0.023
 4429.00    0.51427   0.74796    0.023
 4430.00    0.52801   0.74768    0.023
 4431.00    0.53837   0.74720    0.023
 4432.00    0.54624   0.74609    0.023
 4433.00    0.49802   0.74376    0.023
 4434.00    0.41363   0.74088    0.023
 4435.00    0.40548   0.73873    0.023
 4436.00    0.44034   0.73744    0.024
 4437.00    0.47022   0.73619    0.024
 4438.00    0.49766   0.73474    0.023
 4439.00    0.56159   0.73339    0.023
 4440.00    0.64101   0.73185    0.023
 4441.00    0.64411   0.72946    0.024
 4442.00    0.61946   0.72646    0.024
 4443.00    0.53972   0.72427    0.024
 4444.00    0.44302   0.72479    0.023
 4445.00    0.56546   0.72906    0.023
 4446.00    0.74399   0.73530    0.024
 4447.00    0.66849   0.73923    0.024
 4448.00    0.54004   0.73798    0.024
 4449.00    0.53221   0.73329    0.024
 4450.00    0.54419   0.72983    0.023
 4451.00    0.67207   0.73040    0.023
 4452.00    0.81423   0.73336    0.023
 4453.00    0.73691   0.73506    0.023
 4454.00    0.64092   0.73436    0.023
 4455.00    0.58577   0.73351    0.023
 4456.00    0.53263   0.73448    0.023
 4457.00    0.51727   0.73632    0.023
 4458.00    0.50516   0.73690    0.023
 4459.00    0.65908   0.73554    0.023
 4460.00    0.79790   0.73306    0.023
 4461.00    0.63076   0.73033    0.000
 4462.00    0.47871   0.72791    0.000
 4463.00    0.50390   0.72644    0.000
 4464.00    0.53353   0.72632    0.000
 4465.00    0.59917   0.72687    0.000
 4466.00    0.65683   0.72683    0.000
 4467.00    0.66589   0.72571    0.000
 4468.00    0.67703   0.72422    0.000
 4469.00    0.69812   0.72353    0.000
 4470.00    0.69819   0.72403    0.000
 4471.00    0.61609   0.72453    0.000
 4472.00    0.55826   0.72309    0.000
 4473.00    0.57933   0.71896    0.000
 4474.00    0.60259   0.71252    0.000
 4475.00    0.63187   0.70304    0.000
 4476.00    0.66547   0.68818    0.000
 4477.00    0.70924   0.66784    0.000
 4478.00    0.72012   0.64913    0.000
 4479.00    0.66400   0.64438    0.000
 4480.00    0.65025   0.65960    0.000
 4481.00    0.71159   0.68622    0.000
 4482.00    0.70767   0.71004    0.023
 4483.00    0.60252   0.72465    0.023
 4484.00    0.59014   0.73113    0.023
 4485.00    0.70411   0.73052    0.023
 4486.00    0.72550   0.72243    0.023
 4487.00    0.63588   0.70924    0.023
 4488.00    0.60561   0.69824    0.023
 4489.00    0.63808   0.69732    0.023
 4490.00    0.66629   0.70746    0.023
 4491.00    0.69052   0.72169    0.023
 4492.00    0.61005   0.73237    0.023
 4493.00    0.44350   0.73656    0.023
 4494.00    0.36470   0.73481    0.023
 4495.00    0.34940   0.72934    0.023
 4496.00    0.40424   0.72377    0.023
 4497.00    0.50365   0.72145    0.023
 4498.00    0.59520   0.72313    0.023
 4499.00    0.68238   0.72642    0.023
 4500.00    0.64904   0.72814    0.023
 4501.00    0.55748   0.72697    0.023
 4502.00    0.56483   0.72414    0.023
 4503.00    0.61344   0.72214    0.023
 4504.00    0.66827   0.72250    0.023
 4505.00    0.72532   0.72482    0.023
 4506.00    0.69980   0.72735    0.023
 4507.00    0.64938   0.72856    0.022
 4508.00    0.60832   0.72889    0.022
 4509.00    0.56960   0.73039    0.022
 4510.00    0.51324   0.73398    0.022
 4511.00    0.45330   0.73776    0.022
 4512.00    0.46658   0.73888    0.022
 4513.00    0.49155   0.73662    0.022
 4514.00    0.57452   0.73279    0.023
 4515.00    0.66438   0.72979    0.023
 4516.00    0.60428   0.72855    0.023
 4517.00    0.53203   0.72787    0.023
 4518.00    0.65317   0.72580    0.023
 4519.00    0.78310   0.72178    0.023
 4520.00    0.76062   0.71732    0.022
 4521.00    0.73313   0.71447    0.022
 4522.00    0.54542   0.71408    0.022
 4523.00    0.37618   0.71560    0.023
 4524.00    0.55371   0.71776    0.022
 4525.00    0.71012   0.71964    0.022
 4526.00    0.62979   0.72149    0.022
 4527.00    0.55496   0.72348    0.022
 4528.00    0.52314   0.72442    0.022
 4529.00    0.52285   0.72282    0.022
 4530.00    0.70898   0.71886    0.023
 4531.00    0.84258   0.71446    0.023
 4532.00    0.73027   0.71090    0.022
 4533.00    0.63877   0.70756    0.022
 4534.00    0.62676   0.70301    0.023
 4535.00    0.60101   0.69705    0.023
 4536.00    0.53148   0.69196    0.023
 4537.00    0.52335   0.69084    0.022
 4538.00    0.68118   0.69429    0.022
 4539.00    0.76651   0.69921    0.022
 4540.00    0.68384   0.70158    0.022
 4541.00    0.60002   0.70050    0.022
 4542.00    0.51387   0.69910    0.022
 4543.00    0.49060   0.70107    0.022
 4544.00    0.57711   0.70652    0.022
 4545.00    0.62098   0.71165    0.022
 4546.00    0.59970   0.71268    0.022
 4547.00    0.57709   0.70936    0.022
 4548.00    0.55270   0.70485    0.022
 4549.00    0.55846   0.70282    0.022
 4550.00    0.59986   0.70412    0.000
 4551.00    0.66844   0.70654    0.000
 4552.00    0.76533   0.70805    0.000
 4553.00    0.70599   0.70863    0.000
 4554.00    0.50299   0.70857    0.000
 4555.00    0.38814   0.70732    0.000
 4556.00    0.34473   0.70480    0.000
 4557.00    0.30183   0.70196    0.000
 4558.00    0.25929   0.69854    0.000
 4559.00    0.30276   0.69352    0.000
 4560.00    0.40005   0.68883    0.000
 4561.00    0.43568   0.68780    0.000
 4562.00    0.43758   0.69125    0.000
 4563.00    0.42020   0.69770    0.000
 4564.00    0.39366   0.70509    0.000
 4565.00    0.47706   0.71132    0.000
 4566.00    0.60554   0.71521    0.000
 4567.00    0.70261   0.71681    0.000
 4568.00    0.78866   0.71672    0.000
 4569.00    0.72873   0.71522    0.000
 4570.00    0.62566   0.71236    0.000
 4571.00    0.67061   0.70908    0.000
 4572.00    0.75182   0.70676    0.000
 4573.00    0.69589   0.70574    0.000
 4574.00    0.61279   0.70536    0.000
 4575.00    0.60183   0.70548    0.000
 4576.00    0.60204   0.70637    0.000
 4577.00    0.62184   0.70709    0.000
 4578.00    0.64388   0.70662    0.000
 4579.00    0.61537   0.70573    0.000
 4580.00    0.58298   0.70538    0.000
 4581.00    0.58568   0.70517    0.000
 4582.00    0.58983   0.70496    0.000
 4583.00    0.56336   0.70559    0.000
 4584.00    0.53838   0.70678    0.000
 4585.00    0.58884   0.70678    0.000
 4586.00    0.63544   0.70467    0.000
 4587.00    0.61465   0.70185    0.000
 4588.00    0.59197   0.70039    0.000
 4589.00    0.54912   0.70058    0.000
 4590.00    0.52196   0.70094    0.000
 4591.00    0.61347   0.70036    0.000
 4592.00    0.67531   0.69913    0.000
 4593.00    0.56660   0.69823    0.000
 4594.00    0.50419   0.69835    0.000
 4595.00    0.65334   0.69908    0.000
 4596.00    0.76578   0.69875    0.000
 4597.00    0.74087   0.69600    0.000
 4598.00    0.70217   0.69193    0.000
 4599.00    0.62034   0.68923    0.000
 4600.00    0.52065   0.68874    0.000
 4601.00    0.37355   0.68862    0.000
 4602.00    0.27897   0.68727    0.000
 4603.00    0.30410   0.68574    0.000
 4604.00    0.36504   0.68628    0.000
 4605.00    0.49660   0.68909    0.000
 4606.00    0.63337   0.69160    0.000
 4607.00    0.77906   0.69115    0.000
 4608.00    0.81986   0.68791    0.000
 4609.00    0.70272   0.68497    0.000
 4610.00    0.62722   0.68490    0.000
 4611.00    0.60680   0.68712    0.000
 4612.00    0.51296   0.68910    0.000
 4613.00    0.33356   0.68958    0.000
 4614.00    0.31545   0.68967    0.000
 4615.00    0.46310   0.69087    0.000
 4616.00    0.52418   0.69310    0.000
 4617.00    0.50677   0.69536    0.000
 4618.00    0.56973   0.69684    0.000
 4619.00    0.69688   0.69708    0.000
 4620.00    0.63048   0.69646    0.000
 4621.00    0.42804   0.69635    0.000
 4622.00    0.57137   0.69759    0.000
 4623.00    0.92790   0.69916    0.000
 4624.00    0.92715   0.69877    0.000
 4625.00    0.73401   0.69514    0.000
 4626.00    0.63444   0.68997    0.000
 4627.00    0.57865   0.68669    0.000
 4628.00    0.52153   0.68722    0.000
 4629.00    0.46389   0.69069    0.000
 4630.00    0.50307   0.69474    0.000
 4631.00    0.57556   0.69730    0.000
 4632.00    0.54292   0.69749    0.000
 4633.00    0.47984   0.69566    0.000
 4634.00    0.50050   0.69272    0.000
 4635.00    0.54122   0.68910    0.000
 4636.00    0.57122   0.68488    0.000
 4637.00    0.59914   0.68111    0.000
 4638.00    0.41853   0.67947    0.000
 4639.00    0.20662   0.68011    0.000
 4640.00    0.37164   0.68133    0.000
 4641.00    0.57815   0.68170    0.000
 4642.00    0.61428   0.68122    0.000
 4643.00    0.63803   0.68010    0.000
 4644.00    0.63054   0.67738    0.000
 4645.00    0.62188   0.67232    0.000
 4646.00    0.56677   0.66601    0.000
 4647.00    0.51281   0.66059    0.000
 4648.00    0.51053   0.65767    0.000
 4649.00    0.51571   0.65787    0.000
 4650.00    0.64287   0.66086    0.000
 4651.00    0.75722   0.66484    0.000
 4652.00    0.74058   0.66657    0.000
 4653.00    0.69965   0.66347    0.000
 4654.00    0.48122   0.65601    0.000
 4655.00    0.32110   0.64729    0.000
 4656.00    0.48690   0.64079    0.000
 4657.00    0.62016   0.63888    0.000
 4658.00    0.60818   0.64254    0.000
 4659.00    0.59806   0.65064    0.000
 4660.00    0.59472   0.65977    0.000
 4661.00    0.56767   0.66632    0.000
 4662.00    0.46784   0.66932    0.000
 4663.00    0.43678   0.67076    0.000
 4664.00    0.58505   0.67333    0.000
 4665.00    0.68001   0.67785    0.000
 4666.00    0.65554   0.68265    0.000
 4667.00    0.59733   0.68492    0.000
 4668.00    0.47362   0.68322    0.000
 4669.00    0.41250   0.67899    0.000
 4670.00    0.45737   0.67513    0.000
 4671.00    0.54090   0.67312    0.000
 4672.00    0.68175   0.67175    0.000
 4673.00    0.70114   0.66893    0.000
 4674.00    0.56210   0.66438    0.000
 4675.00    0.50637   0.66014    0.000
 4676.00    0.54638   0.65872    0.000
 4677.00    0.54405   0.66081    0.000
 4678.00    0.49884   0.66453    0.000
 4679.00    0.49615   0.66697    0.000
 4680.00    0.53147   0.66654    0.000
 4681.00    0.53195   0.66397    0.000
 4682.00    0.50500   0.66131    0.000
 4683.00    0.51946   0.66023    0.000
 4684.00    0.56261   0.66109    0.000
 4685.00    0.61210   0.66301    0.000
 4686.00    0.66543   0.66469    0.000
 4687.00    0.63955   0.66513    0.000
 4688.00    0.57167   0.66425    0.000
 4689.00    0.48147   0.66277    0.000
 4690.00    0.38099   0.66110    0.000
 4691.00    0.38833   0.65893    0.000
 4692.00    0.43840   0.65616    0.000
 4693.00    0.53659   0.65393    0.000
 4694.00    0.65103   0.65401    0.000
 4695.00    0.64440   0.65687    0.000
 4696.00    0.60341   0.66081    0.000
 4697.00    0.58912   0.66359    0.000
 4698.00    0.58107   0.66458    0.000
 4699.00    0.47116   0.66477    0.000
 4700.00    0.34208   0.66546    0.000
 4701.00    0.40070   0.66701    0.000
 4702.00    0.48662   0.66869    0.000
 4703.00    0.44377   0.66924    0.000
 4704.00    0.38731   0.66735    0.000
 4705.00    0.40029   0.66269    0.000
 4706.00    0.41803   0.65695    0.000
 4707.00    0.53967   0.65290    0.000
 4708.00    0.66485   0.65202    0.000
 4709.00    0.54869   0.65313    0.000
 4710.00    0.43906   0.65398    0.000
 4711.00    0.55376   0.65374    0.000
 4712.00    0.65665   0.65314    0.000
 4713.00    0.57849   0.65295    0.000
 4714.00    0.51249   0.65333    0.000
 4715.00    0.56560   0.65385    0.000
 4716.00    0.61939   0.65412    0.000
 4717.00    0.67787   0.65384    0.000
 4718.00    0.70473   0.65204    0.000
 4719.00    0.55953   0.64743    0.000
 4720.00    0.45301   0.64077    0.000
 4721.00    0.51503   0.63573    0.000
 4722.00    0.57792   0.63620    0.000
 4723.00    0.64389   0.64203    0.000
 4724.00    0.66490   0.64967    0.000
 4725.00    0.55060   0.65651    0.000
 4726.00    0.47652   0.66226    0.000
 4727.00    0.50553   0.66646    0.000
 4728.00    0.54011   0.66848    0.000
 4729.00    0.58697   0.66852    0.000
 4730.00    0.61042   0.66774    0.000
 4731.00    0.58912   0.66730    0.000
 4732.00    0.54662   0.66724    0.000
 4733.00    0.46876   0.66612    0.000
 4734.00    0.42367   0.66262    0.000
 4735.00    0.42651   0.65732    0.000
 4736.00    0.41749   0.65245    0.000
 4737.00    0.39324   0.64995    0.000
 4738.00    0.44030   0.65006    0.000
 4739.00    0.56816   0.65177    0.000
 4740.00    0.59901   0.65409    0.000
 4741.00    0.53293   0.65635    0.000
 4742.00    0.51354   0.65798    0.000
 4743.00    0.53529   0.65869    0.000
 4744.00    0.54314   0.65864    0.000
 4745.00    0.54020   0.65825    0.000
 4746.00    0.54762   0.65786    0.000
 4747.00    0.56211   0.65716    0.000
 4748.00    0.56072   0.65574    0.000
 4749.00    0.54983   0.65427    0.000
 4750.00    0.59291   0.65390    0.000
 4751.00    0.66415   0.65496    0.000
 4752.00    0.70691   0.65670    0.000
 4753.00    0.73679   0.65824    0.000
 4754.00    0.70710   0.65940    0.000
 4755.00    0.65422   0.66020    0.000
 4756.00    0.58385   0.66041    0.000
 4757.00    0.50768   0.65995    0.000
 4758.00    0.46008   0.65893    0.000
 4759.00    0.42042   0.65751    0.000
 4760.00    0.46507   0.65608    0.000
 4761.00    0.52902   0.65516    0.019
 4762.00    0.51012   0.65482    0.019
 4763.00    0.47606   0.65454    0.019
 4764.00    0.50623   0.65376    0.019
 4765.00    0.54546   0.65229    0.019
 4766.00    0.51899   0.65039    0.019
 4767.00    0.48586   0.64827    0.019
 4768.00    0.51528   0.64570    0.019
 4769.00    0.54874   0.64235    0.019
 4770.00    0.45659   0.63845    0.019
 4771.00    0.36092   0.63477    0.019
 4772.00    0.41004   0.63191    0.019
 4773.00    0.46061   0.63011    0.018
 4774.00    0.55315   0.62971    0.018
 4775.00    0.64081   0.63079    0.019
 4776.00    0.65805   0.63272    0.018
 4777.00    0.67969   0.63436    0.018
 4778.00    0.74259   0.63491    0.018
 4779.00    0.76945   0.63453    0.018
 4780.00    0.54955   0.63424    0.018
 4781.00    0.39108   0.63496    0.018
 4782.00    0.55801   0.63658    0.018
 4783.00    0.67759   0.63812    0.018
 4784.00    0.59551   0.63867    0.018
 4785.00    0.52547   0.63792    0.018
 4786.00    0.49772   0.63603    0.018
 4787.00    0.47691   0.63356    0.018
 4788.00    0.47654   0.63131    0.018
 4789.00    0.46179   0.62971    0.018
 4790.00    0.41078   0.62866    0.018
 4791.00    0.38809   0.62810    0.018
 4792.00    0.42679   0.62810    0.018
 4793.00    0.43762   0.62835    0.018
 4794.00    0.39598   0.62827    0.018
 4795.00    0.45530   0.62781    0.018
 4796.00    0.68052   0.62752    0.018
 4797.00    0.81820   0.62781    0.018
 4798.00    0.82975   0.62886    0.018
 4799.00    0.76691   0.63061    0.018
 4800.00    0.60982   0.63308    0.018
 4801.00    0.54133   0.63618    0.018
 4802.00    0.57178   0.63910    0.018
 4803.00    0.58555   0.64065    0.018
 4804.00    0.58287   0.64024    0.018
 4805.00    0.57626   0.63822    0.018
 4806.00    0.56623   0.63563    0.018
 4807.00    0.57361   0.63353    0.018
 4808.00    0.59431   0.63260    0.018
 4809.00    0.60347   0.63255    0.018
 4810.00    0.60486   0.63229    0.018
 4811.00    0.59946   0.63112    0.018
 4812.00    0.59008   0.62907    0.018
 4813.00    0.57906   0.62661    0.018
 4814.00    0.56719   0.62444    0.018
 4815.00    0.57590   0.62308    0.018
 4816.00    0.59376   0.62263    0.018
 4817.00    0.57953   0.62279    0.018
 4818.00    0.55302   0.62293    0.018
 4819.00    0.56031   0.62242    0.018
 4820.00    0.57858   0.62111    0.018
 4821.00    0.60808   0.61980    0.018
 4822.00    0.64064   0.61947    0.018
 4823.00    0.66651   0.62046    0.018
 4824.00    0.69089   0.62236    0.018
 4825.00    0.60197   0.62423    0.018
 4826.00    0.49286   0.62488    0.018
 4827.00    0.46011   0.62422    0.018
 4828.00    0.43778   0.62349    0.018
 4829.00    0.42256   0.62311    0.018
 4830.00    0.40803   0.62219    0.017
 4831.00    0.43844   0.62054    0.017
 4832.00    0.47156   0.61954    0.018
 4833.00    0.40920   0.61976    0.018
 4834.00    0.34438   0.61987    0.018
 4835.00    0.29260   0.61848    0.018
 4836.00    0.24739   0.61596    0.018
 4837.00    0.37377   0.61412    0.017
 4838.00    0.48639   0.61378    0.017
 4839.00    0.41112   0.61403    0.017
 4840.00    0.35778   0.61439    0.017
 4841.00    0.50259   0.61553    0.018
 4842.00    0.63731   0.61721    0.018
 4843.00    0.70508   0.61838    0.018
 4844.00    0.73142   0.61849    0.018
 4845.00    0.54393   0.61767    0.018
 4846.00    0.39458   0.61615    0.018
 4847.00    0.40400   0.61421    0.018
 4848.00    0.39875   0.61222    0.000
 4849.00    0.34301   0.61020    0.000
 4850.00    0.34280   0.60792    0.000
 4851.00    0.50362   0.60576    0.000
 4852.00    0.59412   0.60457    0.000
 4853.00    0.51058   0.60406    0.000
 4854.00    0.44365   0.60267    0.000
 4855.00    0.41220   0.59932    0.000
 4856.00    0.42003   0.59453    0.000
 4857.00    0.50063   0.58966    0.000
 4858.00    0.57764   0.58516    0.000
 4859.00    0.64886   0.58030    0.000
 4860.00    0.73913   0.57417    0.000
 4861.00    0.85647   0.56587    0.000
 4862.00    0.90970   0.55478    0.000
 4863.00    0.88285   0.54126    0.000
 4864.00    0.86619   0.52580    0.000
 4865.00    0.86074   0.50729    0.000
 4866.00    0.76916   0.48357    0.000
 4867.00    0.59393   0.45467    0.000
 4868.00    0.47972   0.42604    0.000
 4869.00    0.41778   0.40852    0.000
 4870.00    0.38708   0.41074    0.000
 4871.00    0.37994   0.43113    0.000
 4872.00    0.38480   0.46015    0.000
 4873.00    0.39761   0.48887    0.000
 4874.00    0.44506   0.51282    0.000
 4875.00    0.51261   0.53123    0.019
 4876.00    0.56989   0.54492    0.018
 4877.00    0.62197   0.55453    0.018
 4878.00    0.58881   0.56056    0.018
 4879.00    0.51833   0.56467    0.018
 4880.00    0.50328   0.56916    0.018
 4881.00    0.50906   0.57480    0.018
 4882.00    0.45910   0.58064    0.018
 4883.00    0.39137   0.58582    0.018
 4884.00    0.40552   0.59041    0.019
 4885.00    0.44151   0.59461    0.019
 4886.00    0.46323   0.59808    0.018
 4887.00    0.48184   0.60014    0.018
 4888.00    0.50518   0.60036    0.018
 4889.00    0.52933   0.59956    0.018
 4890.00    0.57409   0.59903    0.018
 4891.00    0.62156   0.59901    0.018
 4892.00    0.56491   0.59882    0.018
 4893.00    0.49858   0.59823    0.019
 4894.00    0.51635   0.59790    0.018
 4895.00    0.53888   0.59827    0.018
 4896.00    0.55303   0.59858    0.018
 4897.00    0.56653   0.59764    0.018
 4898.00    0.53036   0.59577    0.018
 4899.00    0.49500   0.59530    0.018
 4900.00    0.47880   0.59819    0.018
 4901.00    0.46197   0.60398    0.018
 4902.00    0.43689   0.61069    0.018
 4903.00    0.40562   0.61631    0.018
 4904.00    0.32058   0.61968    0.018
 4905.00    0.26316   0.62048    0.018
 4906.00    0.38344   0.61880    0.018
 4907.00    0.48814   0.61546    0.018
 4908.00    0.51450   0.61218    0.018
 4909.00    0.53247   0.61016    0.019
 4910.00    0.51632   0.60938    0.018
 4911.00    0.51605   0.60945    0.018
 4912.00    0.56936   0.61028    0.018
 4913.00    0.59230   0.61152    0.018
 4914.00    0.52879   0.61242    0.018
 4915.00    0.50492   0.61234    0.018
 4916.00    0.57751   0.61131    0.018
 4917.00    0.59136   0.61000    0.018
 4918.00    0.48192   0.60933    0.018
 4919.00    0.39542   0.60970    0.018
 4920.00    0.35077   0.61084    0.018
 4921.00    0.36408   0.61235    0.018
 4922.00    0.46983   0.61380    0.018
 4923.00    0.48387   0.61440    0.018
 4924.00    0.36956   0.61287    0.017
 4925.00    0.35659   0.60788    0.017
 4926.00    0.46845   0.59872    0.017
 4927.00    0.55398   0.58583    0.018
 4928.00    0.61094   0.57108    0.018
 4929.00    0.62032   0.55923    0.018
 4930.00    0.58413   0.55511    0.017
 4931.00    0.52413   0.55966    0.017
 4932.00    0.44402   0.57019    0.017
 4933.00    0.41773   0.58331    0.017
 4934.00    0.43145   0.59627    0.017
 4935.00    0.46702   0.60735    0.017
 4936.00    0.51685   0.61570    0.017
 4937.00    0.55083   0.62053    0.017
 4938.00    0.57575   0.62193    0.017
 4939.00    0.48965   0.62040    0.017
 4940.00    0.34828   0.61653    0.000
 4941.00    0.36702   0.61204    0.000
 4942.00    0.45469   0.60911    0.000
 4943.00    0.46694   0.60808    0.000
 4944.00    0.45133   0.60733    0.000
 4945.00    0.49763   0.60516    0.000
 4946.00    0.56330   0.60173    0.000
 4947.00    0.58084   0.59881    0.000
 4948.00    0.58583   0.59780    0.000
 4949.00    0.55822   0.59847    0.000
 4950.00    0.52368   0.60046    0.000
 4951.00    0.54789   0.60365    0.000
 4952.00    0.58201   0.60759    0.000
 4953.00    0.51836   0.61147    0.000
 4954.00    0.44229   0.61455    0.000
 4955.00    0.47701   0.61659    0.000
 4956.00    0.52156   0.61810    0.000
 4957.00    0.58659   0.61958    0.000
 4958.00    0.65271   0.62071    0.000
 4959.00    0.60434   0.62051    0.000
 4960.00    0.55400   0.61785    0.000
 4961.00    0.52013   0.61206    0.000
 4962.00    0.49000   0.60342    0.000
 4963.00    0.54133   0.59325    0.000
 4964.00    0.58952   0.58338    0.000
 4965.00    0.59921   0.57620    0.000
 4966.00    0.60512   0.57360    0.000
 4967.00    0.57934   0.57541    0.000
 4968.00    0.53703   0.57950    0.000
 4969.00    0.39151   0.58317    0.000
 4970.00    0.28341   0.58485    0.000
 4971.00    0.35882   0.58445    0.000
 4972.00    0.42721   0.58268    0.000
 4973.00    0.46760   0.58046    0.000
 4974.00    0.50796   0.57871    0.000
 4975.00    0.54823   0.57815    0.000
 4976.00    0.57422   0.57907    0.000
 4977.00    0.56031   0.58106    0.000
 4978.00    0.53636   0.58354    0.000
 4979.00    0.48840   0.58602    0.000
 4980.00    0.46683   0.58820    0.000
 4981.00    0.49977   0.58999    0.000
 4982.00    0.49956   0.59119    0.000
 4983.00    0.43976   0.59153    0.000
 4984.00    0.41692   0.59075    0.000
 4985.00    0.45215   0.58875    0.000
 4986.00    0.49302   0.58590    0.000
 4987.00    0.54167   0.58254    0.000
 4988.00    0.57677   0.57870    0.000
 4989.00    0.59541   0.57450    0.000
 4990.00    0.62308   0.57083    0.000
 4991.00    0.66040   0.56906    0.000
 4992.00    0.58171   0.56992    0.000
 4993.00    0.39348   0.57278    0.000
 4994.00    0.36518   0.57625    0.000
 4995.00    0.46998   0.57912    0.000
 4996.00    0.51018   0.58074    0.000
 4997.00    0.50302   0.58088    0.000
 4998.00    0.49729   0.57989    0.000
 4999.00    0.49249   0.57879    0.000
 5000.00    0.51350   0.57819    0.000
 5001.00    0.54904   0.57814    0.000
 5002.00    0.49105   0.57849    0.000
 5003.00    0.38723   0.57918    0.000
 5004.00    0.41667   0.57989    0.000
 5005.00    0.50254   0.57956    0.000
 5006.00    0.55062   0.57671    0.000
 5007.00    0.58500   0.57098    0.000
 5008.00    0.59771   0.56388    0.000
 5009.00    0.60377   0.55795    0.000
 5010.00    0.61354   0.55516    0.000
 5011.00    0.62427   0.55496    0.000
 5012.00    0.54879   0.55538    0.000
 5013.00    0.45540   0.55490    0.000
 5014.00    0.44715   0.55430    0.000
 5015.00    0.45284   0.55506    0.000
 5016.00    0.28980   0.55738    0.000
 5017.00    0.10605   0.55994    0.000
 5018.00    0.20207   0.56118    0.000
 5019.00    0.32173   0.56015    0.000
 5020.00    0.35804   0.55651    0.000
 5021.00    0.39027   0.55014    0.000
 5022.00    0.35690   0.54210    0.000
 5023.00    0.32426   0.53578    0.000
 5024.00    0.39856   0.53455    0.000
 5025.00    0.46609   0.53949    0.000
 5026.00    0.39781   0.54775    0.000
 5027.00    0.33819   0.55524    0.000
 5028.00    0.37963   0.55978    0.000
 5029.00    0.42524   0.56171    0.016
 5030.00    0.50456   0.56219    0.017
 5031.00    0.57690   0.56254    0.017
 5032.00    0.60695   0.56346    0.017
 5033.00    0.61985   0.56450    0.017
 5034.00    0.55070   0.56492    0.017
 5035.00    0.49423   0.56499    0.017
 5036.00    0.48718   0.56556    0.017
 5037.00    0.48017   0.56710    0.017
 5038.00    0.47329   0.56928    0.017
 5039.00    0.45173   0.57134    0.017
 5040.00    0.38985   0.57292    0.016
 5041.00    0.35281   0.57361    0.016
 5042.00    0.37415   0.57279    0.016
 5043.00    0.40755   0.57023    0.016
 5044.00    0.46546   0.56674    0.016
 5045.00    0.51067   0.56334    0.016
 5046.00    0.53342   0.55983    0.016
 5047.00    0.52803   0.55494    0.016
 5048.00    0.47910   0.54941    0.016
 5049.00    0.43939   0.54616    0.016
 5050.00    0.41222   0.54793    0.016
 5051.00    0.41630   0.55420    0.016
 5052.00    0.45777   0.56154    0.016
 5053.00    0.51800   0.56628    0.016
 5054.00    0.59804   0.56729    0.016
 5055.00    0.62618   0.56511    0.016
 5056.00    0.60603   0.56152    0.016
 5057.00    0.53985   0.55889    0.016
 5058.00    0.43590   0.55843    0.016
 5059.00    0.37575   0.55959    0.016
 5060.00    0.34721   0.56124    0.016
 5061.00    0.40568   0.56273    0.016
 5062.00    0.51932   0.56311    0.016
 5063.00    0.55498   0.56249    0.016
 5064.00    0.54740   0.56194    0.017
 5065.00    0.55871   0.56346    0.017
 5066.00    0.57912   0.56722    0.016
 5067.00    0.46618   0.57170    0.016
 5068.00    0.29772   0.57482    0.016
 5069.00    0.29855   0.57605    0.016
 5070.00    0.35965   0.57489    0.016
 5071.00    0.40216   0.57120    0.017
 5072.00    0.43907   0.56612    0.017
 5073.00    0.43440   0.56170    0.017
 5074.00    0.41933   0.55958    0.017
 5075.00    0.43726   0.55974    0.016
 5076.00    0.46188   0.56081    0.016
 5077.00    0.36682   0.56186    0.016
 5078.00    0.25274   0.56261    0.016
 5079.00    0.27312   0.56277    0.016
 5080.00    0.30940   0.56229    0.016
 5081.00    0.36220   0.56175    0.016
 5082.00    0.41633   0.56176    0.016
 5083.00    0.36409   0.56208    0.016
 5084.00    0.30707   0.56195    0.016
 5085.00    0.39581   0.56089    0.016
 5086.00    0.48494   0.55864    0.016
 5087.00    0.50739   0.55531    0.016
 5088.00    0.52786   0.55178    0.016
 5089.00    0.51129   0.54964    0.016
 5090.00    0.49369   0.54945    0.016
 5091.00    0.46472   0.55063    0.016
 5092.00    0.42922   0.55251    0.016
 5093.00    0.34289   0.55468    0.016
 5094.00    0.29274   0.55672    0.016
 5095.00    0.45578   0.55839    0.017
 5096.00    0.58020   0.55971    0.017
 5097.00    0.52448   0.56066    0.017
 5098.00    0.46513   0.56120    0.016
 5099.00    0.39192   0.56160    0.016
 5100.00    0.34746   0.56235    0.016
 5101.00    0.39445   0.56326    0.016
 5102.00    0.43725   0.56345    0.016
 5103.00    0.46875   0.56223    0.016
 5104.00    0.47389   0.55987    0.016
 5105.00    0.41807   0.55707    0.016
 5106.00    0.37798   0.55429    0.016
 5107.00    0.36934   0.55195    0.016
 5108.00    0.38694   0.55067    0.016
 5109.00    0.45026   0.55085    0.016
 5110.00    0.49239   0.55187    0.016
 5111.00    0.50219   0.55267    0.016
 5112.00    0.52518   0.55274    0.016
 5113.00    0.56585   0.55219    0.017
 5114.00    0.56322   0.55132    0.017
 5115.00    0.50947   0.55024    0.017
 5116.00    0.48085   0.54916    0.017
 5117.00    0.47838   0.54841    0.017
 5118.00    0.42676   0.54808    0.017
 5119.00    0.33002   0.54813    0.016
 5120.00    0.32348   0.54870    0.016
 5121.00    0.38990   0.54983    0.016
 5122.00    0.40185   0.55179    0.016
 5123.00    0.37501   0.55485    0.016
 5124.00    0.37112   0.55841    0.016
 5125.00    0.38156   0.56135    0.016
 5126.00    0.33788   0.56262    0.016
 5127.00    0.26465   0.56154    0.016
 5128.00    0.27041   0.55824    0.016
 5129.00    0.31365   0.55339    0.016
 5130.00    0.35553   0.54804    0.016
 5131.00    0.39686   0.54345    0.016
 5132.00    0.37145   0.54043    0.016
 5133.00    0.32270   0.53899    0.016
 5134.00    0.37308   0.53824    0.016
 5135.00    0.45269   0.53750    0.016
 5136.00    0.41102   0.53723    0.016
 5137.00    0.33973   0.53825    0.016
 5138.00    0.37218   0.54045    0.016
 5139.00    0.42513   0.54304    0.016
 5140.00    0.47965   0.54521    0.016
 5141.00    0.53441   0.54689    0.016
 5142.00    0.42615   0.54880    0.016
 5143.00    0.29932   0.55110    0.016
 5144.00    0.38814   0.55261    0.016
 5145.00    0.49340   0.55223    0.016
 5146.00    0.45140   0.55033    0.016
 5147.00    0.40334   0.54815    0.016
 5148.00    0.46972   0.54674    0.016
 5149.00    0.53304   0.54576    0.016
 5150.00    0.42760   0.54387    0.016
 5151.00    0.32810   0.54092    0.016
 5152.00    0.33132   0.53799    0.016
 5153.00    0.34391   0.53610    0.016
 5154.00    0.45615   0.53560    0.016
 5155.00    0.53501   0.53641    0.016
 5156.00    0.36259   0.53763    0.016
 5157.00    0.22632   0.53824    0.016
 5158.00    0.29711   0.53737    0.016
 5159.00    0.38153   0.53524    0.016
 5160.00    0.52808   0.53312    0.016
 5161.00    0.62572   0.53225    0.016
 5162.00    0.54091   0.53330    0.016
 5163.00    0.48181   0.53628    0.016
 5164.00    0.50293   0.54092    0.016
 5165.00    0.49394   0.54628    0.016
 5166.00    0.40519   0.55109    0.016
 5167.00    0.34700   0.55413    0.016
 5168.00    0.35829   0.55551    0.016
 5169.00    0.36830   0.55584    0.017
 5170.00    0.37581   0.55515    0.016
 5171.00    0.37559   0.55279    0.016
 5172.00    0.36211   0.54776    0.016
 5173.00    0.33585   0.53909    0.016
 5174.00    0.29039   0.52713    0.016
 5175.00    0.25458   0.51432    0.017
 5176.00    0.23151   0.50402    0.017
 5177.00    0.28050   0.49841    0.017
 5178.00    0.41332   0.49685    0.016
 5179.00    0.45895   0.49675    0.016
 5180.00    0.41513   0.49634    0.016
 5181.00    0.39869   0.49631    0.016
 5182.00    0.40703   0.49828    0.016
 5183.00    0.40073   0.50239    0.016
 5184.00    0.38277   0.50733    0.015
 5185.00    0.35244   0.51154    0.015
 5186.00    0.31344   0.51415    0.015
 5187.00    0.30363   0.51480    0.015
 5188.00    0.31180   0.51353    0.015
 5189.00    0.31300   0.51049    0.015
 5190.00    0.31045   0.50620    0.000
 5191.00    0.32457   0.50218    0.000
 5192.00    0.34647   0.50083    0.000
 5193.00    0.39537   0.50377    0.000
 5194.00    0.45514   0.51018    0.000
 5195.00    0.43715   0.51742    0.000
 5196.00    0.39248   0.52295    0.000
 5197.00    0.39345   0.52552    0.000
 5198.00    0.40759   0.52513    0.000
 5199.00    0.42782   0.52216    0.000
 5200.00    0.44949   0.51809    0.000
 5201.00    0.49885   0.51499    0.000
 5202.00    0.55354   0.51448    0.000
 5203.00    0.53595   0.51669    0.000
 5204.00    0.50756   0.52067    0.000
 5205.00    0.41780   0.52492    0.000
 5206.00    0.32132   0.52808    0.000
 5207.00    0.33613   0.52950    0.000
 5208.00    0.35897   0.52881    0.000
 5209.00    0.43836   0.52663    0.000
 5210.00    0.51986   0.52346    0.000
 5211.00    0.51829   0.51948    0.016
 5212.00    0.51612   0.51408    0.016
 5213.00    0.50570   0.50769    0.016
 5214.00    0.49334   0.50169    0.016
 5215.00    0.44957   0.49763    0.016
 5216.00    0.40742   0.49603    0.016
 5217.00    0.38185   0.49690    0.016
 5218.00    0.35546   0.50008    0.016
 5219.00    0.32306   0.50529    0.016
 5220.00    0.29505   0.51193    0.016
 5221.00    0.29143   0.51890    0.016
 5222.00    0.30037   0.52479    0.016
 5223.00    0.36513   0.52848    0.016
 5224.00    0.39509   0.53016    0.016
 5225.00    0.29794   0.53121    0.016
 5226.00    0.23996   0.53274    0.016
 5227.00    0.30185   0.53499    0.016
 5228.00    0.35142   0.53728    0.016
 5229.00    0.36893   0.53866    0.016
 5230.00    0.37590   0.53810    0.016
 5231.00    0.35930   0.53489    0.016
 5232.00    0.35878   0.52917    0.016
 5233.00    0.38944   0.52230    0.016
 5234.00    0.39543   0.51655    0.016
 5235.00    0.35971   0.51439    0.016
 5236.00    0.40639   0.51717    0.016
 5237.00    0.57510   0.52377    0.016
 5238.00    0.62307   0.53121    0.016
 5239.00    0.51384   0.53646    0.016
 5240.00    0.44306   0.53788    0.016
 5241.00    0.41636   0.53626    0.016
 5242.00    0.41658   0.53397    0.016
 5243.00    0.44404   0.53336    0.016
 5244.00    0.41644   0.53526    0.016
 5245.00    0.33972   0.53841    0.016
 5246.00    0.35573   0.54085    0.016
 5247.00    0.44463   0.54137    0.016
 5248.00    0.47450   0.54026    0.016
 5249.00    0.46356   0.53869    0.016
 5250.00    0.44205   0.53762    0.016
 5251.00    0.41414   0.53731    0.016
 5252.00    0.42933   0.53710    0.016
 5253.00    0.46732   0.53564    0.016
 5254.00    0.46912   0.53189    0.015
 5255.00    0.45430   0.52671    0.015
 5256.00    0.48305   0.52212    0.015
 5257.00    0.52903   0.51953    0.016
 5258.00    0.51534   0.51879    0.016
 5259.00    0.48155   0.51920    0.016
 5260.00    0.43368   0.52046    0.016
 5261.00    0.38181   0.52253    0.016
 5262.00    0.36239   0.52479    0.016
 5263.00    0.35054   0.52691    0.016
 5264.00    0.32568   0.52952    0.016
 5265.00    0.29838   0.53304    0.016
 5266.00    0.33546   0.53671    0.016
 5267.00    0.38187   0.53862    0.016
 5268.00    0.35482   0.53748    0.016
 5269.00    0.32004   0.53334    0.016
 5270.00    0.34103   0.52711    0.016
 5271.00    0.36581   0.51979    0.016
 5272.00    0.30831   0.51273    0.016
 5273.00    0.24804   0.50730    0.016
 5274.00    0.27333   0.50464    0.016
 5275.00    0.29876   0.50420    0.016
 5276.00    0.32544   0.50383    0.016
 5277.00    0.35079   0.50205    0.016
 5278.00    0.35599   0.50003    0.016
 5279.00    0.35764   0.50049    0.016
 5280.00    0.32455   0.50492    0.016
 5281.00    0.30240   0.51170    0.016
 5282.00    0.35724   0.51785    0.016
 5283.00    0.41951   0.52195    0.016
 5284.00    0.52209   0.52492    0.016
 5285.00    0.58299   0.52828    0.016
 5286.00    0.46276   0.53223    0.016
 5287.00    0.39168   0.53547    0.016
 5288.00    0.49647   0.53625    0.016
 5289.00    0.57596   0.53421    0.016
 5290.00    0.57944   0.53071    0.016
 5291.00    0.58299   0.52784    0.016
 5292.00    0.58668   0.52753    0.016
 5293.00    0.55695   0.53044    0.016
 5294.00    0.45370   0.53539    0.016
 5295.00    0.38504   0.54011    0.016
 5296.00    0.38236   0.54275    0.016
 5297.00    0.38576   0.54320    0.016
 5298.00    0.39928   0.54259    0.016
 5299.00    0.40740   0.54198    0.016
 5300.00    0.40767   0.54160    0.016
 5301.00    0.38034   0.54106    0.016
 5302.00    0.31757   0.53976    0.016
 5303.00    0.26435   0.53682    0.016
 5304.00    0.22193   0.53175    0.016
 5305.00    0.24209   0.52524    0.016
 5306.00    0.32468   0.51956    0.015
 5307.00    0.37058   0.51685    0.015
 5308.00    0.38423   0.51757    0.015
 5309.00    0.42933   0.52047    0.016
 5310.00    0.49881   0.52440    0.016
 5311.00    0.51970   0.52899    0.016
 5312.00    0.50747   0.53404    0.016
 5313.00    0.45757   0.53839    0.016
 5314.00    0.38518   0.54069    0.015
 5315.00    0.37540   0.54072    0.015
 5316.00    0.39825   0.53969    0.015
 5317.00    0.50620   0.53894    0.015
 5318.00    0.65258   0.53883    0.015
 5319.00    0.64468   0.53872    0.015
 5320.00    0.57684   0.53807    0.015
 5321.00    0.48815   0.53693    0.015
 5322.00    0.39257   0.53570    0.015
 5323.00    0.40587   0.53455    0.015
 5324.00    0.44935   0.53347    0.015
 5325.00    0.42417   0.53246    0.015
 5326.00    0.38334   0.53159    0.015
 5327.00    0.28100   0.53088    0.015
 5328.00    0.16744   0.53025    0.015
 5329.00    0.23937   0.52958    0.015
 5330.00    0.33732   0.52879    0.015
 5331.00    0.44645   0.52773    0.015
 5332.00    0.55672   0.52617    0.016
 5333.00    0.55252   0.52383    0.016
 5334.00    0.54099   0.51995    0.016
 5335.00    0.56570   0.51388    0.015
 5336.00    0.59130   0.50667    0.015
 5337.00    0.53453   0.50140    0.015
 5338.00    0.48036   0.50102    0.015
 5339.00    0.50034   0.50558    0.015
 5340.00    0.51616   0.51238    0.015
 5341.00    0.47225   0.51873    0.016
 5342.00    0.43208   0.52357    0.016
 5343.00    0.42684   0.52692    0.016
 5344.00    0.42302   0.52879    0.016
 5345.00    0.42886   0.52899    0.016
 5346.00    0.44809   0.52744    0.016
 5347.00    0.53801   0.52433    0.016
 5348.00    0.58959   0.52036    0.016
 5349.00    0.47839   0.51693    0.016
 5350.00    0.37545   0.51538    0.015
 5351.00    0.30149   0.51596    0.015
 5352.00    0.29430   0.51732    0.015
 5353.00    0.48393   0.51806    0.016
 5354.00    0.59436   0.51785    0.016
 5355.00    0.50578   0.51739    0.016
 5356.00    0.46190   0.51724    0.016
 5357.00    0.51476   0.51769    0.015
 5358.00    0.53917   0.51916    0.015
 5359.00    0.51014   0.52238    0.015
 5360.00    0.49296   0.52719    0.015
 5361.00    0.49521   0.53248    0.015
 5362.00    0.49194   0.53700    0.015
 5363.00    0.48073   0.54019    0.015
 5364.00    0.47942   0.54207    0.015
 5365.00    0.49061   0.54283    0.015
 5366.00    0.50024   0.54264    0.015
 5367.00    0.50813   0.54151    0.015
 5368.00    0.53516   0.53932   -2.000
 5369.00    0.58101   0.53619   -2.000
 5370.00    0.54397   0.53272   -2.000
 5371.00    0.43505   0.52970   -2.000
 5372.00    0.30435   0.52766   -2.000
 5373.00    0.15702   0.52652   -2.000
 5374.00    0.19938   0.52582   -2.000
 5375.00    0.36911   0.52502   -2.000
 5376.00    0.46137   0.52339   -2.000
 5377.00    0.50806   0.52020   -2.000
 5378.00    0.53280   0.51547   -2.000
 5379.00    0.54627   0.51080   -2.000
 5380.00    0.52755   0.50878   -2.000
 5381.00    0.49452   0.51111   -2.000
 5382.00    0.46277   0.51690   -2.000
 5383.00    0.43151   0.52330    0.015
 5384.00    0.38173   0.52793    0.015
 5385.00    0.32593   0.53042    0.015
 5386.00    0.39480   0.53180    0.015
 5387.00    0.49752   0.53284    0.015
 5388.00    0.50306   0.53324    0.015
 5389.00    0.48693   0.53244    0.015
 5390.00    0.46423   0.53058    0.015
 5391.00    0.44037   0.52850    0.015
 5392.00    0.47919   0.52700    0.015
 5393.00    0.52651   0.52639    0.015
 5394.00    0.48940   0.52646    0.015
 5395.00    0.44414   0.52646    0.015
 5396.00    0.45083   0.52566    0.015
 5397.00    0.46065   0.52364    0.015
 5398.00    0.49020   0.52075    0.015
 5399.00    0.51977   0.51793    0.015
 5400.00    0.46635   0.51612    0.015
 5401.00    0.41572   0.51531    0.016
 5402.00    0.43739   0.51459    0.016
 5403.00    0.45800   0.51278    0.016
 5404.00    0.46432   0.50977    0.015
 5405.00    0.46863   0.50685    0.015
 5406.00    0.45483   0.50586    0.015
 5407.00    0.43612   0.50782    0.015
 5408.00    0.38502   0.51148    0.015
 5409.00    0.35988   0.51470    0.015
 5410.00    0.46822   0.51602    0.015
 5411.00    0.53451   0.51502    0.015
 5412.00    0.42624   0.51167    0.015
 5413.00    0.34897   0.50663    0.015
 5414.00    0.37818   0.50161    0.015
 5415.00    0.40604   0.49842    0.015
 5416.00    0.42998   0.49739    0.015
 5417.00    0.45832   0.49734    0.015
 5418.00    0.49753   0.49747    0.015
 5419.00    0.51192   0.49847    0.015
 5420.00    0.47346   0.50159    0.015
 5421.00    0.44574   0.50669    0.015
 5422.00    0.43790   0.51248    0.015
 5423.00    0.42354   0.51775    0.015
 5424.00    0.39864   0.52198    0.015
 5425.00    0.38175   0.52518    0.015
 5426.00    0.37622   0.52710    0.015
 5427.00    0.42296   0.52749    0.015
 5428.00    0.53489   0.52668    0.015
 5429.00    0.53278   0.52547    0.015
 5430.00    0.40532   0.52454    0.015
 5431.00    0.33369   0.52392    0.015
 5432.00    0.31618   0.52323    0.015
 5433.00    0.35995   0.52256    0.015
 5434.00    0.45611   0.52242    0.015
 5435.00    0.50201   0.52222    0.015
 5436.00    0.51006   0.52054    0.014
 5437.00    0.47239   0.51648    0.015
 5438.00    0.40447   0.51095    0.015
 5439.00    0.40077   0.50632    0.015
 5440.00    0.43427   0.50371    0.015
 5441.00    0.48275   0.50222    0.015
 5442.00    0.53879   0.50118    0.015
 5443.00    0.57429   0.50065    0.015
 5444.00    0.60081   0.50157    0.015
 5445.00    0.58534   0.50449    0.015
 5446.00    0.55413   0.50925    0.015
 5447.00    0.47411   0.51506    0.015
 5448.00    0.37857   0.52088    0.015
 5449.00    0.39011   0.52575    0.015
 5450.00    0.43013   0.52904    0.015
 5451.00    0.48320   0.53027    0.015
 5452.00    0.53911   0.52880    0.016
 5453.00    0.49674   0.52391    0.015
 5454.00    0.43739   0.51572    0.015
 5455.00    0.42924   0.50605    0.015
 5456.00    0.42780   0.49773    0.015
 5457.00    0.39154   0.49281    0.015
 5458.00    0.35206   0.49099    0.015
 5459.00    0.38947   0.49057    0.015
 5460.00    0.43120   0.48968    0.015
 5461.00    0.41369   0.48760    0.015
 5462.00    0.39582   0.48438    0.015
 5463.00    0.47782   0.48128    0.015
 5464.00    0.55583   0.47946    0.015
 5465.00    0.54004   0.48021    0.015
 5466.00    0.52084   0.48313    0.015
 5467.00    0.45788   0.48689    0.015
 5468.00    0.39467   0.48968    0.015
 5469.00    0.32924   0.49083    0.015
 5470.00    0.28627   0.49079    0.015
 5471.00    0.38735   0.49051    0.015
 5472.00    0.46936   0.49053    0.015
 5473.00    0.45577   0.49101    0.015
 5474.00    0.45207   0.49187    0.015
 5475.00    0.48850   0.49293    0.015
 5476.00    0.51341   0.49411    0.015
 5477.00    0.49952   0.49492    0.015
 5478.00    0.47432   0.49492   -2.000
 5479.00    0.41699   0.49393   -2.000
 5480.00    0.38235   0.49227   -2.000
 5481.00    0.40281   0.49032   -2.000
 5482.00    0.38891   0.48837   -2.000
 5483.00    0.30302   0.48663   -2.000
 5484.00    0.21040   0.48532   -2.000
 5485.00    0.10551   0.48468   -2.000
 5486.00   -0.05076   0.48514   -2.000
 5487.00   -0.28882   0.48678   -2.000
 5488.00   -0.23240   0.48863   -2.000
 5489.00    0.23538   0.48965   -2.000
 5490.00    0.44908   0.48977   -2.000
 5491.00    0.35041   0.49021   -2.000
 5492.00    0.52477   0.49193   -2.000
 5493.00    0.99502   0.49453   -2.000
 5494.00    1.01195   0.49665   -2.000
 5495.00    0.59556   0.49730   -2.000
 5496.00    0.42389   0.49662   -2.000
 5497.00    0.45846   0.49560   -2.000
 5498.00    0.49519   0.49512   -2.000
 5499.00    0.53351   0.49535   -2.000
 5500.00    0.48701   0.49603   -2.000
 5501.00    0.38522   0.49670   -2.000
 5502.00    0.38586   0.49685    0.047
 5503.00    0.44494   0.49624    0.018
 5504.00    0.39905   0.49487    0.015
 5505.00    0.30100   0.49311    0.015
 5506.00    0.34308   0.49152    0.015
 5507.00    0.44537   0.49063    0.015
 5508.00    0.48928   0.49027    0.015
 5509.00    0.51169   0.48974    0.015
 5510.00    0.46220   0.48866    0.015
 5511.00    0.39029   0.48741    0.015
 5512.00    0.39562   0.48643    0.015
 5513.00    0.42106   0.48558    0.015
 5514.00    0.42517   0.48461    0.015
 5515.00    0.42477   0.48381    0.015
 5516.00    0.39805   0.48388    0.015
 5517.00    0.36692   0.48497    0.014
 5518.00    0.34623   0.48610    0.014
 5519.00    0.32687   0.48602    0.014
 5520.00    0.36591   0.48433    0.014
 5521.00    0.41010   0.48166    0.014
 5522.00    0.39994   0.47927    0.014
 5523.00    0.38693   0.47828    0.014
 5524.00    0.44054   0.47932    0.014
 5525.00    0.49398   0.48244    0.014
 5526.00    0.43999   0.48703    0.014
 5527.00    0.38903   0.49193    0.014
 5528.00    0.40306   0.49592    0.014
 5529.00    0.41664   0.49828    0.014
 5530.00    0.42483   0.49910    0.015
 5531.00    0.42651   0.49896    0.015
 5532.00    0.37399   0.49823    0.015
 5533.00    0.34340   0.49691    0.015
 5534.00    0.44933   0.49485    0.015
 5535.00    0.53324   0.49219    0.015
 5536.00    0.50953   0.48963    0.015
 5537.00    0.47847   0.48821    0.015
 5538.00    0.41829   0.48854    0.015
 5539.00    0.39259   0.49024    0.015
 5540.00    0.48071   0.49206    0.015
 5541.00    0.51994   0.49288    0.015
 5542.00    0.42277   0.49246    0.015
 5543.00    0.36030   0.49142    0.015
 5544.00    0.38061   0.49061    0.015
 5545.00    0.40227   0.49060    0.015
 5546.00    0.42674   0.49147    0.015
 5547.00    0.45140   0.49301    0.015
 5548.00    0.47642   0.49492    0.015
 5549.00    0.51384   0.49677    0.015
 5550.00    0.57069   0.49792    0.015
 5551.00    0.56130   0.49790    0.015
 5552.00    0.46070   0.49684    0.015
 5553.00    0.42246   0.49543    0.014
 5554.00    0.45980   0.49441    0.015
 5555.00    0.44694   0.49429    0.015
 5556.00    0.38044   0.49516    0.015
 5557.00    0.36962   0.49671    0.014
 5558.00    0.41129   0.49819    0.014
 5559.00    0.44398   0.49890    0.014
 5560.00    0.46922   0.49851    0.014
 5561.00    0.45567   0.49718    0.014
 5562.00    0.41375   0.49530    0.014
 5563.00    0.38907   0.49330    0.014
 5564.00    0.37545   0.49152    0.014
 5565.00    0.41584   0.49013    0.014
 5566.00    0.48658   0.48923    0.014
 5567.00    0.49482   0.48884    0.014
 5568.00    0.47251   0.48880    0.014
 5569.00    0.46889   0.48873    0.014
 5570.00    0.47317   0.48830    0.014
 5571.00    0.44388   0.48748    0.014
 5572.00    0.40244   0.48639    0.014
 5573.00    0.38558   0.48517    0.014
 5574.00    0.37625   0.48393    0.014
 5575.00    0.42222   0.48298    0.014
 5576.00    0.48226   0.48258    0.014
 5577.00    0.46036   0.48284    0.014
 5578.00    0.42148   0.48354    0.014
 5579.00    0.46398   0.48434    0.014
 5580.00    0.51975   0.48487    0.015
 5581.00    0.51765   0.48505    0.015
 5582.00    0.50847   0.48506    0.015
 5583.00    0.53914   0.48528    0.015
 5584.00    0.57317   0.48589    0.015
 5585.00    0.47330   0.48656    0.015
 5586.00    0.36695   0.48695    0.015
 5587.00    0.39966   0.48706    0.015
 5588.00    0.43285   0.48698    0.015
 5589.00    0.37045   0.48674    0.015
 5590.00    0.31380   0.48624    0.015
 5591.00    0.37122   0.48535    0.015
 5592.00    0.42580   0.48400    0.015
 5593.00    0.44746   0.48223    0.015
 5594.00    0.45578   0.47978    0.015
 5595.00    0.35696   0.47657    0.015
 5596.00    0.28430   0.47305    0.015
 5597.00    0.36972   0.47008    0.015
 5598.00    0.43136   0.46855    0.015
 5599.00    0.37964   0.46861    0.015
 5600.00    0.35333   0.46975    0.015
 5601.00    0.42575   0.47132    0.015
 5602.00    0.47642   0.47308    0.015
 5603.00    0.45674   0.47505    0.015
 5604.00    0.42126   0.47686    0.014
 5605.00    0.34251   0.47741    0.014
 5606.00    0.30548   0.47585    0.014
 5607.00    0.36633   0.47239    0.014
 5608.00    0.43597   0.46845    0.014
 5609.00    0.52344   0.46571    0.014
 5610.00    0.57667   0.46470    0.014
 5611.00    0.56946   0.46503    0.014
 5612.00    0.54239   0.46625    0.014
 5613.00    0.48465   0.46804    0.014
 5614.00    0.44289   0.47048    0.014
 5615.00    0.42283   0.47324    0.014
 5616.00    0.41533   0.47597    0.014
 5617.00    0.42283   0.47804    0.014
 5618.00    0.40696   0.47930    0.014
 5619.00    0.36649   0.47991    0.014
 5620.00    0.38681   0.48021    0.014
 5621.00    0.46363   0.47999    0.014
 5622.00    0.49184   0.47850    0.014
 5623.00    0.48023   0.47533    0.014
 5624.00    0.46040   0.47122    0.014
 5625.00    0.43465   0.46767    0.014
 5626.00    0.39524   0.46589    0.014
 5627.00    0.34718   0.46584    0.014
 5628.00    0.37608   0.46659    0.014
 5629.00    0.44757   0.46756    0.014
 5630.00    0.48694   0.46843    0.014
 5631.00    0.51086   0.46879    0.014
 5632.00    0.54374   0.46814    0.014
 5633.00    0.58034   0.46664    0.014
 5634.00    0.53308   0.46527    0.014
 5635.00    0.45604   0.46495    0.014
 5636.00    0.47900   0.46572    0.014
 5637.00    0.53196   0.46680    0.014
 5638.00    0.50488   0.46757    0.014
 5639.00    0.45785   0.46815    0.014
 5640.00    0.50177   0.46888    0.014
 5641.00    0.56407   0.46990    0.014
 5642.00    0.48188   0.47080    0.014
 5643.00    0.37681   0.47095    0.014
 5644.00    0.42301   0.47000    0.014
 5645.00    0.48702   0.46810    0.014
 5646.00    0.51335   0.46575    0.013
 5647.00    0.53666   0.46333    0.013
 5648.00    0.51441   0.46126    0.013
 5649.00    0.49014   0.45972    0.013
 5650.00    0.44589   0.45928    0.013
 5651.00    0.40165   0.45978    0.014
 5652.00    0.36909   0.46093    0.014
 5653.00    0.33992   0.46197    0.014
 5654.00    0.37307   0.46260    0.013
 5655.00    0.40487   0.46296    0.013
 5656.00    0.42181   0.46345    0.013
 5657.00    0.43734   0.46448    0.013
 5658.00    0.44192   0.46630    0.014
 5659.00    0.44380   0.46880    0.014
 5660.00    0.42980   0.47160    0.014
 5661.00    0.40754   0.47403    0.014
 5662.00    0.34686   0.47548    0.014
 5663.00    0.30265   0.47562    0.014
 5664.00    0.32105   0.47447    0.014
 5665.00    0.34034   0.47204    0.014
 5666.00    0.36244   0.46858    0.014
 5667.00    0.38964   0.46492    0.014
 5668.00    0.43057   0.46212    0.014
 5669.00    0.45284   0.46058    0.014
 5670.00    0.43202   0.46006    0.014
 5671.00    0.43534   0.45982    0.014
 5672.00    0.48683   0.45981    0.014
 5673.00    0.51906   0.46018    0.014
 5674.00    0.51778   0.46081    0.014
 5675.00    0.49068   0.46119    0.014
 5676.00    0.42426   0.46103    0.014
 5677.00    0.40356   0.46076    0.014
 5678.00    0.44402   0.46073    0.014
 5679.00    0.46180   0.46135    0.014
 5680.00    0.45288   0.46267    0.014
 5681.00    0.43815   0.46460    0.014
 5682.00    0.41740   0.46667    0.014
 5683.00    0.39688   0.46834    0.013
 5684.00    0.37658   0.46928    0.013
 5685.00    0.37664   0.46954    0.013
 5686.00    0.39313   0.46932    0.013
 5687.00    0.38961   0.46865    0.013
 5688.00    0.37188   0.46771    0.013
 5689.00    0.40185   0.46686    0.013
 5690.00    0.46155   0.46656    0.013
 5691.00    0.47560   0.46685    0.013
 5692.00    0.46478   0.46765    0.013
 5693.00    0.45732   0.46833    0.013
 5694.00    0.45144   0.46848    0.013
 5695.00    0.51729   0.46771    0.013
 5696.00    0.61244   0.46643    0.014
 5697.00    0.56442   0.46558    0.014
 5698.00    0.46645   0.46605    0.014
 5699.00    0.46584   0.46795    0.014
 5700.00    0.49385   0.47061    0.014
 5701.00    0.54086   0.47295    0.014
 5702.00    0.59250   0.47398    0.014
 5703.00    0.55443   0.47320    0.014
 5704.00    0.49870   0.47097    0.013
 5705.00    0.43965   0.46822    0.013
 5706.00    0.38009   0.46594    0.013
 5707.00    0.45728   0.46456    0.014
 5708.00    0.54998   0.46379    0.014
 5709.00    0.42605   0.46314    0.014
 5710.00    0.28571   0.46241    0.014
 5711.00    0.29574   0.46188    0.014
 5712.00    0.31188   0.46195    0.013
 5713.00    0.34463   0.46259    0.013
 5714.00    0.37738   0.46309    0.013
 5715.00    0.40491   0.46264    0.013
 5716.00    0.42956   0.46101    0.013
 5717.00    0.40469   0.45878    0.013
 5718.00    0.39035   0.45699    0.013
 5719.00    0.48738   0.45632    0.013
 5720.00    0.56974   0.45685    0.013
 5721.00    0.54217   0.45861    0.013
 5722.00    0.51294   0.46125    0.013
 5723.00    0.47423   0.46427    0.013
 5724.00    0.44772   0.46699    0.013
 5725.00    0.47667   0.46864    0.013
 5726.00    0.50129   0.46913    0.013
 5727.00    0.50983   0.46898    0.013
 5728.00    0.51022   0.46889    0.013
 5729.00    0.48528   0.46929    0.013
 5730.00    0.46151   0.47017    0.013
 5731.00    0.44085   0.47112    0.013
 5732.00    0.43088   0.47159    0.013
 5733.00    0.44515   0.47124    0.013
 5734.00    0.45468   0.46984    0.013
 5735.00    0.45489   0.46763    0.013
 5736.00    0.45875   0.46543    0.013
 5737.00    0.46887   0.46415    0.013
 5738.00    0.45710   0.46414    0.013
 5739.00    0.41249   0.46493    0.013
 5740.00    0.38396   0.46593    0.000
 5741.00    0.37661   0.46698    0.000
 5742.00    0.39564   0.46824    0.000
 5743.00    0.44528   0.46960    0.000
 5744.00    0.45908   0.47052    0.000
 5745.00    0.43617   0.47050    0.000
 5746.00    0.45649   0.46952    0.000
 5747.00    0.51586   0.46798    0.000
 5748.00    0.52365   0.46657    0.000
 5749.00    0.49037   0.46587    0.000
 5750.00    0.47969   0.46619    0.000
 5751.00    0.48483   0.46725    0.000
 5752.00    0.49572   0.46870    0.000
 5753.00    0.51015   0.47031    0.000
 5754.00    0.48239   0.47168    0.000
 5755.00    0.43199   0.47250    0.000
 5756.00    0.44179   0.47231    0.000
 5757.00    0.47962   0.47147    0.000
 5758.00    0.48747   0.47085    0.000
 5759.00    0.48329   0.47094    0.000
 5760.00    0.45633   0.47132    0.000
 5761.00    0.42157   0.47113    0.000
 5762.00    0.44383   0.47018    0.000
 5763.00    0.48252   0.46930    0.000
 5764.00    0.52902   0.46957    0.000
 5765.00    0.57738   0.47113    0.000
 5766.00    0.58067   0.47302    0.000
 5767.00    0.57530   0.47376    0.000
 5768.00    0.56589   0.47230    0.000
 5769.00    0.55587   0.46879    0.000
 5770.00    0.52079   0.46438    0.000
 5771.00    0.48298   0.46072    0.000
 5772.00    0.47995   0.45914    0.000
 5773.00    0.47941   0.45988    0.000
 5774.00    0.45807   0.46211    0.000
 5775.00    0.43597   0.46462    0.000
 5776.00    0.46311   0.46646    0.000
 5777.00    0.49048   0.46739    0.000
 5778.00    0.51826   0.46764    0.000
 5779.00    0.54135   0.46753    0.000
 5780.00    0.48885   0.46720    0.000
 5781.00    0.43299   0.46675    0.000
 5782.00    0.34312   0.46628    0.000
 5783.00    0.27669   0.46583    0.000
 5784.00    0.38015   0.46553    0.000
 5785.00    0.46534   0.46538    0.000
 5786.00    0.44900   0.46521    0.000
 5787.00    0.43834   0.46466    0.000
 5788.00    0.45284   0.46321    0.000
 5789.00    0.45834   0.46064    0.000
 5790.00    0.43103   0.45730    0.000
 5791.00    0.41750   0.45407   -2.000
 5792.00    0.44607   0.45171   -2.000
 5793.00    0.46619   0.45053   -2.000
 5794.00    0.46436   0.45049   -2.000
 5795.00    0.46859   0.45152   -2.000
 5796.00    0.48635   0.45347   -2.000
 5797.00    0.49680   0.45588   -2.000
 5798.00    0.49312   0.45803   -2.000
 5799.00    0.47118   0.45938   -2.000
 5800.00    0.41843   0.46039   -2.000
 5801.00    0.39789   0.46199   -2.000
 5802.00    0.42493   0.46458   -2.000
 5803.00    0.45154   0.46774   -2.000
 5804.00    0.47759   0.47026   -2.000
 5805.00    0.50005   0.47114   -2.000
 5806.00    0.51839   0.47050   -2.000
 5807.00    0.51088   0.46963   -2.000
 5808.00    0.47729   0.46991   -2.000
 5809.00    0.45556   0.47173   -2.000
 5810.00    0.44439   0.47437   -2.000
 5811.00    0.44056   0.47654    0.000
 5812.00    0.44249   0.47723    0.000
 5813.00    0.43489   0.47649    0.000
 5814.00    0.42071   0.47514    0.000
 5815.00    0.38844   0.47393    0.000
 5816.00    0.34524   0.47328    0.000
 5817.00    0.37034   0.47299    0.000
 5818.00    0.43153   0.47253    0.000
 5819.00    0.46402   0.47152    0.000
 5820.00    0.48336   0.46985    0.000
 5821.00    0.48552   0.46767    0.000
 5822.00    0.48090   0.46521    0.000
 5823.00    0.49903   0.46269    0.000
 5824.00    0.52479   0.46035    0.000
 5825.00    0.49674   0.45868    0.000
 5826.00    0.45350   0.45809    0.000
 5827.00    0.44908   0.45866    0.000
 5828.00    0.45370   0.45995    0.000
 5829.00    0.49133   0.46130    0.000
 5830.00    0.53513   0.46221    0.000
 5831.00    0.53982   0.46241    0.000
 5832.00    0.53887   0.46213    0.000
 5833.00    0.53160   0.46179    0.000
 5834.00    0.52366   0.46182    0.000
 5835.00    0.52127   0.46231    0.000
 5836.00    0.51926   0.46314    0.000
 5837.00    0.50493   0.46410    0.000
 5838.00    0.49020   0.46501    0.000
 5839.00    0.47542   0.46578    0.000
 5840.00    0.46177   0.46617    0.000
 5841.00    0.48347   0.46606    0.000
 5842.00    0.50343   0.46532    0.000
 5843.00    0.49709   0.46419    0.000
 5844.00    0.49481   0.46314    0.000
 5845.00    0.53187   0.46258    0.000
 5846.00    0.56361   0.46224    0.000
 5847.00    0.55802   0.46185    0.000
 5848.00    0.54722   0.46152    0.000
 5849.00    0.50829   0.46175    0.000
 5850.00    0.47356   0.46278    0.000
 5851.00    0.45704   0.46426    0.000
 5852.00    0.44308   0.46538    0.000
 5853.00    0.43826   0.46544    0.000
 5854.00    0.43637   0.46418    0.000
 5855.00    0.44326   0.46178    0.000
 5856.00    0.45036   0.45863    0.000
 5857.00    0.45801   0.45533    0.000
 5858.00    0.45257   0.45229    0.000
 5859.00    0.41843   0.44955    0.000
 5860.00    0.39697   0.44692    0.000
 5861.00    0.39966   0.44433    0.000
 5862.00    0.41481   0.44203    0.000
 5863.00    0.45070   0.44053    0.000
 5864.00    0.46789   0.43984    0.000
 5865.00    0.45787   0.43938    0.000
 5866.00    0.45469   0.43878    0.000
 5867.00    0.46027   0.43828    0.000
 5868.00    0.46614   0.43843    0.000
 5869.00    0.47233   0.43927    0.000
 5870.00    0.51582   0.44031    0.000
 5871.00    0.59645   0.44074    0.000
 5872.00    0.64899   0.44035    0.000
 5873.00    0.67687   0.43957    0.000
 5874.00    0.66914   0.43876    0.000
 5875.00    0.63388   0.43808    0.000
 5876.00    0.60143   0.43778    0.000
 5877.00    0.57090   0.43816    0.000
 5878.00    0.54568   0.43913    0.000
 5879.00    0.52364   0.44013    0.000
 5880.00    0.50048   0.44011    0.000
 5881.00    0.47675   0.43783    0.000
 5882.00    0.46301   0.43285    0.000
 5883.00    0.45378   0.42523    0.000
 5884.00    0.45103   0.41691    0.000
 5885.00    0.45079   0.41103    0.000
 5886.00    0.42503   0.40957    0.000
 5887.00    0.39085   0.41264    0.000
 5888.00    0.40794   0.41737    0.000
 5889.00    0.43922   0.42181    0.000
 5890.00    0.44815   0.42495    0.000
 5891.00    0.45200   0.42696    0.000
 5892.00    0.45365   0.42823    0.000
 5893.00    0.45489   0.42861    0.000
 5894.00    0.42253   0.42767    0.000
 5895.00    0.38548   0.42458    0.000
 5896.00    0.37838   0.41850    0.000
 5897.00    0.37428   0.40896    0.000
 5898.00    0.41156   0.39713    0.000
 5899.00    0.45147   0.38637    0.000
 5900.00    0.45361   0.38043    0.000
 5901.00    0.45464   0.38057    0.012
 5902.00    0.45359   0.38431    0.012
 5903.00    0.45282   0.38815    0.012
 5904.00    0.45981   0.38940    0.012
 5905.00    0.46523   0.38866    0.012
 5906.00    0.44831   0.38871    0.012
 5907.00    0.43128   0.39118    0.012
 5908.00    0.41321   0.39586    0.012
 5909.00    0.40070   0.40157    0.012
 5910.00    0.42594   0.40713    0.012
 5911.00    0.44503   0.41179    0.012
 5912.00    0.43171   0.41544    0.012
 5913.00    0.42277   0.41802    0.013
 5914.00    0.43234   0.41949    0.030
 5915.00    0.43854   0.42019   -1.000
 5916.00    0.43293   0.42068   -1.000
 5917.00    0.43679   0.42132   -1.000
 5918.00    0.46851   0.42214   -1.000
 5919.00    0.48073   0.42295   -1.000
 5920.00    0.44406   0.42344   -1.000
 5921.00    0.41792   0.42329   -1.000
 5922.00    0.41450   0.42239   -1.000
 5923.00    0.41115   0.42101   -1.000
 5924.00    0.40793   0.41978   -1.000
 5925.00    0.41337   0.41914    0.062
 5926.00    0.43299   0.41923    0.017
 5927.00    0.45772   0.41986    0.012
 5928.00    0.48978   0.42050    0.012
 5929.00    0.50541   0.42097    0.012
 5930.00    0.50030   0.42118    0.012
 5931.00    0.52071   0.42108    0.012
 5932.00    0.56951   0.42097    0.012
 5933.00    0.56690   0.42106    0.012
 5934.00    0.51383   0.42141    0.012
 5935.00    0.47786   0.42193    0.012
 5936.00    0.45670   0.42233    0.012
 5937.00    0.48634   0.42236    0.012
 5938.00    0.55470   0.42205    0.012
 5939.00    0.57402   0.42178    0.012
 5940.00    0.56047   0.42186    0.012
 5941.00    0.53801   0.42237    0.012
 5942.00    0.51033   0.42297    0.012
 5943.00    0.49433   0.42332    0.012
 5944.00    0.48432   0.42348    0.012
 5945.00    0.49153   0.42382    0.012
 5946.00    0.50637   0.42461    0.012
 5947.00    0.52510   0.42546    0.012
 5948.00    0.54531   0.42583    0.012
 5949.00    0.57062   0.42528    0.012
 5950.00    0.59758   0.42396    0.012
 5951.00    0.57092   0.42285    0.012
 5952.00    0.52974   0.42287    0.012
 5953.00    0.50874   0.42413    0.012
 5954.00    0.49223   0.42617    0.012
 5955.00    0.46512   0.42801    0.012
 5956.00    0.43614   0.42877    0.012
 5957.00    0.44662   0.42808    0.012
 5958.00    0.46244   0.42626    0.012
 5959.00    0.44857   0.42412    0.012
 5960.00    0.43184   0.42239    0.012
 5961.00    0.41779   0.42132    0.012
 5962.00    0.40389   0.42070    0.012
 5963.00    0.39804   0.42021    0.012
 5964.00    0.39234   0.41955    0.012
 5965.00    0.37858   0.41851    0.012
 5966.00    0.36817   0.41748    0.011
 5967.00    0.44326   0.41723    0.012
 5968.00    0.51269   0.41822    0.012
 5969.00    0.50598   0.42036    0.012
 5970.00    0.49742   0.42292    0.012
 5971.00    0.47224   0.42502    0.012
 5972.00    0.45123   0.42620    0.011
 5973.00    0.45764   0.42650    0.012
 5974.00    0.46611   0.42636    0.012
 5975.00    0.48507   0.42626    0.012
 5976.00    0.50066   0.42663    0.012
 5977.00    0.50229   0.42763    0.012
 5978.00    0.50451   0.42892    0.012
 5979.00    0.50880   0.43009    0.012
 5980.00    0.51311   0.43080    0.012
 5981.00    0.51746   0.43086    0.012
 5982.00    0.51714   0.43028    0.012
 5983.00    0.50534   0.42919    0.012
 5984.00    0.48383   0.42762    0.012
 5985.00    0.44167   0.42556    0.012
 5986.00    0.42983   0.42326    0.012
 5987.00    0.47395   0.42115    0.012
 5988.00    0.50670   0.41978    0.012
 5989.00    0.52112   0.41962    0.012
 5990.00    0.53052   0.42039    0.012
 5991.00    0.53280   0.42132    0.012
 5992.00    0.51841   0.42172    0.012
 5993.00    0.48328   0.42164    0.012
 5994.00    0.43415   0.42163    0.012
 5995.00    0.36965   0.42240    0.012
 5996.00    0.33801   0.42397    0.011
 5997.00    0.33817   0.42562    0.011
 5998.00    0.35800   0.42690    0.011
 5999.00    0.39462   0.42792    0.011
 6000.00    0.42645   0.42895    0.011
 6001.00    0.45467   0.43028    0.011
 6002.00    0.47898   0.43198    0.011
 6003.00    0.50070   0.43380    0.011
 6004.00    0.49039   0.43506    0.011
 6005.00    0.46156   0.43522    0.011
 6006.00    0.42869   0.43421    0.011
 6007.00    0.39379   0.43247    0.011
 6008.00    0.42425   0.43054    0.011
 6009.00    0.48319   0.42883    0.012
 6010.00    0.50237   0.42756    0.012
 6011.00    0.50666   0.42678    0.012
 6012.00    0.51998   0.42641    0.012
 6013.00    0.53618   0.42636    0.012
 6014.00    0.55115   0.42645    0.012
 6015.00    0.56581   0.42612    0.012
 6016.00    0.52254   0.42524    0.012
 6017.00    0.46671   0.42433    0.012
 6018.00    0.46901   0.42408    0.012
 6019.00    0.48132   0.42484    0.012
 6020.00    0.50464   0.42621    0.012
 6021.00    0.52938   0.42730    0.012
 6022.00    0.51669   0.42762    0.012
 6023.00    0.50056   0.42736    0.012
 6024.00    0.51750   0.42699    0.012
 6025.00    0.53629   0.42670    0.012
 6026.00    0.51656   0.42633    0.012
 6027.00    0.49582   0.42602    0.011
 6028.00    0.45753   0.42607    0.011
 6029.00    0.42172   0.42652    0.011
 6030.00    0.44329   0.42725    0.011
 6031.00    0.46529   0.42809    0.011
 6032.00    0.49285   0.42899    0.011
 6033.00    0.51495   0.42990    0.011
 6034.00    0.49015   0.43092    0.011
 6035.00    0.47045   0.43215    0.011
 6036.00    0.48332   0.43349    0.011
 6037.00    0.49762   0.43467    0.011
 6038.00    0.51909   0.43561    0.011
 6039.00    0.53397   0.43614    0.011
 6040.00    0.52217   0.43617    0.011
 6041.00    0.51257   0.43599    0.012
 6042.00    0.51039   0.43614    0.012
 6043.00    0.50177   0.43683    0.012
 6044.00    0.47494   0.43765    0.012
 6045.00    0.46342   0.43809    0.012
 6046.00    0.48899   0.43797    0.012
 6047.00    0.50066   0.43748    0.012
 6048.00    0.48327   0.43704    0.012
 6049.00    0.47504   0.43686    0.012
 6050.00    0.48343   0.43711    0.012
 6051.00    0.50039   0.43804    0.012
 6052.00    0.53096   0.43947    0.012
 6053.00    0.54281   0.44117    0.012
 6054.00    0.52854   0.44285    0.012
 6055.00    0.52275   0.44406    0.012
 6056.00    0.52734   0.44468    0.012
 6057.00    0.53225   0.44476    0.012
 6058.00    0.53747   0.44446    0.012
 6059.00    0.54692   0.44404    0.011
 6060.00    0.56039   0.44370    0.011
 6061.00    0.58295   0.44325    0.011
 6062.00    0.61318   0.44242    0.011
 6063.00    0.61434   0.44122    0.011
 6064.00    0.59397   0.43976    0.011
 6065.00    0.54769   0.43820    0.011
 6066.00    0.48456   0.43679    0.011
 6067.00    0.49438   0.43584    0.011
 6068.00    0.54576   0.43565    0.011
 6069.00    0.58600   0.43625    0.011
 6070.00    0.62071   0.43703    0.011
 6071.00    0.61150   0.43715    0.011
 6072.00    0.58346   0.43612    0.011
 6073.00    0.57296   0.43418    0.012
 6074.00    0.56892   0.43233    0.012
 6075.00    0.54731   0.43171    0.012
 6076.00    0.52024   0.43309    0.012
 6077.00    0.51233   0.43632    0.012
 6078.00    0.50940   0.44012    0.012
 6079.00    0.49698   0.44341    0.012
 6080.00    0.48255   0.44571    0.012
 6081.00    0.47129   0.44698    0.012
 6082.00    0.46056   0.44749    0.011
 6083.00    0.51300   0.44748    0.011
 6084.00    0.57341   0.44714    0.012
 6085.00    0.58293   0.44644    0.012
 6086.00    0.58799   0.44521    0.011
 6087.00    0.54919   0.44342    0.011
 6088.00    0.50812   0.44113    0.011
 6089.00    0.49512   0.43862    0.011
 6090.00    0.48239   0.43632    0.011
 6091.00    0.45254   0.43457    0.011
 6092.00    0.42559   0.43364    0.011
 6093.00    0.46050   0.43375    0.011
 6094.00    0.49500   0.43464    0.011
 6095.00    0.52460   0.43566    0.011
 6096.00    0.54943   0.43645    0.011
 6097.00    0.53463   0.43681    0.011
 6098.00    0.51917   0.43650    0.011
 6099.00    0.49961   0.43553    0.011
 6100.00    0.48054   0.43428    0.011
 6101.00    0.46390   0.43348    0.011
 6102.00    0.45451   0.43377    0.011
 6103.00    0.47381   0.43509    0.011
 6104.00    0.49208   0.43701    0.012
 6105.00    0.50699   0.43895    0.012
 6106.00    0.51154   0.44032    0.012
 6107.00    0.48730   0.44096    0.012
 6108.00    0.47204   0.44113    0.012
 6109.00    0.47817   0.44071    0.012
 6110.00    0.48117   0.43908    0.014
 6111.00    0.47776   0.43608    0.036
 6112.00    0.45659   0.43241   -1.000
 6113.00    0.40366   0.42963   -1.000
 6114.00    0.36307   0.42918   -1.000
 6115.00    0.34178   0.43088   -1.000
 6116.00    0.31617   0.43337   -1.000
 6117.00    0.28464   0.43553   -1.000
 6118.00    0.26745   0.43685   -1.000
 6119.00    0.26760   0.43746   -1.000
 6120.00    0.32452   0.43781    0.045
 6121.00    0.44198   0.43824    0.015
 6122.00    0.50900   0.43912    0.011
 6123.00    0.52854   0.44052    0.011
 6124.00    0.52872   0.44185    0.011
 6125.00    0.51283   0.44243    0.011
 6126.00    0.51121   0.44192    0.011
 6127.00    0.52000   0.44024    0.011
 6128.00    0.52534   0.43752    0.011
 6129.00    0.52847   0.43378    0.011
 6130.00    0.54273   0.42940    0.011
 6131.00    0.56325   0.42574    0.011
 6132.00    0.54319   0.42413    0.011
 6133.00    0.50332   0.42498    0.012
 6134.00    0.46989   0.42762    0.012
 6135.00    0.43917   0.43033    0.012
 6136.00    0.45144   0.43189    0.012
 6137.00    0.47922   0.43263    0.012
 6138.00    0.50099   0.43351    0.012
 6139.00    0.52093   0.43515    0.012
 6140.00    0.50083   0.43744    0.012
 6141.00    0.47057   0.43937    0.012
 6142.00    0.48302   0.43953    0.012
 6143.00    0.50428   0.43711    0.012
 6144.00    0.50462   0.43233    0.011
 6145.00    0.50156   0.42629    0.011
 6146.00    0.49017   0.42102    0.011
 6147.00    0.47777   0.41856    0.011
 6148.00    0.49531   0.41965    0.011
 6149.00    0.51534   0.42351    0.011
 6150.00    0.49691   0.42820    0.011
 6151.00    0.47664   0.43195    0.011
 6152.00    0.44526   0.43458    0.011
 6153.00    0.41477   0.43695    0.011
 6154.00    0.44579   0.43940    0.011
 6155.00    0.47488   0.44118    0.011
 6156.00    0.46598   0.44114    0.011
 6157.00    0.45542   0.43868    0.011
 6158.00    0.42560   0.43431    0.011
 6159.00    0.40375   0.42929    0.011
 6160.00    0.44563   0.42519    0.012
 6161.00    0.48552   0.42329    0.012
 6162.00    0.51339   0.42350    0.012
 6163.00    0.53120   0.42442    0.012
 6164.00    0.50118   0.42464    0.012
 6165.00    0.47627   0.42331    0.012
 6166.00    0.47114   0.42038    0.012
 6167.00    0.46670   0.41610    0.012
 6168.00    0.46446   0.41037    0.012
 6169.00    0.45917   0.40323    0.011
 6170.00    0.44550   0.39532    0.011
 6171.00    0.43590   0.38787    0.011
 6172.00    0.43585   0.38217    0.011
 6173.00    0.43767   0.37925    0.011
 6174.00    0.44328   0.37943    0.011
 6175.00    0.44771   0.38172    0.011
 6176.00    0.45007   0.38445    0.011
 6177.00    0.45245   0.38629    0.011
 6178.00    0.45487   0.38701    0.011
 6179.00    0.46577   0.38710    0.011
 6180.00    0.48818   0.38724    0.011
 6181.00    0.49778   0.38816    0.011
 6182.00    0.49211   0.38984    0.011
 6183.00    0.49923   0.39137    0.011
 6184.00    0.51982   0.39215    0.011
 6185.00    0.52053   0.39258    0.011
 6186.00    0.50280   0.39330    0.011
 6187.00    0.48209   0.39454    0.012
 6188.00    0.45894   0.39612    0.012
 6189.00    0.46679   0.39780    0.012
 6190.00    0.49695   0.39917    0.012
 6191.00    0.49059   0.39989    0.012
 6192.00    0.46116   0.39992    0.011
 6193.00    0.43014   0.39912    0.011
 6194.00    0.39824   0.39718    0.011
 6195.00    0.31643   0.39421    0.012
 6196.00    0.21065   0.39060   -2.000
 6197.00    0.00440   0.38672   -2.000
 6198.00   -0.24350   0.38301   -2.000
 6199.00   -0.34766   0.37981   -2.000
 6200.00   -0.40086   0.37726   -2.000
 6201.00   -0.19547   0.37564   -2.000
 6202.00    0.08731   0.37535   -2.000
 6203.00    0.34976   0.37674   -2.000
 6204.00    0.60716   0.37948   -2.000
 6205.00    0.67282   0.38253   -2.000
 6206.00    0.69987   0.38500   -2.000
 6207.00    0.62422   0.38637   -2.000
 6208.00    0.53237   0.38660    0.012
 6209.00    0.48714   0.38621    0.011
 6210.00    0.44737   0.38594    0.011
 6211.00    0.47612   0.38646    0.011
 6212.00    0.51030   0.38789    0.011
 6213.00    0.53040   0.38968    0.011
 6214.00    0.54989   0.39125    0.011
 6215.00    0.53881   0.39235    0.011
 6216.00    0.52735   0.39304    0.011
 6217.00    0.51355   0.39341    0.011
 6218.00    0.50031   0.39328    0.011
 6219.00    0.49732   0.39232    0.011
 6220.00    0.49738   0.39040    0.011
 6221.00    0.53107   0.38744    0.011
 6222.00    0.55423   0.38366    0.012
 6223.00    0.49611   0.37948    0.011
 6224.00    0.44943   0.37539    0.011
 6225.00    0.46972   0.37215    0.011
 6226.00    0.49225   0.37041    0.011
 6227.00    0.52518   0.37013    0.011
 6228.00    0.54289   0.37081    0.011
 6229.00    0.50289   0.37166    0.011
 6230.00    0.47105   0.37197    0.011
 6231.00    0.46505   0.37157    0.011
 6232.00    0.46705   0.37063    0.011
 6233.00    0.49050   0.36948    0.011
 6234.00    0.49381   0.36851    0.011
 6235.00    0.45073   0.36802    0.011
 6236.00    0.41840   0.36802    0.011
 6237.00    0.40747   0.36807    0.011
 6238.00    0.42054   0.36751    0.011
 6239.00    0.47528   0.36620    0.011
 6240.00    0.50777   0.36467    0.011
 6241.00    0.50643   0.36371    0.011
 6242.00    0.48842   0.36417    0.011
 6243.00    0.44817   0.36629    0.011
 6244.00    0.43615   0.36930    0.011
 6245.00    0.45733   0.37209    0.011
 6246.00    0.47447   0.37368    0.011
 6247.00    0.48742   0.37346    0.011
 6248.00    0.48391   0.37165    0.011
 6249.00    0.46533   0.36912    0.011
 6250.00    0.45619   0.36670    0.011
 6251.00    0.45465   0.36494    0.011
 6252.00    0.46178   0.36413    0.011
 6253.00    0.47504   0.36420    0.012
 6254.00    0.48143   0.36492    0.012
 6255.00    0.48354   0.36648    0.011
 6256.00    0.49345   0.36890    0.011
 6257.00    0.50759   0.37158    0.011
 6258.00    0.48270   0.37395    0.011
 6259.00    0.43937   0.37554    0.011
 6260.00    0.35810   0.37598    0.012
 6261.00    0.26137   0.37538    0.013
 6262.00    0.26994   0.37424    0.013
 6263.00    0.31516   0.37296    0.014
 6264.00    0.40464   0.37172    0.014
 6265.00    0.50711   0.37035    0.013
 6266.00    0.57856   0.36852    0.013
 6267.00    0.64247   0.36643    0.012
 6268.00    0.62441   0.36495    0.012
 6269.00    0.59027   0.36495    0.011
 6270.00    0.55568   0.36684    0.011
 6271.00    0.52103   0.37035    0.011
 6272.00    0.52682   0.37434    0.011
 6273.00    0.53718   0.37762    0.011
 6274.00    0.55798   0.37969    0.011
 6275.00    0.57955   0.38049    0.011
 6276.00    0.54589   0.38020    0.011
 6277.00    0.51000   0.37942    0.011
 6278.00    0.49287   0.37887    0.011
 6279.00    0.47574   0.37886    0.011
 6280.00    0.45304   0.37938    0.000
 6281.00    0.42986   0.38032    0.000
 6282.00    0.39865   0.38130    0.000
 6283.00    0.37411   0.38185    0.000
 6284.00    0.41969   0.38186    0.000
 6285.00    0.46451   0.38160    0.000
 6286.00    0.50361   0.38143    0.000
 6287.00    0.53624   0.38153    0.000
 6288.00    0.53212   0.38170    0.000
 6289.00    0.52846   0.38167    0.000
 6290.00    0.52684   0.38153    0.000
 6291.00    0.53244   0.38155    0.000
 6292.00    0.56482   0.38210    0.000
 6293.00    0.58903   0.38337    0.000
 6294.00    0.58786   0.38516    0.000
 6295.00    0.58118   0.38721    0.000
 6296.00    0.55992   0.38932    0.000
 6297.00    0.54900   0.39136    0.000
 6298.00    0.56147   0.39317    0.000
 6299.00    0.57497   0.39436    0.000
 6300.00    0.59050   0.39448    0.000
 6301.00    0.59077   0.39352    0.000
 6302.00    0.56493   0.39180    0.000
 6303.00    0.54922   0.38980    0.000
 6304.00    0.54869   0.38770    0.000
 6305.00    0.55384   0.38569    0.000
 6306.00    0.56649   0.38422    0.000
 6307.00    0.58118   0.38360    0.000
 6308.00    0.59825   0.38399    0.000
 6309.00    0.61390   0.38531    0.000
 6310.00    0.62810   0.38694    0.000
 6311.00    0.60692   0.38819    0.000
 6312.00    0.55384   0.38887    0.000
 6313.00    0.52373   0.38916    0.000
 6314.00    0.51186   0.38946    0.000
 6315.00    0.51767   0.39026    0.000
 6316.00    0.53584   0.39185    0.000
 6317.00    0.54790   0.39403    0.000
 6318.00    0.55622   0.39633    0.000
 6319.00    0.54049   0.39815    0.000
 6320.00    0.51188   0.39878    0.000
 6321.00    0.49358   0.39829    0.011
 6322.00    0.48006   0.39742    0.011
 6323.00    0.48855   0.39665    0.011
 6324.00    0.50587   0.39626    0.011
 6325.00    0.51144   0.39625    0.011
 6326.00    0.51300   0.39620    0.011
 6327.00    0.55034   0.39594    0.011
 6328.00    0.59796   0.39588    0.011
 6329.00    0.60791   0.39617    0.011
 6330.00    0.60892   0.39668    0.011
 6331.00    0.58422   0.39755    0.011
 6332.00    0.55461   0.39863    0.011
 6333.00    0.53262   0.39954    0.011
 6334.00    0.51175   0.40023    0.011
 6335.00    0.49185   0.40095    0.011
 6336.00    0.47206   0.40174    0.011
 6337.00    0.44447   0.40256    0.011
 6338.00    0.41632   0.40347    0.010
 6339.00    0.41908   0.40432    0.011
 6340.00    0.42297   0.40519    0.011
 6341.00    0.44417   0.40612    0.011
 6342.00    0.46521   0.40678    0.010
 6343.00    0.47812   0.40676    0.011
 6344.00    0.49283   0.40569    0.011
 6345.00    0.53626   0.40380    0.011
 6346.00    0.57830   0.40212    0.011
 6347.00    0.60633   0.40149    0.011
 6348.00    0.62701   0.40231    0.011
 6349.00    0.59459   0.40430    0.011
 6350.00    0.56740   0.40633    0.011
 6351.00    0.56918   0.40723    0.011
 6352.00    0.57273   0.40650    0.011
 6353.00    0.58413   0.40424    0.011
 6354.00    0.58944   0.40111    0.011
 6355.00    0.57265   0.39820    0.011
 6356.00    0.55613   0.39670    0.011
 6357.00    0.54049   0.39710    0.011
 6358.00    0.52517   0.39923    0.011
 6359.00    0.51073   0.40215    0.011
 6360.00    0.48627   0.40470    0.011
 6361.00    0.43950   0.40608    0.011
 6362.00    0.41622   0.40590    0.011
 6363.00    0.43827   0.40431    0.011
 6364.00    0.47508   0.40192    0.011
 6365.00    0.53677   0.39936    0.011
 6366.00    0.57754   0.39678    0.011
 6367.00    0.58743   0.39405    0.011
 6368.00    0.59702   0.39133    0.011
 6369.00    0.60620   0.38887    0.011
 6370.00    0.62002   0.38685    0.011
 6371.00    0.63913   0.38560    0.011
 6372.00    0.64071   0.38538    0.011
 6373.00    0.62461   0.38621    0.011
 6374.00    0.62099   0.38799    0.011
 6375.00    0.62847   0.39068    0.011
 6376.00    0.63189   0.39414    0.011
 6377.00    0.63213   0.39789    0.011
 6378.00    0.63058   0.40126    0.011
 6379.00    0.62780   0.40366    0.011
 6380.00    0.62517   0.40519    0.011
 6381.00    0.62264   0.40638    0.011
 6382.00    0.60705   0.40769    0.011
 6383.00    0.58459   0.40927    0.011
 6384.00    0.58249   0.41081    0.011
 6385.00    0.58969   0.41184    0.011
 6386.00    0.59547   0.41185    0.011
 6387.00    0.60069   0.41056    0.011
 6388.00    0.59957   0.40839    0.011
 6389.00    0.59632   0.40613    0.011
 6390.00    0.60245   0.40436    0.011
 6391.00    0.61123   0.40346    0.011
 6392.00    0.60602   0.40343    0.011
 6393.00    0.59756   0.40373    0.011
 6394.00    0.59952   0.40390    0.011
 6395.00    0.60342   0.40395    0.011
 6396.00    0.60485   0.40398    0.011
 6397.00    0.60592   0.40405    0.011
 6398.00    0.61144   0.40426    0.011
 6399.00    0.61741   0.40448    0.011
 6400.00    0.58732   0.40438    0.011
 6401.00    0.55481   0.40367    0.011
 6402.00    0.56320   0.40236    0.011
 6403.00    0.57291   0.40114    0.011
 6404.00    0.58810   0.40092    0.011
 6405.00    0.60221   0.40208    0.011
 6406.00    0.58258   0.40429    0.011
 6407.00    0.56237   0.40657    0.011
 6408.00    0.53352   0.40764    0.011
 6409.00    0.50691   0.40709    0.011
 6410.00    0.50192   0.40600    0.011
 6411.00    0.49731   0.40587    0.011
 6412.00    0.49530   0.40729    0.011
 6413.00    0.49934   0.41000    0.011
 6414.00    0.53591   0.41302    0.011
 6415.00    0.56522   0.41515    0.011
 6416.00    0.56309   0.41583    0.011
 6417.00    0.55756   0.41545    0.011
 6418.00    0.53992   0.41473    0.011
 6419.00    0.52474   0.41404    0.011
 6420.00    0.51693   0.41312    0.011
 6421.00    0.51476   0.41178    0.011
 6422.00    0.52694   0.41025    0.011
 6423.00    0.53122   0.40896    0.011
 6424.00    0.51819   0.40843    0.011
 6425.00    0.51047   0.40883    0.011
 6426.00    0.51282   0.40961    0.011
 6427.00    0.51741   0.40985    0.011
 6428.00    0.52569   0.40898    0.011
 6429.00    0.54280   0.40703    0.011
 6430.00    0.57277   0.40472    0.012
 6431.00    0.60104   0.40324    0.012
 6432.00    0.62714   0.40346    0.012
 6433.00    0.64311   0.40518    0.012
 6434.00    0.64765   0.40763    0.011
 6435.00    0.63810   0.41009    0.011
 6436.00    0.61453   0.41195    0.011
 6437.00    0.58762   0.41265    0.011
 6438.00    0.55778   0.41202    0.011
 6439.00    0.53795   0.41011    0.011
 6440.00    0.52584   0.40744    0.011
 6441.00    0.54063   0.40519    0.011
 6442.00    0.57367   0.40445    0.011
 6443.00    0.57275   0.40537    0.011
 6444.00    0.55163   0.40735    0.011
 6445.00    0.52804   0.40961    0.011
 6446.00    0.50318   0.41124    0.011
 6447.00    0.48978   0.41168    0.011
 6448.00    0.48154   0.41121    0.011
 6449.00    0.49487   0.41091    0.011
 6450.00    0.51655   0.41178    0.011
 6451.00    0.52685   0.41395    0.011
 6452.00    0.53342   0.41697    0.011
 6453.00    0.52678   0.42009    0.011
 6454.00    0.51650   0.42231    0.011
 6455.00    0.51177   0.42297    0.011
 6456.00    0.50831   0.42181    0.011
 6457.00    0.49708   0.41865    0.011
 6458.00    0.48445   0.41363    0.011
 6459.00    0.47950   0.40773    0.011
 6460.00    0.47561   0.40280    0.011
 6461.00    0.48735   0.40053    0.011
 6462.00    0.50064   0.40134    0.011
 6463.00    0.50546   0.40444    0.011
 6464.00    0.50974   0.40827    0.011
 6465.00    0.49211   0.41150    0.011
 6466.00    0.47402   0.41396    0.011
 6467.00    0.50622   0.41613    0.011
 6468.00    0.53768   0.41813    0.011
 6469.00    0.54830   0.41958    0.011
 6470.00    0.55662   0.41969    0.010
 6471.00    0.53246   0.41786    0.011
 6472.00    0.51056   0.41461    0.011
 6473.00    0.50959   0.41169    0.011
 6474.00    0.51360   0.41068    0.011
 6475.00    0.55129   0.41182    0.011
 6476.00    0.58124   0.41448    0.011
 6477.00    0.57054   0.41763    0.011
 6478.00    0.56049   0.42008    0.011
 6479.00    0.55317   0.42117    0.011
 6480.00    0.54677   0.42094    0.011
 6481.00    0.54359   0.41969    0.011
 6482.00    0.53550   0.41776    0.011
 6483.00    0.51302   0.41540    0.011
 6484.00    0.49205   0.41289    0.011
 6485.00    0.47486   0.41098    0.011
 6486.00    0.46463   0.41032    0.011
 6487.00    0.46940   0.41067    0.011
 6488.00    0.48165   0.41112    0.011
 6489.00    0.50790   0.41078    0.011
 6490.00    0.52089   0.40897    0.011
 6491.00    0.51220   0.40561    0.011
 6492.00    0.49306   0.40166    0.011
 6493.00    0.45894   0.39858    0.011
 6494.00    0.42926   0.39728    0.011
 6495.00    0.40517   0.39775    0.010
 6496.00    0.40011   0.39944    0.010
 6497.00    0.41620   0.40145    0.011
 6498.00    0.45558   0.40288    0.011
 6499.00    0.51777   0.40315    0.011
 6500.00    0.55400   0.40216    0.011
 6501.00    0.56778   0.40007    0.011
 6502.00    0.56672   0.39684    0.011
 6503.00    0.55437   0.39219    0.011
 6504.00    0.55626   0.38637    0.011
 6505.00    0.56769   0.38056    0.011
 6506.00    0.58098   0.37617    0.011
 6507.00    0.59537   0.37409    0.011
 6508.00    0.60259   0.37465    0.011
 6509.00    0.60613   0.37734    0.011
 6510.00    0.59682   0.38145    0.011
 6511.00    0.58182   0.38620    0.011
 6512.00    0.57210   0.39086    0.011
 6513.00    0.56438   0.39493    0.011
 6514.00    0.54461   0.39813    0.011
 6515.00    0.52095   0.40038    0.011
 6516.00    0.50770   0.40165    0.011
 6517.00    0.49727   0.40190    0.011
 6518.00    0.49398   0.40144    0.011
 6519.00    0.49228   0.40104    0.011
 6520.00    0.51501   0.40131    0.011
 6521.00    0.54206   0.40216    0.011
 6522.00    0.57032   0.40307    0.011
 6523.00    0.59875   0.40362    0.011
 6524.00    0.61102   0.40352    0.011
 6525.00    0.62174   0.40270    0.011
 6526.00    0.60621   0.40148    0.011
 6527.00    0.58913   0.40036    0.011
 6528.00    0.56676   0.39973    0.000
 6529.00    0.54454   0.39994    0.000
 6530.00    0.56516   0.40111    0.000
 6531.00    0.58489   0.40287    0.000
 6532.00    0.58243   0.40468    0.000
 6533.00    0.58008   0.40612    0.000
 6534.00    0.57940   0.40705    0.000
 6535.00    0.58203   0.40747    0.000
 6536.00    0.61416   0.40750    0.000
 6537.00    0.64323   0.40742    0.000
 6538.00    0.65220   0.40760    0.000
 6539.00    0.65868   0.40805    0.000
 6540.00    0.65248   0.40844    0.000
 6541.00    0.65000   0.40847    0.000
 6542.00    0.66283   0.40824    0.000
 6543.00    0.67589   0.40821    0.000
 6544.00    0.68967   0.40879    0.000
 6545.00    0.69892   0.40997    0.000
 6546.00    0.69510   0.41131    0.000
 6547.00    0.70705   0.41236    0.000
 6548.00    0.75777   0.41307    0.000
 6549.00    0.78713   0.41363    0.000
 6550.00    0.77120   0.41387    0.000
 6551.00    0.74905   0.41324    0.000
 6552.00    0.71546   0.41130    0.000
 6553.00    0.67977   0.40803    0.000
 6554.00    0.64070   0.40394    0.000
 6555.00    0.60311   0.39979    0.000
 6556.00    0.56759   0.39625    0.000
 6557.00    0.54569   0.39379    0.000
 6558.00    0.54072   0.39242    0.000
 6559.00    0.59317   0.39147    0.000
 6560.00    0.70850   0.39017    0.000
 6561.00    0.90199   0.38821    0.000
 6562.00    1.17098   0.38574    0.000
 6563.00    1.43507   0.38288    0.000
 6564.00    1.69498   0.37967    0.000
 6565.00    1.79274   0.37622    0.000
 6566.00    1.76887   0.37282    0.000
 6567.00    1.60725   0.36949    0.000
 6568.00    1.35484   0.36561    0.000
 6569.00    1.09940   0.35993    0.000
 6570.00    0.84222   0.35119    0.000
 6571.00    0.67982   0.33888    0.000
 6572.00    0.56507   0.32458    0.000
 6573.00    0.53935   0.31285    0.000
 6574.00    0.55238   0.30912    0.000
 6575.00    0.55576   0.31510    0.000
 6576.00    0.55552   0.32775    0.000
 6577.00    0.55752   0.34254    0.000
 6578.00    0.56022   0.35586    0.000
 6579.00    0.57157   0.36560    0.000
 6580.00    0.58520   0.37157    0.000
 6581.00    0.65266   0.37479    0.000
 6582.00    0.73175   0.37614    0.000
 6583.00    0.85297   0.37633    0.000
 6584.00    0.98142   0.37633    0.000
 6585.00    1.04469   0.37692    0.000
 6586.00    1.09949   0.37827    0.000
 6587.00    1.05999   0.38000    0.000
 6588.00    1.01188   0.38162    0.000
 6589.00    0.91553   0.38283    0.000
 6590.00    0.81652   0.38365    0.000
 6591.00    0.73384   0.38435    0.000
 6592.00    0.65207   0.38532    0.000
 6593.00    0.62217   0.38705    0.000
 6594.00    0.59489   0.38958    0.000
 6595.00    0.62735   0.39247    0.000
 6596.00    0.65823   0.39538    0.000
 6597.00    0.66886   0.39801    0.000
 6598.00    0.67491   0.40020    0.000
 6599.00    0.64162   0.40150    0.000
 6600.00    0.60888   0.40134    0.000
 6601.00    0.57964   0.39949    0.000
 6602.00    0.55795   0.39619    0.000
 6603.00    0.57383   0.39230    0.000
 6604.00    0.58141   0.38927    0.000
 6605.00    0.55554   0.38816    0.000
 6606.00    0.53444   0.38885    0.000
 6607.00    0.52934   0.39032    0.000
 6608.00    0.53429   0.39171    0.000
 6609.00    0.56765   0.39281    0.011
 6610.00    0.59292   0.39404    0.011
 6611.00    0.59868   0.39568    0.011
 6612.00    0.60896   0.39734    0.011
 6613.00    0.62867   0.39831    0.011
 6614.00    0.63574   0.39815    0.011
 6615.00    0.61987   0.39679    0.011
 6616.00    0.59177   0.39456    0.011
 6617.00    0.54430   0.39210    0.011
 6618.00    0.52226   0.39003    0.011
 6619.00    0.53564   0.38873    0.011
 6620.00    0.54855   0.38854    0.011
 6621.00    0.56089   0.38974    0.011
 6622.00    0.56608   0.39186    0.011
 6623.00    0.56352   0.39394    0.012
 6624.00    0.56016   0.39548    0.012
 6625.00    0.55601   0.39662    0.012
 6626.00    0.56365   0.39756    0.012
 6627.00    0.58118   0.39811    0.012
 6628.00    0.59292   0.39816    0.012
 6629.00    0.60038   0.39786    0.012
 6630.00    0.61390   0.39733    0.012
 6631.00    0.63135   0.39651    0.012
 6632.00    0.61759   0.39511    0.011
 6633.00    0.58609   0.39296    0.011
 6634.00    0.56341   0.39026    0.011
 6635.00    0.54510   0.38759    0.011
 6636.00    0.54451   0.38572    0.011
 6637.00    0.55148   0.38513    0.011
 6638.00    0.54308   0.38551    0.011
 6639.00    0.52904   0.38621    0.011
 6640.00    0.56627   0.38676    0.011
 6641.00    0.61941   0.38698    0.011
 6642.00    0.59223   0.38689    0.011
 6643.00    0.54426   0.38651    0.011
 6644.00    0.54281   0.38597    0.011
 6645.00    0.55119   0.38559    0.011
 6646.00    0.59032   0.38563    0.011
 6647.00    0.63458   0.38606    0.012
 6648.00    0.63069   0.38667    0.012
 6649.00    0.62076   0.38722    0.012
 6650.00    0.63530   0.38753    0.012
 6651.00    0.65198   0.38760    0.012
 6652.00    0.65338   0.38753    0.012
 6653.00    0.65400   0.38722    0.012
 6654.00    0.56881   0.38670    0.011
 6655.00    0.48320   0.38636    0.011
 6656.00    0.47512   0.38648    0.011
 6657.00    0.46837   0.38663    0.011
 6658.00    0.48968   0.38624    0.011
 6659.00    0.51015   0.38504    0.011
 6660.00    0.52064   0.38303    0.011
 6661.00    0.52933   0.38031    0.011
 6662.00    0.52317   0.37736    0.011
 6663.00    0.52399   0.37498    0.011
 6664.00    0.56792   0.37371    0.011
 6665.00    0.60073   0.37342    0.011
 6666.00    0.57958   0.37363    0.011
 6667.00    0.55990   0.37395    0.012
 6668.00    0.54597   0.37417    0.012
 6669.00    0.53755   0.37427    0.012
 6670.00    0.54717   0.37415    0.012
 6671.00    0.56819   0.37378    0.012
 6672.00    0.62085   0.37318    0.012
 6673.00    0.65508   0.37245    0.012
 6674.00    0.64550   0.37179    0.012
 6675.00    0.62406   0.37157    0.012
 6676.00    0.57824   0.37194    0.012
 6677.00    0.54427   0.37275    0.012
 6678.00    0.53145   0.37397    0.012
 6679.00    0.53352   0.37573    0.012
 6680.00    0.55887   0.37791    0.012
 6681.00    0.57232   0.38005    0.012
 6682.00    0.56943   0.38164    0.011
 6683.00    0.56766   0.38225    0.011
 6684.00    0.56723   0.38150    0.011
 6685.00    0.58970   0.37914    0.011
 6686.00    0.63655   0.37515    0.011
 6687.00    0.63560   0.36984    0.011
 6688.00    0.58976   0.36403    0.011
 6689.00    0.58025   0.35929    0.011
 6690.00    0.60080   0.35698    0.011
 6691.00    0.61651   0.35710    0.012
 6692.00    0.62870   0.35846    0.012
 6693.00    0.61357   0.36005    0.012
 6694.00    0.58097   0.36166    0.012
 6695.00    0.55818   0.36314    0.012
 6696.00    0.54088   0.36423    0.000
 6697.00    0.51258   0.36488    0.000
 6698.00    0.47893   0.36526    0.000
 6699.00    0.47832   0.36561    0.000
 6700.00    0.49163   0.36608    0.000
 6701.00    0.54163   0.36663    0.000
 6702.00    0.60485   0.36707    0.000
 6703.00    0.58996   0.36721    0.000
 6704.00    0.55130   0.36700    0.000
 6705.00    0.50859   0.36654    0.000
 6706.00    0.46485   0.36600    0.000
 6707.00    0.48117   0.36565    0.000
 6708.00    0.50985   0.36586    0.000
 6709.00    0.51728   0.36678    0.000
 6710.00    0.52128   0.36819    0.000
 6711.00    0.52822   0.36968    0.000
 6712.00    0.53551   0.37081    0.000
 6713.00    0.57642   0.37135    0.000
 6714.00    0.62012   0.37134    0.000
 6715.00    0.66771   0.37105    0.000
 6716.00    0.71549   0.37080    0.000
 6717.00    0.75313   0.37076    0.000
 6718.00    0.79062   0.37083    0.000
 6719.00    0.82787   0.37083    0.000
 6720.00    0.85888   0.37059    0.000
 6721.00    0.76831   0.36996    0.000
 6722.00    0.67848   0.36874    0.000
 6723.00    0.59730   0.36680    0.000
 6724.00    0.51784   0.36398    0.000
 6725.00    0.45209   0.36026    0.000
 6726.00    0.40374   0.35612    0.000
 6727.00    0.45974   0.35234    0.000
 6728.00    0.51880   0.34960    0.000
 6729.00    0.59239   0.34820    0.000
 6730.00    0.65903   0.34811    0.000
 6731.00    0.69878   0.34896    0.000
 6732.00    0.74245   0.35015    0.000
 6733.00    0.79875   0.35132    0.000
 6734.00    0.83124   0.35239    0.000
 6735.00    0.79879   0.35339    0.000
 6736.00    0.76627   0.35426    0.000
 6737.00    0.73355   0.35502    0.000
 6738.00    0.68872   0.35582    0.000
 6739.00    0.61942   0.35673    0.000
 6740.00    0.55776   0.35765    0.000
 6741.00    0.50953   0.35842    0.000
 6742.00    0.49623   0.35898    0.000
 6743.00    0.53670   0.35934    0.000
 6744.00    0.56943   0.35955    0.000
 6745.00    0.59169   0.35965    0.000
 6746.00    0.60034   0.35967    0.000
 6747.00    0.59279   0.35959    0.000
 6748.00    0.57064   0.35936    0.000
 6749.00    0.53315   0.35898    0.000
 6750.00    0.51667   0.35851    0.000
 6751.00    0.51965   0.35812    0.000
 6752.00    0.54280   0.35796    0.000
 6753.00    0.58244   0.35794    0.013
 6754.00    0.56294   0.35776    0.013
 6755.00    0.50097   0.35737    0.013
 6756.00    0.44785   0.35684    0.013
 6757.00    0.40033   0.35596    0.014
 6758.00    0.40349   0.35462    0.014
 6759.00    0.43460   0.35308    0.014
 6760.00    0.47746   0.35174    0.014
 6761.00    0.52594   0.35083    0.015
 6762.00    0.61598   0.35040    0.015
 6763.00    0.72321   0.35038    0.016
 6764.00    0.70734   0.35077    0.016
 6765.00    0.64794   0.35184    0.015
 6766.00    0.60799   0.35377    0.015
 6767.00    0.57384   0.35619    0.015
 6768.00    0.60900   0.35854    0.015
 6769.00    0.66134   0.36048    0.014
 6770.00    0.70980   0.36182    0.014
 6771.00    0.75749   0.36258    0.014
 6772.00    0.73704   0.36294    0.014
 6773.00    0.70588   0.36302    0.013
 6774.00    0.65641   0.36290    0.013
 6775.00    0.60480   0.36265    0.013
 6776.00    0.62414   0.36230    0.013
 6777.00    0.64907   0.36186    0.013
 6778.00    0.59430   0.36147    0.013
 6779.00    0.53605   0.36143    0.014
 6780.00    0.59305   0.36189    0.014
 6781.00    0.64961   0.36272    0.014
 6782.00    0.62941   0.36377    0.014
 6783.00    0.61157   0.36506    0.014
 6784.00    0.63628   0.36667    0.014
 6785.00    0.65794   0.36839    0.014
 6786.00    0.64606   0.36989    0.014
 6787.00    0.62699   0.37094    0.014
 6788.00    0.55259   0.37135    0.014
 6789.00    0.49617   0.37089    0.014
 6790.00    0.54451   0.36934    0.015
 6791.00    0.58463   0.36662    0.015
 6792.00    0.58669   0.36279    0.014
 6793.00    0.60377   0.35825    0.014
 6794.00    0.67760   0.35377    0.014
 6795.00    0.70490   0.35032    0.014
 6796.00    0.58528   0.34853    0.014
 6797.00    0.50577   0.34843    0.013
 6798.00    0.53367   0.34950    0.013
 6799.00    0.54019   0.35103    0.013
 6800.00    0.49760   0.35238    0.013
 6801.00    0.47596   0.35322    0.014
 6802.00    0.49599   0.35364    0.014
 6803.00    0.51030   0.35391    0.014
 6804.00    0.51470   0.35428    0.014
 6805.00    0.53260   0.35483    0.014
 6806.00    0.57095   0.35563    0.014
 6807.00    0.57702   0.35669    0.014
 6808.00    0.54005   0.35793    0.014
 6809.00    0.55140   0.35918    0.014
 6810.00    0.61949   0.36036    0.014
 6811.00    0.63301   0.36145    0.015
 6812.00    0.59005   0.36242    0.015
 6813.00    0.56709   0.36321    0.015
 6814.00    0.56239   0.36367    0.015
 6815.00    0.52753   0.36382    0.015
 6816.00    0.46842   0.36377    0.015
 6817.00    0.48725   0.36370    0.014
 6818.00    0.56127   0.36373    0.014
 6819.00    0.55699   0.36391    0.014
 6820.00    0.50407   0.36421    0.013
 6821.00    0.47754   0.36449    0.013
 6822.00    0.46532   0.36455    0.014
 6823.00    0.48238   0.36421    0.014
 6824.00    0.51324   0.36351    0.013
 6825.00    0.56922   0.36262    0.014
 6826.00    0.63541   0.36181    0.014
 6827.00    0.63614   0.36137    0.014
 6828.00    0.61415   0.36145    0.014
 6829.00    0.55765   0.36203    0.014
 6830.00    0.49106   0.36282    0.015
 6831.00    0.49234   0.36354    0.015
 6832.00    0.51006   0.36421    0.014
 6833.00    0.54434   0.36500    0.015
 6834.00    0.58185   0.36589    0.015
 6835.00    0.57076   0.36664    0.015
 6836.00    0.55227   0.36700    0.015
 6837.00    0.55775   0.36687    0.015
 6838.00    0.56593   0.36640    0.015
 6839.00    0.56955   0.36577    0.015
 6840.00    0.57283   0.36518    0.015
 6841.00    0.52409   0.36488    0.015
 6842.00    0.47328   0.36505    0.015
 6843.00    0.49087   0.36568    0.014
 6844.00    0.50884   0.36663    0.014
 6845.00    0.52265   0.36781    0.014
 6846.00    0.53686   0.36909    0.014
 6847.00    0.55784   0.37016    0.014
 6848.00    0.57821   0.37053    0.014
 6849.00    0.59222   0.36998    0.014
 6850.00    0.60507   0.36875    0.014
 6851.00    0.60934   0.36735    0.014
 6852.00    0.61590   0.36634    0.014
 6853.00    0.63547   0.36613    0.014
 6854.00    0.65328   0.36682    0.014
 6855.00    0.66315   0.36812    0.015
 6856.00    0.65922   0.36952    0.015
 6857.00    0.60423   0.37041    0.015
 6858.00    0.57246   0.37044    0.016
 6859.00    0.61264   0.36963    0.039
 6860.00    0.64415   0.36829   -1.000
 6861.00    0.65283   0.36671   -1.000
 6862.00    0.66253   0.36509   -1.000
 6863.00    0.67453   0.36362   -1.000
 6864.00    0.66608   0.36245   -1.000
 6865.00    0.61758   0.36161   -1.000
 6866.00    0.56152   0.36104   -1.000
 6867.00    0.49256   0.36077   -1.000
 6868.00    0.44231   0.36073   -1.000
 6869.00    0.42002   0.36079   -1.000
 6870.00    0.44629   0.36075   -1.000
 6871.00    0.53634   0.36063   -1.000
 6872.00    0.60530   0.36071   -1.000
 6873.00    0.64988   0.36133   -1.000
 6874.00    0.62761   0.36255    0.057
 6875.00    0.53715   0.36409    0.019
 6876.00    0.52282   0.36531    0.014
 6877.00    0.57703   0.36565    0.014
 6878.00    0.58948   0.36507    0.014
 6879.00    0.56881   0.36402    0.015
 6880.00    0.61151   0.36306    0.015
 6881.00    0.69842   0.36252    0.014
 6882.00    0.69987   0.36252    0.014
 6883.00    0.64901   0.36298    0.014
 6884.00    0.62985   0.36378    0.014
 6885.00    0.62764   0.36500    0.014
 6886.00    0.60128   0.36669    0.014
 6887.00    0.56373   0.36865    0.014
 6888.00    0.55852   0.37053    0.014
 6889.00    0.56625   0.37199    0.014
 6890.00    0.54731   0.37270    0.014
 6891.00    0.51928   0.37247    0.014
 6892.00    0.48462   0.37137    0.014
 6893.00    0.44805   0.36984    0.014
 6894.00    0.47946   0.36845    0.014
 6895.00    0.52695   0.36772    0.015
 6896.00    0.58056   0.36792    0.015
 6897.00    0.63534   0.36896    0.015
 6898.00    0.59599   0.37053    0.015
 6899.00    0.54273   0.37224    0.015
 6900.00    0.53878   0.37380    0.015
 6901.00    0.54015   0.37508    0.015
 6902.00    0.45939   0.37604    0.015
 6903.00    0.37283   0.37670    0.015
 6904.00    0.47450   0.37714    0.014
 6905.00    0.58293   0.37738    0.014
 6906.00    0.59008   0.37755    0.014
 6907.00    0.59643   0.37771    0.014
 6908.00    0.58660   0.37775    0.014
 6909.00    0.57815   0.37762    0.014
 6910.00    0.59159   0.37743    0.014
 6911.00    0.59949   0.37738    0.014
 6912.00    0.55199   0.37756    0.014
 6913.00    0.51761   0.37803    0.014
 6914.00    0.57759   0.37882    0.014
 6915.00    0.62158   0.37993    0.015
 6916.00    0.57739   0.38118    0.015
 6917.00    0.54856   0.38241    0.015
 6918.00    0.58738   0.38358    0.015
 6919.00    0.61262   0.38460    0.015
 6920.00    0.58860   0.38517    0.015
 6921.00    0.57918   0.38510    0.015
 6922.00    0.61414   0.38443    0.015
 6923.00    0.65342   0.38345    0.015
 6924.00    0.70385   0.38253    0.015
 6925.00    0.69981   0.38194    0.015
 6926.00    0.57468   0.38176    0.015
 6927.00    0.48935   0.38185    0.014
 6928.00    0.48071   0.38193    0.014
 6929.00    0.48545   0.38183    0.014
 6930.00    0.51268   0.38152    0.014
 6931.00    0.54135   0.38110    0.014
 6932.00    0.57215   0.38059    0.014
 6933.00    0.57013   0.37990    0.014
 6934.00    0.52563   0.37899    0.015
 6935.00    0.51723   0.37799    0.015
 6936.00    0.55003   0.37723    0.015
 6937.00    0.57009   0.37712    0.015
 6938.00    0.57734   0.37782    0.015
 6939.00    0.59058   0.37916    0.015
 6940.00    0.60913   0.38063    0.015
 6941.00    0.55048   0.38173    0.015
 6942.00    0.43146   0.38215    0.015
 6943.00    0.45094   0.38210    0.015
 6944.00    0.56567   0.38197    0.015
 6945.00    0.60144   0.38206    0.015
 6946.00    0.58962   0.38246    0.015
 6947.00    0.58342   0.38313    0.015
 6948.00    0.58017   0.38398    0.015
 6949.00    0.59780   0.38493    0.015
 6950.00    0.62497   0.38589    0.015
 6951.00    0.58863   0.38675    0.015
 6952.00    0.52735   0.38736    0.015
 6953.00    0.55768   0.38751    0.015
 6954.00    0.61866   0.38716    0.015
 6955.00    0.59428   0.38661    0.015
 6956.00    0.54592   0.38639    0.014
 6957.00    0.55903   0.38685    0.015
 6958.00    0.58636   0.38797    0.015
 6959.00    0.51483   0.38936    0.015
 6960.00    0.42496   0.39040    0.015
 6961.00    0.48284   0.39059    0.015
 6962.00    0.56187   0.38978    0.015
 6963.00    0.50453   0.38832    0.015
 6964.00    0.43306   0.38691    0.015
 6965.00    0.49548   0.38613    0.015
 6966.00    0.56682   0.38627    0.016
 6967.00    0.50914   0.38725    0.015
 6968.00    0.44734   0.38873    0.015
 6969.00    0.46075   0.39035    0.015
 6970.00    0.47426   0.39187    0.015
 6971.00    0.49067   0.39316    0.015
 6972.00    0.50841   0.39428    0.015
 6973.00    0.54584   0.39530    0.015
 6974.00    0.57499   0.39615    0.015
 6975.00    0.52452   0.39678    0.015
 6976.00    0.48511   0.39729    0.015
 6977.00    0.52261   0.39781    0.015
 6978.00    0.55162   0.39838    0.015
 6979.00    0.53502   0.39886    0.015
 6980.00    0.52424   0.39911    0.015
 6981.00    0.53848   0.39909    0.015
 6982.00    0.54049   0.39883    0.015
 6983.00    0.49906   0.39842    0.015
 6984.00    0.47504   0.39785    0.015
 6985.00    0.50293   0.39699    0.015
 6986.00    0.54028   0.39557    0.015
 6987.00    0.60167   0.39333    0.015
 6988.00    0.62505   0.39049    0.015
 6989.00    0.56536   0.38787    0.015
 6990.00    0.53018   0.38646    0.015
 6991.00    0.54149   0.38685    0.015
 6992.00    0.51963   0.38905    0.015
 6993.00    0.44281   0.39244    0.015
 6994.00    0.44966   0.39613    0.015
 6995.00    0.57793   0.39929    0.015
 6996.00    0.61660   0.40130    0.015
 6997.00    0.54087   0.40192    0.015
 6998.00    0.52533   0.40116    0.015
 6999.00    0.57748   0.39935    0.015
 7000.00    0.60259   0.39711    0.015
 7001.00    0.60089   0.39523    0.015
 7002.00    0.57274   0.39421    0.015
 7003.00    0.52145   0.39414    0.015
 7004.00    0.52662   0.39469    0.015
 7005.00    0.57531   0.39543    0.015
 7006.00    0.57404   0.39600    0.015
 7007.00    0.53890   0.39627    0.015
 7008.00    0.54317   0.39621    0.015
 7009.00    0.57082   0.39588    0.015
 7010.00    0.57906   0.39550    0.015
 7011.00    0.57725   0.39535    0.015
 7012.00    0.57815   0.39552    0.015
 7013.00    0.58027   0.39590    0.015
 7014.00    0.52890   0.39621    0.015
 7015.00    0.45689   0.39633    0.015
 7016.00    0.48776   0.39631    0.015
 7017.00    0.55241   0.39630    0.015
 7018.00    0.50362   0.39653    0.015
 7019.00    0.42362   0.39709    0.015
 7020.00    0.46820   0.39789    0.015
 7021.00    0.54094   0.39871    0.015
 7022.00    0.52694   0.39943    0.015
 7023.00    0.49726   0.39980    0.015
 7024.00    0.45341   0.39949    0.015
 7025.00    0.40759   0.39831    0.015
 7026.00    0.38857   0.39661    0.015
 7027.00    0.37220   0.39532    0.015
 7028.00    0.35750   0.39527    0.015
 7029.00    0.34290   0.39668    0.015
 7030.00    0.45555   0.39912    0.016
 7031.00    0.57138   0.40169    0.016
 7032.00    0.57573   0.40337    0.016
 7033.00    0.58140   0.40359    0.016
 7034.00    0.62338   0.40255    0.016
 7035.00    0.66160   0.40100    0.016
 7036.00    0.64682   0.39964    0.016
 7037.00    0.63641   0.39886    0.016
 7038.00    0.66632   0.39881    0.016
 7039.00    0.68074   0.39950    0.015
 7040.00    0.59069   0.40073    0.015
 7041.00    0.52938   0.40220    0.015
 7042.00    0.61829   0.40355    0.015
 7043.00    0.69242   0.40457    0.015
 7044.00    0.70431   0.40521    0.015
 7045.00    0.68031   0.40548    0.015
 7046.00    0.53146   0.40533    0.016
 7047.00    0.43666   0.40465    0.016
 7048.00    0.50003   0.40355    0.016
 7049.00    0.54684   0.40272    0.016
 7050.00    0.55232   0.40304   -2.000
 7051.00    0.55504   0.40490   -2.000
 7052.00    0.55185   0.40803   -2.000
 7053.00    0.57850   0.41161   -2.000
 7054.00    0.66085   0.41469   -2.000
 7055.00    0.69308   0.41670   -2.000
 7056.00    0.64354   0.41781   -2.000
 7057.00    0.59616   0.41851   -2.000
 7058.00    0.55184   0.41916   -2.000
 7059.00    0.55466   0.41960   -2.000
 7060.00    0.61677   0.41915   -2.000
 7061.00    0.66578   0.41696   -2.000
 7062.00    0.70026   0.41225   -2.000
 7063.00    0.66957   0.40465   -2.000
 7064.00    0.57512   0.39457   -2.000
 7065.00    0.53649   0.38344   -2.000
 7066.00    0.54602   0.37332   -2.000
 7067.00    0.55029   0.36580   -2.000
 7068.00    0.55056   0.36117   -2.000
 7069.00    0.59266   0.35868   -2.000
 7070.00    0.66270   0.35720   -2.000
 7071.00    0.61880   0.35593   -2.000
 7072.00    0.50825   0.35466   -2.000
 7073.00    0.53915   0.35356   -2.000
 7074.00    0.64217   0.35289   -2.000
 7075.00    0.66405   0.35263   -2.000
 7076.00    0.65011   0.35256   -2.000
 7077.00    0.64205   0.35256   -2.000
 7078.00    0.63622   0.35269   -2.000
 7079.00    0.56232   0.35324   -2.000
 7080.00    0.46650   0.35461   -2.000
 7081.00    0.51458   0.35692   -2.000
 7082.00    0.60142   0.35988   -2.000
 7083.00    0.60883   0.36296   -2.000
 7084.00    0.59871   0.36566   -2.000
 7085.00    0.62219   0.36766   -2.000
 7086.00    0.65158   0.36897   -2.000
 7087.00    0.08369   0.36984   -2.000
 7088.00   -0.56422   0.37056   -2.000
 7089.00   -0.01868   0.37136   -2.000
 7090.00    0.64027   0.37224   -2.000
 7091.00    0.59682   0.37296   -2.000
 7092.00    0.51217   0.37300   -2.000
 7093.00    0.55580   0.37187   -2.000
 7094.00    0.60257   0.36928   -2.000
 7095.00    0.64594   0.36538   -2.000
 7096.00    0.69157   0.36048   -2.000
 7097.00    0.79359   0.35469   -2.000
 7098.00    0.87685   0.34817   -2.000
 7099.00    0.71103   0.34168   -2.000
 7100.00    0.56573   0.33625   -2.000
 7101.00    0.60235   0.33264   -2.000
 7102.00    0.63636   0.33098   -2.000
 7103.00    0.65339   0.33070   -2.000
 7104.00    0.65480   0.33101   -2.000
 7105.00    0.57670   0.33129   -2.000
 7106.00    0.52159   0.33139   -2.000
 7107.00    0.56115   0.33149   -2.000
 7108.00    0.57951   0.33188   -2.000
 7109.00    0.52558   0.33268   -2.000
 7110.00    0.50759   0.33373   -2.000
 7111.00    0.59288   0.33467   -2.000
 7112.00    0.63783   0.33522   -2.000
 7113.00    0.58382   0.33543   -2.000
 7114.00    0.55567   0.33568   -2.000
 7115.00    0.58224   0.33644   -2.000
 7116.00    0.57183   0.33784   -2.000
 7117.00    0.49345   0.33967   -2.000
 7118.00    0.42605   0.34153   -2.000
 7119.00    0.37631   0.34300   -2.000
 7120.00    0.48816   0.34373   -2.000
 7121.00    0.82782   0.34370   -2.000
 7122.00    0.94008   0.34327   -2.000
 7123.00    0.77029   0.34305   -2.000
 7124.00    0.57910   0.34343   -2.000
 7125.00    0.36453   0.34446   -2.000
 7126.00    0.30915   0.34600   -2.000
 7127.00    0.40726   0.34781   -2.000
 7128.00    0.52410   0.34964   -2.000
 7129.00    0.65684   0.35123   -2.000
 7130.00    0.72016   0.35248   -2.000
 7131.00    0.73149   0.35329   -2.000
 7132.00    0.65505   0.35343   -2.000
 7133.00    0.52086   0.35255   -2.000
 7134.00    0.59204   0.35020   -2.000
 7135.00    0.78151   0.34588   -2.000
 7136.00    0.78766   0.33959   -2.000
 7137.00    0.70182   0.33228   -2.000
 7138.00    0.70062   0.32551   -2.000
 7139.00    0.73618   0.32036   -2.000
 7140.00    0.65639   0.31704   -2.000
 7141.00    0.53363   0.31520   -2.000
 7142.00    0.59204   0.31438   -2.000
 7143.00    0.70768   0.31431   -2.000
 7144.00    0.66852   0.31484   -2.000
 7145.00    0.58854   0.31584   -2.000
 7146.00    0.57304   0.31707   -2.000
 7147.00    0.57143   0.31827   -2.000
 7148.00    0.59586   0.31927   -2.000
 7149.00    0.62474   0.32000   -2.000
 7150.00    0.64269   0.32067   -2.000
 7151.00    0.65922   0.32161   -2.000
 7152.00    0.58807   0.32291   -2.000
 7153.00    0.50897   0.32444   -2.000
 7154.00    0.57695   0.32599   -2.000
 7155.00    0.65299   0.32730   -2.000
 7156.00    0.63472   0.32822   -2.000
 7157.00    0.61467   0.32866   -2.000
 7158.00    0.61127   0.32868   -2.000
 7159.00    0.59456   0.32845   -2.000
 7160.00    0.27561   0.32838   -2.000
 7161.00   -0.01545   0.32882   -2.000
 7162.00    0.04481   0.32997   -2.000
 7163.00    0.14369   0.33182   -2.000
 7164.00    0.57210   0.33414   -2.000
 7165.00    0.95878   0.33648   -2.000
 7166.00    1.08092   0.33845   -2.000
 7167.00    1.13221   0.33985   -2.000
 7168.00    0.83178   0.34046   -2.000
 7169.00    0.56397   0.34003   -2.000
 7170.00    0.42751   0.33873   -2.000
 7171.00    0.34818   0.33718   -2.000
 7172.00    0.45977   0.33604   -2.000
 7173.00    0.56598   0.33552   -2.000
 7174.00    0.65705   0.33542   -2.000
 7175.00    0.67658   0.33541   -2.000
 7176.00    0.52354   0.33549   -2.000
 7177.00    0.43525   0.33587   -2.000
 7178.00    0.48176   0.33664   -2.000
 7179.00    0.52033   0.33767   -2.000
 7180.00    0.54452   0.33876   -2.000
 7181.00    0.57167   0.33991   -2.000
 7182.00    0.60349   0.34117   -2.000
 7183.00    0.58108   0.34243   -2.000
 7184.00    0.48331   0.34348   -2.000
 7185.00    0.47590   0.34418   -2.000
 7186.00    0.57897   0.34457   -2.000
 7187.00    0.55229   0.34477   -2.000
 7188.00    0.38576   0.34492   -2.000
 7189.00    0.31823   0.34509   -2.000
 7190.00    0.34483   0.34517   -2.000
 7191.00    0.43490   0.34517   -2.000
 7192.00    0.57818   0.34534   -2.000
 7193.00    0.63891   0.34603   -2.000
 7194.00    0.63871   0.34732   -2.000
 7195.00    0.67863   0.34878   -2.000
 7196.00    0.74457   0.34969   -2.000
 7197.00    0.71406   0.34942   -2.000
 7198.00    0.62884   0.34794   -2.000
 7199.00    0.68512   0.34590   -2.000
 7200.00    0.81128   0.34433   -2.000
 7201.00    0.57063   0.34401   -2.000
 7202.00    0.17335   0.34500   -2.000
 7203.00    0.13770   0.34668   -2.000
 7204.00    0.23437   0.34832   -2.000
 7205.00    0.49610   0.34946   -2.000
 7206.00    0.80898   0.34985   -2.000
 7207.00    0.76586   0.34933   -2.000
 7208.00    0.63085   0.34797   -2.000
 7209.00   -0.39728   0.34623   -2.000
 7210.00   -1.61327   0.34480   -2.000
 7211.00   -0.90255   0.34404   -2.000
 7212.00    0.12819   0.34390   -2.000
 7213.00    0.27196   0.34414   -2.000
 7214.00    0.30491   0.34464   -2.000
 7215.00    0.30545   0.34522   -2.000
 7216.00    0.30319   0.34545   -2.000
 7217.00    0.31649   0.34496   -2.000
 7218.00    0.33058   0.34376   -2.000
