###################################################################
## OUTPUT of StarlightChains_v04.for    [Cid@UFSC - 01/Apr/2007] ##
###################################################################

## Some input info
KUG0210-078._39_30.txt                   [arq_obs]
Base.CB07.vall.4m                        [arq_base]
Masks.EmLines.NEW.gm                     [arq_masks]
StCv04.C11.config                        [arq_config]
   66                                    [N_base]
    0                                    [N_YAV_components = # of components with extra extinction!]
    0                                    [i_FitPowerLaw (1/0 = Yes/No)]
-9.99                                    [alpha_PowerLaw]
CCM                                      [red_law_option]
 1.458241                                [q_norm = A(l_norm)/A(V)]

## (Re)Sampling Parameters
 3741.00                                 [l_ini (A)]
 7218.00                                 [l_fin (A)]
    1.00                                 [dl    (A)]     (OBS: dl_cushion =    50.00 A)

## Normalization info
 4020.00                                 [l_norm (A) - for base]
 4010.00                                 [llow_norm (A) - window for f_obs]
 4060.00                                 [lupp_norm (A) - window for f_obs]
1.065846E-17                             [fobs_norm (in input units)]

## S/N
 3691.00                                 [llow_SN (A) - window for S/N]
 7268.00                                 [lupp_SN (A) - window for S/N]
   4.718                                 [S/N in S/N window]
   4.249                                 [S/N in norm. window]
   0.015                                 [S/N_err in S/N window]
   0.014                                 [S/N_err in norm. window]
  1.0000                                 [fscale_chi2]

## etc...
    -2007687                             [idum_orig]
  2422                                   [NOl_eff]
  2160                                   [Nl_eff]
   262    NSIGMA                         [Ntot_cliped & clip_method]
 16395750                                [Nglobal_steps]
   7                                     [N_chains]
  12                                     [NEX0s_base = N_base in EX0s-fits]
 0   1   0      263   2.0   7.669E+03    [Clip-Bug, RC-Crash & Burn-In warning-flags, n_censored_weights, wei_nsig_threshold & wei_limit]
   283    280.933    279.106      1.827  [idt_all, wdt_TotTime, wdt_UsrTime & wdt_SysTime (sec)]

## Synthesis Results - Best model ##

 2.65041E-03                             [chi2/Nl_eff]
    24.87685                             [adev (%)]

   112.07615                             [sum-of-x (%)]
 4.15371E-18                             [Flux_tot (units of input spectrum!)]
 2.83297E-13                             [Mini_tot (???)]
 1.44052E-13                             [Mcor_tot (???)]

-184.34                                  [v0_min  (km/s)]
  37.52                                  [vd_min  (km/s)]
-0.7865                                  [AV_min  (mag)]
 0.0000                                  [YAV_min (mag)]

# j     x_j(%)      Mini_j(%)     Mcor_j(%)     age_j(yr)     Z_j      (L/M)_j    YAV?  Mstars   component_j        a/Fe...       SSP_chi2r SSP_adev(%)   SSP_AV   SSP_x(%)
  1     15.3730     1.8383E-02    3.6153E-02    1.000000E+06  0.00400  1.094E-02    0   1.0000   age020_m42            0.0000     2.1582E-05    16.5656   3.7073    77.4926
  2      0.0000     0.0000E+00    0.0000E+00    3.160000E+06  0.00400  4.007E-02    0   0.9999   age045_m42            0.0000     1.9096E-05    15.8581   2.9001    85.8135
  3      0.0000     0.0000E+00    0.0000E+00    5.010000E+06  0.00400  2.539E-02    0   0.9488   age055_m42            0.0000     2.1341E-05    16.5862   3.3064    80.4092
  4      0.0000     0.0000E+00    0.0000E+00    6.610000E+06  0.00400  2.620E-02    0   0.9220   age061_m42            0.0000     1.9915E-05    16.2255   2.8594    84.6033
  5      0.0000     0.0000E+00    0.0000E+00    1.000000E+07  0.00400  1.322E-02    0   0.8862   age070_m42            0.0000     2.2167E-05    17.9274   2.6305    83.4830
  6      4.7182     7.8300E-03    1.3198E-02    1.445000E+07  0.00400  7.883E-03    0   0.8571   age078_m42            0.0000     2.2731E-05    17.9265   2.9727    80.9277
  7      0.0000     0.0000E+00    0.0000E+00    2.512000E+07  0.00400  5.251E-03    0   0.8174   age090_m42            0.0000     2.2266E-05    18.1549   2.4967    84.0195
  8      0.0000     0.0000E+00    0.0000E+00    4.000000E+07  0.00400  3.649E-03    0   0.7851   age104_m42            0.0000     2.0937E-05    17.6097   2.2240    86.7536
  9      0.0000     0.0000E+00    0.0000E+00    5.500000E+07  0.00400  3.098E-03    0   0.7629   age110_m42            0.0000     1.9461E-05    16.6124   2.3163    89.3957
 10      0.0000     0.0000E+00    0.0000E+00    1.015200E+08  0.00400  2.228E-03    0   0.7207   age116_m42            0.0000     1.8805E-05    16.1083   2.3186    90.5711
 11      0.0000     0.0000E+00    0.0000E+00    2.861200E+08  0.00400  1.093E-03    0   0.6648   age125_m42            0.0000     1.9114E-05    16.7170   1.7644    92.1764
 12      0.0000     0.0000E+00    0.0000E+00    5.088000E+08  0.00400  6.597E-04    0   0.6365   age130_m42            0.0000     1.7330E-05    15.5748   1.6814    96.5267
 13      0.0000     0.0000E+00    0.0000E+00    1.434000E+09  0.00400  2.132E-04    0   0.5798   age139_m42            0.0000     1.3993E-05    14.3034   0.4516   110.6321
 14      0.0000     0.0000E+00    0.0000E+00    4.250000E+09  0.00400  5.895E-05    0   0.5377   age158_m42            0.0000     1.2558E-05    13.5062  -0.0368   108.8694
 15      0.0000     0.0000E+00    0.0000E+00    7.500000E+09  0.00400  3.510E-05    0   0.5212   age171_m42            0.0000     1.2406E-05    13.7349  -0.3310   112.9239
 16      0.0000     0.0000E+00    0.0000E+00    1.300000E+10  0.00400  2.005E-05    0   0.5034   age193_m42            0.0000     1.2762E-05    14.3591  -0.5999   116.9284
 17      0.0000     0.0000E+00    0.0000E+00    1.800000E+10  0.00400  1.525E-05    0   0.4967   age213_m42            0.0000     1.2437E-05    13.9156  -0.5650   113.9097
 18      0.0000     0.0000E+00    0.0000E+00    1.000000E+06  0.00800  1.238E-02    0   1.0000   age020_m52            0.0000     2.1730E-05    16.6010   3.7091    77.3816
 19      0.0000     0.0000E+00    0.0000E+00    3.160000E+06  0.00800  3.074E-02    0   0.9966   age045_m52            0.0000     2.1834E-05    16.6303   3.6423    77.7846
 20      0.0000     0.0000E+00    0.0000E+00    5.010000E+06  0.00800  2.668E-02    0   0.9443   age055_m52            0.0000     2.1558E-05    16.6778   3.3939    79.5759
 21      0.0000     0.0000E+00    0.0000E+00    6.610000E+06  0.00800  2.136E-02    0   0.9177   age061_m52            0.0000     2.0264E-05    17.1540   2.0806    86.7183
 22      0.0000     0.0000E+00    0.0000E+00    1.000000E+07  0.00800  1.215E-02    0   0.8827   age070_m52            0.0000     2.3589E-05    18.6316   2.8485    81.6323
 23      0.0000     0.0000E+00    0.0000E+00    1.445000E+07  0.00800  8.717E-03    0   0.8552   age078_m52            0.0000     2.2675E-05    17.9501   2.9394    82.0019
 24      0.0000     0.0000E+00    0.0000E+00    2.512000E+07  0.00800  5.592E-03    0   0.8162   age090_m52            0.0000     2.2273E-05    18.1866   2.5602    85.0778
 25      0.0000     0.0000E+00    0.0000E+00    4.000000E+07  0.00800  3.896E-03    0   0.7841   age104_m52            0.0000     2.1080E-05    17.5754   2.4273    87.5970
 26      0.0000     0.0000E+00    0.0000E+00    1.015200E+08  0.00800  2.148E-03    0   0.7226   age116_m52            0.0000     1.9657E-05    16.6530   2.3268    89.2953
 27      0.0000     0.0000E+00    0.0000E+00    2.861200E+08  0.00800  9.925E-04    0   0.6683   age125_m52            0.0000     1.6786E-05    15.3238   1.6772   100.3578
 28      0.0000     0.0000E+00    0.0000E+00    9.047900E+08  0.00800  3.141E-04    0   0.6138   age135_m52            0.0000     1.3991E-05    14.4842   0.5530   120.5086
 29      0.0000     0.0000E+00    0.0000E+00    1.434000E+09  0.00800  1.719E-04    0   0.5853   age139_m52            0.0000     1.3315E-05    14.3857  -0.0001   116.5079
 30      0.0000     0.0000E+00    0.0000E+00    2.500000E+09  0.00800  7.872E-05    0   0.5600   age150_m52            0.0000     1.3155E-05    14.6677  -0.4281   121.3428
 31      0.0000     0.0000E+00    0.0000E+00    4.250000E+09  0.00800  4.336E-05    0   0.5426   age158_m52            0.0000     1.2759E-05    14.2326  -0.3959   117.9526
 32      0.0000     0.0000E+00    0.0000E+00    6.250000E+09  0.00800  3.159E-05    0   0.5319   age166_m52            0.0000     1.4220E-05    15.8952  -0.7898   127.0068
 33      0.0000     0.0000E+00    0.0000E+00    1.300000E+10  0.00800  1.361E-05    0   0.5073   age193_m52            0.0000     4.5308E-05    36.8943  -1.0000   152.5307
 34      0.0000     0.0000E+00    0.0000E+00    1.800000E+10  0.00800  9.886E-06    0   0.4990   age213_m52            0.0000     9.5069E-05    58.2988  -1.0000   169.9481
 35      0.0000     0.0000E+00    0.0000E+00    1.000000E+06  0.02000  1.544E-02    0   1.0000   age020_m62            0.0000     2.1965E-05    16.6840   3.7168    77.2179
 36      0.0000     0.0000E+00    0.0000E+00    3.160000E+06  0.02000  3.762E-02    0   0.9858   age045_m62            0.0000     2.2348E-05    16.7684   3.6688    77.4212
 37      0.0000     0.0000E+00    0.0000E+00    5.010000E+06  0.02000  3.296E-02    0   0.9342   age055_m62            0.0000     2.0768E-05    16.2663   3.2431    82.2564
 38      4.3217     4.8992E-03    8.5376E-03    8.710000E+06  0.02000  1.154E-02    0   0.8861   age067_m62            0.0000     2.9815E-05    22.6924   2.4168    78.0580
 39      0.0000     0.0000E+00    0.0000E+00    1.445000E+07  0.02000  7.663E-03    0   0.8472   age078_m62            0.0000     2.4418E-05    19.5675   2.5004    82.8811
 40      4.7450     1.3697E-02    2.1816E-02    2.512000E+07  0.02000  4.532E-03    0   0.8099   age090_m62            0.0000     2.4985E-05    19.9247   2.5063    82.0220
 41      0.0000     0.0000E+00    0.0000E+00    5.500000E+07  0.02000  2.733E-03    0   0.7595   age110_m62            0.0000     2.1633E-05    17.7836   2.4405    85.7964
 42      0.0000     0.0000E+00    0.0000E+00    1.609000E+08  0.02000  1.369E-03    0   0.6985   age120_m62            0.0000     1.9065E-05    16.3347   2.1701    92.9491
 43      0.0000     0.0000E+00    0.0000E+00    2.861200E+08  0.02000  9.013E-04    0   0.6714   age125_m62            0.0000     1.7013E-05    15.3416   1.7827   101.8094
 44      0.0000     0.0000E+00    0.0000E+00    5.088000E+08  0.02000  5.028E-04    0   0.6449   age130_m62            0.0000     1.4747E-05    14.4103   1.1360   117.7745
 45      0.0000     0.0000E+00    0.0000E+00    9.047900E+08  0.02000  2.428E-04    0   0.6179   age135_m62            0.0000     1.3383E-05    14.1416   0.4776   120.6647
 46      0.0000     0.0000E+00    0.0000E+00    1.434000E+09  0.02000  1.263E-04    0   0.5908   age139_m62            0.0000     1.2870E-05    14.1316  -0.0004   119.9510
 47      0.0000     0.0000E+00    0.0000E+00    2.500000E+09  0.02000  5.985E-05    0   0.5673   age150_m62            0.0000     1.3585E-05    15.2002  -0.5243   126.5412
 48      0.0000     0.0000E+00    0.0000E+00    4.250000E+09  0.02000  3.271E-05    0   0.5468   age158_m62            0.0000     2.1413E-05    17.8626  -1.0000   145.5295
 49      9.2272     8.8759E+00    9.0193E+00    1.000000E+10  0.02000  1.360E-05    0   0.5167   age181_m62            0.0000     1.1942E-04    63.6117  -1.0000   187.6082
 50     19.4975     3.5804E+01    3.5298E+01    1.800000E+10  0.02000  7.124E-06    0   0.5013   age213_m62            0.0000     3.3895E-04   113.8922  -1.0000   227.0347
 51      0.0000     0.0000E+00    0.0000E+00    1.000000E+06  0.05000  2.592E-02    0   0.9998   age020_m72            0.0000     2.2416E-05    16.8681   3.7245    76.6318
 52      0.0000     0.0000E+00    0.0000E+00    3.160000E+06  0.05000  4.845E-02    0   0.9577   age045_m72            0.0000     2.1931E-05    16.5740   3.5432    78.7528
 53      2.1266     9.0563E-04    1.6291E-03    5.010000E+06  0.05000  3.072E-02    0   0.9147   age055_m72            0.0000     2.4462E-05    18.6846   3.1042    79.4980
 54      4.7745     4.2929E-03    7.4944E-03    6.610000E+06  0.05000  1.455E-02    0   0.8877   age061_m72            0.0000     3.3824E-05    25.0277   2.4990    76.2859
 55      5.2346     7.5469E-03    1.2651E-02    1.000000E+07  0.05000  9.074E-03    0   0.8524   age070_m72            0.0000     2.4705E-05    18.6422   3.2778    79.5427
 56      2.4610     7.5754E-03    1.1772E-02    2.512000E+07  0.05000  4.250E-03    0   0.7902   age090_m72            0.0000     2.3891E-05    18.6463   2.9512    81.7956
 57      0.0000     0.0000E+00    0.0000E+00    4.000000E+07  0.05000  3.087E-03    0   0.7618   age104_m72            0.0000     2.3684E-05    18.8711   2.7183    83.3929
 58      0.0000     0.0000E+00    0.0000E+00    1.015200E+08  0.05000  1.700E-03    0   0.7096   age116_m72            0.0000     2.0496E-05    17.1762   2.3643    90.0279
 59      0.0000     0.0000E+00    0.0000E+00    2.861200E+08  0.05000  7.384E-04    0   0.6633   age125_m72            0.0000     1.5787E-05    14.6537   1.5476   108.1930
 60      0.0000     0.0000E+00    0.0000E+00    5.088000E+08  0.05000  3.819E-04    0   0.6372   age130_m72            0.0000     1.3889E-05    13.9226   0.9149   117.0835
 61      0.0000     0.0000E+00    0.0000E+00    9.047900E+08  0.05000  1.676E-04    0   0.6110   age135_m72            0.0000     1.3143E-05    15.5178  -0.0000   120.8077
 62      0.0000     0.0000E+00    0.0000E+00    1.434000E+09  0.05000  8.837E-05    0   0.5874   age139_m72            0.0000     1.3624E-05    15.1514  -0.5175   127.9151
 63      0.0000     0.0000E+00    0.0000E+00    2.500000E+09  0.05000  4.233E-05    0   0.5598   age150_m72            0.0000     2.5813E-05    19.8089  -1.0000   152.4294
 64     22.1345     2.0179E+01    2.0830E+01    6.250000E+09  0.05000  1.435E-05    0   0.5249   age166_m72            0.0000     1.5704E-04    75.3706  -1.0000   193.8808
 65     17.4624     3.5076E+01    3.4739E+01    1.300000E+10  0.05000  6.513E-06    0   0.5036   age193_m72            0.0000     5.0513E-04   142.2051  -1.0000   245.6822
 66      0.0000     0.0000E+00    0.0000E+00    1.800000E+10  0.05000  4.527E-06    0   0.4945   age213_m72            0.0000     8.3864E-04   185.6554  -1.0000   273.3053


## Synthesis Results - Average & Chains ##

# j      x_j: min, <> & last-chain-values for 1 ...  7 chains
  1     15.3730     14.7947     15.0848     15.3404     15.3934     15.7887     13.8517     15.0634     13.0406
  2      0.0000      0.0000      0.0000      0.0001      0.0000      0.0000      0.0000      0.0000      0.0000
  3      0.0000      0.0001      0.0001      0.0001      0.0000      0.0001      0.0001      0.0002      0.0001
  4      0.0000      0.0000      0.0000      0.0000      0.0000      0.0000      0.0000      0.0000      0.0000
  5      0.0000      0.0000      0.0000      0.0000      0.0001      0.0000      0.0000      0.0000      0.0000
  6      4.7182      4.9302      5.1028      4.7082      4.9241      4.7636      5.1586      4.1995      5.6543
  7      0.0000      0.0001      0.0000      0.0000      0.0000      0.0001      0.0001      0.0002      0.0001
  8      0.0000      0.0000      0.0000      0.0000      0.0000      0.0000      0.0000      0.0000      0.0000
  9      0.0000      0.0000      0.0000      0.0000      0.0000      0.0000      0.0000      0.0001      0.0000
 10      0.0000      0.0000      0.0000      0.0000      0.0000      0.0000      0.0000      0.0001      0.0000
 11      0.0000      0.0000      0.0000      0.0000      0.0000      0.0000      0.0000      0.0000      0.0000
 12      0.0000      0.0000      0.0000      0.0000      0.0000      0.0000      0.0000      0.0000      0.0000
 13      0.0000      0.0000      0.0000      0.0000      0.0000      0.0000      0.0000      0.0000      0.0000
 14      0.0000      0.0000      0.0000      0.0000      0.0000      0.0000      0.0000      0.0000      0.0000
 15      0.0000      0.0000      0.0000      0.0000      0.0000      0.0000      0.0000      0.0000      0.0000
 16      0.0000      0.0020      0.0006      0.0024      0.0034      0.0033      0.0002      0.0016      0.0025
 17      0.0000      0.0001      0.0000      0.0001      0.0000      0.0000      0.0000      0.0001      0.0001
 18      0.0000      0.0000      0.0000      0.0000      0.0000      0.0000      0.0000      0.0002      0.0001
 19      0.0000      0.0000      0.0000      0.0000      0.0000      0.0000      0.0000      0.0000      0.0000
 20      0.0000      0.0016      0.0006      0.0011      0.0016      0.0016      0.0015      0.0032      0.0015
 21      0.0000      0.0000      0.0000      0.0000      0.0001      0.0000      0.0000      0.0000      0.0000
 22      0.0000      0.0001      0.0001      0.0000      0.0000      0.0000      0.0000      0.0001      0.0001
 23      0.0000      0.2662      0.4077      0.1474      0.0042      0.2936      0.0005      1.0069      0.0031
 24      0.0000      0.0000      0.0001      0.0000      0.0000      0.0000      0.0000      0.0001      0.0000
 25      0.0000      0.0000      0.0000      0.0000      0.0000      0.0000      0.0000      0.0000      0.0000
 26      0.0000      0.0000      0.0000      0.0000      0.0000      0.0000      0.0000      0.0000      0.0000
 27      0.0000      0.0000      0.0000      0.0000      0.0000      0.0000      0.0000      0.0000      0.0000
 28      0.0000      0.0000      0.0000      0.0000      0.0000      0.0000      0.0000      0.0000      0.0000
 29      0.0000      0.0000      0.0000      0.0000      0.0000      0.0000      0.0000      0.0000      0.0000
 30      0.0000      0.0000      0.0000      0.0000      0.0000      0.0000      0.0000      0.0000      0.0000
 31      0.0000      0.0000      0.0000      0.0000      0.0000      0.0000      0.0000      0.0000      0.0000
 32      0.0000      0.0000      0.0000      0.0000      0.0000      0.0000      0.0000      0.0000      0.0001
 33      0.0000      0.0001      0.0000      0.0001      0.0001      0.0001      0.0000      0.0000      0.0001
 34      0.0000      0.0001      0.0002      0.0001      0.0001      0.0001      0.0002      0.0001      0.0001
 35      0.0000      0.0000      0.0000      0.0000      0.0000      0.0000      0.0000      0.0000      0.0001
 36      0.0000      0.1255      0.0000      0.0002      0.0014      0.0011      0.0002      0.8261      0.0491
 37      0.0000      0.0000      0.0000      0.0000      0.0000      0.0000      0.0000      0.0000      0.0000
 38      4.3217      4.2052      3.8186      4.3125      4.2024      3.9348      4.3217      3.8786      4.9676
 39      0.0000      0.0891      0.0001      0.0009      0.0041      0.0011      0.0020      0.6121      0.0034
 40      4.7450      4.6459      4.7553      4.7350      4.7307      4.5539      4.8552      4.0987      4.7924
 41      0.0000      0.0000      0.0000      0.0000      0.0000      0.0000      0.0000      0.0000      0.0000
 42      0.0000      0.0000      0.0000      0.0000      0.0000      0.0000      0.0000      0.0000      0.0000
 43      0.0000      0.0000      0.0000      0.0000      0.0000      0.0000      0.0000      0.0000      0.0000
 44      0.0000      0.0000      0.0000      0.0000      0.0000      0.0000      0.0000      0.0000      0.0000
 45      0.0000      0.0000      0.0000      0.0000      0.0000      0.0000      0.0000      0.0000      0.0000
 46      0.0000      0.0000      0.0000      0.0000      0.0000      0.0000      0.0000      0.0000      0.0000
 47      0.0000      0.0000      0.0000      0.0000      0.0000      0.0000      0.0000      0.0001      0.0000
 48      0.0000      0.0000      0.0000      0.0000      0.0000      0.0000      0.0000      0.0000      0.0000
 49      9.2272      9.0336      9.2495      9.2076      8.9328      9.3078      9.0328      8.9019      8.6025
 50     19.4975     19.1601     20.1949     19.4562     18.4251     19.1172     19.9503     17.9216     19.0553
 51      0.0000      0.0000      0.0000      0.0000      0.0000      0.0000      0.0000      0.0000      0.0000
 52      0.0000      0.0618      0.0003      0.0010      0.0907      0.0009      0.0006      0.3356      0.0036
 53      2.1266      2.2032      1.7545      2.1221      2.5167      2.2293      1.7498      2.7379      2.3124
 54      4.7745      4.7888      4.3646      4.7644      4.4201      4.6866      5.0863      4.0580      6.1416
 55      5.2346      4.9759      5.0292      5.2235      4.8877      4.8610      5.2349      4.1681      5.4270
 56      2.4610      2.4659      2.6743      2.4558      2.5788      2.6267      2.6751      2.7489      1.5017
 57      0.0000      0.0001      0.0000      0.0001      0.0005      0.0001      0.0001      0.0001      0.0001
 58      0.0000      0.0000      0.0000      0.0000      0.0000      0.0000      0.0000      0.0000      0.0000
 59      0.0000      0.0000      0.0000      0.0000      0.0000      0.0000      0.0000      0.0000      0.0000
 60      0.0000      0.0000      0.0000      0.0000      0.0000      0.0000      0.0000      0.0000      0.0000
 61      0.0000      0.0000      0.0000      0.0000      0.0000      0.0000      0.0000      0.0000      0.0000
 62      0.0000      0.0000      0.0000      0.0000      0.0000      0.0000      0.0000      0.0000      0.0001
 63      0.0000      0.9315      0.1360      0.0833      1.6907      0.0005      1.1824      1.9770      1.4504
 64     22.1345     21.7357     22.6810     22.0875     22.1271     22.1533     22.3150     19.3471     21.4387
 65     17.4624     17.9587     17.9916     17.4254     16.8896     17.7269     17.8936     20.1510     17.6331
 66      0.0000      0.0001      0.0000      0.0001      0.0001      0.0002      0.0002      0.0001      0.0002

# j      m_j: min, <> & last-chain-values for 1 ...  7 chains
  1  3.6153E-02  3.4748E-02  3.4476E-02  3.6142E-02  3.7243E-02  3.7154E-02  3.1918E-02  3.5345E-02  3.1051E-02
  2  0.0000E+00  1.1086E-08  2.6370E-09  7.3885E-08  0.0000E+00  1.5494E-10  0.0000E+00  0.0000E+00  1.0986E-09
  3  0.0000E+00  7.1122E-08  7.9526E-08  5.4377E-08  1.7850E-08  5.8277E-08  5.1531E-08  1.8484E-07  4.9558E-08
  4  0.0000E+00  9.1941E-09  1.3069E-08  4.4841E-09  2.0311E-08  1.4433E-08  9.4526E-09  0.0000E+00  2.7381E-09
  5  0.0000E+00  5.4748E-08  1.9943E-08  3.4437E-08  1.5860E-07  5.7626E-08  4.3909E-08  0.0000E+00  7.3176E-08
  6  1.3198E-02  1.3773E-02  1.3872E-02  1.3194E-02  1.4171E-02  1.3334E-02  1.4139E-02  1.1721E-02  1.6014E-02
  7  0.0000E+00  3.0486E-07  1.7210E-07  1.6871E-07  2.0436E-07  2.2037E-07  2.3843E-07  7.3025E-07  4.0214E-07
  8  0.0000E+00  1.0051E-07  1.5977E-07  2.2241E-07  8.6902E-08  6.0311E-09  5.0941E-08  0.0000E+00  1.7781E-07
  9  0.0000E+00  1.2765E-07  0.0000E+00  1.8378E-07  2.1091E-07  1.7206E-08  7.0899E-08  4.1405E-07  1.7117E-09
 10  0.0000E+00  1.4896E-07  0.0000E+00  9.2718E-08  0.0000E+00  1.1479E-07  2.6815E-07  5.3201E-07  3.0305E-08
 11  0.0000E+00  9.0116E-08  0.0000E+00  1.5743E-07  1.2196E-07  0.0000E+00  2.5892E-07  0.0000E+00  9.2829E-08
 12  0.0000E+00  1.2337E-07  2.5419E-07  4.4609E-07  0.0000E+00  1.5798E-07  0.0000E+00  0.0000E+00  0.0000E+00
 13  0.0000E+00  3.3915E-07  2.7217E-07  0.0000E+00  0.0000E+00  0.0000E+00  0.0000E+00  0.0000E+00  2.1232E-06
 14  0.0000E+00  2.1532E-06  0.0000E+00  2.6538E-06  0.0000E+00  4.1787E-07  3.4849E-06  6.9399E-06  1.5324E-06
 15  0.0000E+00  1.5337E-06  0.0000E+00  0.0000E+00  5.9713E-06  2.3855E-06  0.0000E+00  0.0000E+00  2.5935E-06
 16  0.0000E+00  1.2944E-03  3.6252E-04  1.5457E-03  2.2770E-03  2.1336E-03  1.5541E-04  1.0618E-03  1.6082E-03
 17  0.0000E+00  5.4861E-05  8.4035E-06  9.3906E-05  4.2743E-05  4.0068E-05  1.8918E-05  8.7071E-05  9.5155E-05
 18  0.0000E+00  9.9859E-08  1.9060E-08  4.4769E-08  9.0109E-08  3.7693E-08  0.0000E+00  3.9480E-07  1.1611E-07
 19  0.0000E+00  1.2225E-08  2.4198E-08  1.2627E-08  0.0000E+00  2.1027E-08  0.0000E+00  0.0000E+00  2.7506E-08
 20  0.0000E+00  1.4605E-06  5.3226E-07  1.0401E-06  1.5433E-06  1.4342E-06  1.3516E-06  2.9351E-06  1.4139E-06
 21  0.0000E+00  3.6935E-08  1.4554E-08  2.1209E-08  1.6347E-07  1.0431E-08  2.0891E-08  0.0000E+00  3.2490E-08
 22  0.0000E+00  9.7912E-08  1.9794E-07  4.5983E-08  0.0000E+00  7.5147E-08  3.6540E-09  2.5993E-07  9.8568E-08
 23  0.0000E+00  6.7109E-04  1.0001E-03  3.7281E-04  1.0940E-05  7.4149E-04  1.2891E-06  2.5359E-03  8.0294E-06
 24  0.0000E+00  1.5277E-07  3.7544E-07  7.6193E-08  0.0000E+00  1.3658E-07  8.7857E-08  3.3181E-07  5.0302E-08
 25  0.0000E+00  1.6918E-07  1.7718E-07  9.4728E-08  1.9412E-07  2.2632E-07  1.8123E-07  1.1340E-07  1.9790E-07
 26  0.0000E+00  8.1828E-08  9.1667E-08  5.2483E-08  8.3566E-08  2.5583E-07  0.0000E+00  0.0000E+00  9.1052E-08
 27  0.0000E+00  7.1792E-08  3.2923E-07  0.0000E+00  0.0000E+00  8.0253E-08  5.5514E-08  0.0000E+00  2.7911E-08
 28  0.0000E+00  4.3413E-08  0.0000E+00  0.0000E+00  0.0000E+00  3.0448E-07  0.0000E+00  0.0000E+00  0.0000E+00
 29  0.0000E+00  5.4111E-07  1.0266E-06  5.6466E-07  2.0901E-06  0.0000E+00  0.0000E+00  0.0000E+00  1.4287E-07
 30  0.0000E+00  1.6933E-06  1.9538E-06  3.0436E-06  0.0000E+00  5.2037E-07  4.5934E-06  0.0000E+00  1.6323E-06
 31  0.0000E+00  2.9352E-06  4.7378E-06  1.8543E-06  1.1511E-05  2.6193E-06  0.0000E+00  0.0000E+00  4.1126E-08
 32  0.0000E+00  8.6316E-06  3.8544E-06  6.5906E-06  7.1535E-06  1.7078E-05  1.8428E-06  1.4533E-06  2.2880E-05
 33  0.0000E+00  5.2218E-05  1.7972E-05  8.1088E-05  8.4494E-05  5.2792E-05  2.8069E-05  0.0000E+00  1.0432E-04
 34  0.0000E+00  1.6245E-04  2.8191E-04  1.8603E-04  1.1545E-04  1.3146E-04  2.6658E-04  7.9302E-05  6.8564E-05
 35  0.0000E+00  2.5989E-08  2.8604E-08  6.5242E-09  0.0000E+00  0.0000E+00  4.4755E-08  0.0000E+00  1.0179E-07
 36  0.0000E+00  8.4469E-05  2.2747E-08  1.3870E-07  1.0039E-06  7.2429E-07  1.5022E-07  5.5571E-04  3.3486E-05
 37  0.0000E+00  1.3299E-08  1.3644E-08  1.4683E-08  0.0000E+00  3.8172E-09  2.3854E-08  0.0000E+00  3.6813E-08
 38  8.5376E-03  8.2966E-03  7.3311E-03  8.5349E-03  8.5408E-03  7.7781E-03  8.3652E-03  7.6450E-03  9.9362E-03
 39  0.0000E+00  2.5312E-04  3.3885E-07  2.6933E-06  1.1883E-05  3.0695E-06  5.6837E-06  1.7371E-03  9.7899E-06
 40  2.1816E-02  2.1333E-02  2.1248E-02  2.1810E-02  2.2377E-02  2.0951E-02  2.1872E-02  1.8802E-02  2.2309E-02
 41  0.0000E+00  1.5301E-07  2.0544E-07  2.6892E-07  1.1486E-07  2.3053E-07  1.5566E-07  0.0000E+00  9.2894E-08
 42  0.0000E+00  3.2076E-08  1.3424E-08  1.1533E-08  0.0000E+00  1.7645E-07  0.0000E+00  0.0000E+00  2.3446E-08
 43  0.0000E+00  1.5803E-08  0.0000E+00  0.0000E+00  0.0000E+00  3.0553E-08  0.0000E+00  0.0000E+00  8.1231E-08
 44  0.0000E+00  6.0327E-08  0.0000E+00  2.5669E-07  5.1611E-08  0.0000E+00  1.1409E-07  0.0000E+00  0.0000E+00
 45  0.0000E+00  2.9043E-07  0.0000E+00  0.0000E+00  2.4676E-07  8.8657E-07  0.0000E+00  0.0000E+00  9.2112E-07
 46  0.0000E+00  5.9954E-07  0.0000E+00  0.0000E+00  3.9091E-07  1.4175E-06  8.7016E-07  9.5109E-08  1.4399E-06
 47  0.0000E+00  5.3810E-06  1.0455E-05  2.8202E-06  0.0000E+00  0.0000E+00  4.2223E-06  1.9789E-05  0.0000E+00
 48  0.0000E+00  2.1613E-06  0.0000E+00  4.7341E-06  0.0000E+00  1.0209E-05  2.1581E-07  0.0000E+00  0.0000E+00
 49  9.0193E+00  8.8186E+00  8.7864E+00  9.0165E+00  8.9828E+00  9.1038E+00  8.6511E+00  8.6818E+00  8.5137E+00
 50  3.5298E+01  3.4643E+01  3.5531E+01  3.5288E+01  3.4317E+01  3.4632E+01  3.5389E+01  3.2372E+01  3.4929E+01
 51  0.0000E+00  7.2059E-09  0.0000E+00  0.0000E+00  0.0000E+00  1.2187E-08  3.0306E-08  0.0000E+00  7.4890E-09
 52  0.0000E+00  3.1393E-05  1.5393E-07  5.2869E-07  4.7430E-05  4.4041E-07  3.1765E-07  1.7027E-04  1.8544E-06
 53  1.6291E-03  1.6856E-03  1.3062E-03  1.6286E-03  1.9835E-03  1.7088E-03  1.3134E-03  2.0926E-03  1.7935E-03
 54  7.4944E-03  7.5071E-03  6.6580E-03  7.4920E-03  7.1378E-03  7.3609E-03  7.8226E-03  6.3554E-03  9.7607E-03
 55  1.2651E-02  1.2010E-02  1.1812E-02  1.2647E-02  1.2153E-02  1.1756E-02  1.2397E-02  1.0051E-02  1.3280E-02
 56  1.1772E-02  1.1781E-02  1.2432E-02  1.1769E-02  1.2691E-02  1.2573E-02  1.2538E-02  1.3120E-02  7.2734E-03
 57  0.0000E+00  7.6078E-07  1.1293E-08  4.1990E-07  3.4171E-06  3.9447E-07  3.4518E-07  4.9677E-07  3.3994E-07
 58  0.0000E+00  5.7306E-08  0.0000E+00  1.0617E-08  9.1217E-08  1.3056E-07  3.8217E-08  0.0000E+00  1.3458E-07
 59  0.0000E+00  6.9520E-08  8.2963E-09  0.0000E+00  0.0000E+00  0.0000E+00  1.9750E-10  0.0000E+00  4.8451E-07
 60  0.0000E+00  7.7371E-08  0.0000E+00  1.1282E-07  0.0000E+00  2.7375E-07  8.9637E-08  0.0000E+00  6.5431E-08
 61  0.0000E+00  7.6901E-07  1.5428E-07  3.3328E-07  4.0187E-06  7.1912E-07  0.0000E+00  0.0000E+00  2.7718E-07
 62  0.0000E+00  2.3489E-06  1.6648E-06  2.4372E-06  8.4657E-07  0.0000E+00  1.2312E-06  0.0000E+00  1.0366E-05
 63  0.0000E+00  3.1652E-01  4.4982E-02  2.8407E-02  5.9179E-01  1.5522E-04  3.9420E-01  6.7114E-01  4.9965E-01
 64  2.0830E+01  2.0429E+01  2.0743E+01  2.0824E+01  2.1423E+01  2.0861E+01  2.0576E+01  1.8166E+01  2.0428E+01
 65  3.4739E+01  3.5680E+01  3.4783E+01  3.4728E+01  3.4566E+01  3.5287E+01  3.4878E+01  3.9997E+01  3.5516E+01
 66  0.0000E+00  3.9907E-04  1.1257E-04  1.8029E-04  3.5567E-04  6.8140E-04  4.3082E-04  3.4766E-04  6.9507E-04

# AV, chi2 & Mass for <> & i_chain = 1 ...  7 solutions
AV      -0.7865     -0.8071     -0.8620     -0.7815     -0.7514     -0.7919     -0.8534     -0.7854     -0.7642
chi2 2.6504E-03  3.3462E-03  1.9644E-05  1.8780E-05  7.0649E-05  4.2966E-05  1.9112E-05  1.9750E-05  6.3720E-05
Mass 1.4405E-13  1.4031E-13  1.3393E-13  1.4477E-13  1.4678E-13  1.4293E-13  1.3439E-13  1.4459E-13  1.4661E-13
-184.34                                  [v0_min (km/s) before EX0s...]
  37.52                                  [vd_min (km/s) before EX0s...]


## Synthetic spectrum (Best Model) ##l_obs f_obs f_syn wei
 3478    [Nl_obs]
 3741.00    0.33352   0.76541    0.000
 3742.00    0.38236   0.72194    0.000
 3743.00    0.40505   0.68781    0.000
 3744.00    0.38208   0.66137    0.000
 3745.00    0.33251   0.62958   -1.000
 3746.00    0.29825   0.58290   -1.000
 3747.00    0.27177   0.56137   -1.000
 3748.00    0.28874   0.60484   -1.000
 3749.00    0.32483   0.68860   -1.000
 3750.00    0.45845   0.76530   -1.000
 3751.00    0.62888   0.83017   -1.000
 3752.00    0.79559   0.88956   -1.000
 3753.00    0.96109   0.91319   -1.000
 3754.00    1.08845   0.87145   -1.000
 3755.00    1.20559   0.79120   -1.000
 3756.00    1.40375   0.74311   -1.000
 3757.00    1.61969   0.75964   -1.000
 3758.00    1.69146   0.80335   -1.000
 3759.00    1.73805   0.82609   -1.000
 3760.00    1.49253   0.81502   -1.000
 3761.00    1.20821   0.79294   -1.000
 3762.00    0.98273   0.78848   -1.000
 3763.00    0.76278   0.78488   -1.000
 3764.00    0.56421   0.75476   -1.000
 3765.00    0.36688   0.73132   -1.000
 3766.00    0.59435   0.74178   -1.000
 3767.00    0.83095   0.75164   -1.000
 3768.00    0.95112   0.74902   -1.000
 3769.00    1.06126   0.77238   -1.000
 3770.00    0.92783   0.82211   -1.000
 3771.00    0.82734   0.85806   -1.000
 3772.00    1.15851   0.86889   -1.000
 3773.00    1.44234   0.87677   -1.000
 3774.00    1.31060   0.89257   -1.000
 3775.00    1.17482   0.90623   -1.000
 3776.00    1.01278   0.92085   -1.000
 3777.00    0.92379   0.94918   -1.000
 3778.00    1.20447   0.97492   -1.000
 3779.00    1.38063   0.98072   -1.000
 3780.00    1.12898   0.98140   -1.000
 3781.00    0.92687   0.98798   -1.000
 3782.00    0.89282   0.97683   -1.000
 3783.00    0.75079   0.92442   -1.000
 3784.00    0.29991   0.85773   -1.000
 3785.00   -0.00458   0.81650    0.000
 3786.00    0.04860   0.79725   -1.000
 3787.00    0.06915   0.79047   -1.000
 3788.00    0.02094   0.80332   -1.000
 3789.00    0.15584   0.82101   -1.000
 3790.00    0.62616   0.80840   -1.000
 3791.00    0.94642   0.76342   -1.000
 3792.00    1.02647   0.71494   -1.000
 3793.00    0.98919   0.68138   -1.000
 3794.00    0.78710   0.65116   -1.000
 3795.00    0.64933   0.61027   -1.000
 3796.00    0.59107   0.59046   -1.000
 3797.00    0.52469   0.62930   -1.000
 3798.00    0.44947   0.70678   -1.000
 3799.00    0.47275   0.77859   -1.000
 3800.00    0.59068   0.83277   -1.000
 3801.00    0.64439   0.87293   -1.000
 3802.00    0.64371   0.88788   -1.000
 3803.00    0.73115   0.86895   -1.000
 3804.00    0.88436   0.83543   -1.000
 3805.00    0.93743   0.82943   -1.000
 3806.00    0.92485   0.86238   -1.000
 3807.00    0.88525   0.90147   -1.000
 3808.00    0.83015   0.92009   -1.000
 3809.00    0.69201   0.90983   -1.000
 3810.00    0.51236   0.87141   -1.000
 3811.00    0.40259   0.82190   -1.000
 3812.00    0.32305   0.78047   -1.000
 3813.00    0.59078   0.75530   -1.000
 3814.00    0.98731   0.75544   -1.000
 3815.00    0.98016   0.76255   -1.000
 3816.00    0.84611   0.73093   -1.000
 3817.00    0.70232   0.66956   -1.000
 3818.00    0.55598   0.64751   -1.000
 3819.00    0.63772   0.68773   -1.000
 3820.00    0.76833   0.73483   -1.000
 3821.00    0.73695   0.73664 7668.620
 3822.00    0.67808   0.70235   -1.000
 3823.00    0.57263   0.67327   -1.000
 3824.00    0.46119   0.66652   -1.000
 3825.00    0.38885   0.67142   -1.000
 3826.00    0.32002   0.67648   -1.000
 3827.00    0.61107   0.67835   -1.000
 3828.00    0.92146   0.66805   -1.000
 3829.00    0.68420   0.63323   -1.000
 3830.00    0.44050   0.58234   -1.000
 3831.00    0.57895   0.53991   -1.000
 3832.00    0.70814   0.52283   -1.000
 3833.00    0.63181   0.53512   -1.000
 3834.00    0.56209   0.55924   -1.000
 3835.00    0.57454   0.57288   -1.000
 3836.00    0.57249   0.58146   -1.000
 3837.00    0.44786   0.59935   -1.000
 3838.00    0.38711   0.63144   -1.000
 3839.00    0.72828   0.68389   -1.000
 3840.00    1.05334   0.74404   -1.000
 3841.00    1.29891   0.78327   -1.000
 3842.00    1.45164   0.79701   -1.000
 3843.00    1.23268   0.79889   -1.000
 3844.00    1.00478   0.80231   -1.000
 3845.00    0.74712   0.80761   -1.000
 3846.00    0.54513   0.79633   -1.000
 3847.00    0.49947   0.76946    0.000
 3848.00    0.49720   0.76227    0.000
 3849.00    0.59909   0.78572    0.000
 3850.00    0.74552   0.80232    0.000
 3851.00    0.98432   0.79165    0.000
 3852.00    0.99137   0.77138    0.000
 3853.00    0.58045   0.75328    0.000
 3854.00    0.31674   0.74184    0.000
 3855.00    0.28519   0.73437    0.000
 3856.00    0.38568   0.71453    0.000
 3857.00    0.66896   0.69149    0.000
 3858.00    0.82859   0.69830    0.000
 3859.00    0.83755   0.74227    0.000
 3860.00    0.93268   0.79107    0.000
 3861.00    1.12038   0.80992    0.000
 3862.00    1.20079   0.79956    0.000
 3863.00    1.17955   0.78355    0.000
 3864.00    0.99640   0.77278    0.000
 3865.00    0.67802   0.76495    0.000
 3866.00    0.59054   0.75900    0.000
 3867.00    0.67289   0.74587    0.000
 3868.00    0.87476   0.71907    0.000
 3869.00    1.15384   0.69632    0.000
 3870.00    1.14248   0.70516    0.000
 3871.00    0.96698   0.75128    0.000
 3872.00    0.86659   0.80211    0.000
 3873.00    0.80314   0.81666    0.000
 3874.00    0.60158   0.78779    0.000
 3875.00    0.34129   0.74223    0.000
 3876.00    0.73255   0.71759    0.000
 3877.00    1.36114   0.72591    0.000
 3878.00    1.01520   0.73025    0.000
 3879.00    0.36882   0.71052    0.000
 3880.00    0.16761   0.70696    0.000
 3881.00    0.08068   0.73717    0.029
 3882.00    0.26531   0.74090    0.029
 3883.00    0.50672   0.68120    0.029
 3884.00    0.46837   0.61363    0.029
 3885.00    0.38389   0.58424    0.029
 3886.00    0.31787   0.58269    0.029
 3887.00    0.25413   0.61370    0.029
 3888.00    1.04685   0.68535    0.029
 3889.00    1.91287   0.76570    0.030
 3890.00    1.79823   0.81818    0.030
 3891.00    1.63470   0.83344    0.030
 3892.00    1.48979   0.82428    0.029
 3893.00    1.34197   0.82018    0.028
 3894.00    0.98674   0.84137    0.028
 3895.00    0.64580   0.85942    0.028
 3896.00    0.59713   0.84763    0.028
 3897.00    0.56740   0.83589    0.027
 3898.00    0.76156   0.85491    0.027
 3899.00    0.91838   0.87751    0.026
 3900.00    0.77102   0.86913    0.025
 3901.00    0.66484   0.85085    0.025
 3902.00    0.81017   0.83649    0.024
 3903.00    0.91804   0.81910    0.024
 3904.00    0.84568   0.82789    0.024
 3905.00    0.77240   0.87413    0.024
 3906.00    0.69549   0.92048    0.024
 3907.00    0.61882   0.94106    0.024
 3908.00    0.54295   0.94587    0.024
 3909.00    0.49432   0.95309    0.025
 3910.00    0.52083   0.96056    0.026
 3911.00    0.49921   0.95969    0.026
 3912.00    0.36396   0.95344    0.027
 3913.00    0.40195   0.94017    0.027
 3914.00    0.79350   0.91907    0.028
 3915.00    0.92717   0.89696    0.029
 3916.00    0.60282   0.86441    0.029
 3917.00    0.41883   0.81642    0.030
 3918.00    0.45295   0.77718    0.029
 3919.00    0.56970   0.76994    0.029
 3920.00    0.79917   0.78629    0.028
 3921.00    0.60095   0.80536    0.028
 3922.00   -0.11102   0.81089    0.000
 3923.00   -0.45472   0.78989    0.000
 3924.00   -0.40842   0.75158    0.000
 3925.00    0.04080   0.71369    0.029
 3926.00    0.86641   0.68154    0.029
 3927.00    0.84915   0.65518    0.028
 3928.00    0.13773   0.63205    0.028
 3929.00   -0.19776   0.61106    0.000
 3930.00   -0.26072   0.59380    0.000
 3931.00   -0.01423   0.58349    0.000
 3932.00    0.42919   0.58481    0.028
 3933.00    0.71005   0.60107    0.028
 3934.00    0.90044   0.63231    0.028
 3935.00    0.71216   0.67304    0.028
 3936.00    0.34057   0.71592    0.027
 3937.00    0.27965   0.75147    0.027
 3938.00    0.34862   0.76964    0.026
 3939.00    0.38806   0.77177    0.026
 3940.00    0.41693   0.76260    0.026
 3941.00    0.54787   0.74939    0.027
 3942.00    0.70965   0.76275    0.027
 3943.00    0.79467   0.81479    0.027
 3944.00    0.86040   0.85902    0.027
 3945.00    0.61399   0.86437    0.027
 3946.00    0.30392   0.86596    0.027
 3947.00    0.37322   0.89510    0.027
 3948.00    0.50327   0.92650    0.027
 3949.00    0.58697   0.92281    0.027
 3950.00    0.66515   0.90170    0.027
 3951.00    0.66953   0.90916    0.028
 3952.00    0.66790   0.92837    0.028
 3953.00    0.56629   0.91270    0.028
 3954.00    0.46008   0.88016    0.028
 3955.00    0.41224   0.87376    0.028
 3956.00    0.36060   0.88421    0.027
 3957.00    0.07174   0.86522    0.028
 3958.00   -0.20354   0.79512    0.000
 3959.00   -0.22173   0.71324    0.000
 3960.00   -0.24597   0.66900    0.000
 3961.00   -0.33840   0.65108    0.000
 3962.00   -0.36082   0.62234    0.000
 3963.00    0.16710   0.57583    0.000
 3964.00    0.56028   0.52228    0.000
 3965.00    0.15392   0.47092    0.000
 3966.00   -0.06295   0.43000    0.000
 3967.00    0.60988   0.41321    0.000
 3968.00    1.09914   0.43598    0.000
 3969.00    0.88492   0.49299    0.000
 3970.00    0.72318   0.56031    0.000
 3971.00    0.72916   0.62616    0.000
 3972.00    0.66820   0.69277    0.000
 3973.00    0.42591   0.75271    0.000
 3974.00    0.27965   0.80007    0.000
 3975.00    0.35638   0.84563    0.000
 3976.00    0.45162   0.89451    0.000
 3977.00    0.58404   0.93669    0.000
 3978.00    0.57203   0.95555    0.000
 3979.00    0.30739   0.94683    0.000
 3980.00    0.23489   0.93239    0.000
 3981.00    0.45656   0.93359    0.026
 3982.00    0.79529   0.95227    0.026
 3983.00    1.29147   0.97437    0.026
 3984.00    1.60222   0.99168    0.027
 3985.00    1.69337   1.01454    0.027
 3986.00    1.51407   1.02768    0.027
 3987.00    1.05234   1.01365    0.027
 3988.00    0.67304   1.00461    0.027
 3989.00    0.36966   1.02066    0.026
 3990.00    0.49144   1.03981    0.026
 3991.00    0.95841   1.04015    0.026
 3992.00    1.22271   1.02235    0.027
 3993.00    1.34220   1.00070    0.027
 3994.00    1.40699   0.98035    0.027
 3995.00    1.43750   0.97307    0.027
 3996.00    1.30301   1.00273    0.027
 3997.00    1.07811   1.05468    0.026
 3998.00    1.00872   1.08424    0.026
 3999.00    1.01339   1.09226    0.027
 4000.00    1.32682   1.09945    0.027
 4001.00    1.76715   1.07717    0.027
 4002.00    1.46094   1.00336    0.027
 4003.00    0.89253   0.93882    0.026
 4004.00    0.79546   0.94766    0.026
 4005.00    0.83805   0.99824    0.026
 4006.00    1.12428   1.03076    0.026
 4007.00    1.47036   1.04168    0.026
 4008.00    1.51432   1.05239    0.026
 4009.00    1.49820   1.06588    0.026
 4010.00    1.29887   1.07812    0.026
 4011.00    1.07107   1.08885    0.026
 4012.00    1.07090   1.10170    0.026
 4013.00    1.09692   1.11092    0.027
 4014.00    0.66095   1.09801    0.026
 4015.00    0.18926   1.08132    0.026
 4016.00    0.38770   1.09477    0.026
 4017.00    0.61436   1.11457    0.025
 4018.00    0.83413   1.10676    0.026
 4019.00    1.05537   1.08707    0.026
 4020.00    1.34348   1.07198    0.026
 4021.00    1.59327   1.04689    0.025
 4022.00    1.16746   1.01214    0.025
 4023.00    0.79008   1.00045    0.025
 4024.00    0.93384   1.03095    0.025
 4025.00    1.04186   1.08359    0.025
 4026.00    0.87856   1.10615    0.025
 4027.00    0.72865   1.05672    0.024
 4028.00    0.65597   0.96983    0.025
 4029.00    0.68629   0.91454    0.025
 4030.00    1.18866   0.89686    0.025
 4031.00    1.45812   0.89883    0.025
 4032.00    0.85393   0.93116    0.025
 4033.00    0.40248   0.99988    0.024
 4034.00    0.42983   1.08327    0.024
 4035.00    0.58156   1.14013    0.024
 4036.00    1.06414   1.14678    0.024
 4037.00    1.37051   1.11672    0.025
 4038.00    1.27450   1.08631    0.024
 4039.00    1.19284   1.08420    0.024
 4040.00    1.13954   1.08034    0.025
 4041.00    1.04887   1.01348    0.025
 4042.00    0.89385   0.89443    0.025
 4043.00    0.67068   0.81696    0.025
 4044.00    0.34470   0.85278    0.025
 4045.00    0.44444   0.96004    0.025
 4046.00    1.10851   1.04808    0.026
 4047.00    1.31796   1.09455    0.026
 4048.00    0.99666   1.11546    0.025
 4049.00    0.87116   1.10883    0.025
 4050.00    0.94726   1.08178    0.026
 4051.00    1.00000   1.04993    0.026
 4052.00    1.03154   1.02075    0.026
 4053.00    1.06231   1.00432    0.026
 4054.00    1.09248   0.98976    0.026
 4055.00    0.92699   0.96665    0.026
 4056.00    0.62374   0.96833    0.026
 4057.00    0.85566   1.00865    0.025
 4058.00    1.41816   1.03998    0.025
 4059.00    1.39747   1.00731    0.025
 4060.00    1.06209   0.91736    0.025
 4061.00    0.99674   0.85510    0.025
 4062.00    1.05795   0.88490    0.025
 4063.00    1.10443   0.95117    0.025
 4064.00    1.14497   0.98036    0.024
 4065.00    1.10501   0.99929    0.024
 4066.00    1.03730   1.04026    0.024
 4067.00    0.83565   1.05189    0.024
 4068.00    0.59510   0.99108    0.024
 4069.00    0.66407   0.92534    0.024
 4070.00    0.80737   0.94604    0.024
 4071.00    0.79934   1.01544    0.024
 4072.00    0.76199   1.03157    0.023
 4073.00    0.80701   0.97711    0.023
 4074.00    0.86444   0.90919    0.024
 4075.00    1.14313   0.88853    0.023
 4076.00    1.44629   0.93262    0.023
 4077.00    1.18657   1.01254    0.023
 4078.00    0.88562   1.08663    0.023
 4079.00    0.84443   1.11453    0.023
 4080.00    0.81318   1.08744    0.023
 4081.00    0.72482   1.04510    0.023
 4082.00    0.64649   1.02509    0.023
 4083.00    0.95814   1.03691    0.023
 4084.00    1.26103   1.07873    0.023
 4085.00    1.41961   1.12993    0.024
 4086.00    1.53764   1.15607    0.024
 4087.00    1.23837   1.14628    0.024
 4088.00    1.01524   1.11862    0.024
 4089.00    1.35081   1.08994    0.024
 4090.00    1.61788   1.07583    0.024
 4091.00    1.50069   1.07452    0.024
 4092.00    1.37304   1.04370    0.000
 4093.00    1.19853   0.97757    0.000
 4094.00    1.08604   0.92789    0.000
 4095.00    1.20132   0.91315    0.000
 4096.00    1.24629   0.90138    0.000
 4097.00    1.07499   0.85560    0.000
 4098.00    0.93345   0.77853    0.000
 4099.00    0.86968   0.73376    0.000
 4100.00    0.78990   0.76606    0.000
 4101.00    0.67413   0.83755    0.000
 4102.00    0.71223   0.90613    0.000
 4103.00    1.04974   0.96940    0.000
 4104.00    1.20170   1.01390    0.000
 4105.00    1.03882   1.02479    0.000
 4106.00    1.12141   1.01254    0.000
 4107.00    1.56889   0.99231    0.000
 4108.00    1.64447   0.97772    0.000
 4109.00    1.23410   0.98109    0.000
 4110.00    1.03796   1.00720    0.000
 4111.00    1.08840   1.04151    0.000
 4112.00    0.98840   1.06232    0.000
 4113.00    0.73570   1.07132    0.023
 4114.00    0.84913   1.07068    0.023
 4115.00    1.29038   1.04210    0.024
 4116.00    1.33961   0.99705    0.023
 4117.00    1.07955   0.98028    0.023
 4118.00    0.98738   0.99274    0.032
 4119.00    1.01172   1.00194    0.116
 4120.00    1.04080   1.00647   -1.000
 4121.00    1.07277   1.02552   -1.000
 4122.00    1.08844   1.05484   -1.000
 4123.00    1.09545   1.06262   -1.000
 4124.00    1.02110   1.03932   -1.000
 4125.00    0.90924   1.01029   -1.000
 4126.00    1.12654   0.99564    0.060
 4127.00    1.47455   0.98693    0.025
 4128.00    1.37688   0.96259    0.022
 4129.00    1.12836   0.92098    0.022
 4130.00    1.13558   0.89403    0.022
 4131.00    1.21557   0.90491    0.022
 4132.00    1.39716   0.95022    0.022
 4133.00    1.60262   1.00957    0.022
 4134.00    1.49603   1.04373    0.022
 4135.00    1.33054   1.04999    0.022
 4136.00    1.26644   1.05619    0.022
 4137.00    1.21715   1.06137    0.022
 4138.00    1.31565   1.04333    0.022
 4139.00    1.42985   0.97566    0.022
 4140.00    1.47080   0.86930    0.022
 4141.00    1.50668   0.80715    0.022
 4142.00    1.39477   0.84687    0.022
 4143.00    1.27777   0.93301    0.022
 4144.00    1.22562   0.98840    0.022
 4145.00    1.17208   1.00144    0.022
 4146.00    1.06822   0.98634    0.022
 4147.00    0.97240   0.96101    0.022
 4148.00    1.00085   0.94978    0.022
 4149.00    1.05108   0.95101    0.022
 4150.00    1.31611   0.94809    0.022
 4151.00    1.53608   0.93860    0.023
 4152.00    1.43621   0.93194    0.023
 4153.00    1.29528   0.93060    0.023
 4154.00    0.93020   0.93508    0.023
 4155.00    0.67741   0.96001    0.023
 4156.00    0.91546   0.99959    0.022
 4157.00    1.07651   1.02472    0.022
 4158.00    0.96063   1.03134    0.022
 4159.00    0.92711   1.04466    0.022
 4160.00    1.14213   1.06322    0.022
 4161.00    1.24534   1.05633    0.022
 4162.00    1.06145   1.02835    0.022
 4163.00    0.94927   1.00144    0.022
 4164.00    0.99549   0.97406    0.022
 4165.00    0.95782   0.95939    0.022
 4166.00    0.75946   0.97820    0.022
 4167.00    0.82684   1.00525    0.022
 4168.00    1.33837   0.99557    0.022
 4169.00    1.48441   0.94047    0.022
 4170.00    1.09510   0.88618    0.022
 4171.00    0.96753   0.87952    0.023
 4172.00    1.17709   0.90658    0.023
 4173.00    1.27058   0.92779    0.023
 4174.00    1.23234   0.92897    0.023
 4175.00    1.17922   0.92571    0.023
 4176.00    1.11121   0.93948    0.022
 4177.00    1.12107   0.95985    0.022
 4178.00    1.19965   0.95910    0.022
 4179.00    1.08509   0.94364    0.022
 4180.00    0.82032   0.94609    0.022
 4181.00    0.78411   0.97663    0.022
 4182.00    0.90420   1.01226    0.021
 4183.00    0.98328   1.00933    0.021
 4184.00    1.03778   0.95708    0.021
 4185.00    0.91736   0.92102    0.021
 4186.00    0.70545   0.94481    0.021
 4187.00    0.86265   0.98071    0.021
 4188.00    1.18728   0.98532    0.021
 4189.00    1.23451   0.98937    0.021
 4190.00    1.17350   1.02067    0.021
 4191.00    1.16746   1.03635    0.021
 4192.00    1.17968   0.99873    0.021
 4193.00    1.09331   0.93854    0.021
 4194.00    0.97946   0.89680    0.021
 4195.00    0.89338   0.87518    0.021
 4196.00    0.81368   0.87039    0.021
 4197.00    0.89996   0.88414    0.021
 4198.00    1.01675   0.89062    0.021
 4199.00    1.08116   0.88275    0.020
 4200.00    1.13815   0.89745    0.020
 4201.00    1.23939   0.93748    0.020
 4202.00    1.34514   0.97332    0.021
 4203.00    1.25849   1.00240    0.020
 4204.00    1.15929   1.03005    0.020
 4205.00    1.21870   1.04875    0.020
 4206.00    1.28256   1.04473    0.019
 4207.00    1.07416   1.02100    0.020
 4208.00    0.87035   1.01136    0.020
 4209.00    0.80140   1.02698    0.020
 4210.00    0.75905   1.03078    0.021
 4211.00    1.10389   0.99380    0.020
 4212.00    1.42786   0.93177    0.020
 4213.00    1.55447   0.90565    0.021
 4214.00    1.64959   0.95912    0.021
 4215.00    1.52832   1.04352    0.021
 4216.00    1.42218   1.09232    0.020
 4217.00    1.39646   1.10740    0.020
 4218.00    1.34746   1.10762    0.021
 4219.00    1.19901   1.07873    0.021
 4220.00    1.14944   1.01521    0.020
 4221.00    1.44829   0.93468    0.020
 4222.00    1.61074   0.83963    0.020
 4223.00    1.36926   0.73547    0.020
 4224.00    1.18005   0.68096    0.020
 4225.00    1.12273   0.73985    0.021
 4226.00    1.05605   0.87165    0.021
 4227.00    0.96901   0.98324    0.020
 4228.00    0.94509   1.04333    0.020
 4229.00    1.04023   1.04821    0.020
 4230.00    1.05067   1.00774    0.020
 4231.00    0.92168   0.97431    0.020
 4232.00    0.97970   0.96245    0.020
 4233.00    1.30766   0.94393    0.019
 4234.00    1.41149   0.93653    0.019
 4235.00    1.23075   0.95523    0.019
 4236.00    1.07408   0.97315    0.019
 4237.00    0.94435   0.98891    0.019
 4238.00    1.06128   1.02025    0.019
 4239.00    1.42159   1.04988    0.019
 4240.00    1.42011   1.06765    0.019
 4241.00    1.10377   1.10118    0.019
 4242.00    0.99655   1.13653    0.019
 4243.00    1.04967   1.12410    0.019
 4244.00    1.03960   1.06665    0.020
 4245.00    0.98695   1.00767    0.020
 4246.00    1.05795   0.96329    0.020
 4247.00    1.20194   0.92208    0.021
 4248.00    1.29024   0.90877    0.021
 4249.00    1.34988   0.94424    0.021
 4250.00    1.15216   0.96815    0.021
 4251.00    0.83961   0.93527    0.020
 4252.00    0.89171   0.90671    0.020
 4253.00    1.08362   0.94862    0.020
 4254.00    1.16198   1.02281    0.020
 4255.00    1.20333   1.03905    0.020
 4256.00    1.25145   0.97911    0.019
 4257.00    1.30142   0.90318    0.019
 4258.00    1.30602   0.87859    0.020
 4259.00    1.30046   0.93605    0.020
 4260.00    1.17056   1.03363    0.020
 4261.00    1.01842   1.10096    0.020
 4262.00    1.23975   1.12520    0.020
 4263.00    1.51218   1.12382    0.020
 4264.00    1.20911   1.09151    0.020
 4265.00    0.84982   1.04062    0.019
 4266.00    0.92549   0.99593    0.019
 4267.00    1.02776   0.93793    0.019
 4268.00    1.03297   0.85065    0.019
 4269.00    1.03537   0.78829    0.018
 4270.00    0.99813   0.79689    0.018
 4271.00    0.96485   0.82785    0.018
 4272.00    1.03585   0.84810    0.018
 4273.00    1.09126   0.90082    0.018
 4274.00    0.93224   0.98923    0.018
 4275.00    0.80162   1.06011    0.018
 4276.00    0.92895   1.07101    0.018
 4277.00    1.05127   1.02530    0.019
 4278.00    1.14020   0.98248    0.019
 4279.00    1.17782   0.97952    0.019
 4280.00    0.94982   0.99572    0.019
 4281.00    0.76877   1.00535    0.019
 4282.00    0.78369   0.99024   -2.000
 4283.00    0.83545   0.96636   -2.000
 4284.00    1.01442   0.96332   -2.000
 4285.00    1.18269   0.95400   -2.000
 4286.00    1.31985   0.89877   -2.000
 4287.00    1.39089   0.83631   -2.000
 4288.00    1.29792   0.83666   -2.000
 4289.00    1.17139   0.90060   -2.000
 4290.00    0.97311   0.96414   -2.000
 4291.00    0.84667   0.97407   -2.000
 4292.00    0.85360   0.95672   -2.000
 4293.00    0.90354   0.95162   -2.000
 4294.00    1.02323   0.93599   -2.000
 4295.00    1.07929   0.88479   -2.000
 4296.00    1.04483   0.80818   -2.000
 4297.00    0.88560   0.75107   -2.000
 4298.00    0.57020   0.75152    0.019
 4299.00    0.50952   0.77740    0.019
 4300.00    0.72982   0.79006    0.019
 4301.00    0.95742   0.79978    0.019
 4302.00    1.19214   0.80385    0.019
 4303.00    1.17881   0.78507    0.019
 4304.00    0.95266   0.74492    0.019
 4305.00    0.86356   0.70148    0.019
 4306.00    0.87802   0.69073    0.019
 4307.00    0.95352   0.72720    0.019
 4308.00    1.06956   0.78659    0.019
 4309.00    1.06893   0.84544    0.019
 4310.00    1.00044   0.89675    0.019
 4311.00    1.04464   0.94031    0.019
 4312.00    1.14594   1.00178    0.019
 4313.00    1.12207   1.10371    0.019
 4314.00    1.04327   1.19380    0.018
 4315.00    1.02961   1.21614    0.018
 4316.00    1.04050   1.19236    0.018
 4317.00    1.06374   1.15981    0.018
 4318.00    1.09094   1.12800    0.019
 4319.00    1.17666   1.09480    0.019
 4320.00    1.27802   1.03079    0.019
 4321.00    1.32047   0.92062    0.019
 4322.00    1.35003   0.81008    0.019
 4323.00    1.20697   0.77456    0.019
 4324.00    1.03388   0.85981    0.019
 4325.00    0.92375   1.01202    0.019
 4326.00    0.82196   1.11859    0.019
 4327.00    0.97182   1.13341    0.019
 4328.00    1.14520   1.10988    0.019
 4329.00    1.16036   1.10800    0.019
 4330.00    1.16647   1.12456    0.000
 4331.00    1.18854   1.14300    0.000
 4332.00    1.21065   1.15796    0.000
 4333.00    1.19393   1.13018    0.000
 4334.00    1.17316   1.02457    0.000
 4335.00    1.05492   0.89393    0.000
 4336.00    0.95624   0.80315    0.000
 4337.00    1.11202   0.75308    0.000
 4338.00    1.24529   0.76315    0.000
 4339.00    1.18184   0.84948    0.000
 4340.00    1.11948   0.94146    0.000
 4341.00    1.06417   0.98779    0.000
 4342.00    1.03358   1.02497    0.000
 4343.00    1.12770   1.06195    0.000
 4344.00    1.20831   1.07778    0.000
 4345.00    1.23379   1.10272    0.000
 4346.00    1.25725   1.14823    0.000
 4347.00    1.27386   1.14177    0.000
 4348.00    1.26264   1.04088    0.000
 4349.00    1.17198   0.93628    0.000
 4350.00    1.11753   0.93097    0.000
 4351.00    1.15137   0.99442    0.018
 4352.00    1.17821   1.04783    0.018
 4353.00    1.19037   1.08682    0.018
 4354.00    1.19271   1.12120    0.022
 4355.00    1.17711   1.11641    0.058
 4356.00    1.14121   1.07408   -1.000
 4357.00    1.07284   1.06133   -1.000
 4358.00    1.07530   1.10388   -1.000
 4359.00    1.17704   1.14865   -1.000
 4360.00    1.24552   1.16179   -1.000
 4361.00    1.27295   1.17677   -1.000
 4362.00    1.22395   1.20545    0.072
 4363.00    1.09180   1.19738    0.023
 4364.00    1.07231   1.13639    0.018
 4365.00    1.16090   1.08008    0.018
 4366.00    1.25843   1.07091    0.018
 4367.00    1.36351   1.08487    0.018
 4368.00    1.28842   1.09380    0.018
 4369.00    1.07914   1.09228    0.018
 4370.00    1.01307   1.06356    0.018
 4371.00    1.04071   1.00266    0.018
 4372.00    1.03731   0.95232    0.018
 4373.00    1.01612   0.96448    0.017
 4374.00    1.03370   1.03519    0.017
 4375.00    1.07063   1.10245    0.018
 4376.00    1.15805   1.11778    0.018
 4377.00    1.26726   1.08952    0.018
 4378.00    1.16880   1.04044    0.018
 4379.00    0.99351   0.95159    0.018
 4380.00    1.00504   0.81461    0.018
 4381.00    1.07515   0.71635    0.018
 4382.00    1.06966   0.74787    0.018
 4383.00    1.04439   0.86795    0.017
 4384.00    0.99553   0.95728    0.017
 4385.00    0.94164   0.97478    0.017
 4386.00    0.93062   0.96573    0.017
 4387.00    0.92686   0.96194    0.017
 4388.00    1.06128   0.97392    0.017
 4389.00    1.21336   1.00579    0.017
 4390.00    1.25813   1.03297    0.017
 4391.00    1.29333   1.02960    0.018
 4392.00    1.22168   1.01875    0.017
 4393.00    1.14434   1.05149    0.017
 4394.00    1.10402   1.11936    0.017
 4395.00    1.06550   1.15270    0.017
 4396.00    1.11460   1.12028    0.017
 4397.00    1.16973   1.05586    0.017
 4398.00    1.35736   1.02385    0.017
 4399.00    1.50719   1.04657    0.017
 4400.00    1.19010   1.03956    0.017
 4401.00    0.90748   0.94298    0.017
 4402.00    0.91490   0.85320    0.017
 4403.00    0.95466   0.86604    0.017
 4404.00    1.19707   0.92322    0.017
 4405.00    1.38028   0.95109    0.017
 4406.00    1.27231   0.98564    0.017
 4407.00    1.15859   1.05989    0.017
 4408.00    1.02196   1.13177    0.017
 4409.00    0.91016   1.16837    0.017
 4410.00    0.88072   1.15976    0.017
 4411.00    0.88333   1.08440    0.017
 4412.00    0.97576   0.98239    0.017
 4413.00    1.03774   0.95171    0.017
 4414.00    1.02673   1.00486    0.017
 4415.00    1.05562   1.08059    0.018
 4416.00    1.16707   1.14402    0.017
 4417.00    1.16782   1.17284    0.017
 4418.00    0.96928   1.14616    0.017
 4419.00    0.92661   1.08248    0.017
 4420.00    1.12933   1.04166    0.017
 4421.00    1.32177   1.05271    0.017
 4422.00    1.50000   1.07583    0.017
 4423.00    1.55368   1.07877    0.017
 4424.00    1.45585   1.07867    0.018
 4425.00    1.39206   1.09338    0.018
 4426.00    1.36475   1.09834    0.018
 4427.00    1.33761   1.07048    0.017
 4428.00    1.31064   1.05538    0.017
 4429.00    1.28413   1.07783    0.017
 4430.00    1.25801   1.07817    0.017
 4431.00    1.32544   1.02393    0.018
 4432.00    1.46156   0.96407    0.018
 4433.00    1.51274   0.96447    0.018
 4434.00    1.50916   1.03445    0.018
 4435.00    1.34533   1.12357    0.018
 4436.00    1.09110   1.17996    0.018
 4437.00    1.04856   1.17343    0.018
 4438.00    1.10994   1.10923    0.018
 4439.00    1.20181   1.03535    0.018
 4440.00    1.30662   1.00429    0.018
 4441.00    1.22021   1.03873    0.018
 4442.00    1.06432   1.11495    0.018
 4443.00    1.20611   1.16910    0.018
 4444.00    1.43944   1.17023    0.018
 4445.00    1.35034   1.16213    0.018
 4446.00    1.17869   1.16565    0.018
 4447.00    1.21665   1.15371    0.018
 4448.00    1.29829   1.13868    0.017
 4449.00    1.29258   1.13415    0.017
 4450.00    1.27252   1.10824    0.017
 4451.00    1.32217   1.04434    0.017
 4452.00    1.38040   0.97814    0.018
 4453.00    1.34855   0.95996    0.017
 4454.00    1.30903   0.98143    0.017
 4455.00    1.08552   0.99223    0.017
 4456.00    0.85292   0.98196    0.017
 4457.00    0.88406   0.96963    0.017
 4458.00    0.92161   0.95371    0.017
 4459.00    1.09837   0.95333    0.017
 4460.00    1.26446   1.00628    0.017
 4461.00    1.21441   1.07349    0.000
 4462.00    1.15838   1.09333    0.000
 4463.00    1.03207   1.08261    0.000
 4464.00    0.93700   1.07802    0.000
 4465.00    1.09536   1.07249    0.000
 4466.00    1.24769   1.05041    0.000
 4467.00    1.36335   1.03249    0.000
 4468.00    1.43082   1.04201    0.000
 4469.00    1.26714   1.07981    0.000
 4470.00    1.16099   1.13421    0.000
 4471.00    1.27955   1.17356    0.000
 4472.00    1.37564   1.18064    0.000
 4473.00    1.39871   1.18862    0.000
 4474.00    1.39964   1.22118    0.000
 4475.00    1.33967   1.23880    0.000
 4476.00    1.26938   1.19578    0.000
 4477.00    1.17476   1.10815    0.000
 4478.00    1.13267   1.03560    0.000
 4479.00    1.19758   1.02204    0.000
 4480.00    1.26833   1.07268    0.000
 4481.00    1.34944   1.15115    0.000
 4482.00    1.35669   1.21219    0.016
 4483.00    1.24941   1.23844    0.016
 4484.00    1.24497   1.22285    0.017
 4485.00    1.38060   1.16590    0.017
 4486.00    1.40245   1.09831    0.017
 4487.00    1.28788   1.06777    0.016
 4488.00    1.24419   1.09446    0.016
 4489.00    1.27543   1.14238    0.016
 4490.00    1.27480   1.14995    0.016
 4491.00    1.24445   1.09925    0.016
 4492.00    1.18064   1.04571    0.016
 4493.00    1.08932   1.04186    0.016
 4494.00    1.10046   1.08404    0.016
 4495.00    1.18573   1.14247    0.016
 4496.00    1.21052   1.18528    0.016
 4497.00    1.19688   1.19020    0.016
 4498.00    1.18406   1.16410    0.016
 4499.00    1.17169   1.16288    0.016
 4500.00    1.18860   1.22046    0.016
 4501.00    1.21966   1.28316    0.016
 4502.00    1.18040   1.29756    0.016
 4503.00    1.11182   1.27240    0.016
 4504.00    1.15537   1.23915    0.016
 4505.00    1.23894   1.22182    0.016
 4506.00    1.36158   1.22779    0.016
 4507.00    1.49601   1.24497    0.016
 4508.00    1.34128   1.24675    0.016
 4509.00    1.11413   1.21680    0.016
 4510.00    1.09824   1.17310    0.016
 4511.00    1.12530   1.14421    0.016
 4512.00    1.06749   1.14395    0.016
 4513.00    0.99614   1.16060    0.016
 4514.00    1.13000   1.16173    0.016
 4515.00    1.28825   1.14967    0.016
 4516.00    1.23610   1.16289    0.016
 4517.00    1.16694   1.20265    0.016
 4518.00    1.23986   1.23154    0.016
 4519.00    1.31925   1.21566    0.016
 4520.00    1.21260   1.17156    0.016
 4521.00    1.10505   1.14128    0.016
 4522.00    1.06807   1.11393    0.016
 4523.00    1.03093   1.06594    0.016
 4524.00    0.99083   1.01100    0.016
 4525.00    0.94234   0.97183    0.016
 4526.00    0.79976   0.96261    0.015
 4527.00    0.70751   0.98300    0.015
 4528.00    1.00905   1.01836    0.015
 4529.00    1.27107   1.05574    0.015
 4530.00    1.29942   1.06441    0.015
 4531.00    1.29908   1.03044    0.015
 4532.00    1.16440   0.99813    0.016
 4533.00    1.07866   1.03052    0.016
 4534.00    1.17998   1.12489    0.016
 4535.00    1.21568   1.19266    0.016
 4536.00    1.04217   1.18330    0.016
 4537.00    0.96649   1.13374    0.015
 4538.00    1.15521   1.10007    0.015
 4539.00    1.26430   1.11181    0.015
 4540.00    1.18891   1.14341    0.015
 4541.00    1.12976   1.14315    0.015
 4542.00    1.10319   1.11497    0.015
 4543.00    1.09676   1.10545    0.015
 4544.00    1.12548   1.11735    0.015
 4545.00    1.13022   1.11491    0.016
 4546.00    1.09834   1.09077    0.015
 4547.00    1.08945   1.08541    0.015
 4548.00    1.11142   1.10884    0.016
 4549.00    1.12332   1.11535    0.016
 4550.00    1.12332   1.09426    0.000
 4551.00    1.10571   1.07122    0.000
 4552.00    1.06975   1.06638    0.000
 4553.00    1.08430   1.09758    0.000
 4554.00    1.14528   1.15715    0.000
 4555.00    1.18125   1.20610    0.000
 4556.00    1.19696   1.22266    0.000
 4557.00    1.19363   1.21710    0.000
 4558.00    1.17673   1.21272    0.000
 4559.00    1.20924   1.20903    0.000
 4560.00    1.27266   1.17627    0.000
 4561.00    1.18972   1.11923    0.000
 4562.00    1.02671   1.08473    0.000
 4563.00    1.02982   1.10593    0.000
 4564.00    1.11189   1.16750    0.000
 4565.00    1.23759   1.21553    0.000
 4566.00    1.38119   1.22155    0.000
 4567.00    1.35547   1.19248    0.000
 4568.00    1.27042   1.14207    0.000
 4569.00    1.27873   1.12315    0.000
 4570.00    1.31463   1.16528    0.000
 4571.00    1.31101   1.20492    0.000
 4572.00    1.29770   1.20356    0.000
 4573.00    1.16291   1.19574    0.000
 4574.00    1.00404   1.19321    0.000
 4575.00    1.13418   1.17165    0.000
 4576.00    1.30906   1.12224    0.000
 4577.00    1.35325   1.07184    0.000
 4578.00    1.38248   1.05992    0.000
 4579.00    1.31454   1.08962    0.000
 4580.00    1.23914   1.11778    0.000
 4581.00    1.11924   1.11615    0.000
 4582.00    0.99748   1.09812    0.000
 4583.00    1.06147   1.08961    0.000
 4584.00    1.12633   1.11564    0.000
 4585.00    1.15909   1.16831    0.000
 4586.00    1.18815   1.20660    0.000
 4587.00    1.15233   1.20144    0.000
 4588.00    1.12255   1.16077    0.000
 4589.00    1.15728   1.12009    0.000
 4590.00    1.19671   1.10338    0.000
 4591.00    1.27162   1.09703    0.000
 4592.00    1.33203   1.08596    0.000
 4593.00    1.30906   1.08118    0.000
 4594.00    1.26978   1.08897    0.000
 4595.00    1.15599   1.10414    0.000
 4596.00    1.06404   1.11732    0.000
 4597.00    1.05378   1.10929    0.000
 4598.00    1.06121   1.09604    0.000
 4599.00    1.12397   1.10415    0.000
 4600.00    1.20559   1.11592    0.000
 4601.00    1.33728   1.11269    0.000
 4602.00    1.36358   1.10120    0.000
 4603.00    1.14974   1.10689    0.000
 4604.00    1.00340   1.14728    0.000
 4605.00    0.99025   1.20934    0.000
 4606.00    1.02477   1.25394    0.000
 4607.00    1.14126   1.25045    0.000
 4608.00    1.17766   1.21437    0.000
 4609.00    1.09344   1.18058    0.000
 4610.00    1.06089   1.16309    0.000
 4611.00    1.09672   1.17112    0.000
 4612.00    1.14971   1.19710    0.000
 4613.00    1.22271   1.21216    0.000
 4614.00    1.29679   1.21716    0.000
 4615.00    1.37198   1.21213    0.000
 4616.00    1.38428   1.19125    0.000
 4617.00    1.33956   1.18670    0.000
 4618.00    1.28194   1.20690    0.000
 4619.00    1.21400   1.21397    0.000
 4620.00    1.26915   1.20739    0.000
 4621.00    1.41082   1.20483    0.000
 4622.00    1.47017   1.19474    0.000
 4623.00    1.47879   1.18140    0.000
 4624.00    1.31869   1.18508    0.000
 4625.00    1.06773   1.19163    0.000
 4626.00    0.97966   1.18143    0.000
 4627.00    0.96777   1.17907    0.000
 4628.00    1.02289   1.20005    0.000
 4629.00    1.10503   1.20419    0.000
 4630.00    1.13755   1.17305    0.000
 4631.00    1.15299   1.14582    0.000
 4632.00    1.22177   1.14228    0.000
 4633.00    1.30599   1.13983    0.000
 4634.00    1.22963   1.11917    0.000
 4635.00    1.11481   1.09070    0.000
 4636.00    1.05741   1.07110    0.000
 4637.00    1.01109   1.06912    0.000
 4638.00    1.08000   1.09615    0.000
 4639.00    1.16619   1.13005    0.000
 4640.00    1.23207   1.13291    0.000
 4641.00    1.29571   1.10794    0.000
 4642.00    1.25449   1.06853    0.000
 4643.00    1.20564   1.01680    0.000
 4644.00    1.06136   0.98126    0.000
 4645.00    0.91346   0.98902    0.000
 4646.00    0.90681   1.02878    0.000
 4647.00    0.90426   1.07634    0.000
 4648.00    1.02690   1.11551    0.000
 4649.00    1.14853   1.14092    0.000
 4650.00    1.25360   1.14537    0.000
 4651.00    1.33854   1.11733    0.000
 4652.00    1.21742   1.07917    0.000
 4653.00    1.10089   1.06701    0.000
 4654.00    1.01782   1.09505    0.000
 4655.00    0.96812   1.15609    0.000
 4656.00    1.10497   1.21708    0.000
 4657.00    1.21324   1.23993    0.000
 4658.00    1.19396   1.21397    0.000
 4659.00    1.16344   1.16142    0.000
 4660.00    1.09174   1.11589    0.000
 4661.00    1.06510   1.09600    0.000
 4662.00    1.17667   1.07915    0.000
 4663.00    1.23773   1.02495    0.000
 4664.00    1.16709   0.95175    0.000
 4665.00    1.08148   0.92910    0.000
 4666.00    0.96233   0.97974    0.000
 4667.00    0.92192   1.05780    0.000
 4668.00    1.03445   1.11305    0.000
 4669.00    1.06127   1.12559    0.000
 4670.00    0.94294   1.10926    0.000
 4671.00    0.91495   1.09599    0.000
 4672.00    1.02099   1.10783    0.000
 4673.00    1.11556   1.13805    0.000
 4674.00    1.19518   1.14936    0.000
 4675.00    1.25289   1.12374    0.000
 4676.00    1.28544   1.08583    0.000
 4677.00    1.23694   1.05831    0.000
 4678.00    1.10632   1.04523    0.000
 4679.00    1.02149   1.05358    0.000
 4680.00    0.97758   1.08339    0.000
 4681.00    0.98478   1.10790    0.000
 4682.00    1.03222   1.11117    0.000
 4683.00    1.01018   1.10477    0.000
 4684.00    0.94002   1.09412    0.000
 4685.00    0.98031   1.08532    0.000
 4686.00    1.08768   1.08824    0.000
 4687.00    1.13939   1.09039    0.000
 4688.00    1.16158   1.08176    0.000
 4689.00    1.19150   1.07861    0.000
 4690.00    1.22498   1.08974    0.000
 4691.00    1.20016   1.11023    0.000
 4692.00    1.15223   1.13720    0.000
 4693.00    1.17476   1.15358    0.000
 4694.00    1.22107   1.13296    0.000
 4695.00    1.30783   1.08006    0.000
 4696.00    1.40607   1.04044    0.000
 4697.00    1.35373   1.03808    0.000
 4698.00    1.26614   1.04270    0.000
 4699.00    1.23428   1.03134    0.000
 4700.00    1.21290   1.02283    0.000
 4701.00    1.16255   1.04147    0.000
 4702.00    1.10799   1.07044    0.000
 4703.00    1.12193   1.07475    0.000
 4704.00    1.14311   1.05313    0.000
 4705.00    1.06973   1.03259    0.000
 4706.00    0.98985   1.03084    0.000
 4707.00    0.91051   1.05578    0.000
 4708.00    0.83118   1.09565    0.000
 4709.00    0.98333   1.10968    0.000
 4710.00    1.13226   1.08393    0.000
 4711.00    1.16534   1.04940    0.000
 4712.00    1.19303   1.04944    0.000
 4713.00    1.13799   1.09236    0.000
 4714.00    1.09706   1.13970    0.000
 4715.00    1.19451   1.16820    0.000
 4716.00    1.27412   1.18987    0.000
 4717.00    1.22764   1.20398    0.000
 4718.00    1.17271   1.19726    0.000
 4719.00    1.07182   1.17526    0.000
 4720.00    1.01395   1.16577    0.000
 4721.00    1.14354   1.18319    0.000
 4722.00    1.23072   1.19969    0.000
 4723.00    1.16570   1.17357    0.000
 4724.00    1.13273   1.10102    0.000
 4725.00    1.19619   1.03070    0.000
 4726.00    1.26631   1.00502    0.000
 4727.00    1.35352   1.01606    0.000
 4728.00    1.41314   1.04180    0.000
 4729.00    1.41195   1.07317    0.000
 4730.00    1.35631   1.09855    0.000
 4731.00    1.19657   1.11316    0.000
 4732.00    1.08843   1.11785    0.000
 4733.00    1.06634   1.10163    0.000
 4734.00    1.02835   1.09026    0.000
 4735.00    0.96712   1.11800    0.000
 4736.00    0.99123   1.14827    0.000
 4737.00    1.12506   1.14116    0.000
 4738.00    1.20274   1.12191    0.000
 4739.00    1.21681   1.12468    0.000
 4740.00    1.19199   1.14185    0.000
 4741.00    1.12832   1.14653    0.000
 4742.00    1.15024   1.14174    0.000
 4743.00    1.24760   1.15331    0.000
 4744.00    1.31965   1.17228    0.000
 4745.00    1.37204   1.17530    0.000
 4746.00    1.38605   1.17094    0.000
 4747.00    1.37386   1.17022    0.000
 4748.00    1.33428   1.16166    0.000
 4749.00    1.27833   1.13885    0.000
 4750.00    1.20894   1.11562    0.000
 4751.00    1.13253   1.10023    0.000
 4752.00    1.18565   1.09470    0.000
 4753.00    1.29739   1.09716    0.000
 4754.00    1.32777   1.10407    0.000
 4755.00    1.32646   1.11491    0.000
 4756.00    1.29468   1.12954    0.000
 4757.00    1.25280   1.13670    0.000
 4758.00    1.20388   1.11661    0.000
 4759.00    1.15301   1.07937    0.000
 4760.00    1.19322   1.05471    0.000
 4761.00    1.25427   1.03896    0.014
 4762.00    1.10426   1.01580    0.014
 4763.00    0.91560   1.00184    0.014
 4764.00    1.04199   1.02057    0.014
 4765.00    1.21274   1.06373    0.014
 4766.00    1.27076   1.10821    0.014
 4767.00    1.31735   1.12900    0.014
 4768.00    1.21459   1.11347    0.014
 4769.00    1.10217   1.09239    0.015
 4770.00    1.06807   1.10383    0.014
 4771.00    1.03652   1.14052    0.014
 4772.00    1.08935   1.16297    0.014
 4773.00    1.13953   1.16192    0.015
 4774.00    1.11287   1.16443    0.014
 4775.00    1.09257   1.16983    0.014
 4776.00    1.16431   1.16086    0.014
 4777.00    1.22695   1.14641    0.014
 4778.00    1.20394   1.13317    0.014
 4779.00    1.18106   1.10846    0.014
 4780.00    1.15906   1.07962    0.014
 4781.00    1.16876   1.07552    0.014
 4782.00    1.34629   1.08428    0.014
 4783.00    1.47243   1.07513    0.014
 4784.00    1.37969   1.06810    0.014
 4785.00    1.28348   1.07632    0.014
 4786.00    1.17509   1.07722    0.014
 4787.00    1.08824   1.07593    0.014
 4788.00    1.06503   1.08851    0.014
 4789.00    1.08977   1.11351    0.014
 4790.00    1.23526   1.15146    0.014
 4791.00    1.34316   1.19377    0.014
 4792.00    1.36956   1.21382    0.014
 4793.00    1.38673   1.19942    0.014
 4794.00    1.38653   1.16474    0.014
 4795.00    1.38169   1.12452    0.014
 4796.00    1.36924   1.09216    0.014
 4797.00    1.32732   1.08813    0.014
 4798.00    1.24292   1.11992    0.014
 4799.00    1.18322   1.16289    0.014
 4800.00    1.15484   1.18056    0.014
 4801.00    1.17247   1.16148    0.014
 4802.00    1.24149   1.12780    0.014
 4803.00    1.25282   1.10536    0.015
 4804.00    1.20731   1.08927    0.015
 4805.00    1.21195   1.07910    0.014
 4806.00    1.26015   1.09049    0.014
 4807.00    1.23507   1.11508    0.014
 4808.00    1.15389   1.12906    0.014
 4809.00    1.18989   1.12845    0.014
 4810.00    1.30470   1.12405    0.014
 4811.00    1.28608   1.12504    0.014
 4812.00    1.18884   1.13389    0.014
 4813.00    1.24400   1.14989    0.014
 4814.00    1.37748   1.16753    0.014
 4815.00    1.36699   1.18128    0.014
 4816.00    1.29241   1.19026    0.014
 4817.00    1.17945   1.18897    0.015
 4818.00    1.05180   1.17265    0.015
 4819.00    1.17292   1.13587    0.015
 4820.00    1.37493   1.08542    0.015
 4821.00    1.35964   1.06518    0.014
 4822.00    1.28519   1.09415    0.014
 4823.00    1.30390   1.12911    0.014
 4824.00    1.34344   1.13266    0.014
 4825.00    1.31043   1.11470    0.014
 4826.00    1.26451   1.10444    0.014
 4827.00    1.28997   1.10490    0.014
 4828.00    1.32516   1.09055    0.014
 4829.00    1.24926   1.06919    0.014
 4830.00    1.16257   1.07861    0.014
 4831.00    1.24669   1.11110    0.014
 4832.00    1.34118   1.12984    0.014
 4833.00    1.38086   1.12968    0.014
 4834.00    1.41827   1.12487    0.014
 4835.00    1.30697   1.10935    0.014
 4836.00    1.19690   1.07978    0.014
 4837.00    1.11890   1.06054    0.014
 4838.00    1.05444   1.06605    0.014
 4839.00    1.17501   1.07287    0.014
 4840.00    1.28802   1.06797    0.014
 4841.00    1.33278   1.07967    0.014
 4842.00    1.36854   1.11472    0.014
 4843.00    1.34458   1.13586    0.014
 4844.00    1.31826   1.11907    0.014
 4845.00    1.27976   1.08187    0.014
 4846.00    1.25889   1.06668    0.014
 4847.00    1.31140   1.08539    0.014
 4848.00    1.33809   1.10208    0.000
 4849.00    1.27588   1.10008    0.000
 4850.00    1.22949   1.08463    0.000
 4851.00    1.22893   1.04313    0.000
 4852.00    1.20520   0.98978    0.000
 4853.00    1.12413   0.97497    0.000
 4854.00    1.06712   0.99675    0.000
 4855.00    1.06145   0.99406    0.000
 4856.00    1.07512   0.93440    0.000
 4857.00    1.12461   0.84049    0.000
 4858.00    1.15416   0.77496    0.000
 4859.00    1.15145   0.79508    0.000
 4860.00    1.13574   0.87184    0.000
 4861.00    1.10156   0.93383    0.000
 4862.00    1.08566   0.97384    0.000
 4863.00    1.09258   1.00727    0.000
 4864.00    1.09006   1.02559    0.000
 4865.00    1.07716   1.02997    0.000
 4866.00    1.12153   1.02493    0.000
 4867.00    1.22154   0.98699    0.000
 4868.00    1.24869   0.92560    0.000
 4869.00    1.21346   0.90953    0.000
 4870.00    1.22387   0.95676    0.000
 4871.00    1.26871   1.00562    0.000
 4872.00    1.25499   1.02428    0.000
 4873.00    1.20244   1.03783    0.000
 4874.00    1.13496   1.05784    0.000
 4875.00    1.05882   1.08158    0.014
 4876.00    1.03710   1.11081    0.014
 4877.00    1.04292   1.11310    0.014
 4878.00    1.04434   1.07697    0.014
 4879.00    1.04383   1.05485    0.014
 4880.00    1.06428   1.06366    0.014
 4881.00    1.09260   1.05565    0.014
 4882.00    1.10519   1.01536    0.014
 4883.00    1.11276   0.98402    0.014
 4884.00    1.09180   0.98866    0.014
 4885.00    1.06323   1.00684    0.014
 4886.00    1.09283   1.00074    0.014
 4887.00    1.13512   0.95865    0.014
 4888.00    1.19022   0.92590    0.014
 4889.00    1.24755   0.96741    0.014
 4890.00    1.19830   1.06154    0.014
 4891.00    1.13500   1.14096    0.014
 4892.00    1.15037   1.18273    0.014
 4893.00    1.17305   1.19300    0.014
 4894.00    1.18718   1.18644    0.014
 4895.00    1.20084   1.16979    0.014
 4896.00    1.22987   1.13773    0.014
 4897.00    1.25931   1.10910    0.014
 4898.00    1.29480   1.10528    0.015
 4899.00    1.32884   1.10208    0.015
 4900.00    1.32821   1.08474    0.015
 4901.00    1.32277   1.08640    0.014
 4902.00    1.25520   1.12270    0.014
 4903.00    1.17791   1.15636    0.014
 4904.00    1.01621   1.14910    0.014
 4905.00    0.89375   1.10650    0.014
 4906.00    1.02374   1.05575    0.014
 4907.00    1.13771   1.02227    0.014
 4908.00    1.17110   1.02546    0.014
 4909.00    1.21505   1.05619    0.014
 4910.00    1.30197   1.08809    0.014
 4911.00    1.37527   1.11487    0.014
 4912.00    1.40256   1.13859    0.014
 4913.00    1.40759   1.13825    0.014
 4914.00    1.34923   1.08897    0.014
 4915.00    1.28134   0.99604    0.014
 4916.00    1.19027   0.90134    0.014
 4917.00    1.11808   0.85576    0.014
 4918.00    1.08551   0.88262    0.014
 4919.00    1.06220   0.95292    0.014
 4920.00    1.05581   1.00317    0.014
 4921.00    1.08440   1.01320    0.014
 4922.00    1.16878   1.02517    0.014
 4923.00    1.22026   1.06519    0.014
 4924.00    1.22568   1.10700    0.014
 4925.00    1.21677   1.13675    0.014
 4926.00    1.19019   1.16087    0.014
 4927.00    1.23130   1.17041    0.014
 4928.00    1.34590   1.16166    0.014
 4929.00    1.34093   1.12861    0.014
 4930.00    1.22146   1.07443    0.014
 4931.00    1.17529   1.04831    0.014
 4932.00    1.19101   1.06837    0.014
 4933.00    1.18075   1.07478    0.014
 4934.00    1.15116   1.02946    0.014
 4935.00    1.23374   0.96951    0.014
 4936.00    1.38959   0.95750    0.014
 4937.00    1.42538   1.01069    0.014
 4938.00    1.39254   1.08036    0.014
 4939.00    1.32342   1.12163    0.014
 4940.00    1.23624   1.14270    0.000
 4941.00    1.17485   1.14917    0.000
 4942.00    1.12457   1.13297    0.000
 4943.00    1.21108   1.11789    0.000
 4944.00    1.34809   1.12906    0.000
 4945.00    1.33596   1.14913    0.000
 4946.00    1.27716   1.15934    0.000
 4947.00    1.19592   1.16640    0.000
 4948.00    1.10882   1.17181    0.000
 4949.00    1.09637   1.16072    0.000
 4950.00    1.09983   1.13626    0.000
 4951.00    1.16063   1.11577    0.000
 4952.00    1.23110   1.08748    0.000
 4953.00    1.23555   1.01729    0.000
 4954.00    1.23159   0.92735    0.000
 4955.00    1.17105   0.91455    0.000
 4956.00    1.10548   1.00014    0.000
 4957.00    1.11729   1.08799    0.000
 4958.00    1.13318   1.11809    0.000
 4959.00    1.12648   1.11674    0.000
 4960.00    1.11986   1.11287    0.000
 4961.00    1.15342   1.09154    0.000
 4962.00    1.18693   1.04833    0.000
 4963.00    1.21946   1.01806    0.000
 4964.00    1.24920   1.01635    0.000
 4965.00    1.24480   1.02625    0.000
 4966.00    1.23080   1.03886    0.000
 4967.00    1.13637   1.05340    0.000
 4968.00    1.05971   1.07326    0.000
 4969.00    1.09396   1.09699    0.000
 4970.00    1.11991   1.11483    0.000
 4971.00    1.10518   1.12354    0.000
 4972.00    1.11228   1.11962    0.000
 4973.00    1.20629   1.10332    0.000
 4974.00    1.29598   1.07701    0.000
 4975.00    1.37138   1.04371    0.000
 4976.00    1.40880   1.02159    0.000
 4977.00    1.34008   1.01000    0.000
 4978.00    1.27337   0.97702    0.000
 4979.00    1.21148   0.92124    0.000
 4980.00    1.20222   0.88969    0.000
 4981.00    1.30169   0.90596    0.000
 4982.00    1.33551   0.94597    0.000
 4983.00    1.25136   0.99293    0.000
 4984.00    1.14114   1.03966    0.000
 4985.00    0.98996   1.06313    0.000
 4986.00    0.88545   1.05618    0.000
 4987.00    0.84531   1.03715    0.000
 4988.00    0.88921   1.02891    0.000
 4989.00    1.03513   1.03897    0.000
 4990.00    1.14464   1.04402    0.000
 4991.00    1.21519   1.04058    0.000
 4992.00    1.23657   1.04990    0.000
 4993.00    1.21153   1.06188    0.000
 4994.00    1.18516   1.05902    0.000
 4995.00    1.15768   1.03838    0.000
 4996.00    1.15568   1.00076    0.000
 4997.00    1.17236   0.96656    0.000
 4998.00    1.21522   0.95479    0.000
 4999.00    1.27493   0.95961    0.000
 5000.00    1.19342   0.96508    0.000
 5001.00    1.03240   0.95179    0.000
 5002.00    1.05775   0.91549    0.000
 5003.00    1.17441   0.89143    0.000
 5004.00    1.14237   0.91954    0.000
 5005.00    1.04735   0.98010    0.000
 5006.00    1.16136   1.01702    0.000
 5007.00    1.35117   1.01262    0.000
 5008.00    1.30687   0.97994    0.000
 5009.00    1.19077   0.93067    0.000
 5010.00    1.18226   0.88708    0.000
 5011.00    1.20123   0.87176    0.000
 5012.00    1.13874   0.89106    0.000
 5013.00    1.05932   0.92189    0.000
 5014.00    1.07612   0.93319    0.000
 5015.00    1.10866   0.93442    0.000
 5016.00    1.17717   0.94794    0.000
 5017.00    1.25009   0.96160    0.000
 5018.00    1.16645   0.95499    0.000
 5019.00    1.06957   0.94223    0.000
 5020.00    1.12210   0.95448    0.000
 5021.00    1.18193   0.98503    0.000
 5022.00    1.27557   1.00161    0.000
 5023.00    1.36696   0.99185    0.000
 5024.00    1.28966   0.96812    0.000
 5025.00    1.21855   0.96691    0.000
 5026.00    1.27155   0.99815    0.000
 5027.00    1.31470   1.02897    0.000
 5028.00    1.24267   1.05061    0.000
 5029.00    1.19059   1.07640    0.014
 5030.00    1.29960   1.09476    0.014
 5031.00    1.40416   1.07517    0.014
 5032.00    1.48177   1.01721    0.014
 5033.00    1.51012   0.97171    0.014
 5034.00    1.30289   0.96920    0.014
 5035.00    1.14642   0.96538    0.013
 5036.00    1.18766   0.91989    0.014
 5037.00    1.19830   0.85323    0.014
 5038.00    1.10972   0.82409    0.013
 5039.00    1.09359   0.87376    0.013
 5040.00    1.27630   0.96451    0.014
 5041.00    1.36831   1.03626    0.013
 5042.00    1.24706   1.08100    0.013
 5043.00    1.17141   1.09652    0.013
 5044.00    1.18847   1.06514    0.013
 5045.00    1.23528   1.00256    0.013
 5046.00    1.33475   0.95682    0.013
 5047.00    1.37016   0.94744    0.013
 5048.00    1.30640   0.95488    0.013
 5049.00    1.25201   0.96961    0.013
 5050.00    1.21036   0.99882    0.013
 5051.00    1.20040   1.03381    0.013
 5052.00    1.22838   1.05500    0.013
 5053.00    1.25167   1.05932    0.013
 5054.00    1.27002   1.06207    0.013
 5055.00    1.29243   1.06991    0.013
 5056.00    1.31860   1.07704    0.013
 5057.00    1.27928   1.08790    0.013
 5058.00    1.18622   1.10275    0.013
 5059.00    1.17465   1.10059    0.013
 5060.00    1.22194   1.06104    0.013
 5061.00    1.21570   0.99639    0.013
 5062.00    1.17551   0.95728    0.013
 5063.00    1.17572   0.96470    0.013
 5064.00    1.19834   0.97785    0.013
 5065.00    1.20488   0.97784    0.013
 5066.00    1.20366   0.98980    0.013
 5067.00    1.17123   1.01044    0.013
 5068.00    1.12581   1.00565    0.013
 5069.00    1.13747   0.98464    0.013
 5070.00    1.16945   0.98681    0.013
 5071.00    1.13122   1.00290    0.013
 5072.00    1.07186   1.00380    0.013
 5073.00    1.09116   1.00092    0.013
 5074.00    1.13010   1.00147    0.013
 5075.00    1.11927   0.97089    0.013
 5076.00    1.09835   0.90502    0.013
 5077.00    1.14819   0.86629    0.013
 5078.00    1.20926   0.88466    0.013
 5079.00    1.27279   0.91762    0.013
 5080.00    1.33660   0.93514    0.013
 5081.00    1.21932   0.95401    0.013
 5082.00    1.08748   0.98198    0.013
 5083.00    1.10468   1.00066    0.013
 5084.00    1.12859   1.00452    0.013
 5085.00    1.20897   1.00769    0.013
 5086.00    1.28885   1.01633    0.013
 5087.00    1.31040   1.02282    0.013
 5088.00    1.33066   1.02941    0.013
 5089.00    1.32686   1.04587    0.013
 5090.00    1.32400   1.06217    0.013
 5091.00    1.33164   1.05772    0.013
 5092.00    1.32211   1.03206    0.013
 5093.00    1.17876   0.99781    0.013
 5094.00    1.06026   0.95792    0.013
 5095.00    1.08821   0.91628    0.013
 5096.00    1.11599   0.90059    0.013
 5097.00    1.14299   0.93334    0.013
 5098.00    1.17850   0.98462    0.013
 5099.00    1.24641   1.00895    0.013
 5100.00    1.29098   1.00061    0.013
 5101.00    1.26129   0.98398    0.013
 5102.00    1.21780   0.97378    0.013
 5103.00    1.13712   0.96135    0.013
 5104.00    1.10147   0.94224    0.013
 5105.00    1.16992   0.93025    0.013
 5106.00    1.22748   0.92715    0.013
 5107.00    1.26324   0.93048    0.013
 5108.00    1.26109   0.95165    0.013
 5109.00    1.19290   0.97981    0.013
 5110.00    1.12705   0.99693    0.013
 5111.00    1.06476   1.00864    0.013
 5112.00    1.05662   1.02027    0.013
 5113.00    1.12103   1.03465    0.014
 5114.00    1.18134   1.05231    0.014
 5115.00    1.23681   1.05910    0.014
 5116.00    1.27727   1.04566    0.014
 5117.00    1.30211   1.01790    0.014
 5118.00    1.27539   0.98517    0.014
 5119.00    1.20136   0.94852    0.014
 5120.00    1.19638   0.90943    0.013
 5121.00    1.24726   0.88859    0.013
 5122.00    1.21995   0.89587    0.013
 5123.00    1.13697   0.90921    0.013
 5124.00    1.15313   0.91146    0.013
 5125.00    1.23123   0.90839    0.013
 5126.00    1.26154   0.91128    0.013
 5127.00    1.26577   0.92761    0.013
 5128.00    1.22938   0.95278    0.013
 5129.00    1.17373   0.97013    0.013
 5130.00    1.16215   0.97748    0.013
 5131.00    1.16862   0.99064    0.013
 5132.00    1.17749   1.00466    0.013
 5133.00    1.18719   0.99237    0.013
 5134.00    1.20350   0.95666    0.013
 5135.00    1.22177   0.92285    0.012
 5136.00    1.10024   0.91209    0.012
 5137.00    0.94456   0.93110    0.012
 5138.00    0.97325   0.94110    0.013
 5139.00    1.03837   0.92040    0.013
 5140.00    1.14284   0.91286    0.013
 5141.00    1.25337   0.92963    0.013
 5142.00    1.26154   0.93122    0.013
 5143.00    1.25805   0.91315    0.013
 5144.00    1.15554   0.90265    0.013
 5145.00    1.04548   0.91257    0.012
 5146.00    1.12218   0.92899    0.012
 5147.00    1.20656   0.92805    0.013
 5148.00    1.23516   0.91201    0.013
 5149.00    1.26266   0.90027    0.013
 5150.00    1.26287   0.89979    0.013
 5151.00    1.26181   0.91201    0.013
 5152.00    1.23890   0.93922    0.013
 5153.00    1.22046   0.97432    0.013
 5154.00    1.24951   1.00359    0.013
 5155.00    1.26363   1.01509    0.013
 5156.00    1.16533   1.01347    0.013
 5157.00    1.08768   1.01128    0.013
 5158.00    1.12835   0.99903    0.013
 5159.00    1.17384   0.97155    0.013
 5160.00    1.24124   0.94357    0.013
 5161.00    1.30240   0.90420    0.013
 5162.00    1.34026   0.82966    0.013
 5163.00    1.34077   0.73332    0.013
 5164.00    1.22471   0.66507    0.013
 5165.00    1.11734   0.67038    0.013
 5166.00    1.03298   0.73343    0.013
 5167.00    0.95394   0.77233    0.013
 5168.00    0.88701   0.72768    0.013
 5169.00    0.85520   0.65414    0.013
 5170.00    0.89253   0.66030    0.013
 5171.00    0.92994   0.75887    0.013
 5172.00    0.96751   0.86105    0.013
 5173.00    0.97175   0.91103    0.013
 5174.00    0.92590   0.92914    0.013
 5175.00    0.93648   0.93703    0.013
 5176.00    1.02157   0.92890    0.013
 5177.00    1.09032   0.89772    0.013
 5178.00    1.14003   0.83448    0.013
 5179.00    1.12498   0.73570    0.013
 5180.00    1.04349   0.65018    0.013
 5181.00    1.07059   0.65968    0.013
 5182.00    1.19596   0.76621    0.013
 5183.00    1.18641   0.88017    0.013
 5184.00    1.06926   0.93789    0.013
 5185.00    1.07241   0.95456    0.013
 5186.00    1.15997   0.96763    0.013
 5187.00    1.14445   0.96086    0.013
 5188.00    1.06549   0.90529    0.013
 5189.00    1.11651   0.85014    0.013
 5190.00    1.23740   0.85262    0.000
 5191.00    1.25434   0.88289    0.000
 5192.00    1.22275   0.89998    0.000
 5193.00    1.24925   0.91756    0.000
 5194.00    1.29912   0.94620    0.000
 5195.00    1.21694   0.97321    0.000
 5196.00    1.08945   0.99101    0.000
 5197.00    1.12833   0.99493    0.000
 5198.00    1.21527   0.98425    0.000
 5199.00    1.24085   0.96577    0.000
 5200.00    1.25178   0.93495    0.000
 5201.00    1.28392   0.87999    0.000
 5202.00    1.32016   0.82401    0.000
 5203.00    1.21738   0.80157    0.000
 5204.00    1.09382   0.79817    0.000
 5205.00    1.07161   0.79358    0.000
 5206.00    1.06050   0.81148    0.000
 5207.00    1.16076   0.86260    0.000
 5208.00    1.26907   0.92559    0.000
 5209.00    1.23961   0.97844    0.000
 5210.00    1.20500   1.00185    0.000
 5211.00    1.26913   0.98640    0.013
 5212.00    1.33183   0.94931    0.013
 5213.00    1.32637   0.92881    0.013
 5214.00    1.31463   0.94487    0.012
 5215.00    1.20126   0.98227    0.012
 5216.00    1.10944   1.01349    0.013
 5217.00    1.23703   1.02790    0.013
 5218.00    1.35599   1.02944    0.013
 5219.00    1.41215   1.01328    0.013
 5220.00    1.44698   0.97239    0.013
 5221.00    1.36290   0.91264    0.013
 5222.00    1.27120   0.84787    0.013
 5223.00    1.14557   0.80128    0.013
 5224.00    1.06089   0.81176    0.013
 5225.00    1.12580   0.88451    0.013
 5226.00    1.16730   0.96114    0.013
 5227.00    1.13714   0.99875    0.013
 5228.00    1.12617   0.99749    0.013
 5229.00    1.16513   0.96423    0.013
 5230.00    1.18684   0.93035    0.013
 5231.00    1.16996   0.93042    0.013
 5232.00    1.20258   0.96213    0.013
 5233.00    1.33116   1.00628    0.013
 5234.00    1.38377   1.03946    0.013
 5235.00    1.30798   1.04717    0.013
 5236.00    1.23585   1.03936    0.013
 5237.00    1.16911   1.03406    0.013
 5238.00    1.15074   1.03334    0.013
 5239.00    1.19533   1.03083    0.013
 5240.00    1.23250   1.03550    0.013
 5241.00    1.26118   1.04954    0.013
 5242.00    1.29050   1.03973    0.013
 5243.00    1.32048   0.98838    0.013
 5244.00    1.28801   0.94132    0.013
 5245.00    1.19983   0.93546    0.013
 5246.00    1.11837   0.93766    0.013
 5247.00    1.04218   0.92589    0.013
 5248.00    1.07476   0.93051    0.013
 5249.00    1.18255   0.95693    0.013
 5250.00    1.18110   0.97061    0.013
 5251.00    1.11342   0.95821    0.013
 5252.00    1.11847   0.95443    0.013
 5253.00    1.16200   0.99177    0.013
 5254.00    1.20392   1.04512    0.013
 5255.00    1.24510   1.07295    0.013
 5256.00    1.28056   1.06469    0.013
 5257.00    1.31375   1.02723    0.013
 5258.00    1.31210   0.96963    0.013
 5259.00    1.29871   0.90346    0.013
 5260.00    1.28994   0.84456    0.013
 5261.00    1.28248   0.80209    0.013
 5262.00    1.28340   0.78014    0.013
 5263.00    1.28628   0.79346    0.013
 5264.00    1.27234   0.82663    0.013
 5265.00    1.25526   0.81222    0.013
 5266.00    1.17824   0.75073    0.013
 5267.00    1.09255   0.74346    0.013
 5268.00    1.08871   0.82219    0.013
 5269.00    1.09348   0.90398    0.013
 5270.00    1.08771   0.93469    0.013
 5271.00    1.08121   0.93088    0.013
 5272.00    1.08279   0.92710    0.013
 5273.00    1.08464   0.95736    0.013
 5274.00    1.15199   1.01509    0.013
 5275.00    1.21899   1.05203    0.013
 5276.00    1.27264   1.04400    0.013
 5277.00    1.32455   1.00716    0.013
 5278.00    1.34991   0.96795    0.013
 5279.00    1.36895   0.93895    0.013
 5280.00    1.32637   0.92685    0.013
 5281.00    1.29363   0.95115    0.013
 5282.00    1.33024   1.01367    0.013
 5283.00    1.36573   1.07066    0.013
 5284.00    1.39519   1.08615    0.013
 5285.00    1.41336   1.07673    0.013
 5286.00    1.38243   1.07659    0.013
 5287.00    1.36327   1.08892    0.013
 5288.00    1.38620   1.09206    0.013
 5289.00    1.40222   1.07744    0.013
 5290.00    1.39749   1.05944    0.013
 5291.00    1.40076   1.04646    0.013
 5292.00    1.42449   1.01888    0.013
 5293.00    1.43856   0.96017    0.013
 5294.00    1.43140   0.89937    0.013
 5295.00    1.40579   0.88926    0.013
 5296.00    1.34496   0.93124    0.013
 5297.00    1.31736   0.96793    0.013
 5298.00    1.34509   0.97601    0.013
 5299.00    1.36462   0.99018    0.013
 5300.00    1.37216   1.02994    0.013
 5301.00    1.36032   1.07349    0.013
 5302.00    1.32360   1.09264    0.013
 5303.00    1.30024   1.08240    0.013
 5304.00    1.29197   1.06612    0.013
 5305.00    1.31224   1.06968    0.013
 5306.00    1.36096   1.08781    0.013
 5307.00    1.34797   1.09743    0.013
 5308.00    1.28069   1.09125    0.012
 5309.00    1.25050   1.07706    0.012
 5310.00    1.24905   1.06442    0.013
 5311.00    1.34263   1.05658    0.013
 5312.00    1.50098   1.04650    0.012
 5313.00    1.53018   1.03348    0.012
 5314.00    1.48226   1.02956    0.013
 5315.00    1.44309   1.03446    0.012
 5316.00    1.40849   1.03627    0.012
 5317.00    1.40790   1.03394    0.012
 5318.00    1.42267   1.02832    0.012
 5319.00    1.38516   1.01023    0.012
 5320.00    1.32734   0.97687    0.012
 5321.00    1.31165   0.95224    0.012
 5322.00    1.30989   0.94919    0.012
 5323.00    1.24753   0.92300    0.012
 5324.00    1.16838   0.84468    0.012
 5325.00    1.16658   0.78381    0.012
 5326.00    1.18241   0.81876    0.012
 5327.00    1.15260   0.91240    0.012
 5328.00    1.11444   0.97786    0.012
 5329.00    1.21890   0.99590    0.012
 5330.00    1.34335   1.00733    0.012
 5331.00    1.28934   1.03447    0.012
 5332.00    1.21733   1.05549    0.012
 5333.00    1.16259   1.05453    0.012
 5334.00    1.10896   1.04224    0.012
 5335.00    1.10659   1.01921    0.012
 5336.00    1.10594   0.97326    0.012
 5337.00    1.18596   0.92929    0.012
 5338.00    1.26434   0.93463    0.012
 5339.00    1.29603   0.98052    0.012
 5340.00    1.32762   1.01623    0.012
 5341.00    1.35781   1.01949    0.012
 5342.00    1.38131   1.00350    0.012
 5343.00    1.34202   0.99276    0.012
 5344.00    1.31222   0.98808    0.012
 5345.00    1.34704   0.97368    0.012
 5346.00    1.37878   0.96673    0.012
 5347.00    1.39426   0.99205    0.012
 5348.00    1.39625   1.03235    0.012
 5349.00    1.34090   1.05724    0.012
 5350.00    1.28674   1.06983    0.012
 5351.00    1.23671   1.08863    0.012
 5352.00    1.21996   1.10832    0.012
 5353.00    1.30129   1.11600    0.012
 5354.00    1.36310   1.11538    0.012
 5355.00    1.37581   1.11251    0.012
 5356.00    1.39328   1.10583    0.012
 5357.00    1.42100   1.08921    0.012
 5358.00    1.44889   1.06343    0.012
 5359.00    1.47707   1.04250    0.012
 5360.00    1.49844   1.03114    0.012
 5361.00    1.50864   1.01782    0.012
 5362.00    1.48535   1.00474    0.012
 5363.00    1.41388   1.00132    0.012
 5364.00    1.34301   0.99960    0.012
 5365.00    1.27290   0.98340    0.012
 5366.00    1.22976   0.94025    0.012
 5367.00    1.21668   0.88649    0.012
 5368.00    1.22046   0.87181   -2.000
 5369.00    1.24079   0.92193   -2.000
 5370.00    1.26201   0.99926   -2.000
 5371.00    1.28400   1.05225   -2.000
 5372.00    1.32457   1.06775   -2.000
 5373.00    1.37934   1.05847   -2.000
 5374.00    1.39252   1.04949   -2.000
 5375.00    1.37779   1.05458   -2.000
 5376.00    1.34901   1.05862   -2.000
 5377.00    1.31197   1.04930   -2.000
 5378.00    1.39804   1.03374   -2.000
 5379.00    1.54724   1.01895   -2.000
 5380.00    1.55756   1.01340   -2.000
 5381.00    1.50618   1.02557   -2.000
 5382.00    1.46203   1.04168   -2.000
 5383.00    1.42064   1.04417    0.012
 5384.00    1.39134   1.03468    0.012
 5385.00    1.36595   1.01654    0.012
 5386.00    1.42860   0.99148    0.012
 5387.00    1.51515   0.97048    0.012
 5388.00    1.45091   0.96187    0.012
 5389.00    1.35308   0.96132    0.012
 5390.00    1.35011   0.96205    0.012
 5391.00    1.36398   0.95969    0.012
 5392.00    1.28637   0.94261    0.012
 5393.00    1.19634   0.90727    0.012
 5394.00    1.16778   0.89151    0.012
 5395.00    1.14516   0.92384    0.012
 5396.00    1.22486   0.96601    0.012
 5397.00    1.31071   0.98381    0.012
 5398.00    1.25349   0.99121    0.012
 5399.00    1.19299   0.98851    0.012
 5400.00    1.20720   0.95076    0.012
 5401.00    1.22224   0.88651    0.012
 5402.00    1.25856   0.84320    0.012
 5403.00    1.28962   0.85370    0.012
 5404.00    1.24954   0.89682    0.012
 5405.00    1.21588   0.91976    0.012
 5406.00    1.24002   0.90963    0.012
 5407.00    1.26155   0.90991    0.012
 5408.00    1.26583   0.94743    0.012
 5409.00    1.28058   0.99201    0.012
 5410.00    1.34915   1.01044    0.012
 5411.00    1.38140   1.00973    0.012
 5412.00    1.26284   1.01716    0.012
 5413.00    1.19645   1.03945    0.012
 5414.00    1.30922   1.05509    0.012
 5415.00    1.37917   1.04782    0.012
 5416.00    1.32524   1.02489    0.012
 5417.00    1.30080   1.00699    0.012
 5418.00    1.34920   1.00826    0.012
 5419.00    1.39895   1.01148    0.012
 5420.00    1.45157   0.99423    0.012
 5421.00    1.46735   0.98027    0.012
 5422.00    1.41502   1.00230    0.012
 5423.00    1.38850   1.04002    0.012
 5424.00    1.40368   1.04391    0.012
 5425.00    1.42529   0.99245    0.012
 5426.00    1.45599   0.93144    0.012
 5427.00    1.43301   0.92541    0.012
 5428.00    1.34306   0.95445    0.012
 5429.00    1.27186   0.95638    0.012
 5430.00    1.22126   0.92955    0.012
 5431.00    1.24175   0.90854    0.012
 5432.00    1.33114   0.91224    0.012
 5433.00    1.35362   0.94090    0.012
 5434.00    1.31887   0.98642    0.011
 5435.00    1.29738   1.03408    0.012
 5436.00    1.28587   1.06678    0.012
 5437.00    1.29747   1.07965    0.012
 5438.00    1.32436   1.08091    0.012
 5439.00    1.38100   1.07792    0.012
 5440.00    1.45489   1.06394    0.012
 5441.00    1.46156   1.02473    0.012
 5442.00    1.43431   0.96079    0.012
 5443.00    1.36708   0.90461    0.012
 5444.00    1.28240   0.90208    0.012
 5445.00    1.21138   0.95212    0.012
 5446.00    1.14550   1.00383    0.012
 5447.00    1.15367   1.02525    0.012
 5448.00    1.18541   1.02183    0.011
 5449.00    1.25849   1.00503    0.012
 5450.00    1.34256   0.97366    0.012
 5451.00    1.35274   0.92757    0.012
 5452.00    1.34685   0.89606    0.012
 5453.00    1.30340   0.91637    0.012
 5454.00    1.25347   0.97413    0.012
 5455.00    1.23077   1.01908    0.012
 5456.00    1.21163   1.02619    0.012
 5457.00    1.27993   1.00641    0.012
 5458.00    1.35631   0.97743    0.012
 5459.00    1.35492   0.94968    0.012
 5460.00    1.34916   0.94198    0.012
 5461.00    1.37900   0.96314    0.012
 5462.00    1.40945   0.98675    0.012
 5463.00    1.42089   0.99493    0.012
 5464.00    1.43550   0.99963    0.011
 5465.00    1.52442   1.00190    0.012
 5466.00    1.60551   0.99105    0.012
 5467.00    1.58594   0.97700    0.012
 5468.00    1.54984   0.97248    0.012
 5469.00    1.37066   0.96582    0.011
 5470.00    1.21732   0.95162    0.011
 5471.00    1.22962   0.93863    0.011
 5472.00    1.24540   0.91451    0.011
 5473.00    1.27858   0.88237    0.011
 5474.00    1.29315   0.88712    0.011
 5475.00    1.23224   0.93390    0.011
 5476.00    1.19516   0.96422    0.011
 5477.00    1.23832   0.94705    0.011
 5478.00    1.25785   0.91995   -2.000
 5479.00    1.21026   0.92545   -2.000
 5480.00    1.26995   0.96026   -2.000
 5481.00    1.59006   0.99829   -2.000
 5482.00    1.82228   1.01306   -2.000
 5483.00    1.87036   0.99298   -2.000
 5484.00    1.73909   0.96291   -2.000
 5485.00    1.28121   0.95578   -2.000
 5486.00    0.86230   0.96755   -2.000
 5487.00    0.50542   0.98059   -2.000
 5488.00    0.43737   0.99063   -2.000
 5489.00    0.77281   0.98955   -2.000
 5490.00    1.11261   0.97919   -2.000
 5491.00    1.45779   0.97837   -2.000
 5492.00    1.69407   0.98339   -2.000
 5493.00    1.81235   0.97487   -2.000
 5494.00    1.74804   0.96665   -2.000
 5495.00    1.50922   0.98306   -2.000
 5496.00    1.41273   1.00299   -2.000
 5497.00    1.43623   0.99274   -2.000
 5498.00    1.39755   0.96474   -2.000
 5499.00    1.31273   0.95141   -2.000
 5500.00    1.30438   0.95605   -2.000
 5501.00    1.34587   0.95795   -2.000
 5502.00    1.38984   0.94373    0.012
 5503.00    1.43522   0.93115    0.012
 5504.00    1.36260   0.94530    0.012
 5505.00    1.23137   0.97113    0.012
 5506.00    1.26423   0.97879    0.011
 5507.00    1.36760   0.96407    0.012
 5508.00    1.33560   0.93561    0.012
 5509.00    1.25374   0.90977    0.011
 5510.00    1.25297   0.90412    0.011
 5511.00    1.27751   0.91663    0.011
 5512.00    1.30719   0.93510    0.011
 5513.00    1.33820   0.95569    0.011
 5514.00    1.33631   0.98232    0.011
 5515.00    1.32744   1.00926    0.011
 5516.00    1.30817   1.02050    0.011
 5517.00    1.28715   1.01561    0.011
 5518.00    1.29178   1.00880    0.011
 5519.00    1.29966   1.00693    0.011
 5520.00    1.25734   1.00619    0.011
 5521.00    1.21060   0.99980    0.011
 5522.00    1.16548   0.98356    0.011
 5523.00    1.12044   0.95590    0.011
 5524.00    1.19856   0.92385    0.011
 5525.00    1.27878   0.91324    0.011
 5526.00    1.34373   0.93915    0.011
 5527.00    1.40472   0.97515    0.011
 5528.00    1.38024   0.99035    0.011
 5529.00    1.35416   0.98675    0.011
 5530.00    1.30863   0.97766    0.011
 5531.00    1.27629   0.96747    0.011
 5532.00    1.35385   0.96304    0.011
 5533.00    1.41059   0.96820    0.011
 5534.00    1.33779   0.97408    0.011
 5535.00    1.27774   0.98104    0.011
 5536.00    1.28001   0.99693    0.011
 5537.00    1.28672   1.01409    0.011
 5538.00    1.31105   1.01631    0.011
 5539.00    1.33298   1.00115    0.011
 5540.00    1.34698   0.98610    0.011
 5541.00    1.35671   0.98316    0.011
 5542.00    1.35453   0.98390    0.011
 5543.00    1.36446   0.98692    0.012
 5544.00    1.40326   1.00252    0.012
 5545.00    1.41920   1.02360    0.012
 5546.00    1.38802   1.03469    0.012
 5547.00    1.35585   1.03517    0.012
 5548.00    1.32190   1.02833    0.011
 5549.00    1.30606   1.01294    0.011
 5550.00    1.31863   0.99417    0.011
 5551.00    1.33671   0.98478    0.011
 5552.00    1.36239   0.98854    0.011
 5553.00    1.35206   0.99330    0.011
 5554.00    1.29808   0.99171    0.011
 5555.00    1.24667   0.99100    0.012
 5556.00    1.19802   0.99299    0.011
 5557.00    1.22776   0.98988    0.011
 5558.00    1.33137   0.97839    0.011
 5559.00    1.35384   0.96510    0.011
 5560.00    1.30887   0.96018    0.011
 5561.00    1.28277   0.95963    0.011
 5562.00    1.27048   0.95254    0.011
 5563.00    1.30317   0.94537    0.011
 5564.00    1.36476   0.94636    0.011
 5565.00    1.38239   0.94748    0.011
 5566.00    1.37533   0.94869    0.011
 5567.00    1.35079   0.95843    0.011
 5568.00    1.31771   0.96112    0.011
 5569.00    1.30335   0.94804    0.011
 5570.00    1.29689   0.94806    0.011
 5571.00    1.32671   0.96744    0.011
 5572.00    1.36965   0.97894    0.011
 5573.00    1.34709   0.98077    0.011
 5574.00    1.30448   0.98399    0.011
 5575.00    1.30450   0.98579    0.011
 5576.00    1.31536   0.98796    0.011
 5577.00    1.32017   0.98968    0.011
 5578.00    1.32373   0.98396    0.011
 5579.00    1.36994   0.97678    0.011
 5580.00    1.42309   0.97138    0.011
 5581.00    1.39703   0.95604    0.011
 5582.00    1.36128   0.92349    0.011
 5583.00    1.37440   0.88233    0.011
 5584.00    1.39162   0.85255    0.011
 5585.00    1.26332   0.84792    0.011
 5586.00    1.12798   0.86618    0.011
 5587.00    1.17347   0.89469    0.011
 5588.00    1.22028   0.91597    0.011
 5589.00    1.18470   0.92169    0.011
 5590.00    1.15150   0.91985    0.011
 5591.00    1.16536   0.92945    0.011
 5592.00    1.18861   0.95836    0.011
 5593.00    1.32083   0.97840    0.012
 5594.00    1.42522   0.96305    0.012
 5595.00    1.30585   0.93304    0.012
 5596.00    1.20913   0.91528    0.012
 5597.00    1.24917   0.90348    0.012
 5598.00    1.28367   0.89040    0.012
 5599.00    1.29180   0.88933    0.012
 5600.00    1.31439   0.91468    0.012
 5601.00    1.39315   0.95883    0.012
 5602.00    1.41736   0.99752    0.012
 5603.00    1.26509   1.01673    0.011
 5604.00    1.16134   1.01880    0.011
 5605.00    1.19048   1.01309    0.011
 5606.00    1.24588   1.00866    0.011
 5607.00    1.36289   1.01082    0.011
 5608.00    1.43460   1.01828    0.011
 5609.00    1.41443   1.01729    0.011
 5610.00    1.39789   0.98502    0.011
 5611.00    1.38776   0.92142    0.011
 5612.00    1.38687   0.87440    0.011
 5613.00    1.40026   0.88385    0.011
 5614.00    1.36963   0.92090    0.011
 5615.00    1.27926   0.93991    0.011
 5616.00    1.24680   0.94190    0.011
 5617.00    1.28354   0.95016    0.011
 5618.00    1.28926   0.96513    0.011
 5619.00    1.26229   0.96302    0.011
 5620.00    1.23324   0.93118    0.011
 5621.00    1.20227   0.89602    0.011
 5622.00    1.18358   0.89367    0.011
 5623.00    1.17496   0.91917    0.011
 5624.00    1.17546   0.94492    0.011
 5625.00    1.18254   0.96561    0.011
 5626.00    1.19459   0.98547    0.011
 5627.00    1.20978   0.99806    0.011
 5628.00    1.17402   0.99888    0.011
 5629.00    1.11007   0.99120    0.011
 5630.00    1.21035   0.97878    0.011
 5631.00    1.38964   0.96432    0.011
 5632.00    1.39762   0.94897    0.011
 5633.00    1.33443   0.93445    0.011
 5634.00    1.28045   0.92867    0.011
 5635.00    1.22976   0.93564    0.011
 5636.00    1.24202   0.94244    0.011
 5637.00    1.27318   0.93615    0.011
 5638.00    1.31662   0.92690    0.011
 5639.00    1.36313   0.92921    0.011
 5640.00    1.37816   0.93839    0.011
 5641.00    1.38682   0.94667    0.011
 5642.00    1.34014   0.95420    0.011
 5643.00    1.28470   0.96099    0.011
 5644.00    1.26679   0.96360    0.011
 5645.00    1.25330   0.95899    0.011
 5646.00    1.25957   0.95375    0.011
 5647.00    1.26742   0.95944    0.011
 5648.00    1.20086   0.97431    0.011
 5649.00    1.13099   0.98180    0.011
 5650.00    1.22466   0.96993    0.011
 5651.00    1.31749   0.95046    0.011
 5652.00    1.27889   0.94402    0.011
 5653.00    1.24197   0.93789    0.011
 5654.00    1.23615   0.90603    0.011
 5655.00    1.23235   0.87424    0.011
 5656.00    1.25087   0.88315    0.011
 5657.00    1.26312   0.91040    0.011
 5658.00    1.22668   0.91606    0.011
 5659.00    1.20444   0.91173    0.011
 5660.00    1.26549   0.92550    0.011
 5661.00    1.31800   0.95127    0.011
 5662.00    1.33075   0.96434    0.011
 5663.00    1.32584   0.95633    0.011
 5664.00    1.25377   0.94197    0.011
 5665.00    1.19915   0.93751    0.011
 5666.00    1.19993   0.94209    0.011
 5667.00    1.22371   0.94989    0.011
 5668.00    1.30935   0.96451    0.011
 5669.00    1.36489   0.98623    0.011
 5670.00    1.35097   1.00049    0.011
 5671.00    1.34036   0.99837    0.011
 5672.00    1.33636   0.99330    0.011
 5673.00    1.31575   0.99630    0.011
 5674.00    1.26627   0.99688    0.011
 5675.00    1.24693   0.98761    0.011
 5676.00    1.27348   0.97796    0.011
 5677.00    1.27651   0.97008    0.011
 5678.00    1.24808   0.95374    0.011
 5679.00    1.23980   0.93572    0.011
 5680.00    1.25524   0.93554    0.011
 5681.00    1.27495   0.94858    0.011
 5682.00    1.29910   0.95086    0.011
 5683.00    1.32126   0.93613    0.011
 5684.00    1.34161   0.92255    0.011
 5685.00    1.32512   0.92631    0.011
 5686.00    1.27890   0.94527    0.011
 5687.00    1.27472   0.96692    0.011
 5688.00    1.30042   0.98425    0.011
 5689.00    1.34143   0.99438    0.011
 5690.00    1.39198   0.99330    0.011
 5691.00    1.38343   0.98575    0.011
 5692.00    1.34268   0.98128    0.011
 5693.00    1.31386   0.97680    0.011
 5694.00    1.29069   0.96266    0.011
 5695.00    1.28372   0.94504    0.011
 5696.00    1.28337   0.93358    0.011
 5697.00    1.29177   0.92189    0.011
 5698.00    1.30323   0.91054    0.011
 5699.00    1.26783   0.91333    0.011
 5700.00    1.21865   0.92916    0.011
 5701.00    1.25479   0.93785    0.011
 5702.00    1.31173   0.92613    0.011
 5703.00    1.29967   0.90270    0.011
 5704.00    1.27404   0.88033    0.011
 5705.00    1.25637   0.86407    0.011
 5706.00    1.23992   0.86091    0.011
 5707.00    1.25441   0.86841    0.011
 5708.00    1.27240   0.87859    0.011
 5709.00    1.28700   0.90004    0.011
 5710.00    1.30135   0.93226    0.011
 5711.00    1.28423   0.95667    0.011
 5712.00    1.26584   0.96881    0.011
 5713.00    1.24627   0.97420    0.011
 5714.00    1.22664   0.97570    0.011
 5715.00    1.20439   0.97934    0.011
 5716.00    1.18976   0.98680    0.011
 5717.00    1.30589   0.99473    0.011
 5718.00    1.41393   1.00385    0.011
 5719.00    1.43633   1.01223    0.011
 5720.00    1.45282   1.01411    0.011
 5721.00    1.42511   1.00812    0.011
 5722.00    1.39743   0.99327    0.011
 5723.00    1.36988   0.97237    0.011
 5724.00    1.34866   0.96309    0.011
 5725.00    1.35614   0.97472    0.011
 5726.00    1.36707   0.98523    0.011
 5727.00    1.39085   0.97467    0.010
 5728.00    1.39701   0.95983    0.010
 5729.00    1.34832   0.96562    0.010
 5730.00    1.30529   0.98571    0.010
 5731.00    1.27721   0.99882    0.010
 5732.00    1.27207   0.99827    0.010
 5733.00    1.31897   0.99009    0.010
 5734.00    1.34625   0.98285    0.010
 5735.00    1.33500   0.98077    0.010
 5736.00    1.32244   0.98183    0.010
 5737.00    1.30764   0.98213    0.010
 5738.00    1.30012   0.97860    0.010
 5739.00    1.30354   0.97358    0.010
 5740.00    1.29757   0.97690    0.000
 5741.00    1.27921   0.99130    0.000
 5742.00    1.23725   1.00188    0.000
 5743.00    1.16787   0.99198    0.000
 5744.00    1.15671   0.96793    0.000
 5745.00    1.20515   0.95768    0.000
 5746.00    1.24820   0.97217    0.000
 5747.00    1.28637   0.98689    0.000
 5748.00    1.32642   0.97631    0.000
 5749.00    1.36796   0.94441    0.000
 5750.00    1.40812   0.91831    0.000
 5751.00    1.44730   0.92286    0.000
 5752.00    1.43500   0.95529    0.000
 5753.00    1.39107   0.98875    0.000
 5754.00    1.37852   1.00354    0.000
 5755.00    1.38280   0.99710    0.000
 5756.00    1.33784   0.97438    0.000
 5757.00    1.26995   0.94479    0.000
 5758.00    1.25459   0.92014    0.000
 5759.00    1.26031   0.91466    0.000
 5760.00    1.23245   0.93780    0.000
 5761.00    1.19310   0.97487    0.000
 5762.00    1.22166   0.99977    0.000
 5763.00    1.26978   1.00767    0.000
 5764.00    1.34160   1.00767    0.000
 5765.00    1.41906   1.00363    0.000
 5766.00    1.38578   0.99708    0.000
 5767.00    1.33125   0.98948    0.000
 5768.00    1.35298   0.98085    0.000
 5769.00    1.38606   0.97415    0.000
 5770.00    1.35290   0.97042    0.000
 5771.00    1.31253   0.96894    0.000
 5772.00    1.32723   0.97364    0.000
 5773.00    1.34588   0.98259    0.000
 5774.00    1.31922   0.98576    0.000
 5775.00    1.29088   0.97466    0.000
 5776.00    1.36138   0.94443    0.000
 5777.00    1.43140   0.90291    0.000
 5778.00    1.46973   0.87524    0.000
 5779.00    1.50017   0.87367    0.000
 5780.00    1.40351   0.87862    0.000
 5781.00    1.31192   0.87435    0.000
 5782.00    1.27158   0.87721    0.000
 5783.00    1.23997   0.90250    0.000
 5784.00    1.27157   0.93494    0.000
 5785.00    1.29319   0.95451    0.000
 5786.00    1.25936   0.95520    0.000
 5787.00    1.23077   0.94446    0.000
 5788.00    1.22542   0.94220    0.000
 5789.00    1.23091   0.95623    0.000
 5790.00    1.27591   0.97525    0.000
 5791.00    1.31475   0.98972   -2.000
 5792.00    1.33477   0.99094   -2.000
 5793.00    1.32749   0.97314   -2.000
 5794.00    1.24934   0.95307   -2.000
 5795.00    1.21260   0.95765   -2.000
 5796.00    1.26830   0.98529   -2.000
 5797.00    1.33673   1.01029   -2.000
 5798.00    1.42975   1.01901   -2.000
 5799.00    1.47206   1.01071   -2.000
 5800.00    1.42879   0.98804   -2.000
 5801.00    1.38776   0.96538   -2.000
 5802.00    1.35006   0.95751   -2.000
 5803.00    1.31772   0.96242   -2.000
 5804.00    1.29237   0.97008   -2.000
 5805.00    1.27324   0.97596   -2.000
 5806.00    1.26125   0.98215   -2.000
 5807.00    1.26313   0.98906   -2.000
 5808.00    1.27903   0.99237   -2.000
 5809.00    1.28478   0.99022   -2.000
 5810.00    1.28150   0.98197   -2.000
 5811.00    1.27369   0.96558    0.000
 5812.00    1.26233   0.94811    0.000
 5813.00    1.25346   0.94662    0.000
 5814.00    1.24631   0.96664    0.000
 5815.00    1.27971   0.99172    0.000
 5816.00    1.33766   1.00581    0.000
 5817.00    1.35361   1.00831    0.000
 5818.00    1.34740   1.00380    0.000
 5819.00    1.34606   0.99647    0.000
 5820.00    1.34696   0.99230    0.000
 5821.00    1.35191   0.99420    0.000
 5822.00    1.35846   0.99742    0.000
 5823.00    1.37078   0.99745    0.000
 5824.00    1.38504   0.99701    0.000
 5825.00    1.39657   1.00003    0.000
 5826.00    1.40733   1.00357    0.000
 5827.00    1.39456   1.00247    0.000
 5828.00    1.37631   0.99836    0.000
 5829.00    1.33429   0.99338    0.000
 5830.00    1.28783   0.98469    0.000
 5831.00    1.32802   0.97610    0.000
 5832.00    1.38070   0.97703    0.000
 5833.00    1.41579   0.98239    0.000
 5834.00    1.44904   0.98006    0.000
 5835.00    1.40540   0.97638    0.000
 5836.00    1.35657   0.98411    0.000
 5837.00    1.31285   0.99880    0.000
 5838.00    1.26931   1.00894    0.000
 5839.00    1.25233   1.01114    0.000
 5840.00    1.23626   1.00655    0.000
 5841.00    1.24867   0.99639    0.000
 5842.00    1.26247   0.98232    0.000
 5843.00    1.29715   0.96778    0.000
 5844.00    1.33399   0.95916    0.000
 5845.00    1.39178   0.96023    0.000
 5846.00    1.43468   0.96557    0.000
 5847.00    1.37317   0.96466    0.000
 5848.00    1.31654   0.95132    0.000
 5849.00    1.28624   0.93201    0.000
 5850.00    1.25889   0.92296    0.000
 5851.00    1.24424   0.92749    0.000
 5852.00    1.23806   0.92597    0.000
 5853.00    1.26209   0.90575    0.000
 5854.00    1.26953   0.88576    0.000
 5855.00    1.22722   0.88998    0.000
 5856.00    1.20264   0.91368    0.000
 5857.00    1.22325   0.93516    0.000
 5858.00    1.23628   0.94165    0.000
 5859.00    1.23266   0.93938    0.000
 5860.00    1.22195   0.94175    0.000
 5861.00    1.19778   0.94631    0.000
 5862.00    1.17568   0.94139    0.000
 5863.00    1.15702   0.93249    0.000
 5864.00    1.14466   0.93670    0.000
 5865.00    1.14147   0.95414    0.000
 5866.00    1.14267   0.96970    0.000
 5867.00    1.14949   0.97383    0.000
 5868.00    1.16495   0.96751    0.000
 5869.00    1.19016   0.95797    0.000
 5870.00    1.23416   0.95361    0.000
 5871.00    1.29685   0.95470    0.000
 5872.00    1.30231   0.95361    0.000
 5873.00    1.25753   0.94824    0.000
 5874.00    1.22326   0.94166    0.000
 5875.00    1.19711   0.93171    0.000
 5876.00    1.21020   0.91855    0.000
 5877.00    1.24997   0.91304    0.000
 5878.00    1.23673   0.91940    0.000
 5879.00    1.19190   0.92412    0.000
 5880.00    1.17832   0.91938    0.000
 5881.00    1.18100   0.91514    0.000
 5882.00    1.14950   0.91362    0.000
 5883.00    1.10259   0.89491    0.000
 5884.00    1.09096   0.83267    0.000
 5885.00    1.09300   0.72598    0.000
 5886.00    1.12071   0.63056    0.000
 5887.00    1.15688   0.61913    0.000
 5888.00    1.18421   0.68588    0.000
 5889.00    1.20911   0.75569    0.000
 5890.00    1.15933   0.77475    0.000
 5891.00    1.09257   0.73543    0.000
 5892.00    1.06559   0.68247    0.000
 5893.00    1.04586   0.68818    0.000
 5894.00    1.07037   0.75629    0.000
 5895.00    1.10106   0.82492    0.000
 5896.00    1.11551   0.86636    0.000
 5897.00    1.12832   0.89325    0.000
 5898.00    1.12345   0.91079    0.000
 5899.00    1.11746   0.91922    0.000
 5900.00    1.18992   0.92225    0.000
 5901.00    1.26427   0.91995    0.010
 5902.00    1.19689   0.91567    0.010
 5903.00    1.13264   0.91815    0.010
 5904.00    1.15684   0.92723    0.010
 5905.00    1.17991   0.93428    0.010
 5906.00    1.18693   0.93728    0.010
 5907.00    1.19291   0.94099    0.010
 5908.00    1.18931   0.94243    0.010
 5909.00    1.18594   0.93132    0.009
 5910.00    1.18419   0.90920    0.010
 5911.00    1.19277   0.89230    0.010
 5912.00    1.25570   0.89041    0.010
 5913.00    1.30583   0.90092    0.010
 5914.00    1.30183   0.91600    0.010
 5915.00    1.29145   0.92806    0.010
 5916.00    1.25880   0.93547    0.010
 5917.00    1.24159   0.93688    0.010
 5918.00    1.26983   0.93187    0.010
 5919.00    1.28953   0.92823    0.010
 5920.00    1.28785   0.93151    0.010
 5921.00    1.27764   0.93821    0.010
 5922.00    1.24904   0.94392    0.010
 5923.00    1.22236   0.94382    0.010
 5924.00    1.19928   0.93423    0.010
 5925.00    1.19388   0.91875    0.010
 5926.00    1.21744   0.90795    0.010
 5927.00    1.25064   0.91352    0.010
 5928.00    1.29768   0.93063    0.010
 5929.00    1.30589   0.93789    0.010
 5930.00    1.26505   0.92648    0.010
 5931.00    1.24925   0.91316    0.010
 5932.00    1.26132   0.91611    0.009
 5933.00    1.25830   0.93011    0.009
 5934.00    1.24048   0.94181    0.009
 5935.00    1.22112   0.94735    0.010
 5936.00    1.20042   0.94232    0.010
 5937.00    1.18481   0.92612    0.010
 5938.00    1.17309   0.91337    0.010
 5939.00    1.16952   0.91564    0.010
 5940.00    1.17141   0.92824    0.010
 5941.00    1.18433   0.94229    0.010
 5942.00    1.20372   0.95098    0.009
 5943.00    1.23239   0.94754    0.009
 5944.00    1.26580   0.93093    0.009
 5945.00    1.29616   0.91406    0.010
 5946.00    1.32516   0.91328    0.010
 5947.00    1.32232   0.92308    0.010
 5948.00    1.30734   0.92217    0.010
 5949.00    1.25884   0.91099    0.010
 5950.00    1.19948   0.91019    0.010
 5951.00    1.17933   0.91952    0.010
 5952.00    1.16979   0.91954    0.010
 5953.00    1.18637   0.90921    0.010
 5954.00    1.20875   0.90499    0.010
 5955.00    1.18124   0.91433    0.010
 5956.00    1.14491   0.93105    0.010
 5957.00    1.19205   0.94608    0.010
 5958.00    1.25045   0.95396    0.010
 5959.00    1.26272   0.95447    0.009
 5960.00    1.27056   0.95010    0.009
 5961.00    1.26792   0.94178    0.009
 5962.00    1.26465   0.93406    0.009
 5963.00    1.30086   0.93599    0.009
 5964.00    1.33750   0.94567    0.010
 5965.00    1.28464   0.95403    0.010
 5966.00    1.23367   0.95967    0.009
 5967.00    1.23112   0.96395    0.009
 5968.00    1.23078   0.96528    0.009
 5969.00    1.26034   0.96286    0.009
 5970.00    1.28642   0.95547    0.009
 5971.00    1.28133   0.94030    0.009
 5972.00    1.27989   0.92040    0.009
 5973.00    1.30239   0.90617    0.009
 5974.00    1.31841   0.90425    0.009
 5975.00    1.30121   0.91378    0.009
 5976.00    1.28532   0.92954    0.010
 5977.00    1.27489   0.94068    0.009
 5978.00    1.26903   0.93677    0.009
 5979.00    1.27883   0.91639    0.009
 5980.00    1.28629   0.89146    0.009
 5981.00    1.28697   0.88301    0.009
 5982.00    1.28782   0.89618    0.009
 5983.00    1.28910   0.91340    0.009
 5984.00    1.28300   0.92413    0.009
 5985.00    1.26120   0.93223    0.009
 5986.00    1.24399   0.93695    0.009
 5987.00    1.23527   0.93367    0.009
 5988.00    1.23335   0.92961    0.009
 5989.00    1.24241   0.93649    0.009
 5990.00    1.24081   0.94932    0.009
 5991.00    1.22412   0.95324    0.009
 5992.00    1.21321   0.94253    0.009
 5993.00    1.20949   0.92368    0.009
 5994.00    1.21706   0.90983    0.009
 5995.00    1.23702   0.90984    0.009
 5996.00    1.24500   0.91964    0.009
 5997.00    1.24138   0.92692    0.009
 5998.00    1.24457   0.92281    0.009
 5999.00    1.25357   0.91403    0.009
 6000.00    1.26511   0.91464    0.009
 6001.00    1.27854   0.92024    0.009
 6002.00    1.26718   0.91502    0.009
 6003.00    1.23945   0.89647    0.009
 6004.00    1.24887   0.87890    0.009
 6005.00    1.27977   0.88312    0.009
 6006.00    1.26673   0.90920    0.009
 6007.00    1.23155   0.92929    0.009
 6008.00    1.21952   0.92444    0.009
 6009.00    1.21759   0.90648    0.009
 6010.00    1.21461   0.89818    0.009
 6011.00    1.21123   0.90230    0.009
 6012.00    1.20151   0.90346    0.009
 6013.00    1.18978   0.89962    0.009
 6014.00    1.16028   0.89975    0.009
 6015.00    1.12608   0.89939    0.009
 6016.00    1.15499   0.89257    0.009
 6017.00    1.19758   0.88777    0.009
 6018.00    1.21939   0.89164    0.009
 6019.00    1.23761   0.89940    0.009
 6020.00    1.22720   0.90655    0.009
 6021.00    1.21306   0.91566    0.009
 6022.00    1.23169   0.92440    0.009
 6023.00    1.25332   0.92801    0.009
 6024.00    1.25536   0.93268    0.009
 6025.00    1.25630   0.94138    0.009
 6026.00    1.26879   0.94643    0.009
 6027.00    1.28135   0.94604    0.009
 6028.00    1.27677   0.94743    0.009
 6029.00    1.27125   0.95244    0.009
 6030.00    1.24392   0.95586    0.009
 6031.00    1.21730   0.95593    0.009
 6032.00    1.19981   0.95560    0.009
 6033.00    1.18885   0.95618    0.009
 6034.00    1.23407   0.95546    0.009
 6035.00    1.27720   0.95080    0.009
 6036.00    1.30696   0.94398    0.009
 6037.00    1.32947   0.93971    0.009
 6038.00    1.31578   0.94006    0.009
 6039.00    1.29988   0.94620    0.009
 6040.00    1.27503   0.95593    0.009
 6041.00    1.25255   0.96297    0.009
 6042.00    1.23800   0.96574    0.009
 6043.00    1.22572   0.96622    0.009
 6044.00    1.21989   0.96428    0.009
 6045.00    1.21991   0.96176    0.009
 6046.00    1.23412   0.96290    0.009
 6047.00    1.25846   0.96497    0.009
 6048.00    1.30399   0.96078    0.009
 6049.00    1.33306   0.95029    0.009
 6050.00    1.33220   0.93993    0.009
 6051.00    1.32246   0.93216    0.009
 6052.00    1.29859   0.92516    0.009
 6053.00    1.28073   0.92198    0.009
 6054.00    1.27125   0.92702    0.009
 6055.00    1.25727   0.93804    0.009
 6056.00    1.23775   0.94786    0.009
 6057.00    1.24264   0.95009    0.009
 6058.00    1.27393   0.94294    0.009
 6059.00    1.28626   0.92886    0.009
 6060.00    1.28050   0.91085    0.009
 6061.00    1.27720   0.89479    0.009
 6062.00    1.27597   0.89650    0.009
 6063.00    1.27548   0.92200    0.009
 6064.00    1.27552   0.95161    0.009
 6065.00    1.25488   0.96695    0.009
 6066.00    1.22077   0.96996    0.009
 6067.00    1.20219   0.97021    0.009
 6068.00    1.19246   0.97180    0.009
 6069.00    1.20033   0.97337    0.009
 6070.00    1.21693   0.97309    0.009
 6071.00    1.23793   0.96972    0.009
 6072.00    1.26081   0.96179    0.009
 6073.00    1.23505   0.94830    0.009
 6074.00    1.19141   0.93103    0.009
 6075.00    1.18435   0.91907    0.009
 6076.00    1.18868   0.91764    0.009
 6077.00    1.20366   0.91565    0.009
 6078.00    1.22140   0.90747    0.009
 6079.00    1.21825   0.90513    0.009
 6080.00    1.21068   0.91156    0.009
 6081.00    1.21745   0.91547    0.009
 6082.00    1.22662   0.91572    0.009
 6083.00    1.20936   0.92012    0.009
 6084.00    1.18876   0.92601    0.009
 6085.00    1.14357   0.92202    0.009
 6086.00    1.09622   0.90797    0.009
 6087.00    1.08482   0.89791    0.009
 6088.00    1.07528   0.89822    0.009
 6089.00    1.08260   0.90372    0.009
 6090.00    1.09024   0.91412    0.009
 6091.00    1.09962   0.92846    0.009
 6092.00    1.10983   0.93534    0.009
 6093.00    1.13774   0.93140    0.009
 6094.00    1.16512   0.92890    0.009
 6095.00    1.18609   0.93488    0.009
 6096.00    1.20345   0.93867    0.009
 6097.00    1.19085   0.92065    0.009
 6098.00    1.17921   0.87799    0.009
 6099.00    1.17358   0.84536    0.009
 6100.00    1.17040   0.85726    0.009
 6101.00    1.17906   0.89589    0.009
 6102.00    1.18722   0.92187    0.009
 6103.00    1.19336   0.92537    0.009
 6104.00    1.20023   0.92218    0.009
 6105.00    1.20948   0.92644    0.009
 6106.00    1.21233   0.93264    0.009
 6107.00    1.19738   0.92957    0.009
 6108.00    1.18828   0.92523    0.009
 6109.00    1.19308   0.93235    0.009
 6110.00    1.19030   0.94448    0.009
 6111.00    1.17193   0.94603    0.009
 6112.00    1.15525   0.93522    0.009
 6113.00    1.14160   0.92656    0.009
 6114.00    1.14828   0.92590    0.009
 6115.00    1.18677   0.91957    0.009
 6116.00    1.22189   0.89850    0.009
 6117.00    1.25238   0.86953    0.009
 6118.00    1.26520   0.84887    0.009
 6119.00    1.25666   0.85675    0.009
 6120.00    1.23492   0.88881    0.009
 6121.00    1.19912   0.91318    0.009
 6122.00    1.17463   0.91506    0.009
 6123.00    1.16078   0.90570    0.009
 6124.00    1.16461   0.89769    0.009
 6125.00    1.18310   0.89904    0.009
 6126.00    1.22080   0.91168    0.009
 6127.00    1.27254   0.92732    0.009
 6128.00    1.28348   0.93676    0.009
 6129.00    1.26826   0.93679    0.009
 6130.00    1.24573   0.92225    0.009
 6131.00    1.21911   0.88599    0.009
 6132.00    1.18731   0.83295    0.009
 6133.00    1.15298   0.79199    0.009
 6134.00    1.16544   0.79952    0.009
 6135.00    1.19764   0.85134    0.009
 6136.00    1.20537   0.89768    0.009
 6137.00    1.20427   0.90547    0.009
 6138.00    1.17032   0.89517    0.009
 6139.00    1.12634   0.90125    0.009
 6140.00    1.12312   0.92298    0.009
 6141.00    1.13025   0.93802    0.009
 6142.00    1.12545   0.93867    0.009
 6143.00    1.11820   0.93029    0.009
 6144.00    1.15520   0.91664    0.009
 6145.00    1.19939   0.90147    0.009
 6146.00    1.23170   0.89177    0.009
 6147.00    1.26256   0.89331    0.009
 6148.00    1.23717   0.90374    0.009
 6149.00    1.20709   0.91139    0.009
 6150.00    1.17634   0.90620    0.009
 6151.00    1.14555   0.89487    0.009
 6152.00    1.11963   0.89109    0.009
 6153.00    1.09375   0.89364    0.009
 6154.00    1.06610   0.89332    0.009
 6155.00    1.04197   0.88343    0.009
 6156.00    1.08707   0.85335    0.009
 6157.00    1.12884   0.80126    0.009
 6158.00    1.13213   0.75480    0.009
 6159.00    1.13293   0.74687    0.009
 6160.00    1.11378   0.77672    0.009
 6161.00    1.09608   0.81574    0.009
 6162.00    1.08708   0.84290    0.009
 6163.00    1.07765   0.85582    0.009
 6164.00    1.06622   0.84963    0.009
 6165.00    1.06386   0.82268    0.009
 6166.00    1.09668   0.80272    0.009
 6167.00    1.11860   0.81714    0.009
 6168.00    1.10536   0.84893    0.009
 6169.00    1.09841   0.86699    0.009
 6170.00    1.10866   0.87063    0.009
 6171.00    1.12683   0.87153    0.009
 6172.00    1.16355   0.87040    0.009
 6173.00    1.18847   0.86966    0.009
 6174.00    1.18951   0.87586    0.009
 6175.00    1.18771   0.88381    0.009
 6176.00    1.18092   0.88587    0.009
 6177.00    1.17446   0.88817    0.009
 6178.00    1.16853   0.89486    0.009
 6179.00    1.15743   0.89919    0.009
 6180.00    1.13934   0.89798    0.009
 6181.00    1.12146   0.89127    0.009
 6182.00    1.10385   0.87701    0.009
 6183.00    1.09015   0.86028    0.009
 6184.00    1.08057   0.85018    0.009
 6185.00    1.09944   0.84497    0.009
 6186.00    1.14471   0.83168    0.009
 6187.00    1.16765   0.80874    0.009
 6188.00    1.17234   0.80138    0.009
 6189.00    1.14420   0.82544    0.009
 6190.00    1.09243   0.85896    0.009
 6191.00    1.05723   0.87965    0.009
 6192.00    1.03251   0.88982    0.009
 6193.00    1.03928   0.89401    0.009
 6194.00    1.06345   0.88580    0.009
 6195.00    1.09707   0.86396    0.009
 6196.00    1.13523   0.84634   -2.000
 6197.00    0.85483   0.85133   -2.000
 6198.00    0.44237   0.87269   -2.000
 6199.00    0.09453   0.88996   -2.000
 6200.00   -0.23042   0.89452   -2.000
 6201.00   -0.10085   0.89304   -2.000
 6202.00    0.16474   0.89307   -2.000
 6203.00    0.73706   0.89452   -2.000
 6204.00    1.38558   0.89456   -2.000
 6205.00    1.58644   0.89179   -2.000
 6206.00    1.69717   0.88527   -2.000
 6207.00    1.51084   0.87522   -2.000
 6208.00    1.27766   0.85984    0.010
 6209.00    1.14488   0.83544    0.009
 6210.00    1.02387   0.80907    0.009
 6211.00    1.03269   0.79553    0.009
 6212.00    1.05180   0.80064    0.009
 6213.00    1.07233   0.81753    0.009
 6214.00    1.09293   0.82967    0.009
 6215.00    1.12686   0.82538    0.009
 6216.00    1.16053   0.81456    0.009
 6217.00    1.17503   0.81463    0.009
 6218.00    1.18749   0.82669    0.009
 6219.00    1.16265   0.83780    0.009
 6220.00    1.14023   0.84062    0.009
 6221.00    1.14435   0.84170    0.009
 6222.00    1.14935   0.84630    0.009
 6223.00    1.16112   0.84980    0.009
 6224.00    1.16932   0.84504    0.009
 6225.00    1.15667   0.82499    0.009
 6226.00    1.14367   0.79315    0.009
 6227.00    1.12913   0.77193    0.009
 6228.00    1.12266   0.77810    0.009
 6229.00    1.14676   0.80409    0.009
 6230.00    1.16681   0.83641    0.009
 6231.00    1.17406   0.86328    0.009
 6232.00    1.18038   0.87331    0.009
 6233.00    1.18421   0.86544    0.009
 6234.00    1.17677   0.84786    0.009
 6235.00    1.14337   0.82772    0.009
 6236.00    1.11352   0.81235    0.009
 6237.00    1.09074   0.80807    0.009
 6238.00    1.07944   0.80621    0.009
 6239.00    1.08804   0.79674    0.009
 6240.00    1.09247   0.78997    0.009
 6241.00    1.09058   0.79392    0.009
 6242.00    1.08781   0.80373    0.009
 6243.00    1.08385   0.82035    0.009
 6244.00    1.08516   0.84181    0.009
 6245.00    1.09265   0.85517    0.009
 6246.00    1.10121   0.85306    0.009
 6247.00    1.11087   0.83639    0.009
 6248.00    1.10953   0.81105    0.009
 6249.00    1.09812   0.79150    0.009
 6250.00    1.09199   0.78682    0.009
 6251.00    1.09012   0.78885    0.009
 6252.00    1.07298   0.78398    0.009
 6253.00    1.04502   0.76974    0.009
 6254.00    1.01211   0.75793    0.009
 6255.00    0.97612   0.76404    0.009
 6256.00    0.94345   0.78845    0.009
 6257.00    0.91257   0.81538    0.009
 6258.00    0.91288   0.83737    0.009
 6259.00    0.92793   0.85338    0.010
 6260.00    0.86327   0.85418    0.010
 6261.00    0.76612   0.84072    0.011
 6262.00    0.74382   0.83294    0.011
 6263.00    0.74758   0.83898    0.012
 6264.00    0.84395   0.84479    0.011
 6265.00    0.96749   0.84216    0.011
 6266.00    1.14899   0.83871    0.011
 6267.00    1.34456   0.84155    0.010
 6268.00    1.33661   0.84930    0.010
 6269.00    1.28870   0.85587    0.009
 6270.00    1.18998   0.85699    0.009
 6271.00    1.08347   0.85572    0.009
 6272.00    1.08073   0.85595    0.009
 6273.00    1.08968   0.85625    0.009
 6274.00    1.09385   0.85372    0.009
 6275.00    1.09766   0.84529    0.009
 6276.00    1.09830   0.83204    0.009
 6277.00    1.09881   0.82467    0.009
 6278.00    1.09961   0.83078    0.009
 6279.00    1.09972   0.84510    0.009
 6280.00    1.07155   0.85739    0.000
 6281.00    1.04442   0.86209    0.000
 6282.00    1.03517   0.86478    0.000
 6283.00    1.02827   0.87264    0.000
 6284.00    1.04614   0.88269    0.000
 6285.00    1.06522   0.88646    0.000
 6286.00    1.09332   0.87899    0.000
 6287.00    1.11791   0.86483    0.000
 6288.00    1.12249   0.85360    0.000
 6289.00    1.12274   0.85028    0.000
 6290.00    1.10339   0.85315    0.000
 6291.00    1.09056   0.85248    0.000
 6292.00    1.10189   0.83994    0.000
 6293.00    1.10238   0.82450    0.000
 6294.00    1.06926   0.82165    0.000
 6295.00    1.04917   0.83001    0.000
 6296.00    1.06345   0.83323    0.000
 6297.00    1.08027   0.82375    0.000
 6298.00    1.10281   0.81464    0.000
 6299.00    1.11957   0.82006    0.000
 6300.00    1.12501   0.83413    0.000
 6301.00    1.13900   0.84404    0.000
 6302.00    1.16761   0.85196    0.000
 6303.00    1.17658   0.86566    0.000
 6304.00    1.15613   0.87881    0.000
 6305.00    1.15023   0.87977    0.000
 6306.00    1.16347   0.86782    0.000
 6307.00    1.18867   0.85267    0.000
 6308.00    1.22775   0.84487    0.000
 6309.00    1.24817   0.84362    0.000
 6310.00    1.24952   0.83757    0.000
 6311.00    1.22754   0.82589    0.000
 6312.00    1.18455   0.81945    0.000
 6313.00    1.14903   0.81532    0.000
 6314.00    1.11945   0.80664    0.000
 6315.00    1.08927   0.80612    0.000
 6316.00    1.05867   0.82144    0.000
 6317.00    1.06641   0.83778    0.000
 6318.00    1.09766   0.84484    0.000
 6319.00    1.11211   0.85038    0.000
 6320.00    1.11757   0.86042    0.000
 6321.00    1.13070   0.86897    0.009
 6322.00    1.14741   0.87086    0.009
 6323.00    1.17262   0.86882    0.009
 6324.00    1.20124   0.86899    0.009
 6325.00    1.21208   0.87057    0.009
 6326.00    1.21685   0.86813    0.009
 6327.00    1.18652   0.86662    0.009
 6328.00    1.14611   0.87245    0.009
 6329.00    1.14976   0.87698    0.009
 6330.00    1.16388   0.86507    0.009
 6331.00    1.13225   0.83676    0.009
 6332.00    1.09188   0.81412    0.009
 6333.00    1.03564   0.81487    0.009
 6334.00    0.97706   0.83013    0.008
 6335.00    0.99738   0.84454    0.009
 6336.00    1.02626   0.85690    0.009
 6337.00    1.04492   0.86520    0.009
 6338.00    1.06286   0.86005    0.009
 6339.00    1.07181   0.84208    0.009
 6340.00    1.08043   0.82706    0.009
 6341.00    1.08051   0.82894    0.009
 6342.00    1.08142   0.84275    0.009
 6343.00    1.11257   0.85554    0.009
 6344.00    1.14216   0.86436    0.009
 6345.00    1.14678   0.87069    0.009
 6346.00    1.15143   0.87405    0.009
 6347.00    1.15629   0.87538    0.009
 6348.00    1.16048   0.87419    0.009
 6349.00    1.15983   0.86569    0.009
 6350.00    1.15630   0.84937    0.009
 6351.00    1.13683   0.83598    0.009
 6352.00    1.12146   0.83373    0.009
 6353.00    1.12422   0.83195    0.009
 6354.00    1.12760   0.81832    0.009
 6355.00    1.13327   0.80120    0.009
 6356.00    1.13308   0.79229    0.009
 6357.00    1.11503   0.78748    0.009
 6358.00    1.10034   0.78246    0.009
 6359.00    1.09437   0.78426    0.009
 6360.00    1.10118   0.79688    0.009
 6361.00    1.13648   0.81430    0.009
 6362.00    1.15431   0.83076    0.009
 6363.00    1.13844   0.84641    0.009
 6364.00    1.10917   0.86013    0.009
 6365.00    1.05735   0.86581    0.009
 6366.00    1.04597   0.86378    0.009
 6367.00    1.09425   0.86454    0.009
 6368.00    1.13039   0.87350    0.009
 6369.00    1.15077   0.88307    0.009
 6370.00    1.16588   0.88502    0.009
 6371.00    1.17497   0.88208    0.009
 6372.00    1.16477   0.88010    0.009
 6373.00    1.13513   0.87657    0.009
 6374.00    1.10534   0.86734    0.009
 6375.00    1.07542   0.85743    0.009
 6376.00    1.07384   0.85346    0.009
 6377.00    1.09446   0.85570    0.009
 6378.00    1.08214   0.86151    0.009
 6379.00    1.04714   0.86531    0.009
 6380.00    1.04014   0.86382    0.009
 6381.00    1.05006   0.86310    0.009
 6382.00    1.08689   0.86844    0.009
 6383.00    1.13790   0.87489    0.009
 6384.00    1.16613   0.87718    0.009
 6385.00    1.18393   0.87749    0.009
 6386.00    1.17921   0.87695    0.009
 6387.00    1.16561   0.86856    0.009
 6388.00    1.13398   0.84606    0.009
 6389.00    1.09631   0.82011    0.009
 6390.00    1.09122   0.81476    0.009
 6391.00    1.09530   0.83611    0.009
 6392.00    1.07326   0.86360    0.009
 6393.00    1.04515   0.87678    0.009
 6394.00    1.01515   0.86718    0.009
 6395.00    0.98479   0.83686    0.009
 6396.00    0.99494   0.80975    0.009
 6397.00    1.01090   0.81636    0.009
 6398.00    1.03026   0.84983    0.009
 6399.00    1.04996   0.87752    0.009
 6400.00    1.05061   0.88670    0.009
 6401.00    1.04999   0.88304    0.009
 6402.00    1.07717   0.87062    0.009
 6403.00    1.10526   0.85312    0.009
 6404.00    1.11154   0.84233    0.009
 6405.00    1.11629   0.84665    0.009
 6406.00    1.07337   0.85264    0.009
 6407.00    1.03214   0.84640    0.009
 6408.00    1.01618   0.83901    0.009
 6409.00    1.00107   0.84222    0.009
 6410.00    0.99404   0.85017    0.009
 6411.00    0.99045   0.85796    0.009
 6412.00    1.01091   0.86559    0.009
 6413.00    1.03654   0.86800    0.009
 6414.00    1.08999   0.85997    0.009
 6415.00    1.13890   0.84208    0.009
 6416.00    1.16818   0.82234    0.009
 6417.00    1.17902   0.81644    0.009
 6418.00    1.12424   0.83353    0.009
 6419.00    1.07475   0.86074    0.009
 6420.00    1.04106   0.87663    0.009
 6421.00    1.02029   0.87900    0.009
 6422.00    1.03244   0.88093    0.009
 6423.00    1.05582   0.88653    0.009
 6424.00    1.10383   0.88609    0.009
 6425.00    1.12536   0.86952    0.009
 6426.00    1.09655   0.84064    0.009
 6427.00    1.06396   0.82063    0.009
 6428.00    1.02509   0.82603    0.009
 6429.00    1.01204   0.84768    0.009
 6430.00    1.03655   0.86691    0.009
 6431.00    1.08058   0.87673    0.009
 6432.00    1.14958   0.87714    0.009
 6433.00    1.17885   0.86513    0.009
 6434.00    1.16337   0.84197    0.009
 6435.00    1.13454   0.82665    0.009
 6436.00    1.09246   0.83831    0.009
 6437.00    1.07621   0.86666    0.009
 6438.00    1.08258   0.88731    0.009
 6439.00    1.08753   0.89357    0.009
 6440.00    1.09139   0.89389    0.009
 6441.00    1.12081   0.89587    0.009
 6442.00    1.16758   0.89841    0.009
 6443.00    1.17604   0.89080    0.009
 6444.00    1.16171   0.86090    0.009
 6445.00    1.11225   0.81444    0.009
 6446.00    1.04455   0.78369    0.009
 6447.00    1.00636   0.79386    0.009
 6448.00    0.98145   0.82963    0.009
 6449.00    0.97006   0.85926    0.009
 6450.00    0.96392   0.86680    0.009
 6451.00    0.99163   0.85691    0.009
 6452.00    1.03049   0.84909    0.009
 6453.00    1.07806   0.85800    0.009
 6454.00    1.12802   0.87753    0.009
 6455.00    1.12467   0.89217    0.009
 6456.00    1.10924   0.89100    0.009
 6457.00    1.08994   0.86854    0.009
 6458.00    1.06995   0.83389    0.009
 6459.00    1.05340   0.81530    0.009
 6460.00    1.03734   0.82783    0.009
 6461.00    1.06195   0.85353    0.009
 6462.00    1.09063   0.87239    0.009
 6463.00    1.11743   0.88133    0.009
 6464.00    1.14411   0.88163    0.009
 6465.00    1.11658   0.87397    0.009
 6466.00    1.08761   0.86286    0.009
 6467.00    1.09713   0.85484    0.009
 6468.00    1.10540   0.85616    0.009
 6469.00    1.07861   0.86442    0.009
 6470.00    1.05236   0.86713    0.009
 6471.00    1.03360   0.86226    0.009
 6472.00    1.01781   0.86172    0.009
 6473.00    1.02945   0.86849    0.009
 6474.00    1.03797   0.87341    0.009
 6475.00    1.02530   0.87205    0.009
 6476.00    1.02675   0.86313    0.009
 6477.00    1.10226   0.84421    0.009
 6478.00    1.16465   0.82385    0.009
 6479.00    1.17168   0.81867    0.009
 6480.00    1.16784   0.83126    0.009
 6481.00    1.12611   0.84831    0.009
 6482.00    1.09405   0.85977    0.009
 6483.00    1.09033   0.86559    0.009
 6484.00    1.09528   0.86690    0.009
 6485.00    1.12191   0.86156    0.009
 6486.00    1.13973   0.85026    0.009
 6487.00    1.13857   0.83744    0.009
 6488.00    1.13251   0.81977    0.009
 6489.00    1.11728   0.78627    0.009
 6490.00    1.10704   0.74147    0.009
 6491.00    1.10496   0.71157    0.009
 6492.00    1.08633   0.71228    0.009
 6493.00    1.04400   0.73274    0.009
 6494.00    1.02345   0.75505    0.009
 6495.00    1.03036   0.77255    0.009
 6496.00    1.02804   0.79090    0.009
 6497.00    1.01547   0.81159    0.009
 6498.00    0.99506   0.82836    0.009
 6499.00    0.96696   0.83928    0.009
 6500.00    0.97361   0.84719    0.009
 6501.00    1.01028   0.85421    0.009
 6502.00    1.01933   0.85866    0.009
 6503.00    1.00736   0.85645    0.009
 6504.00    1.00301   0.84906    0.009
 6505.00    1.00375   0.84523    0.009
 6506.00    1.01347   0.84968    0.009
 6507.00    1.02847   0.85680    0.009
 6508.00    1.04351   0.86022    0.009
 6509.00    1.05856   0.85994    0.009
 6510.00    1.09492   0.85592    0.009
 6511.00    1.14071   0.84720    0.009
 6512.00    1.14472   0.83705    0.009
 6513.00    1.13286   0.82860    0.009
 6514.00    1.11350   0.82301    0.009
 6515.00    1.09173   0.82559    0.009
 6516.00    1.09362   0.83855    0.009
 6517.00    1.10189   0.85264    0.009
 6518.00    1.11180   0.85951    0.009
 6519.00    1.12206   0.86120    0.009
 6520.00    1.08986   0.86231    0.009
 6521.00    1.05016   0.86029    0.009
 6522.00    1.02326   0.85087    0.009
 6523.00    0.99809   0.84071    0.009
 6524.00    1.03235   0.84080    0.009
 6525.00    1.07228   0.84943    0.009
 6526.00    1.08603   0.85501    0.009
 6527.00    1.09824   0.85052    0.009
 6528.00    1.04609   0.84000    0.000
 6529.00    0.99287   0.83461    0.000
 6530.00    1.01607   0.84115    0.000
 6531.00    1.03962   0.85392    0.000
 6532.00    1.07188   0.86090    0.000
 6533.00    1.10182   0.85935    0.000
 6534.00    1.10087   0.85902    0.000
 6535.00    1.09914   0.86556    0.000
 6536.00    1.09054   0.87139    0.000
 6537.00    1.08625   0.86814    0.000
 6538.00    1.11028   0.85800    0.000
 6539.00    1.13339   0.84729    0.000
 6540.00    1.15188   0.83668    0.000
 6541.00    1.16248   0.82264    0.000
 6542.00    1.14056   0.80946    0.000
 6543.00    1.12259   0.80907    0.000
 6544.00    1.11816   0.82165    0.000
 6545.00    1.11555   0.83349    0.000
 6546.00    1.11819   0.83493    0.000
 6547.00    1.12055   0.82816    0.000
 6548.00    1.12223   0.81991    0.000
 6549.00    1.12384   0.81078    0.000
 6550.00    1.12531   0.79801    0.000
 6551.00    1.11110   0.78613    0.000
 6552.00    1.06800   0.78367    0.000
 6553.00    1.04984   0.79059    0.000
 6554.00    1.07181   0.79712    0.000
 6555.00    1.08393   0.79348    0.000
 6556.00    1.08214   0.76945    0.000
 6557.00    1.08560   0.71171    0.000
 6558.00    1.09559   0.63326    0.000
 6559.00    1.12427   0.59383    0.000
 6560.00    1.17343   0.63390    0.000
 6561.00    1.21916   0.71490    0.000
 6562.00    1.26158   0.77814    0.000
 6563.00    1.30188   0.80759    0.000
 6564.00    1.34038   0.81206    0.000
 6565.00    1.33904   0.80467    0.000
 6566.00    1.30782   0.79980    0.000
 6567.00    1.23377   0.79948    0.000
 6568.00    1.13150   0.79439    0.000
 6569.00    1.08554   0.78302    0.000
 6570.00    1.07207   0.77513    0.000
 6571.00    1.07438   0.78055    0.000
 6572.00    1.08462   0.80010    0.000
 6573.00    1.08434   0.82267    0.000
 6574.00    1.07948   0.83538    0.000
 6575.00    1.05648   0.83397    0.000
 6576.00    1.02671   0.82308    0.000
 6577.00    1.03653   0.81376    0.000
 6578.00    1.05889   0.81518    0.000
 6579.00    1.08279   0.82409    0.000
 6580.00    1.10710   0.83050    0.000
 6581.00    1.11998   0.83036    0.000
 6582.00    1.13038   0.82874    0.000
 6583.00    1.16976   0.83295    0.000
 6584.00    1.21411   0.84166    0.000
 6585.00    1.18784   0.84693    0.000
 6586.00    1.15238   0.84298    0.000
 6587.00    1.11833   0.82469    0.000
 6588.00    1.08440   0.79307    0.000
 6589.00    1.05066   0.76727    0.000
 6590.00    1.01693   0.76886    0.000
 6591.00    0.99919   0.79191    0.000
 6592.00    0.98218   0.81148    0.000
 6593.00    1.00160   0.81570    0.000
 6594.00    1.02150   0.81253    0.000
 6595.00    1.05227   0.81498    0.000
 6596.00    1.08179   0.82685    0.000
 6597.00    1.09543   0.83957    0.000
 6598.00    1.11145   0.84392    0.000
 6599.00    1.14795   0.83900    0.000
 6600.00    1.17362   0.82901    0.000
 6601.00    1.13046   0.81868    0.000
 6602.00    1.09229   0.81033    0.000
 6603.00    1.07903   0.80165    0.000
 6604.00    1.06667   0.79108    0.000
 6605.00    1.05800   0.78651    0.000
 6606.00    1.06066   0.79793    0.000
 6607.00    1.10132   0.81886    0.000
 6608.00    1.12118   0.83146    0.000
 6609.00    1.08222   0.83114    0.010
 6610.00    1.05139   0.83010    0.010
 6611.00    1.04023   0.83575    0.009
 6612.00    1.02617   0.84074    0.009
 6613.00    1.00609   0.83944    0.009
 6614.00    0.99004   0.83731    0.009
 6615.00    0.98130   0.83952    0.009
 6616.00    0.96930   0.84383    0.009
 6617.00    0.95213   0.84505    0.009
 6618.00    0.96011   0.83910    0.009
 6619.00    1.00310   0.82486    0.009
 6620.00    1.03422   0.80830    0.009
 6621.00    1.05083   0.80122    0.009
 6622.00    1.05591   0.80749    0.009
 6623.00    1.04857   0.81692    0.010
 6624.00    1.02999   0.82047    0.010
 6625.00    1.00073   0.81855    0.010
 6626.00    0.97227   0.81396    0.010
 6627.00    0.94449   0.80660    0.010
 6628.00    0.93052   0.79456    0.010
 6629.00    0.92676   0.78099    0.010
 6630.00    0.94613   0.77668    0.010
 6631.00    0.98052   0.78754    0.010
 6632.00    0.99689   0.80536    0.010
 6633.00    1.00301   0.81764    0.010
 6634.00    0.96992   0.81929    0.010
 6635.00    0.91743   0.81454    0.009
 6636.00    0.90501   0.81243    0.009
 6637.00    0.90975   0.81456    0.009
 6638.00    0.89561   0.81094    0.009
 6639.00    0.87456   0.79969    0.009
 6640.00    0.93093   0.79481    0.009
 6641.00    1.01133   0.80213    0.009
 6642.00    0.99297   0.81027    0.009
 6643.00    0.94903   0.81179    0.010
 6644.00    0.96345   0.81190    0.010
 6645.00    0.99018   0.81457    0.010
 6646.00    1.04081   0.81598    0.010
 6647.00    1.09543   0.81340    0.010
 6648.00    1.10111   0.80981    0.010
 6649.00    1.10065   0.80858    0.010
 6650.00    1.00570   0.80994    0.010
 6651.00    0.90252   0.81165    0.010
 6652.00    0.95248   0.81146    0.010
 6653.00    1.01030   0.81047    0.010
 6654.00    0.99039   0.81037    0.010
 6655.00    0.96967   0.80894    0.010
 6656.00    0.98877   0.80410    0.010
 6657.00    1.00882   0.79582    0.010
 6658.00    1.04899   0.78372    0.010
 6659.00    1.08398   0.77203    0.010
 6660.00    1.05643   0.77007    0.010
 6661.00    1.03535   0.77713    0.010
 6662.00    1.06764   0.78298    0.010
 6663.00    1.08804   0.78508    0.010
 6664.00    1.03501   0.78955    0.010
 6665.00    0.98973   0.79929    0.010
 6666.00    0.98208   0.81002    0.010
 6667.00    0.98805   0.81615    0.010
 6668.00    1.04777   0.81710    0.010
 6669.00    1.08749   0.81627    0.010
 6670.00    1.06154   0.81569    0.010
 6671.00    1.04326   0.81188    0.010
 6672.00    1.04624   0.79700    0.010
 6673.00    1.04275   0.77137    0.011
 6674.00    1.02387   0.75343    0.010
 6675.00    1.01298   0.75928    0.010
 6676.00    1.01852   0.77821    0.010
 6677.00    1.02660   0.79119    0.010
 6678.00    1.03925   0.79667    0.010
 6679.00    1.04364   0.80118    0.010
 6680.00    1.03514   0.80549    0.010
 6681.00    1.01244   0.80744    0.010
 6682.00    0.97025   0.80650    0.010
 6683.00    0.94985   0.80374    0.010
 6684.00    0.95577   0.80182    0.010
 6685.00    1.00006   0.80298    0.010
 6686.00    1.08519   0.80572    0.010
 6687.00    1.11018   0.80715    0.010
 6688.00    1.07869   0.80677    0.010
 6689.00    1.05234   0.80491    0.010
 6690.00    1.03025   0.79932    0.010
 6691.00    1.02111   0.78770    0.010
 6692.00    1.02141   0.77504    0.010
 6693.00    1.03073   0.77045    0.010
 6694.00    1.04581   0.77611    0.010
 6695.00    1.08202   0.78774    0.011
 6696.00    1.13004   0.79914    0.000
 6697.00    1.04918   0.80382    0.000
 6698.00    0.90555   0.79935    0.000
 6699.00    0.95022   0.78943    0.000
 6700.00    1.07412   0.78185    0.000
 6701.00    1.13175   0.78231    0.000
 6702.00    1.16552   0.78836    0.000
 6703.00    1.16543   0.79359    0.000
 6704.00    1.15502   0.79512    0.000
 6705.00    1.11895   0.79287    0.000
 6706.00    1.07638   0.78846    0.000
 6707.00    0.99999   0.78517    0.000
 6708.00    0.91663   0.78231    0.000
 6709.00    0.92965   0.77656    0.000
 6710.00    0.95827   0.76774    0.000
 6711.00    0.95641   0.75663    0.000
 6712.00    0.95087   0.74456    0.000
 6713.00    0.96623   0.73802    0.000
 6714.00    0.98333   0.74510    0.000
 6715.00    1.05769   0.76252    0.000
 6716.00    1.13477   0.77637    0.000
 6717.00    1.08425   0.78066    0.000
 6718.00    1.03116   0.78234    0.000
 6719.00    0.93466   0.78674    0.000
 6720.00    0.84490   0.78909    0.000
 6721.00    0.88645   0.78461    0.000
 6722.00    0.93339   0.77855    0.000
 6723.00    1.04222   0.77843    0.000
 6724.00    1.13516   0.78365    0.000
 6725.00    1.10151   0.78961    0.000
 6726.00    1.07191   0.79387    0.000
 6727.00    1.06664   0.79480    0.000
 6728.00    1.07020   0.79165    0.000
 6729.00    1.11551   0.78722    0.000
 6730.00    1.15916   0.78599    0.000
 6731.00    1.19639   0.78833    0.000
 6732.00    1.21543   0.78896    0.000
 6733.00    1.17586   0.78295    0.000
 6734.00    1.12809   0.77326    0.000
 6735.00    1.05798   0.76828    0.000
 6736.00    1.01119   0.77096    0.000
 6737.00    1.01886   0.77454    0.000
 6738.00    1.01683   0.77276    0.000
 6739.00    0.99520   0.76967    0.000
 6740.00    0.96646   0.77109    0.000
 6741.00    0.92523   0.77382    0.000
 6742.00    0.91371   0.77275    0.000
 6743.00    0.94794   0.76899    0.000
 6744.00    0.95108   0.76513    0.000
 6745.00    0.91215   0.76192    0.000
 6746.00    0.89493   0.76083    0.000
 6747.00    0.90353   0.76213    0.000
 6748.00    0.91655   0.76240    0.000
 6749.00    0.93422   0.76249    0.000
 6750.00    0.94718   0.76687    0.000
 6751.00    0.95579   0.77432    0.000
 6752.00    0.90683   0.78234    0.000
 6753.00    0.81087   0.79044    0.011
 6754.00    0.77899   0.79687    0.011
 6755.00    0.79313   0.80008    0.011
 6756.00    0.90387   0.80007    0.012
 6757.00    1.07552   0.79726    0.012
 6758.00    1.11794   0.79408    0.012
 6759.00    1.08913   0.79327    0.012
 6760.00    1.07342   0.79271    0.012
 6761.00    1.06398   0.78729    0.013
 6762.00    1.11731   0.77635    0.013
 6763.00    1.19661   0.76657    0.013
 6764.00    1.14186   0.76491    0.013
 6765.00    1.03971   0.76869    0.013
 6766.00    1.14975   0.76967    0.013
 6767.00    1.32313   0.76820    0.013
 6768.00    1.24014   0.77189    0.013
 6769.00    1.09364   0.78217    0.013
 6770.00    1.04206   0.79303    0.013
 6771.00    1.00954   0.79976    0.012
 6772.00    1.04261   0.80179    0.012
 6773.00    1.08598   0.80145    0.012
 6774.00    1.05021   0.80225    0.012
 6775.00    1.00521   0.80400    0.011
 6776.00    1.01377   0.80200    0.011
 6777.00    1.02655   0.79278    0.011
 6778.00    1.10623   0.77703    0.011
 6779.00    1.18881   0.75997    0.012
 6780.00    1.13086   0.74914    0.012
 6781.00    1.07393   0.74840    0.012
 6782.00    1.13270   0.75595    0.012
 6783.00    1.18623   0.76766    0.012
 6784.00    1.14498   0.77758    0.012
 6785.00    1.10186   0.78145    0.012
 6786.00    1.03825   0.78194    0.012
 6787.00    0.98401   0.78207    0.012
 6788.00    1.00175   0.77922    0.012
 6789.00    1.01539   0.77270    0.012
 6790.00    1.00515   0.76767    0.012
 6791.00    0.99914   0.76712    0.012
 6792.00    1.01266   0.76971    0.012
 6793.00    1.04799   0.77371    0.012
 6794.00    1.16580   0.77734    0.012
 6795.00    1.24591   0.78013    0.012
 6796.00    1.20693   0.78320    0.012
 6797.00    1.15235   0.78593    0.012
 6798.00    1.05599   0.78587    0.011
 6799.00    0.98934   0.78245    0.011
 6800.00    0.99096   0.77923    0.011
 6801.00    0.99641   0.77839    0.011
 6802.00    1.00946   0.77761    0.011
 6803.00    1.00481   0.77678    0.011
 6804.00    0.96948   0.77716    0.011
 6805.00    0.94863   0.77658    0.011
 6806.00    0.94977   0.77552    0.011
 6807.00    0.94190   0.77710    0.011
 6808.00    0.92204   0.77911    0.011
 6809.00    0.89779   0.77679    0.011
 6810.00    0.86837   0.77111    0.012
 6811.00    0.84101   0.76947    0.012
 6812.00    0.81578   0.77613    0.012
 6813.00    0.82586   0.78452    0.012
 6814.00    0.86817   0.78580    0.012
 6815.00    0.93182   0.78011    0.012
 6816.00    1.01263   0.77534    0.012
 6817.00    1.05820   0.77789    0.012
 6818.00    1.07879   0.78594    0.012
 6819.00    1.09549   0.79293    0.012
 6820.00    1.10977   0.79549    0.012
 6821.00    1.08650   0.79420    0.011
 6822.00    1.04285   0.78902    0.011
 6823.00    1.01989   0.77968    0.011
 6824.00    1.00668   0.77102    0.011
 6825.00    1.05425   0.77054    0.011
 6826.00    1.12654   0.77773    0.011
 6827.00    1.08147   0.78411    0.011
 6828.00    0.99566   0.78503    0.011
 6829.00    1.04733   0.78469    0.011
 6830.00    1.13923   0.78750    0.011
 6831.00    1.14469   0.79047    0.012
 6832.00    1.12922   0.78845    0.012
 6833.00    1.06007   0.78112    0.012
 6834.00    0.98043   0.77033    0.012
 6835.00    1.02775   0.75719    0.012
 6836.00    1.09441   0.74394    0.012
 6837.00    1.02891   0.73491    0.012
 6838.00    0.94856   0.73524    0.013
 6839.00    0.90226   0.74623    0.013
 6840.00    0.85851   0.76229    0.013
 6841.00    0.93974   0.77515    0.012
 6842.00    1.02593   0.78119    0.012
 6843.00    1.04239   0.78277    0.012
 6844.00    1.05861   0.78252    0.012
 6845.00    1.08448   0.78089    0.011
 6846.00    1.10755   0.77897    0.011
 6847.00    1.08364   0.77839    0.011
 6848.00    1.05495   0.77801    0.011
 6849.00    0.97626   0.77286    0.011
 6850.00    0.90413   0.76043    0.011
 6851.00    0.88072   0.74836    0.011
 6852.00    0.86814   0.74598    0.011
 6853.00    0.91688   0.75134    0.011
 6854.00    0.95339   0.75691    0.011
 6855.00    0.93471   0.75775    0.012
 6856.00    0.91691   0.75161    0.012
 6857.00    0.90235   0.74445    0.012
 6858.00    0.89456   0.74809    0.012
 6859.00    0.90774   0.76334    0.012
 6860.00    0.93100   0.77693    0.012
 6861.00    0.98074   0.77815    0.012
 6862.00    1.00749   0.76776    0.012
 6863.00    0.98232   0.75353    0.012
 6864.00    0.96378   0.74624    0.012
 6865.00    0.95821   0.75114    0.012
 6866.00    0.96076   0.75945    0.012
 6867.00    0.97717   0.75983    0.012
 6868.00    1.00212   0.75491    0.012
 6869.00    1.03982   0.75372    0.012
 6870.00    1.02652   0.75659    0.012
 6871.00    0.94618   0.75948    0.011
 6872.00    0.95303   0.76362    0.011
 6873.00    1.06076   0.77073    0.012
 6874.00    1.08366   0.77667    0.011
 6875.00    1.01999   0.77649    0.011
 6876.00    0.96848   0.76957    0.011
 6877.00    0.92791   0.75862    0.012
 6878.00    0.91621   0.74987    0.012
 6879.00    0.92742   0.75028    0.012
 6880.00    0.94757   0.75848    0.012
 6881.00    0.97398   0.76565    0.012
 6882.00    1.01346   0.76930    0.012
 6883.00    1.06095   0.77443    0.012
 6884.00    1.02324   0.78143    0.012
 6885.00    0.94000   0.78690    0.012
 6886.00    0.97916   0.79043    0.012
 6887.00    1.07510   0.79140    0.012
 6888.00    1.05645   0.78858    0.011
 6889.00    0.99200   0.78450    0.011
 6890.00    0.93069   0.78134    0.011
 6891.00    0.87046   0.77827    0.011
 6892.00    0.89869   0.77680    0.011
 6893.00    0.95230   0.77928    0.011
 6894.00    0.95116   0.78225    0.011
 6895.00    0.93707   0.78093    0.012
 6896.00    0.30391   0.77843    0.010
 6897.00   -0.44726   0.78102    0.000
 6898.00    0.08189   0.78659    0.014
 6899.00    0.80021   0.78821    0.163
 6900.00    0.85014   0.78564   -1.000
 6901.00    0.82796   0.78457   -1.000
 6902.00    0.78926   0.78786   -1.000
 6903.00    0.74939   0.79231   -1.000
 6904.00    0.82737   0.79436   -1.000
 6905.00    0.90959   0.79421   -1.000
 6906.00    0.83625   0.79198   -1.000
 6907.00    0.76382   0.78654   -1.000
 6908.00    0.74075   0.77811   -1.000
 6909.00    0.71943   0.76886   -1.000
 6910.00    0.72573   0.76323   -1.000
 6911.00    0.73235   0.76391   -1.000
 6912.00    0.74219   0.76715   -1.000
 6913.00    0.75167   0.77002   -1.000
 6914.00    0.75854   0.77486   -1.000
 6915.00    0.77000   0.78228   -1.000
 6916.00    0.80675   0.78938   -1.000
 6917.00    0.83860   0.79267   -1.000
 6918.00    0.84891   0.78905   -1.000
 6919.00    0.84420   0.77720   -1.000
 6920.00    0.78508   0.76165   -1.000
 6921.00    0.74666   0.75230   -1.000
 6922.00    0.77115   0.75501   -1.000
 6923.00    0.79019   0.76558   -1.000
 6924.00    0.79514   0.77527   -1.000
 6925.00    0.79190   0.78000   -1.000
 6926.00    0.77049   0.78046   -1.000
 6927.00    0.75862   0.77685   -1.000
 6928.00    0.76512   0.76985   -1.000
 6929.00    0.77531   0.76530   -1.000
 6930.00    0.79170   0.76885   -1.000
 6931.00    0.77390   0.77638   -1.000
 6932.00    0.70575   0.78010   -1.000
 6933.00    0.70705   0.77990   -1.000
 6934.00    0.79828   0.78081   -1.000
 6935.00    0.85498   0.78506   -1.000
 6936.00    0.87230   0.78961   -1.000
 6937.00    0.88397   0.78927   -1.000
 6938.00    0.88998   0.78169   -1.000
 6939.00    0.89579   0.76900   -1.000
 6940.00    0.90142   0.75656   -1.000
 6941.00    0.87637   0.75208   -1.000
 6942.00    0.82732   0.75932   -1.000
 6943.00    0.81911   0.77183   -1.000
 6944.00    0.83897   0.78078   -1.000
 6945.00    0.84253   0.78267   -1.000
 6946.00    0.83626   0.77709   -1.000
 6947.00    0.78087   0.76780   -1.000
 6948.00    0.69963   0.76118   -1.000
 6949.00    0.67471   0.75908   -1.000
 6950.00    0.67550   0.76096   -1.000
 6951.00    0.67886   0.76736   -1.000
 6952.00    0.68325   0.77570   -1.000
 6953.00    0.67537   0.78108   -1.000
 6954.00    0.66339   0.78249   -1.000
 6955.00    0.69781   0.78259   -1.000
 6956.00    0.74525   0.78355   -1.000
 6957.00    0.69076   0.78575   -1.000
 6958.00    0.61268   0.78826   -1.000
 6959.00    0.64658   0.78978   -1.000
 6960.00    0.70126   0.78827   -1.000
 6961.00    0.72150   0.78401   -1.000
 6962.00    0.73680   0.78283   -1.000
 6963.00    0.76815   0.78870   -1.000
 6964.00    0.80116   0.79582   -1.000
 6965.00    0.80161   0.79594   -1.000
 6966.00    0.79989   0.78916   -1.000
 6967.00    0.83996   0.78398   -1.000
 6968.00    0.88133   0.78635   -1.000
 6969.00    0.71789   0.79016   -1.000
 6970.00    0.56149   0.78598   -1.000
 6971.00    0.62127   0.77355   -1.000
 6972.00    0.68248   0.75629   -1.000
 6973.00    0.76502   0.73511   -1.000
 6974.00    0.83267   0.71750   -1.000
 6975.00    0.75738   0.71810   -1.000
 6976.00    0.70703   0.73865   -1.000
 6977.00    0.83020   0.76420   -1.000
 6978.00    0.91989   0.78283   -1.000
 6979.00    0.82984   0.79300   -1.000
 6980.00    0.77099   0.79666   -1.000
 6981.00    0.84658   0.79633   -1.000
 6982.00    0.90181   0.79396   -1.000
 6983.00    0.88478   0.78928   -1.000
 6984.00    0.86413   0.78179   -1.000
 6985.00    0.83269   0.77530   -1.000
 6986.00    0.79314   0.77586   -1.000
 6987.00    0.73298   0.78341   -1.000
 6988.00    0.70546   0.79069   -1.000
 6989.00    0.74930   0.79169   -1.000
 6990.00    0.79009   0.78821   -1.000
 6991.00    0.82512   0.78647   -1.000
 6992.00    0.82624   0.78801   -1.000
 6993.00    0.77124   0.78728   -1.000
 6994.00    0.75322   0.77887   -1.000
 6995.00    0.78889   0.76605   -1.000
 6996.00    0.83041   0.76013   -1.000
 6997.00    0.87940   0.76615   -1.000
 6998.00    0.89279   0.77481   -1.000
 6999.00    0.86614   0.77489   -1.000
 7000.00    0.81169   0.76738   -1.000
 7001.00    0.72966   0.76141   -1.000
 7002.00    0.69292   0.76193   -1.000
 7003.00    0.69580   0.76746   -1.000
 7004.00    0.70447   0.77462   -1.000
 7005.00    0.71759   0.77931   -1.000
 7006.00    0.69275   0.77876   -1.000
 7007.00    0.64220   0.77622   -1.000
 7008.00    0.64643   0.77668   -1.000
 7009.00    0.68319   0.77675   -1.000
 7010.00    0.66963   0.76654   -1.000
 7011.00    0.63000   0.74509   -1.000
 7012.00    0.62606   0.72916   -1.000
 7013.00    0.63813   0.73616   -1.000
 7014.00    0.62846   0.76066   -1.000
 7015.00    0.61040   0.78285   -1.000
 7016.00    0.66292   0.79233   -1.000
 7017.00    0.73861   0.78917   -1.000
 7018.00    0.77145   0.77544   -1.000
 7019.00    0.79250   0.75803   -1.000
 7020.00    0.77379   0.74891   -1.000
 7021.00    0.74609   0.75340   -1.000
 7022.00    0.71453   0.76419   -1.000
 7023.00    0.68226   0.77209   -1.000
 7024.00    0.69839   0.77618   -1.000
 7025.00    0.72122   0.77950   -1.000
 7026.00    0.74083   0.78212   -1.000
 7027.00    0.76013   0.78212   -1.000
 7028.00    0.71001   0.77986   -1.000
 7029.00    0.65555   0.77818   -1.000
 7030.00    0.62979   0.77932   -1.000
 7031.00    0.60527   0.78247   -1.000
 7032.00    0.69237   0.78096   -1.000
 7033.00    0.77574   0.76898   -1.000
 7034.00    0.75651   0.75698   -1.000
 7035.00    0.74249   0.76309   -1.000
 7036.00    0.80159   0.78651   -1.000
 7037.00    0.85066   0.80934   -1.000
 7038.00    0.80732   0.81925   -1.000
 7039.00    0.76574   0.81539   -1.000
 7040.00    0.73593   0.80401   -1.000
 7041.00    0.71263   0.79618   -1.000
 7042.00    0.72334   0.79952   -1.000
 7043.00    0.73168   0.81042   -1.000
 7044.00    0.73001   0.81984   -1.000
 7045.00    0.72644   0.82169   -1.000
 7046.00    0.71623   0.81385   -1.000
 7047.00    0.70993   0.79555   -1.000
 7048.00    0.71508   0.76952   -1.000
 7049.00    0.72813   0.74571   -1.000
 7050.00    0.76091   0.73408   -2.000
 7051.00    0.78156   0.73624   -2.000
 7052.00    0.77611   0.74593   -2.000
 7053.00    0.79073   0.75275   -2.000
 7054.00    0.84283   0.74867   -2.000
 7055.00    0.84742   0.73571   -2.000
 7056.00    0.77451   0.72494   -2.000
 7057.00    0.76902   0.72395   -2.000
 7058.00    0.85997   0.72989   -2.000
 7059.00    0.88633   0.73729   -2.000
 7060.00    0.83143   0.74234   -2.000
 7061.00    0.80545   0.73985   -2.000
 7062.00    0.81154   0.72798   -2.000
 7063.00    0.76802   0.71306   -2.000
 7064.00    0.67597   0.70602   -2.000
 7065.00    0.65436   0.71416   -2.000
 7066.00    0.69351   0.73244   -2.000
 7067.00    0.72753   0.74760   -2.000
 7068.00    0.75766   0.75363   -2.000
 7069.00    0.78053   0.75447   -2.000
 7070.00    0.79856   0.75385   -2.000
 7071.00    0.78205   0.75269   -2.000
 7072.00    0.74534   0.75246   -2.000
 7073.00    0.79294   0.75439   -2.000
 7074.00    0.88354   0.75770   -2.000
 7075.00    0.85785   0.76122   -2.000
 7076.00    0.78082   0.76378   -2.000
 7077.00    0.76938   0.76068   -2.000
 7078.00    0.78283   0.74652   -2.000
 7079.00    0.81456   0.72355   -2.000
 7080.00    0.85218   0.70336   -2.000
 7081.00    0.80640   0.69664   -2.000
 7082.00    0.73815   0.69996   -2.000
 7083.00    0.73100   0.70141   -2.000
 7084.00    0.73735   0.69742   -2.000
 7085.00    0.82310   0.69209   -2.000
 7086.00    0.92280   0.68913   -2.000
 7087.00    0.90145   0.68985   -2.000
 7088.00    0.86389   0.69188   -2.000
 7089.00    0.79267   0.69283   -2.000
 7090.00    0.71825   0.69344   -2.000
 7091.00    0.71018   0.69436   -2.000
 7092.00    0.70600   0.69632   -2.000
 7093.00    0.78808   0.70077   -2.000
 7094.00    0.87161   0.70816   -2.000
 7095.00    0.86402   0.71528   -2.000
 7096.00    0.85772   0.71684   -2.000
 7097.00    0.88348   0.71235   -2.000
 7098.00    0.90247   0.70710   -2.000
 7099.00    0.83172   0.70754   -2.000
 7100.00    0.76853   0.71369   -2.000
 7101.00    0.77246   0.71784   -2.000
 7102.00    0.77604   0.71496   -2.000
 7103.00    0.77733   0.70980   -2.000
 7104.00    0.78908   0.70783   -2.000
 7105.00    0.85415   0.70591   -2.000
 7106.00    0.88333   0.69973   -2.000
 7107.00    0.76484   0.69407   -2.000
 7108.00    0.67675   0.69597   -2.000
 7109.00    0.69232   0.70404   -2.000
 7110.00    0.70786   0.71174   -2.000
 7111.00    0.72330   0.71624   -2.000
 7112.00    0.72689   0.71805   -2.000
 7113.00    0.70139   0.71748   -2.000
 7114.00    0.68181   0.71540   -2.000
 7115.00    0.67476   0.71285   -2.000
 7116.00    0.67931   0.70974   -2.000
 7117.00    0.70519   0.70604   -2.000
 7118.00    0.71219   0.70429   -2.000
 7119.00    0.68887   0.70599   -2.000
 7120.00    0.67952   0.70544   -2.000
 7121.00    0.68987   0.69811   -2.000
 7122.00    0.74138   0.68955   -2.000
 7123.00    0.84396   0.68642   -2.000
 7124.00    0.76488   0.68540   -2.000
 7125.00    0.48719   0.67882   -2.000
 7126.00    0.43234   0.66884   -2.000
 7127.00    0.59239   0.66615   -2.000
 7128.00    0.79355   0.67484   -2.000
 7129.00    1.02966   0.68838   -2.000
 7130.00    1.04012   0.69910   -2.000
 7131.00    0.88158   0.70464   -2.000
 7132.00    0.76998   0.70737   -2.000
 7133.00    0.68928   0.70762   -2.000
 7134.00    0.69946   0.70310   -2.000
 7135.00    0.76199   0.69786   -2.000
 7136.00    0.83029   0.69912   -2.000
 7137.00    0.90149   0.70483   -2.000
 7138.00    0.84667   0.70771   -2.000
 7139.00    0.73713   0.70678   -2.000
 7140.00    0.65209   0.70510   -2.000
 7141.00    0.57618   0.70275   -2.000
 7142.00    0.55060   0.69630   -2.000
 7143.00    0.54091   0.68477   -2.000
 7144.00    0.56201   0.67588   -2.000
 7145.00    0.59122   0.67769   -2.000
 7146.00    0.69175   0.68750   -2.000
 7147.00    0.80765   0.69948   -2.000
 7148.00    0.72611   0.71092   -2.000
 7149.00    0.61081   0.71715   -2.000
 7150.00    0.58550   0.71512   -2.000
 7151.00    0.57184   0.71148   -2.000
 7152.00    0.64107   0.71455   -2.000
 7153.00    0.71782   0.72020   -2.000
 7154.00    0.68077   0.71874   -2.000
 7155.00    0.63749   0.71122   -2.000
 7156.00    0.72808   0.70656   -2.000
 7157.00    0.81869   0.70783   -2.000
 7158.00    0.65609   0.70715   -2.000
 7159.00    0.50043   0.69603   -2.000
 7160.00    0.50261   0.68000   -2.000
 7161.00    0.51250   0.67505   -2.000
 7162.00    0.61952   0.68726   -2.000
 7163.00    0.74120   0.70573   -2.000
 7164.00    0.98794   0.71700   -2.000
 7165.00    1.19906   0.71871   -2.000
 7166.00    1.18445   0.71843   -2.000
 7167.00    1.12019   0.72245   -2.000
 7168.00    0.80940   0.72827   -2.000
 7169.00    0.56987   0.72951   -2.000
 7170.00    0.61713   0.72365   -2.000
 7171.00    0.69499   0.71441   -2.000
 7172.00    0.87511   0.70981   -2.000
 7173.00    0.98006   0.71337   -2.000
 7174.00    0.87299   0.71597   -2.000
 7175.00    0.75675   0.70683   -2.000
 7176.00    0.61841   0.69085   -2.000
 7177.00    0.52742   0.68451   -2.000
 7178.00    0.53503   0.69563   -2.000
 7179.00    0.55432   0.71354   -2.000
 7180.00    0.59475   0.72244   -2.000
 7181.00    0.64001   0.71681   -2.000
 7182.00    0.69293   0.70079   -2.000
 7183.00    0.71977   0.68351   -2.000
 7184.00    0.71038   0.67509   -2.000
 7185.00    0.70331   0.67895   -2.000
 7186.00    0.69907   0.68938   -2.000
 7187.00    0.74235   0.69683   -2.000
 7188.00    0.83682   0.69696   -2.000
 7189.00    0.78594   0.69575   -2.000
 7190.00    0.59683   0.69949   -2.000
 7191.00    0.53238   0.70419   -2.000
 7192.00    0.57244   0.70356   -2.000
 7193.00    0.54955   0.70098   -2.000
 7194.00    0.48018   0.70292   -2.000
 7195.00    0.47976   0.70723   -2.000
 7196.00    0.52405   0.70794   -2.000
 7197.00    0.60166   0.70576   -2.000
 7198.00    0.69818   0.70731   -2.000
 7199.00    0.62994   0.71484   -2.000
 7200.00    0.48034   0.72016   -2.000
 7201.00    0.43203   0.71246   -2.000
 7202.00    0.42698   0.69201   -2.000
 7203.00    0.50788   0.67358   -2.000
 7204.00    0.62024   0.67181   -2.000
 7205.00    0.74015   0.68639   -2.000
 7206.00    0.86241   0.70604   -2.000
 7207.00    0.68966   0.71844   -2.000
 7208.00    0.44076   0.71802   -2.000
 7209.00    0.47390   0.70999   -2.000
 7210.00    0.56638   0.70346   -2.000
 7211.00    0.56518   0.70331   -2.000
 7212.00    0.54843   0.70993   -2.000
 7213.00    0.58917   0.71963   -2.000
 7214.00    0.63710   0.72539   -2.000
 7215.00    0.54143   0.72375   -2.000
 7216.00    0.43331   0.71816   -2.000
 7217.00    0.54881   0.71309   -2.000
 7218.00    0.67568   0.71026   -2.000
