###################################################################
## OUTPUT of StarlightChains_v04.for    [Cid@UFSC - 01/Apr/2007] ##
###################################################################

## Some input info
KUG0210-078._36_46.txt                   [arq_obs]
Base.CB07.vall.4m                        [arq_base]
Masks.EmLines.NEW.gm                     [arq_masks]
StCv04.C11.config                        [arq_config]
   66                                    [N_base]
    0                                    [N_YAV_components = # of components with extra extinction!]
    0                                    [i_FitPowerLaw (1/0 = Yes/No)]
-9.99                                    [alpha_PowerLaw]
CCM                                      [red_law_option]
 1.458241                                [q_norm = A(l_norm)/A(V)]

## (Re)Sampling Parameters
 3741.00                                 [l_ini (A)]
 7218.00                                 [l_fin (A)]
    1.00                                 [dl    (A)]     (OBS: dl_cushion =    50.00 A)

## Normalization info
 4020.00                                 [l_norm (A) - for base]
 4010.00                                 [llow_norm (A) - window for f_obs]
 4060.00                                 [lupp_norm (A) - window for f_obs]
1.099658E-17                             [fobs_norm (in input units)]

## S/N
 3691.00                                 [llow_SN (A) - window for S/N]
 7268.00                                 [lupp_SN (A) - window for S/N]
   4.759                                 [S/N in S/N window]
   5.344                                 [S/N in norm. window]
   0.011                                 [S/N_err in S/N window]
   0.012                                 [S/N_err in norm. window]
  1.0000                                 [fscale_chi2]

## etc...
    -2007610                             [idum_orig]
  2432                                   [NOl_eff]
  2407                                   [Nl_eff]
    25    NSIGMA                         [Ntot_cliped & clip_method]
   644910                                [Nglobal_steps]
   7                                     [N_chains]
   7                                     [NEX0s_base = N_base in EX0s-fits]
 0   0   1       25   2.0   2.295E+03    [Clip-Bug, RC-Crash & Burn-In warning-flags, n_censored_weights, wei_nsig_threshold & wei_limit]
    13     13.024     12.519      0.506  [idt_all, wdt_TotTime, wdt_UsrTime & wdt_SysTime (sec)]

## Synthesis Results - Best model ##

 1.19733E-05                             [chi2/Nl_eff]
    23.20922                             [adev (%)]

   116.95509                             [sum-of-x (%)]
 5.19582E-18                             [Flux_tot (units of input spectrum!)]
 2.38385E-13                             [Mini_tot (???)]
 1.21178E-13                             [Mcor_tot (???)]

 167.85                                  [v0_min  (km/s)]
  69.65                                  [vd_min  (km/s)]
-0.6748                                  [AV_min  (mag)]
 0.0000                                  [YAV_min (mag)]

# j     x_j(%)      Mini_j(%)     Mcor_j(%)     age_j(yr)     Z_j      (L/M)_j    YAV?  Mstars   component_j        a/Fe...       SSP_chi2r SSP_adev(%)   SSP_AV   SSP_x(%)
  1      0.6315     1.0757E-03    2.1161E-03    1.000000E+06  0.00400  1.094E-02    0   1.0000   age020_m42            0.0000     1.3604E-05    25.3820   2.9399    99.8331
  2      0.0000     0.0000E+00    0.0000E+00    3.160000E+06  0.00400  4.007E-02    0   0.9999   age045_m42            0.0000     1.2901E-05    26.0949   2.2158   108.3127
  3      0.0000     0.0000E+00    0.0000E+00    5.010000E+06  0.00400  2.539E-02    0   0.9488   age055_m42            0.0000     1.3450E-05    26.4246   2.5506   104.9235
  4      0.0000     0.0000E+00    0.0000E+00    6.610000E+06  0.00400  2.620E-02    0   0.9220   age061_m42            0.0000     1.3015E-05    26.4077   2.1523   108.3686
  5      0.0000     0.0000E+00    0.0000E+00    1.000000E+07  0.00400  1.322E-02    0   0.8862   age070_m42            0.0000     1.4046E-05    29.3996   1.9563   109.4390
  6      0.0000     0.0000E+00    0.0000E+00    1.445000E+07  0.00400  7.883E-03    0   0.8571   age078_m42            0.0000     1.4064E-05    28.8077   2.2728   106.3406
  7      0.0000     0.0000E+00    0.0000E+00    2.512000E+07  0.00400  5.251E-03    0   0.8174   age090_m42            0.0000     1.4279E-05    30.1598   1.8449   109.9766
  8      0.0000     0.0000E+00    0.0000E+00    4.000000E+07  0.00400  3.649E-03    0   0.7851   age104_m42            0.0000     1.3961E-05    29.7484   1.6046   111.2725
  9      0.0000     0.0000E+00    0.0000E+00    5.500000E+07  0.00400  3.098E-03    0   0.7629   age110_m42            0.0000     1.3358E-05    28.2285   1.7156   111.9740
 10      0.0000     0.0000E+00    0.0000E+00    1.015200E+08  0.00400  2.228E-03    0   0.7207   age116_m42            0.0000     1.3136E-05    27.4186   1.7096   112.7553
 11      0.0000     0.0000E+00    0.0000E+00    2.861200E+08  0.00400  1.093E-03    0   0.6648   age125_m42            0.0000     1.2388E-05    26.3994   1.1264   115.7012
 12      0.0000     0.0000E+00    0.0000E+00    5.088000E+08  0.00400  6.597E-04    0   0.6365   age130_m42            0.0000     1.2759E-05    26.6814   1.1035   117.9281
 13      0.0000     0.0000E+00    0.0000E+00    1.434000E+09  0.00400  2.132E-04    0   0.5798   age139_m42            0.0000     1.2373E-05    26.3528   0.1251   120.7319
 14     73.4471     2.3219E+01    2.4561E+01    4.250000E+09  0.00400  5.895E-05    0   0.5377   age158_m42            0.0000     1.1989E-05    24.2290  -0.3654   116.0510
 15      0.0000     0.0000E+00    0.0000E+00    7.500000E+09  0.00400  3.510E-05    0   0.5212   age171_m42            0.0000     1.2157E-05    23.7991  -0.5688   115.5662
 16      0.0000     0.0000E+00    0.0000E+00    1.300000E+10  0.00400  2.005E-05    0   0.5034   age193_m42            0.0000     1.2270E-05    23.2110  -0.7522   115.1544
 17     25.3843     3.1021E+01    3.0311E+01    1.800000E+10  0.00400  1.525E-05    0   0.4967   age213_m42            0.0000     1.2110E-05    22.9292  -0.7790   114.4561
 18      0.0000     0.0000E+00    0.0000E+00    1.000000E+06  0.00800  1.238E-02    0   1.0000   age020_m52            0.0000     1.3606E-05    25.3458   2.9322   100.1614
 19      0.0000     0.0000E+00    0.0000E+00    3.160000E+06  0.00800  3.074E-02    0   0.9966   age045_m52            0.0000     1.3596E-05    25.3936   2.8566   101.1324
 20      0.0000     0.0000E+00    0.0000E+00    5.010000E+06  0.00800  2.668E-02    0   0.9443   age055_m52            0.0000     1.3319E-05    25.8033   2.6223   103.6729
 21      0.0000     0.0000E+00    0.0000E+00    6.610000E+06  0.00800  2.136E-02    0   0.9177   age061_m52            0.0000     1.3662E-05    28.7827   1.4465   110.5592
 22      0.0000     0.0000E+00    0.0000E+00    1.000000E+07  0.00800  1.215E-02    0   0.8827   age070_m52            0.0000     1.4304E-05    29.8071   2.1523   108.5791
 23      0.0000     0.0000E+00    0.0000E+00    1.445000E+07  0.00800  8.717E-03    0   0.8552   age078_m52            0.0000     1.3934E-05    28.7609   2.2373   107.8760
 24      0.0000     0.0000E+00    0.0000E+00    2.512000E+07  0.00800  5.592E-03    0   0.8162   age090_m52            0.0000     1.4119E-05    29.9135   1.9047   111.2197
 25      0.0000     0.0000E+00    0.0000E+00    4.000000E+07  0.00800  3.896E-03    0   0.7841   age104_m52            0.0000     1.3738E-05    29.3030   1.7983   112.5480
 26      0.0000     0.0000E+00    0.0000E+00    1.015200E+08  0.00800  2.148E-03    0   0.7226   age116_m52            0.0000     1.3291E-05    28.0996   1.6986   113.1807
 27      0.0000     0.0000E+00    0.0000E+00    2.861200E+08  0.00800  9.925E-04    0   0.6683   age125_m52            0.0000     1.3033E-05    27.2617   1.1825   118.9271
 28      0.0000     0.0000E+00    0.0000E+00    9.047900E+08  0.00800  3.141E-04    0   0.6138   age135_m52            0.0000     1.2743E-05    25.8483   0.3365   125.2060
 29      0.0000     0.0000E+00    0.0000E+00    1.434000E+09  0.00800  1.719E-04    0   0.5853   age139_m52            0.0000     1.2024E-05    24.7225  -0.2574   122.0141
 30      0.0000     0.0000E+00    0.0000E+00    2.500000E+09  0.00800  7.872E-05    0   0.5600   age150_m52            0.0000     1.2102E-05    23.3678  -0.5707   119.5396
 31      0.0000     0.0000E+00    0.0000E+00    4.250000E+09  0.00800  4.336E-05    0   0.5426   age158_m52            0.0000     1.2354E-05    23.6420  -0.5784   118.2977
 32      0.0000     0.0000E+00    0.0000E+00    6.250000E+09  0.00800  3.159E-05    0   0.5319   age166_m52            0.0000     1.2527E-05    22.8326  -0.8111   118.9508
 33      0.0000     0.0000E+00    0.0000E+00    1.300000E+10  0.00800  1.361E-05    0   0.5073   age193_m52            0.0000     1.4470E-05    24.2614  -1.0000   105.4154
 34      0.0000     0.0000E+00    0.0000E+00    1.800000E+10  0.00800  9.886E-06    0   0.4990   age213_m52            0.0000     1.6183E-05    24.6253  -1.0000    99.7854
 35      0.0000     0.0000E+00    0.0000E+00    1.000000E+06  0.02000  1.544E-02    0   1.0000   age020_m62            0.0000     1.3678E-05    25.3793   2.9304   100.2936
 36      0.0000     0.0000E+00    0.0000E+00    3.160000E+06  0.02000  3.762E-02    0   0.9858   age045_m62            0.0000     1.3779E-05    25.4579   2.8708   101.2248
 37      0.0000     0.0000E+00    0.0000E+00    5.010000E+06  0.02000  3.296E-02    0   0.9342   age055_m62            0.0000     1.2921E-05    25.3637   2.4826   106.5508
 38      0.0000     0.0000E+00    0.0000E+00    8.710000E+06  0.02000  1.154E-02    0   0.8861   age067_m62            0.0000     1.8587E-05    37.2820   1.7782   110.0181
 39      0.0000     0.0000E+00    0.0000E+00    1.445000E+07  0.02000  7.663E-03    0   0.8472   age078_m62            0.0000     1.5103E-05    31.6963   1.8471   110.5227
 40      0.0000     0.0000E+00    0.0000E+00    2.512000E+07  0.02000  4.532E-03    0   0.8099   age090_m62            0.0000     1.5292E-05    32.1274   1.8499   110.1720
 41      0.0000     0.0000E+00    0.0000E+00    5.500000E+07  0.02000  2.733E-03    0   0.7595   age110_m62            0.0000     1.3760E-05    29.1637   1.7813   111.4815
 42      0.0000     0.0000E+00    0.0000E+00    1.609000E+08  0.02000  1.369E-03    0   0.6985   age120_m62            0.0000     1.3269E-05    27.6944   1.5653   116.1494
 43      0.0000     0.0000E+00    0.0000E+00    2.861200E+08  0.02000  9.013E-04    0   0.6714   age125_m62            0.0000     1.3291E-05    27.1582   1.2884   120.5884
 44      0.0000     0.0000E+00    0.0000E+00    5.088000E+08  0.02000  5.028E-04    0   0.6449   age130_m62            0.0000     1.2794E-05    25.1995   0.8463   125.3671
 45      0.0000     0.0000E+00    0.0000E+00    9.047900E+08  0.02000  2.428E-04    0   0.6179   age135_m62            0.0000     1.2171E-05    23.9591   0.2338   124.5689
 46      0.0000     0.0000E+00    0.0000E+00    1.434000E+09  0.02000  1.263E-04    0   0.5908   age139_m62            0.0000     1.2501E-05    24.2230  -0.2016   122.5226
 47      0.0000     0.0000E+00    0.0000E+00    2.500000E+09  0.02000  5.985E-05    0   0.5673   age150_m62            0.0000     1.2484E-05    22.7685  -0.6137   121.5066
 48      0.0000     0.0000E+00    0.0000E+00    4.250000E+09  0.02000  3.271E-05    0   0.5468   age158_m62            0.0000     1.2801E-05    21.5850  -0.9679   121.5620
 49      0.0000     0.0000E+00    0.0000E+00    1.000000E+10  0.02000  1.360E-05    0   0.5167   age181_m62            0.0000     1.5531E-05    22.9890  -1.0000   106.0460
 50     17.4922     4.5759E+01    4.5126E+01    1.800000E+10  0.02000  7.124E-06    0   0.5013   age213_m62            0.0000     1.9200E-05    24.5519  -1.0000    96.1731
 51      0.0000     0.0000E+00    0.0000E+00    1.000000E+06  0.05000  2.592E-02    0   0.9998   age020_m72            0.0000     1.3893E-05    25.5443   2.9256   100.1939
 52      0.0000     0.0000E+00    0.0000E+00    3.160000E+06  0.05000  4.845E-02    0   0.9577   age045_m72            0.0000     1.3343E-05    25.1172   2.7429   102.9933
 53      0.0000     0.0000E+00    0.0000E+00    5.010000E+06  0.05000  3.072E-02    0   0.9147   age055_m72            0.0000     1.4478E-05    29.2248   2.3733   106.4182
 54      0.0000     0.0000E+00    0.0000E+00    6.610000E+06  0.05000  1.455E-02    0   0.8877   age061_m72            0.0000     1.9922E-05    38.2642   1.8544   110.2304
 55      0.0000     0.0000E+00    0.0000E+00    1.000000E+07  0.05000  9.074E-03    0   0.8524   age070_m72            0.0000     1.4548E-05    29.0597   2.5506   106.1344
 56      0.0000     0.0000E+00    0.0000E+00    2.512000E+07  0.05000  4.250E-03    0   0.7902   age090_m72            0.0000     1.4151E-05    29.3199   2.2542   108.6210
 57      0.0000     0.0000E+00    0.0000E+00    4.000000E+07  0.05000  3.087E-03    0   0.7618   age104_m72            0.0000     1.4115E-05    29.5588   2.0326   110.5255
 58      0.0000     0.0000E+00    0.0000E+00    1.015200E+08  0.05000  1.700E-03    0   0.7096   age116_m72            0.0000     1.3707E-05    28.7864   1.7390   115.1099
 59      0.0000     0.0000E+00    0.0000E+00    2.861200E+08  0.05000  7.384E-04    0   0.6633   age125_m72            0.0000     1.3187E-05    26.5185   1.1309   123.0919
 60      0.0000     0.0000E+00    0.0000E+00    5.088000E+08  0.05000  3.819E-04    0   0.6372   age130_m72            0.0000     1.2410E-05    24.4526   0.5799   126.0806
 61      0.0000     0.0000E+00    0.0000E+00    9.047900E+08  0.05000  1.676E-04    0   0.6110   age135_m72            0.0000     1.2737E-05    23.4736  -0.1477   124.3531
 62      0.0000     0.0000E+00    0.0000E+00    1.434000E+09  0.05000  8.837E-05    0   0.5874   age139_m72            0.0000     1.2800E-05    22.8272  -0.6204   123.6096
 63      0.0000     0.0000E+00    0.0000E+00    2.500000E+09  0.05000  4.233E-05    0   0.5598   age150_m72            0.0000     1.2963E-05    21.1644  -0.9900   123.1323
 64      0.0000     0.0000E+00    0.0000E+00    6.250000E+09  0.05000  1.435E-05    0   0.5249   age166_m72            0.0000     1.6802E-05    23.6431  -1.0000   101.3613
 65      0.0000     0.0000E+00    0.0000E+00    1.300000E+10  0.05000  6.513E-06    0   0.5036   age193_m72            0.0000     2.2477E-05    26.0102  -1.0000    90.6413
 66      0.0000     0.0000E+00    0.0000E+00    1.800000E+10  0.05000  4.527E-06    0   0.4945   age213_m72            0.0000     2.6417E-05    27.6577  -1.0000    84.4577


## Synthesis Results - Average & Chains ##

# j      x_j: min, <> & last-chain-values for 1 ...  7 chains
  1      0.6315      7.3047     18.0956     13.1522     12.9622     14.3744     13.7541     12.8435     13.1943
  2      0.0000      0.8400      0.0000      0.0000      0.0000      0.0000      0.0000      0.0000      0.0000
  3      0.0000      0.8404      0.0000      0.0000      0.0000      0.0000      0.0000      0.0000      0.0000
  4      0.0000      0.7322      0.0000      0.0000      0.0049      0.0000      0.0000      0.0000      0.0000
  5      0.0000      1.0738      0.0038      0.0000      0.0000      0.0000      0.0000      0.0000      0.0000
  6      0.0000      1.1216      0.0000      0.0000      0.0000      0.0003      0.0000      0.0000      0.0000
  7      0.0000      1.1535      0.0000      0.0000      0.0000      0.0000      0.0000      0.0000      0.0000
  8      0.0000      0.7084      0.0000      0.0000      0.0000      0.0000      0.0000      0.0000      0.0000
  9      0.0000      1.3131      0.0000      0.0000      0.0000      0.0000      0.0000      0.0000      0.0000
 10      0.0000      1.4300      0.0000      0.0000      0.0000      0.0000      0.0000      0.0000      0.0000
 11      0.0000      0.8508      0.0000      0.0000      0.0000      0.0000      0.0000      0.0000      0.0000
 12      0.0000      0.9428      0.0000      0.0000      0.0000      0.0000      0.0000      0.0011      0.0000
 13      0.0000      1.3336      0.0000      0.0000      0.0000      0.0000      0.0000      0.0000      0.0000
 14     73.4471     10.5093     16.6663     20.1623     20.1944     20.2193     20.1313     20.1033     20.2721
 15      0.0000     16.2258     31.3675     34.4678     34.6003     35.1366     35.4379     34.3930     34.9541
 16      0.0000     11.0423     20.4433     21.1520     21.3665     21.3513     20.9883     21.1833     21.3552
 17     25.3843     17.7079     43.4222     36.6912     36.7452     36.2993     36.0565     35.7229     36.4124
 18      0.0000      2.3542      0.0000      3.8183      4.0985      2.6187      3.6319      3.8945      3.8116
 19      0.0000      0.9080      0.0000      0.0000      0.0000      0.0000      0.0000      0.0000      0.0000
 20      0.0000      0.9327      0.0000      0.0000      0.0000      0.0000      0.0000      0.0000      0.0000
 21      0.0000      0.6708      0.0000      0.0000      0.0000      0.0000      0.0000      0.0000      0.0000
 22      0.0000      0.7810      0.0000      0.0000      0.0000      0.0000      0.0000      0.0000      0.0000
 23      0.0000      0.8450      0.0000      0.0000      0.0000      0.0000      0.0000      0.0000      0.0000
 24      0.0000      1.0460      0.0000      0.0000      0.0000      0.0000      0.0000      0.0000      0.0000
 25      0.0000      0.5565      0.0000      0.0000      0.0000      0.0000      0.0000      0.0000      0.0000
 26      0.0000      0.9855      0.0000      0.0000      0.0000      0.0000      0.0000      0.0000      0.0000
 27      0.0000      0.7919      0.0000      0.0000      0.0000      0.0000      0.0000      0.0000      0.0000
 28      0.0000      1.1758      0.0000      0.0000      0.0000      0.0000      0.0000      0.0000      0.0000
 29      0.0000      0.9988      0.0000      0.0000      0.0000      0.0000      0.0000      0.0000      0.0000
 30      0.0000      1.2522      0.0000      0.0000      0.0000      0.0000      0.0000      0.0000      0.0000
 31      0.0000      1.3544      0.0000      0.0000      0.0000      0.0000      0.0000      0.0000      0.0000
 32      0.0000      1.0697      0.0000      0.0000      0.0000      0.0000      0.0000      0.0000      0.0000
 33      0.0000      1.1237      0.0000      0.0000      0.0000      0.0000      0.0000      0.0000      0.0003
 34      0.0000      1.2142      0.0000      0.0000      0.0000      0.0000      0.0000      0.0000      0.0000
 35      0.0000      0.9101      0.0011      0.0000      0.0000      0.0000      0.0000      0.0000      0.0000
 36      0.0000      0.7832      0.0000      0.0000      0.0000      0.0000      0.0000      0.0000      0.0000
 37      0.0000      1.0338      0.0000      0.0000      0.0000      0.0000      0.0000      0.0000      0.0000
 38      0.0000      1.7593      0.0000      0.0000      0.0000      0.0000      0.0000      0.0000      0.0000
 39      0.0000      0.9915      0.0000      0.0000      0.0000      0.0000      0.0000      0.0000      0.0000
 40      0.0000      1.6198      0.0000      0.0000      0.0000      0.0000      0.0000      0.0000      0.0000
 41      0.0000      1.0874      0.0000      0.0000      0.0000      0.0000      0.0000      0.0000      0.0000
 42      0.0000      0.9291      0.0000      0.0000      0.0000      0.0000      0.0000      0.0000      0.0000
 43      0.0000      1.0801      0.0000      0.0000      0.0000      0.0000      0.0000      0.0000      0.0000
 44      0.0000      0.8181      0.0000      0.0000      0.0000      0.0000      0.0000      0.0000      0.0000
 45      0.0000      0.8325      0.0000      0.0000      0.0000      0.0000      0.0000      0.0000      0.0000
 46      0.0000      1.1365      0.0000      0.0000      0.0000      0.0000      0.0000      0.0000      0.0000
 47      0.0000      1.0254      0.0000      0.0000      0.0000      0.0000      0.0000      0.0000      0.0000
 48      0.0000      1.1943      0.0000      0.0000      0.0000      0.0000      0.0000      0.0000      0.0000
 49      0.0000      1.3830      0.0000      0.0000      0.0000      0.0000      0.0000      0.0000      0.0000
 50     17.4922      1.5739      0.0000      0.0000      0.0000      0.0000      0.0000      1.1447      0.0000
 51      0.0000      1.3152      0.0000      0.0000      0.0000      0.0000      0.0000      0.0000      0.0000
 52      0.0000      0.7890      0.0000      0.0000      0.0000      0.0000      0.0000      0.0000      0.0000
 53      0.0000      0.7417      0.0000      0.0000      0.0000      0.0000      0.0000      0.0000      0.0000
 54      0.0000      0.9881      0.0000      0.0000      0.0000      0.0000      0.0000      0.0000      0.0000
 55      0.0000      1.1304      0.0000      0.0000      0.0000      0.0000      0.0000      0.0006      0.0000
 56      0.0000      0.8653      0.0000      0.0000      0.0000      0.0000      0.0000      0.0000      0.0000
 57      0.0000      0.8305      0.0000      0.0000      0.0000      0.0000      0.0000      0.0000      0.0000
 58      0.0000      0.9583      0.0000      0.0000      0.0000      0.0000      0.0000      0.0000      0.0000
 59      0.0000      0.9773      0.0000      0.0000      0.0000      0.0000      0.0000      0.0000      0.0000
 60      0.0000      1.0445      0.0000      0.0000      0.0000      0.0000      0.0000      0.0000      0.0000
 61      0.0000      1.1729      0.0000      0.0000      0.0000      0.0000      0.0000      0.0000      0.0000
 62      0.0000      0.8523      0.0000      0.0000      0.0000      0.0000      0.0000      0.0000      0.0000
 63      0.0000      1.2795      0.0000      0.0000      0.0000      0.0000      0.0000      0.0000      0.0000
 64      0.0000      1.9519      0.0000      0.5561      0.0000      0.0000      0.0000      0.0000      0.0000
 65      0.0000      0.9950      0.0000      0.0000      0.0000      0.0000      0.0000      0.7130      0.0000
 66      0.0000      2.0846      0.0000      0.0000      0.0279      0.0000      0.0000      0.0000      0.0000

# j      m_j: min, <> & last-chain-values for 1 ...  7 chains
  1  2.1161E-03  3.4024E-02  6.4942E-02  4.9197E-02  4.8643E-02  5.4159E-02  5.2108E-02  4.6465E-02  4.9681E-02
  2  0.0000E+00  1.0681E-03  0.0000E+00  0.0000E+00  0.0000E+00  0.0000E+00  0.0000E+00  0.0000E+00  0.0000E+00
  3  0.0000E+00  1.6003E-03  0.0000E+00  0.0000E+00  0.0000E+00  0.0000E+00  0.0000E+00  0.0000E+00  0.0000E+00
  4  0.0000E+00  1.3129E-03  0.0000E+00  0.0000E+00  7.0234E-06  0.0000E+00  0.0000E+00  0.0000E+00  0.0000E+00
  5  0.0000E+00  3.6680E-03  1.0100E-05  0.0000E+00  0.0000E+00  0.0000E+00  0.0000E+00  0.0000E+00  0.0000E+00
  6  0.0000E+00  6.2141E-03  0.0000E+00  0.0000E+00  0.0000E+00  1.4284E-06  0.0000E+00  0.0000E+00  0.0000E+00
  7  0.0000E+00  9.1501E-03  0.0000E+00  0.0000E+00  0.0000E+00  0.0000E+00  0.0000E+00  0.0000E+00  0.0000E+00
  8  0.0000E+00  7.7671E-03  0.0000E+00  0.0000E+00  0.0000E+00  0.0000E+00  0.0000E+00  0.0000E+00  0.0000E+00
  9  0.0000E+00  1.6477E-02  0.0000E+00  0.0000E+00  0.0000E+00  0.0000E+00  0.0000E+00  0.0000E+00  0.0000E+00
 10  0.0000E+00  2.3571E-02  0.0000E+00  0.0000E+00  0.0000E+00  0.0000E+00  0.0000E+00  0.0000E+00  0.0000E+00
 11  0.0000E+00  2.6371E-02  0.0000E+00  0.0000E+00  0.0000E+00  0.0000E+00  0.0000E+00  0.0000E+00  0.0000E+00
 12  0.0000E+00  4.6352E-02  0.0000E+00  0.0000E+00  0.0000E+00  0.0000E+00  0.0000E+00  4.3771E-05  0.0000E+00
 13  0.0000E+00  1.8482E-01  0.0000E+00  0.0000E+00  0.0000E+00  0.0000E+00  0.0000E+00  0.0000E+00  0.0000E+00
 14  2.4561E+01  4.8847E+00  5.9685E+00  7.5258E+00  7.5621E+00  7.6019E+00  7.6106E+00  7.2575E+00  7.6169E+00
 15  0.0000E+00  1.2277E+01  1.8287E+01  2.0944E+01  2.1093E+01  2.1506E+01  2.1810E+01  2.0213E+01  2.1380E+01
 16  0.0000E+00  1.4127E+01  2.0152E+01  2.1732E+01  2.2024E+01  2.2096E+01  2.1841E+01  2.1050E+01  2.2086E+01
 17  3.0311E+01  2.9390E+01  5.5527E+01  4.8904E+01  4.9134E+01  4.8733E+01  4.8674E+01  4.6050E+01  4.8853E+01
 18  0.0000E+00  9.6899E-03  0.0000E+00  1.2621E-02  1.3591E-02  8.7190E-03  1.2159E-02  1.2451E-02  1.2682E-02
 19  0.0000E+00  1.5001E-03  0.0000E+00  0.0000E+00  0.0000E+00  0.0000E+00  0.0000E+00  0.0000E+00  0.0000E+00
 20  0.0000E+00  1.6822E-03  0.0000E+00  0.0000E+00  0.0000E+00  0.0000E+00  0.0000E+00  0.0000E+00  0.0000E+00
 21  0.0000E+00  1.4687E-03  0.0000E+00  0.0000E+00  0.0000E+00  0.0000E+00  0.0000E+00  0.0000E+00  0.0000E+00
 22  0.0000E+00  2.8913E-03  0.0000E+00  0.0000E+00  0.0000E+00  0.0000E+00  0.0000E+00  0.0000E+00  0.0000E+00
 23  0.0000E+00  4.2245E-03  0.0000E+00  0.0000E+00  0.0000E+00  0.0000E+00  0.0000E+00  0.0000E+00  0.0000E+00
 24  0.0000E+00  7.7801E-03  0.0000E+00  0.0000E+00  0.0000E+00  0.0000E+00  0.0000E+00  0.0000E+00  0.0000E+00
 25  0.0000E+00  5.7072E-03  0.0000E+00  0.0000E+00  0.0000E+00  0.0000E+00  0.0000E+00  0.0000E+00  0.0000E+00
 26  0.0000E+00  1.6894E-02  0.0000E+00  0.0000E+00  0.0000E+00  0.0000E+00  0.0000E+00  0.0000E+00  0.0000E+00
 27  0.0000E+00  2.7172E-02  0.0000E+00  0.0000E+00  0.0000E+00  0.0000E+00  0.0000E+00  0.0000E+00  0.0000E+00
 28  0.0000E+00  1.1709E-01  0.0000E+00  0.0000E+00  0.0000E+00  0.0000E+00  0.0000E+00  0.0000E+00  0.0000E+00
 29  0.0000E+00  1.7330E-01  0.0000E+00  0.0000E+00  0.0000E+00  0.0000E+00  0.0000E+00  0.0000E+00  0.0000E+00
 30  0.0000E+00  4.5394E-01  0.0000E+00  0.0000E+00  0.0000E+00  0.0000E+00  0.0000E+00  0.0000E+00  0.0000E+00
 31  0.0000E+00  8.6369E-01  0.0000E+00  0.0000E+00  0.0000E+00  0.0000E+00  0.0000E+00  0.0000E+00  0.0000E+00
 32  0.0000E+00  9.1778E-01  0.0000E+00  0.0000E+00  0.0000E+00  0.0000E+00  0.0000E+00  0.0000E+00  0.0000E+00
 33  0.0000E+00  2.1343E+00  0.0000E+00  0.0000E+00  0.0000E+00  0.0000E+00  0.0000E+00  0.0000E+00  5.0402E-04
 34  0.0000E+00  3.1231E+00  0.0000E+00  0.0000E+00  0.0000E+00  0.0000E+00  0.0000E+00  0.0000E+00  0.0000E+00
 35  0.0000E+00  3.0036E-03  2.8866E-06  0.0000E+00  0.0000E+00  0.0000E+00  0.0000E+00  0.0000E+00  0.0000E+00
 36  0.0000E+00  1.0459E-03  0.0000E+00  0.0000E+00  0.0000E+00  0.0000E+00  0.0000E+00  0.0000E+00  0.0000E+00
 37  0.0000E+00  1.4931E-03  0.0000E+00  0.0000E+00  0.0000E+00  0.0000E+00  0.0000E+00  0.0000E+00  0.0000E+00
 38  0.0000E+00  6.8835E-03  0.0000E+00  0.0000E+00  0.0000E+00  0.0000E+00  0.0000E+00  0.0000E+00  0.0000E+00
 39  0.0000E+00  5.5856E-03  0.0000E+00  0.0000E+00  0.0000E+00  0.0000E+00  0.0000E+00  0.0000E+00  0.0000E+00
 40  0.0000E+00  1.4751E-02  0.0000E+00  0.0000E+00  0.0000E+00  0.0000E+00  0.0000E+00  0.0000E+00  0.0000E+00
 41  0.0000E+00  1.5399E-02  0.0000E+00  0.0000E+00  0.0000E+00  0.0000E+00  0.0000E+00  0.0000E+00  0.0000E+00
 42  0.0000E+00  2.4156E-02  0.0000E+00  0.0000E+00  0.0000E+00  0.0000E+00  0.0000E+00  0.0000E+00  0.0000E+00
 43  0.0000E+00  4.0999E-02  0.0000E+00  0.0000E+00  0.0000E+00  0.0000E+00  0.0000E+00  0.0000E+00  0.0000E+00
 44  0.0000E+00  5.3473E-02  0.0000E+00  0.0000E+00  0.0000E+00  0.0000E+00  0.0000E+00  0.0000E+00  0.0000E+00
 45  0.0000E+00  1.0796E-01  0.0000E+00  0.0000E+00  0.0000E+00  0.0000E+00  0.0000E+00  0.0000E+00  0.0000E+00
 46  0.0000E+00  2.7089E-01  0.0000E+00  0.0000E+00  0.0000E+00  0.0000E+00  0.0000E+00  0.0000E+00  0.0000E+00
 47  0.0000E+00  4.9530E-01  0.0000E+00  0.0000E+00  0.0000E+00  0.0000E+00  0.0000E+00  0.0000E+00  0.0000E+00
 48  0.0000E+00  1.0173E+00  0.0000E+00  0.0000E+00  0.0000E+00  0.0000E+00  0.0000E+00  0.0000E+00  0.0000E+00
 49  0.0000E+00  2.6775E+00  0.0000E+00  0.0000E+00  0.0000E+00  0.0000E+00  0.0000E+00  0.0000E+00  0.0000E+00
 50  4.5126E+01  5.6436E+00  0.0000E+00  0.0000E+00  0.0000E+00  0.0000E+00  0.0000E+00  3.1882E+00  0.0000E+00
 51  0.0000E+00  2.5851E-03  0.0000E+00  0.0000E+00  0.0000E+00  0.0000E+00  0.0000E+00  0.0000E+00  0.0000E+00
 52  0.0000E+00  7.9475E-04  0.0000E+00  0.0000E+00  0.0000E+00  0.0000E+00  0.0000E+00  0.0000E+00  0.0000E+00
 53  0.0000E+00  1.1253E-03  0.0000E+00  0.0000E+00  0.0000E+00  0.0000E+00  0.0000E+00  0.0000E+00  0.0000E+00
 54  0.0000E+00  3.0718E-03  0.0000E+00  0.0000E+00  0.0000E+00  0.0000E+00  0.0000E+00  0.0000E+00  0.0000E+00
 55  0.0000E+00  5.4112E-03  0.0000E+00  0.0000E+00  0.0000E+00  0.0000E+00  0.0000E+00  2.1222E-06  0.0000E+00
 56  0.0000E+00  8.1979E-03  0.0000E+00  0.0000E+00  0.0000E+00  0.0000E+00  0.0000E+00  0.0000E+00  0.0000E+00
 57  0.0000E+00  1.0443E-02  0.0000E+00  0.0000E+00  0.0000E+00  0.0000E+00  0.0000E+00  0.0000E+00  0.0000E+00
 58  0.0000E+00  2.0384E-02  0.0000E+00  0.0000E+00  0.0000E+00  0.0000E+00  0.0000E+00  0.0000E+00  0.0000E+00
 59  0.0000E+00  4.4735E-02  0.0000E+00  0.0000E+00  0.0000E+00  0.0000E+00  0.0000E+00  0.0000E+00  0.0000E+00
 60  0.0000E+00  8.8804E-02  0.0000E+00  0.0000E+00  0.0000E+00  0.0000E+00  0.0000E+00  0.0000E+00  0.0000E+00
 61  0.0000E+00  2.1789E-01  0.0000E+00  0.0000E+00  0.0000E+00  0.0000E+00  0.0000E+00  0.0000E+00  0.0000E+00
 62  0.0000E+00  2.8869E-01  0.0000E+00  0.0000E+00  0.0000E+00  0.0000E+00  0.0000E+00  0.0000E+00  0.0000E+00
 63  0.0000E+00  8.6223E-01  0.0000E+00  0.0000E+00  0.0000E+00  0.0000E+00  0.0000E+00  0.0000E+00  0.0000E+00
 64  0.0000E+00  3.6383E+00  0.0000E+00  8.3243E-01  0.0000E+00  0.0000E+00  0.0000E+00  0.0000E+00  0.0000E+00
 65  0.0000E+00  3.9205E+00  0.0000E+00  0.0000E+00  0.0000E+00  0.0000E+00  0.0000E+00  2.1819E+00  0.0000E+00
 66  0.0000E+00  1.1604E+01  0.0000E+00  0.0000E+00  1.2520E-01  0.0000E+00  0.0000E+00  0.0000E+00  0.0000E+00

# AV, chi2 & Mass for <> & i_chain = 1 ...  7 solutions
AV      -0.6748     -0.8918     -0.8000     -0.8000     -0.8000     -0.8000     -0.8000     -0.8000     -0.8000
chi2 1.1973E-05  2.8357E-03  1.0518E-04  1.0056E-04  1.0915E-04  1.0964E-04  1.2269E-04  7.5466E-05  1.0971E-04
Mass 1.2118E-13  6.5143E-14  9.5642E-14  9.1763E-14  9.1467E-14  9.1101E-14  9.0600E-14  9.4876E-14  9.1159E-14
 167.85                                  [v0_min (km/s) before EX0s...]
  69.65                                  [vd_min (km/s) before EX0s...]


## Synthetic spectrum (Best Model) ##l_obs f_obs f_syn wei
 3478    [Nl_obs]
 3741.00    0.51162   0.69655    0.000
 3742.00    0.54183   0.76457    0.000
 3743.00    0.56592   0.78657    0.000
 3744.00    0.60629   0.76150    0.000
 3745.00    0.65614   0.71166    0.027
 3746.00    0.72855   0.66073    0.026
 3747.00    0.81242   0.61783    0.026
 3748.00    0.81345   0.58348    0.028
 3749.00    0.77805   0.54705    0.032
 3750.00    0.81436   0.49725    0.030
 3751.00    0.87774   0.46084    0.026
 3752.00    0.79095   0.48451    0.025
 3753.00    0.65604   0.56967    0.024
 3754.00    0.79793   0.67052    0.025
 3755.00    1.01400   0.75423    0.025
 3756.00    1.18503   0.81985    0.025
 3757.00    1.34617   0.85628    0.025
 3758.00    1.22194   0.83561    0.026
 3759.00    1.04790   0.75995    0.027
 3760.00    0.66842   0.68391    0.030
 3761.00    0.26166   0.66168    0.035
 3762.00    0.26006   0.68880    0.029
 3763.00    0.29653   0.72688    0.024
 3764.00    0.73384   0.74954    0.024
 3765.00    1.19426   0.75250    0.025
 3766.00    0.93712   0.74981    0.024
 3767.00    0.66589   0.74552    0.024
 3768.00    0.75100   0.72522    0.025
 3769.00    0.83077   0.69781    0.025
 3770.00    0.78090   0.68705    0.024
 3771.00    0.73349   0.68391    0.023
 3772.00    0.71822   0.67665    0.023
 3773.00    0.72447   0.69056    0.022
 3774.00    0.91957   0.73960    0.022
 3775.00    1.05948   0.79203    0.022
 3776.00    0.84163   0.81740    0.022
 3777.00    0.62999   0.82337    0.022
 3778.00    0.44977   0.83442    0.022
 3779.00    0.30710   0.85755    0.021
 3780.00    0.31808   0.88564    0.022
 3781.00    0.31771   0.91658    0.022
 3782.00    0.27885   0.94488    0.022
 3783.00    0.30517   0.95935    0.023
 3784.00    0.51798   0.96219    0.023
 3785.00    0.63825   0.96467    0.023
 3786.00    0.53248   0.95929    0.023
 3787.00    0.40365   0.92293    0.024
 3788.00    0.22621   0.85852    0.025
 3789.00    0.18011   0.80130    0.025
 3790.00    0.37459   0.77137    0.023
 3791.00    0.45848   0.76192    0.022
 3792.00    0.36536   0.76754    0.022
 3793.00    0.35620   0.78155    0.022
 3794.00    0.46499   0.78142    0.023
 3795.00    0.51400   0.75172    0.023
 3796.00    0.48913   0.70592    0.022
 3797.00    0.50907   0.66408    0.022
 3798.00    0.57785   0.62417    0.023
 3799.00    0.56123   0.57858    0.023
 3800.00    0.46254   0.55011    0.023
 3801.00    0.36946   0.57556    0.023
 3802.00    0.28115   0.65291    0.023
 3803.00    0.59871   0.74132    0.024
 3804.00    1.21914   0.81349    0.027
 3805.00    1.37553   0.86730    0.027
 3806.00    1.22772   0.89535    0.024
 3807.00    0.94718   0.88935    0.022
 3808.00    0.59046   0.86221    0.022
 3809.00    0.46871   0.84555    0.022
 3810.00    0.46441   0.86324    0.022
 3811.00    0.46425   0.90347    0.022
 3812.00    0.46588   0.93112    0.022
 3813.00    0.59163   0.92390    0.022
 3814.00    0.76340   0.88311    0.022
 3815.00    0.80001   0.82622    0.022
 3816.00    0.79414   0.77542    0.022
 3817.00    0.67813   0.74659    0.022
 3818.00    0.53322   0.75064    0.023
 3819.00    0.56818   0.78092    0.022
 3820.00    0.64168   0.79746    0.021
 3821.00    0.48797   0.76743    0.021
 3822.00    0.29571   0.71811    0.021
 3823.00    0.29784   0.70475    0.021
 3824.00    0.32491   0.73019    0.021
 3825.00    0.44508   0.74063    0.021
 3826.00    0.57360   0.70531    0.021
 3827.00    0.61816   0.65449    0.021
 3828.00    0.65820   0.62564    0.021
 3829.00    0.64916   0.61876    0.022
 3830.00    0.63734   0.61894    0.023
 3831.00    0.47422   0.62262    0.022
 3832.00    0.33263   0.62221    0.022
 3833.00    0.66911   0.59703    0.023
 3834.00    0.96196   0.54486    0.023
 3835.00    0.71213   0.49408    0.023
 3836.00    0.48511   0.47036    0.023
 3837.00    0.45089   0.47737    0.023
 3838.00    0.44807   0.50042    0.023
 3839.00    0.64283   0.51716    0.023
 3840.00    0.74833   0.52369    0.023
 3841.00    0.41342   0.53687    0.023
 3842.00    0.19692   0.57001    0.022
 3843.00    0.45442   0.62671    0.023
 3844.00    0.69177   0.70010    0.023
 3845.00    0.86214   0.76764    0.025
 3846.00    0.97711   0.80954    0.026
 3847.00    0.93653   0.82741    0.000
 3848.00    0.91702   0.83822    0.000
 3849.00    0.94807   0.85147    0.000
 3850.00    0.97465   0.85411    0.000
 3851.00    0.99193   0.83607    0.000
 3852.00    0.94870   0.81908    0.000
 3853.00    0.79631   0.82874    0.000
 3854.00    0.64077   0.85394    0.000
 3855.00    0.48025   0.86556    0.000
 3856.00    0.47827   0.85340    0.000
 3857.00    0.69577   0.82627    0.000
 3858.00    0.84891   0.79861    0.000
 3859.00    0.92364   0.77648    0.000
 3860.00    1.03079   0.74879    0.000
 3861.00    1.17277   0.71600    0.000
 3862.00    1.22374   0.71062    0.000
 3863.00    1.18847   0.75461    0.000
 3864.00    1.04555   0.82263    0.000
 3865.00    0.81270   0.87031    0.000
 3866.00    0.75605   0.87923    0.000
 3867.00    0.82899   0.86565    0.000
 3868.00    0.81539   0.85560    0.000
 3869.00    0.74588   0.85774    0.000
 3870.00    0.74747   0.86225    0.000
 3871.00    0.78923   0.85481    0.000
 3872.00    0.97163   0.82596    0.000
 3873.00    1.22320   0.78092    0.000
 3874.00    1.10388   0.74394    0.000
 3875.00    0.82683   0.74458    0.000
 3876.00    0.61719   0.78540    0.000
 3877.00    0.43210   0.82967    0.000
 3878.00    0.52588   0.83404    0.000
 3879.00    0.70564   0.79199    0.000
 3880.00    0.82825   0.74474    0.000
 3881.00    0.93620   0.73711    0.022
 3882.00    0.97764   0.75857    0.022
 3883.00    1.00518   0.76602    0.022
 3884.00    0.79485   0.75640    0.022
 3885.00    0.54531   0.75532    0.021
 3886.00    0.67599   0.75238    0.022
 3887.00    0.85375   0.71375    0.023
 3888.00    0.74211   0.64678    0.022
 3889.00    0.60571   0.59160    0.022
 3890.00    0.69670   0.56699    0.022
 3891.00    0.79902   0.57640    0.022
 3892.00    0.57039   0.62678    0.022
 3893.00    0.33886   0.70434    0.022
 3894.00    0.27014   0.77254    0.021
 3895.00    0.20653   0.80589    0.021
 3896.00    0.24750   0.80758    0.021
 3897.00    0.30036   0.80208    0.021
 3898.00    0.49396   0.81296    0.020
 3899.00    0.68019   0.83425    0.020
 3900.00    0.80652   0.84018    0.019
 3901.00    0.90930   0.83098    0.019
 3902.00    0.86820   0.83268    0.019
 3903.00    0.83007   0.85045    0.019
 3904.00    0.80618   0.86162    0.018
 3905.00    0.79700   0.85603    0.018
 3906.00    0.84543   0.84080    0.018
 3907.00    0.87689   0.82041    0.018
 3908.00    0.85305   0.81305    0.018
 3909.00    0.83805   0.84221    0.019
 3910.00    0.84744   0.89595    0.019
 3911.00    0.86208   0.94077    0.019
 3912.00    0.88913   0.96490    0.020
 3913.00    0.88491   0.97868    0.020
 3914.00    0.81687   0.98519    0.020
 3915.00    0.77122   0.97785    0.020
 3916.00    0.76534   0.96204    0.020
 3917.00    0.81372   0.94791    0.021
 3918.00    0.94639   0.93414    0.022
 3919.00    1.03727   0.91806    0.022
 3920.00    1.07111   0.89857    0.022
 3921.00    1.06183   0.87133    0.022
 3922.00    1.00075   0.83928    0.023
 3923.00    0.89327   0.81644    0.022
 3924.00    0.73665   0.81317    0.022
 3925.00    0.73411   0.82391    0.022
 3926.00    0.87551   0.83192    0.022
 3927.00    1.12268   0.82033    0.023
 3928.00    1.45696   0.78178    0.023
 3929.00    1.33988   0.72114    0.023
 3930.00    0.89561   0.64882    0.023
 3931.00    0.65466   0.57296    0.022
 3932.00    0.54311   0.49507    0.022
 3933.00    0.71304   0.41357    0.022
 3934.00    1.03963   0.33409    0.023
 3935.00    0.97321   0.27563    0.023
 3936.00    0.71655   0.26246    0.023
 3937.00    0.89377   0.30451    0.023
 3938.00    1.25240   0.38763    0.023
 3939.00    1.24057   0.48594    0.023
 3940.00    1.09622   0.58028    0.023
 3941.00    0.96988   0.66108    0.022
 3942.00    0.84899   0.71968    0.022
 3943.00    0.82734   0.75063    0.022
 3944.00    0.83063   0.75872    0.022
 3945.00    0.93998   0.75535    0.022
 3946.00    1.07096   0.76137    0.022
 3947.00    1.28846   0.79774    0.022
 3948.00    1.51981   0.85067    0.023
 3949.00    1.37830   0.88176    0.022
 3950.00    1.19228   0.88525    0.022
 3951.00    1.09003   0.89211    0.022
 3952.00    0.99461   0.91528    0.022
 3953.00    1.04245   0.93206    0.022
 3954.00    1.09689   0.92862    0.022
 3955.00    0.96168   0.92697    0.022
 3956.00    0.82909   0.94089    0.021
 3957.00    0.95963   0.94383    0.022
 3958.00    1.08484   0.91905    0.022
 3959.00    1.10914   0.89402    0.022
 3960.00    1.12218   0.89208    0.000
 3961.00    1.00833   0.89159    0.000
 3962.00    0.90320   0.85491    0.000
 3963.00    0.86666   0.77991    0.000
 3964.00    0.86488   0.70368    0.000
 3965.00    1.06940   0.65291    0.000
 3966.00    1.22400   0.61276    0.000
 3967.00    1.14420   0.55300    0.000
 3968.00    1.02683   0.46407    0.000
 3969.00    0.76550   0.36497    0.000
 3970.00    0.58532   0.28952    0.000
 3971.00    0.66449   0.26571    0.000
 3972.00    0.73138   0.30038    0.000
 3973.00    0.76500   0.37707    0.000
 3974.00    0.79009   0.46887    0.000
 3975.00    0.79535   0.55764    0.000
 3976.00    0.91618   0.64029    0.000
 3977.00    1.26914   0.71591    0.000
 3978.00    1.42622   0.77920    0.000
 3979.00    1.24071   0.83244    0.000
 3980.00    1.14539   0.88471    0.000
 3981.00    1.18816   0.93453    0.023
 3982.00    1.19086   0.96842    0.023
 3983.00    1.13969   0.97638    0.023
 3984.00    1.18860   0.96674    0.023
 3985.00    1.35604   0.96265    0.023
 3986.00    1.48799   0.97640    0.023
 3987.00    1.58288   0.99716    0.023
 3988.00    1.44098   1.01219    0.023
 3989.00    1.08100   1.02639    0.022
 3990.00    1.07562   1.04479    0.022
 3991.00    1.35813   1.05553    0.022
 3992.00    1.45893   1.05629    0.022
 3993.00    1.42989   1.06512    0.022
 3994.00    1.20504   1.08580    0.022
 3995.00    0.85742   1.09914    0.022
 3996.00    0.83649   1.09120    0.021
 3997.00    0.99459   1.06761    0.021
 3998.00    0.88476   1.03988    0.021
 3999.00    0.64731   1.01752    0.021
 4000.00    0.67075   1.01684    0.021
 4001.00    0.80141   1.04697    0.021
 4002.00    1.05136   1.08871    0.021
 4003.00    1.34319   1.11776    0.021
 4004.00    1.25370   1.13253    0.021
 4005.00    1.05123   1.12928    0.021
 4006.00    1.22496   1.09039    0.021
 4007.00    1.49111   1.02870    0.021
 4008.00    1.33805   0.99677    0.021
 4009.00    1.10164   1.02159    0.021
 4010.00    0.95345   1.07127    0.021
 4011.00    0.81898   1.10593    0.021
 4012.00    1.06465   1.12066    0.021
 4013.00    1.35403   1.12654    0.021
 4014.00    1.29741   1.12758    0.021
 4015.00    1.21403   1.12701    0.021
 4016.00    1.24450   1.13158    0.022
 4017.00    1.27976   1.14042    0.022
 4018.00    1.22356   1.14287    0.022
 4019.00    1.16378   1.13484    0.021
 4020.00    0.98349   1.13192    0.021
 4021.00    0.82679   1.14453    0.021
 4022.00    1.08598   1.15646    0.021
 4023.00    1.33943   1.15384    0.021
 4024.00    1.53100   1.14347    0.021
 4025.00    1.66100   1.13133    0.022
 4026.00    1.32368   1.11852    0.022
 4027.00    1.03718   1.11764    0.022
 4028.00    1.04388   1.14016    0.021
 4029.00    1.02222   1.17254    0.021
 4030.00    0.87065   1.18706    0.021
 4031.00    0.78816   1.16321    0.021
 4032.00    0.96478   1.10307    0.021
 4033.00    1.08785   1.03837    0.021
 4034.00    1.04298   1.00149    0.021
 4035.00    0.97598   0.99536    0.021
 4036.00    0.85010   1.01196    0.021
 4037.00    0.88380   1.05158    0.021
 4038.00    1.28187   1.11099    0.021
 4039.00    1.40578   1.17206    0.022
 4040.00    0.98771   1.20942    0.022
 4041.00    0.73451   1.21022    0.022
 4042.00    0.76533   1.18637    0.022
 4043.00    0.79938   1.16525    0.022
 4044.00    0.83830   1.15673    0.022
 4045.00    0.88252   1.13225    0.022
 4046.00    0.93377   1.06273    0.022
 4047.00    1.00000   0.97439    0.022
 4048.00    1.08371   0.93709    0.022
 4049.00    1.20334   0.98397    0.022
 4050.00    1.35995   1.06973    0.022
 4051.00    1.30264   1.13493    0.022
 4052.00    1.05105   1.16772    0.022
 4053.00    0.91897   1.17795    0.022
 4054.00    0.88255   1.16864    0.022
 4055.00    0.89902   1.14611    0.022
 4056.00    0.95274   1.12142    0.021
 4057.00    0.96120   1.10254    0.021
 4058.00    0.94171   1.08975    0.021
 4059.00    0.89859   1.07676    0.021
 4060.00    0.84273   1.06966    0.021
 4061.00    0.91176   1.08647    0.021
 4062.00    1.03931   1.11993    0.021
 4063.00    1.05203   1.12976    0.021
 4064.00    1.01837   1.08649    0.021
 4065.00    1.00284   1.01453    0.021
 4066.00    0.99358   0.97692    0.021
 4067.00    0.94231   1.00008    0.020
 4068.00    0.87883   1.04412    0.020
 4069.00    0.75280   1.07529    0.020
 4070.00    0.61174   1.10572    0.021
 4071.00    0.83896   1.13635    0.021
 4072.00    1.13753   1.13281    0.021
 4073.00    1.29186   1.08799    0.021
 4074.00    1.42445   1.05415    0.021
 4075.00    1.45264   1.07106    0.020
 4076.00    1.46929   1.10579    0.020
 4077.00    1.28151   1.10197    0.020
 4078.00    1.07876   1.05066    0.020
 4079.00    1.06782   0.99279    0.020
 4080.00    1.06423   0.97732    0.020
 4081.00    1.04792   1.01886    0.020
 4082.00    1.03613   1.08941    0.021
 4083.00    1.19751   1.14697    0.021
 4084.00    1.36050   1.16416    0.021
 4085.00    1.55011   1.14365    0.021
 4086.00    1.71257   1.11370    0.021
 4087.00    1.59553   1.10318    0.021
 4088.00    1.49079   1.12318    0.021
 4089.00    1.47627   1.16549    0.020
 4090.00    1.42940   1.20727    0.020
 4091.00    1.20104   1.22546    0.020
 4092.00    0.99287   1.21522    0.000
 4093.00    0.87507   1.18942    0.000
 4094.00    0.82552   1.16503    0.000
 4095.00    1.02667   1.15205    0.000
 4096.00    1.13249   1.13995    0.000
 4097.00    0.94516   1.10755    0.000
 4098.00    0.77341   1.05983    0.000
 4099.00    0.64241   1.02131    0.000
 4100.00    0.56333   0.99423    0.000
 4101.00    0.60086   0.95484    0.000
 4102.00    0.71726   0.88543    0.000
 4103.00    0.98715   0.80596    0.000
 4104.00    1.18690   0.76931    0.000
 4105.00    1.26762   0.80446    0.000
 4106.00    1.30561   0.88411    0.000
 4107.00    1.28008   0.96651    0.000
 4108.00    1.32490   1.02997    0.000
 4109.00    1.46162   1.06658    0.000
 4110.00    1.52883   1.07797    0.000
 4111.00    1.51602   1.07380    0.000
 4112.00    1.33869   1.06700    0.000
 4113.00    0.99436   1.06923    0.021
 4114.00    0.89142   1.08504    0.021
 4115.00    1.00460   1.11072    0.021
 4116.00    0.87036   1.13689    0.021
 4117.00    0.54089   1.15550    0.020
 4118.00    0.67153   1.16385    0.029
 4119.00    1.12146   1.15628    0.104
 4120.00    1.29577   1.13043   -1.000
 4121.00    1.30237   1.10529   -1.000
 4122.00    1.27017   1.10183   -1.000
 4123.00    1.21736   1.11213   -1.000
 4124.00    1.18374   1.11864   -1.000
 4125.00    1.15896   1.12464   -1.000
 4126.00    1.33676   1.14065   -1.000
 4127.00    1.59499   1.15875   -1.000
 4128.00    1.49181   1.16075    0.052
 4129.00    1.26632   1.14411    0.022
 4130.00    1.16228   1.12322    0.020
 4131.00    1.09279   1.10906    0.020
 4132.00    1.03033   1.09670    0.020
 4133.00    0.96952   1.07324    0.019
 4134.00    0.78899   1.03990    0.019
 4135.00    0.58585   1.01951    0.019
 4136.00    0.64356   1.03082    0.019
 4137.00    0.73936   1.07038    0.020
 4138.00    0.94727   1.11741    0.020
 4139.00    1.16710   1.15101    0.020
 4140.00    1.10199   1.17047    0.020
 4141.00    1.01717   1.18297    0.020
 4142.00    1.06480   1.18276    0.020
 4143.00    1.11701   1.15444    0.020
 4144.00    1.09622   1.08980    0.020
 4145.00    1.08105   1.01490    0.020
 4146.00    1.25579   0.98379    0.020
 4147.00    1.41642   1.01803    0.020
 4148.00    1.35897   1.07951    0.020
 4149.00    1.30923   1.12088    0.020
 4150.00    1.33566   1.12926    0.020
 4151.00    1.36225   1.11766    0.020
 4152.00    1.39012   1.10517    0.020
 4153.00    1.40341   1.10251    0.020
 4154.00    1.33716   1.10288    0.020
 4155.00    1.28338   1.09461    0.019
 4156.00    1.28410   1.07946    0.019
 4157.00    1.25820   1.06970    0.019
 4158.00    1.13652   1.07176    0.019
 4159.00    1.08221   1.08487    0.019
 4160.00    1.23119   1.10789    0.019
 4161.00    1.33766   1.13401    0.019
 4162.00    1.33497   1.15220    0.019
 4163.00    1.36372   1.16111    0.019
 4164.00    1.46192   1.16900    0.020
 4165.00    1.44052   1.17484    0.020
 4166.00    1.19002   1.16966    0.020
 4167.00    1.00781   1.15496    0.020
 4168.00    0.93973   1.13661    0.020
 4169.00    0.90624   1.11831    0.020
 4170.00    0.92341   1.11100    0.020
 4171.00    0.99212   1.11948    0.019
 4172.00    1.12722   1.12267    0.019
 4173.00    1.12035   1.09478    0.019
 4174.00    0.95237   1.04163    0.020
 4175.00    0.90099   1.00022    0.020
 4176.00    0.96631   0.99815    0.020
 4177.00    1.06275   1.02479    0.020
 4178.00    1.18666   1.05041    0.020
 4179.00    1.19919   1.05992    0.020
 4180.00    1.12511   1.06433    0.020
 4181.00    1.02687   1.08051    0.020
 4182.00    0.91212   1.10118    0.020
 4183.00    1.03771   1.10462    0.020
 4184.00    1.30737   1.09254    0.020
 4185.00    1.29031   1.08848    0.020
 4186.00    1.12329   1.10176    0.019
 4187.00    0.97503   1.11606    0.019
 4188.00    0.83528   1.10742    0.019
 4189.00    0.98287   1.07727    0.020
 4190.00    1.24259   1.06045    0.020
 4191.00    1.22926   1.07588    0.020
 4192.00    1.12525   1.09987    0.019
 4193.00    1.01978   1.11151    0.019
 4194.00    0.91391   1.12429    0.019
 4195.00    0.92080   1.14722    0.019
 4196.00    0.95356   1.15562    0.019
 4197.00    0.98880   1.13047    0.019
 4198.00    1.02450   1.08846    0.019
 4199.00    1.11529   1.05107    0.019
 4200.00    1.21388   1.02316    0.019
 4201.00    1.19293   1.01018    0.019
 4202.00    1.15980   1.01412    0.019
 4203.00    0.94500   1.02083    0.019
 4204.00    0.71837   1.02483    0.019
 4205.00    0.81915   1.03814    0.019
 4206.00    0.92980   1.06165    0.019
 4207.00    0.91123   1.08529    0.019
 4208.00    0.89587   1.10843    0.019
 4209.00    0.97504   1.13254    0.019
 4210.00    1.06029   1.15024    0.019
 4211.00    1.23415   1.15271    0.019
 4212.00    1.35947   1.14476    0.019
 4213.00    1.02574   1.14302    0.019
 4214.00    0.76805   1.15083    0.019
 4215.00    1.03301   1.14972    0.019
 4216.00    1.26684   1.12282    0.019
 4217.00    1.33518   1.07850    0.019
 4218.00    1.35316   1.05264    0.019
 4219.00    1.15609   1.07225    0.019
 4220.00    0.99248   1.11936    0.019
 4221.00    0.94677   1.15998    0.018
 4222.00    0.89031   1.18267    0.018
 4223.00    0.80207   1.18599    0.018
 4224.00    0.78432   1.16259    0.018
 4225.00    0.94443   1.11098    0.018
 4226.00    1.12027   1.03684    0.018
 4227.00    1.33029   0.94421    0.018
 4228.00    1.42860   0.85302    0.018
 4229.00    1.31624   0.81660    0.018
 4230.00    1.20799   0.87312    0.018
 4231.00    1.10650   0.98528    0.017
 4232.00    1.02267   1.08194    0.017
 4233.00    0.96434   1.12960    0.017
 4234.00    0.99880   1.13115    0.017
 4235.00    1.15107   1.10758    0.017
 4236.00    1.24072   1.08600    0.017
 4237.00    1.26031   1.07174    0.017
 4238.00    1.18834   1.05695    0.017
 4239.00    1.02602   1.05045    0.017
 4240.00    0.94808   1.05946    0.017
 4241.00    0.94356   1.07551    0.017
 4242.00    0.95807   1.09501    0.017
 4243.00    0.98715   1.11915    0.017
 4244.00    1.09461   1.13874    0.018
 4245.00    1.25490   1.15173    0.018
 4246.00    1.29117   1.16873    0.018
 4247.00    1.25420   1.18061    0.018
 4248.00    1.32776   1.16436    0.019
 4249.00    1.45822   1.12236    0.019
 4250.00    1.36137   1.07954    0.019
 4251.00    1.16311   1.04889    0.019
 4252.00    1.11660   1.03122    0.018
 4253.00    1.12828   1.03731    0.018
 4254.00    1.28596   1.06630    0.018
 4255.00    1.49121   1.08433    0.018
 4256.00    1.25428   1.07179    0.018
 4257.00    0.89664   1.05917    0.018
 4258.00    0.77689   1.08053    0.018
 4259.00    0.71045   1.11834    0.018
 4260.00    0.86998   1.12407    0.018
 4261.00    1.06993   1.08357    0.019
 4262.00    0.93036   1.03146    0.019
 4263.00    0.74434   1.01455    0.019
 4264.00    0.87534   1.05073    0.019
 4265.00    1.03731   1.11380    0.019
 4266.00    1.04249   1.16559    0.019
 4267.00    1.03807   1.19310    0.018
 4268.00    0.95835   1.19859    0.018
 4269.00    0.87674   1.18062    0.018
 4270.00    0.82271   1.14558    0.018
 4271.00    0.76750   1.10290    0.018
 4272.00    0.68121   1.04703    0.018
 4273.00    0.62075   0.97951    0.018
 4274.00    0.91529   0.93295    0.018
 4275.00    1.15892   0.92952    0.018
 4276.00    0.94002   0.94936    0.019
 4277.00    0.76900   0.97830    0.019
 4278.00    0.91692   1.02797    0.019
 4279.00    1.03834   1.09280    0.019
 4280.00    1.02260   1.13992    0.019
 4281.00    1.00782   1.14297    0.019
 4282.00    0.99705   1.11096   -2.000
 4283.00    0.97315   1.08033   -2.000
 4284.00    0.90391   1.07373   -2.000
 4285.00    0.82626   1.08435   -2.000
 4286.00    0.72418   1.09132   -2.000
 4287.00    0.79324   1.07976   -2.000
 4288.00    1.28682   1.05821   -2.000
 4289.00    1.60213   1.04132   -2.000
 4290.00    1.53636   1.01950   -2.000
 4291.00    1.48036   0.97830   -2.000
 4292.00    1.44250   0.93948   -2.000
 4293.00    1.26337   0.94240   -2.000
 4294.00    0.85511   0.98927   -2.000
 4295.00    0.68611   1.03901   -2.000
 4296.00    0.85749   1.05661   -2.000
 4297.00    1.00288   1.04834   -2.000
 4298.00    1.11573   1.03119    0.019
 4299.00    1.11768   1.00130    0.019
 4300.00    0.99729   0.94883    0.019
 4301.00    0.95278   0.88153    0.019
 4302.00    0.98211   0.82990    0.019
 4303.00    0.98013   0.81617    0.018
 4304.00    0.95130   0.82802    0.018
 4305.00    0.76827   0.84583    0.018
 4306.00    0.46870   0.86456    0.018
 4307.00    0.46394   0.87718    0.018
 4308.00    0.65495   0.87082    0.018
 4309.00    0.86700   0.84123    0.018
 4310.00    1.09127   0.80468    0.018
 4311.00    1.12700   0.79121    0.018
 4312.00    1.06718   0.81398    0.018
 4313.00    1.06645   0.85851    0.018
 4314.00    1.09166   0.90558    0.018
 4315.00    0.98309   0.94881    0.018
 4316.00    0.82414   0.99504    0.018
 4317.00    0.80350   1.06057    0.018
 4318.00    0.82708   1.14835    0.018
 4319.00    0.90382   1.22731    0.018
 4320.00    0.99478   1.26472    0.018
 4321.00    0.95634   1.26186    0.018
 4322.00    0.88960   1.23829    0.018
 4323.00    0.84821   1.20574    0.018
 4324.00    0.81124   1.16389    0.018
 4325.00    0.94462   1.10104    0.018
 4326.00    1.10053   1.01693    0.018
 4327.00    1.24158   0.94232    0.018
 4328.00    1.38126   0.92417    0.018
 4329.00    1.26154   0.98315    0.018
 4330.00    1.12700   1.08274    0.000
 4331.00    1.03735   1.15993    0.000
 4332.00    0.95056   1.18628    0.000
 4333.00    1.07294   1.18412    0.000
 4334.00    1.18694   1.18437    0.000
 4335.00    1.09983   1.19252    0.000
 4336.00    1.02021   1.19995    0.000
 4337.00    1.03824   1.19545    0.000
 4338.00    1.05469   1.15896    0.000
 4339.00    1.05725   1.07745    0.000
 4340.00    1.06531   0.97109    0.000
 4341.00    1.10883   0.87319    0.000
 4342.00    1.14656   0.80783    0.000
 4343.00    1.15506   0.80228    0.000
 4344.00    1.13502   0.86440    0.000
 4345.00    0.99845   0.95346    0.000
 4346.00    0.88352   1.02604    0.000
 4347.00    0.84175   1.07772    0.000
 4348.00    0.89225   1.11530    0.000
 4349.00    1.20604   1.14127    0.000
 4350.00    1.40344   1.16534    0.000
 4351.00    1.31706   1.18599    0.018
 4352.00    1.22990   1.17367    0.022
 4353.00    1.14107   1.11282    0.056
 4354.00    1.07906   1.04648   -1.000
 4355.00    1.06610   1.03225   -1.000
 4356.00    1.04574   1.06951   -1.000
 4357.00    1.01358   1.11712   -1.000
 4358.00    1.07589   1.15444   -1.000
 4359.00    1.27067   1.17890   -1.000
 4360.00    1.39367   1.18216   -1.000
 4361.00    1.42814   1.16837   -1.000
 4362.00    1.37625   1.16549    0.072
 4363.00    1.23046   1.18802    0.023
 4364.00    1.20344   1.21690    0.018
 4365.00    1.29035   1.23373    0.018
 4366.00    1.22668   1.24469    0.018
 4367.00    1.03562   1.25417    0.018
 4368.00    0.92098   1.24624    0.018
 4369.00    0.86325   1.21403    0.018
 4370.00    0.83852   1.18018    0.018
 4371.00    0.83538   1.16665    0.018
 4372.00    0.92909   1.16845    0.018
 4373.00    1.07826   1.17189    0.018
 4374.00    1.12800   1.16872    0.018
 4375.00    1.12814   1.14813    0.018
 4376.00    1.09733   1.10808    0.018
 4377.00    1.05317   1.07411    0.018
 4378.00    1.00151   1.07938    0.018
 4379.00    0.94708   1.12433    0.018
 4380.00    0.93086   1.17446    0.018
 4381.00    0.92662   1.19851    0.018
 4382.00    0.89400   1.19260    0.018
 4383.00    0.85395   1.16058    0.018
 4384.00    0.74181   1.09148    0.017
 4385.00    0.61427   0.98928    0.017
 4386.00    0.66893   0.90890    0.017
 4387.00    0.75440   0.91006    0.017
 4388.00    1.00444   0.98378    0.017
 4389.00    1.27550   1.06538    0.017
 4390.00    1.17275   1.10860    0.018
 4391.00    1.03665   1.11547    0.018
 4392.00    1.07706   1.10969    0.018
 4393.00    1.12688   1.11247    0.017
 4394.00    1.28772   1.12980    0.018
 4395.00    1.44627   1.14508    0.018
 4396.00    1.24252   1.14020    0.018
 4397.00    1.04611   1.12844    0.018
 4398.00    1.01127   1.14147    0.018
 4399.00    0.97389   1.17994    0.017
 4400.00    0.90519   1.20656    0.018
 4401.00    0.85807   1.19390    0.018
 4402.00    0.99242   1.15670    0.018
 4403.00    1.09597   1.13423    0.018
 4404.00    1.00645   1.14037    0.018
 4405.00    0.95430   1.13909    0.018
 4406.00    1.08596   1.09866    0.018
 4407.00    1.19869   1.05047    0.018
 4408.00    1.23584   1.04293    0.018
 4409.00    1.24714   1.06804    0.018
 4410.00    1.17269   1.09176    0.018
 4411.00    1.15710   1.11662    0.018
 4412.00    1.30647   1.16039    0.018
 4413.00    1.33168   1.21226    0.018
 4414.00    1.05932   1.24682    0.018
 4415.00    0.86872   1.24713    0.018
 4416.00    0.84735   1.20654    0.018
 4417.00    0.86218   1.14495    0.018
 4418.00    0.94217   1.10747    0.018
 4419.00    1.02033   1.11789    0.018
 4420.00    1.09559   1.16112    0.018
 4421.00    1.14681   1.21078    0.018
 4422.00    1.16481   1.24233    0.018
 4423.00    1.12387   1.23971    0.018
 4424.00    1.01123   1.21180    0.018
 4425.00    0.98723   1.18745    0.018
 4426.00    1.05827   1.18290    0.018
 4427.00    1.08429   1.18654    0.018
 4428.00    1.06772   1.18388    0.018
 4429.00    1.13225   1.17978    0.018
 4430.00    1.26440   1.18464    0.018
 4431.00    1.34718   1.19204    0.018
 4432.00    1.39371   1.18978    0.018
 4433.00    1.37154   1.18591    0.018
 4434.00    1.30507   1.19026    0.018
 4435.00    1.18830   1.18553    0.018
 4436.00    1.04316   1.15407    0.018
 4437.00    1.17761   1.11474    0.018
 4438.00    1.44932   1.10788    0.018
 4439.00    1.38588   1.14944    0.018
 4440.00    1.18024   1.21310    0.018
 4441.00    1.12451   1.25868    0.018
 4442.00    1.12325   1.26323    0.018
 4443.00    1.22742   1.22832    0.018
 4444.00    1.36400   1.17627    0.019
 4445.00    1.34164   1.13955    0.018
 4446.00    1.27859   1.14257    0.018
 4447.00    1.37501   1.18231    0.018
 4448.00    1.50466   1.22743    0.018
 4449.00    1.36392   1.25012    0.018
 4450.00    1.17876   1.25251    0.018
 4451.00    1.08710   1.24760    0.018
 4452.00    1.00697   1.23807    0.018
 4453.00    1.04649   1.22819    0.018
 4454.00    1.09619   1.22133    0.018
 4455.00    1.24494   1.20384    0.018
 4456.00    1.39859   1.16332    0.018
 4457.00    1.32639   1.11633    0.018
 4458.00    1.25254   1.09427    0.018
 4459.00    1.30008   1.10274    0.018
 4460.00    1.33878   1.11769    0.018
 4461.00    1.19846   1.12136    0.000
 4462.00    1.08456   1.11607    0.000
 4463.00    1.28102   1.10940    0.000
 4464.00    1.43519   1.11215    0.000
 4465.00    1.24641   1.13646    0.000
 4466.00    1.07633   1.17325    0.000
 4467.00    1.01997   1.19804    0.000
 4468.00    1.00831   1.20356    0.000
 4469.00    1.21105   1.19822    0.000
 4470.00    1.36798   1.18657    0.000
 4471.00    1.34598   1.17290    0.000
 4472.00    1.29093   1.17028    0.000
 4473.00    1.12838   1.18834    0.000
 4474.00    1.01437   1.22142    0.000
 4475.00    1.03389   1.25666    0.000
 4476.00    1.04654   1.28191    0.000
 4477.00    1.04297   1.29140    0.000
 4478.00    1.02639   1.29420    0.000
 4479.00    0.98331   1.30258    0.000
 4480.00    0.99101   1.30843    0.000
 4481.00    1.08874   1.29023    0.000
 4482.00    1.13756   1.24361    0.017
 4483.00    1.11054   1.19172    0.017
 4484.00    1.08218   1.16632    0.017
 4485.00    1.05198   1.18305    0.017
 4486.00    1.09908   1.22965    0.018
 4487.00    1.23887   1.27731    0.018
 4488.00    1.29818   1.30443    0.018
 4489.00    1.27241   1.30294    0.018
 4490.00    1.22551   1.27413    0.018
 4491.00    1.15891   1.23334    0.018
 4492.00    1.21893   1.20770    0.018
 4493.00    1.38305   1.21426    0.018
 4494.00    1.29163   1.24021    0.017
 4495.00    1.01531   1.25362    0.017
 4496.00    0.96945   1.23765    0.017
 4497.00    1.06999   1.20854    0.017
 4498.00    1.13658   1.19519    0.017
 4499.00    1.18432   1.20963    0.017
 4500.00    1.26093   1.24212    0.017
 4501.00    1.35150   1.27146    0.017
 4502.00    1.37960   1.28016    0.018
 4503.00    1.38163   1.27149    0.018
 4504.00    1.32252   1.27061    0.018
 4505.00    1.24158   1.29614    0.017
 4506.00    1.20306   1.33394    0.017
 4507.00    1.17733   1.35627    0.017
 4508.00    1.15300   1.35443    0.017
 4509.00    1.12901   1.33911    0.017
 4510.00    1.19377   1.32539    0.017
 4511.00    1.27657   1.32248    0.017
 4512.00    1.14714   1.32822    0.017
 4513.00    0.98385   1.33063    0.018
 4514.00    1.03266   1.31934    0.018
 4515.00    1.10667   1.29748    0.018
 4516.00    1.10022   1.27737    0.017
 4517.00    1.08726   1.26766    0.017
 4518.00    1.22890   1.26689    0.017
 4519.00    1.37758   1.26557    0.017
 4520.00    1.25758   1.26027    0.017
 4521.00    1.13464   1.26180    0.017
 4522.00    1.02939   1.27614    0.017
 4523.00    0.93117   1.28928    0.017
 4524.00    0.96480   1.28367    0.017
 4525.00    0.99937   1.26135    0.017
 4526.00    1.04440   1.23946    0.017
 4527.00    1.09635   1.22206    0.017
 4528.00    1.20258   1.19766    0.017
 4529.00    1.26895   1.16395    0.017
 4530.00    1.09968   1.13284    0.017
 4531.00    0.96533   1.11757    0.017
 4532.00    0.99444   1.12299    0.017
 4533.00    1.03553   1.14265    0.016
 4534.00    1.12243   1.16173    0.017
 4535.00    1.21144   1.16259    0.017
 4536.00    1.30721   1.14052    0.017
 4537.00    1.35464   1.11981    0.017
 4538.00    1.27149   1.13474    0.017
 4539.00    1.18918   1.19056    0.017
 4540.00    1.10885   1.25272    0.017
 4541.00    1.04909   1.28253    0.017
 4542.00    1.03058   1.27656    0.017
 4543.00    1.04429   1.25997    0.017
 4544.00    1.11425   1.25481    0.017
 4545.00    1.12246   1.25928    0.017
 4546.00    1.03629   1.25595    0.017
 4547.00    1.04918   1.24140    0.017
 4548.00    1.19505   1.23050    0.017
 4549.00    1.21155   1.22782    0.017
 4550.00    1.07513   1.21934    0.000
 4551.00    1.02462   1.19966    0.000
 4552.00    1.06365   1.18690    0.000
 4553.00    1.11494   1.19622    0.000
 4554.00    1.17749   1.21217    0.000
 4555.00    1.19284   1.21110    0.000
 4556.00    1.16994   1.19462    0.000
 4557.00    1.09743   1.18331    0.000
 4558.00    0.98955   1.19528    0.000
 4559.00    0.98251   1.23107    0.000
 4560.00    1.03858   1.27219    0.000
 4561.00    1.03093   1.29935    0.000
 4562.00    0.98843   1.30977    0.000
 4563.00    1.04903   1.31066    0.000
 4564.00    1.15864   1.30333    0.000
 4565.00    1.15509   1.28211    0.000
 4566.00    1.10512   1.25109    0.000
 4567.00    1.05988   1.23039    0.000
 4568.00    1.01631   1.23667    0.000
 4569.00    1.04376   1.26628    0.000
 4570.00    1.09219   1.29817    0.000
 4571.00    1.01876   1.31057    0.000
 4572.00    0.91547   1.29608    0.000
 4573.00    0.95321   1.26415    0.000
 4574.00    1.01889   1.24075    0.000
 4575.00    1.00204   1.24926    0.000
 4576.00    0.97243   1.27836    0.000
 4577.00    1.10711   1.29830    0.000
 4578.00    1.26060   1.30136    0.000
 4579.00    1.22808   1.29588    0.000
 4580.00    1.18127   1.28250    0.000
 4581.00    1.09390   1.25750    0.000
 4582.00    1.00484   1.22667    0.000
 4583.00    1.04781   1.20568    0.000
 4584.00    1.09039   1.20422    0.000
 4585.00    1.06677   1.21431    0.000
 4586.00    1.04581   1.22077    0.000
 4587.00    1.07111   1.22005    0.000
 4588.00    1.09105   1.22110    0.000
 4589.00    1.05355   1.23403    0.000
 4590.00    1.02523   1.25883    0.000
 4591.00    1.06635   1.28119    0.000
 4592.00    1.09038   1.28637    0.000
 4593.00    1.01624   1.27270    0.000
 4594.00    0.97835   1.25096    0.000
 4595.00    1.10615   1.23483    0.000
 4596.00    1.18812   1.22972    0.000
 4597.00    1.09863   1.23130    0.000
 4598.00    1.02431   1.23574    0.000
 4599.00    0.99743   1.24259    0.000
 4600.00    1.02314   1.24956    0.000
 4601.00    1.18843   1.25225    0.000
 4602.00    1.32177   1.24684    0.000
 4603.00    1.38234   1.23656    0.000
 4604.00    1.34811   1.23250    0.000
 4605.00    1.12687   1.23753    0.000
 4606.00    0.96572   1.24452    0.000
 4607.00    0.90789   1.24912    0.000
 4608.00    0.87452   1.25404    0.000
 4609.00    0.87799   1.26627    0.000
 4610.00    0.91712   1.28875    0.000
 4611.00    1.00343   1.31376    0.000
 4612.00    1.02853   1.32616    0.000
 4613.00    0.98230   1.31922    0.000
 4614.00    1.00593   1.30216    0.000
 4615.00    1.10136   1.28879    0.000
 4616.00    1.12875   1.28588    0.000
 4617.00    1.09449   1.29126    0.000
 4618.00    1.06645   1.29638    0.000
 4619.00    1.04340   1.29667    0.000
 4620.00    1.06000   1.29412    0.000
 4621.00    1.10448   1.28937    0.000
 4622.00    1.02930   1.28796    0.000
 4623.00    0.88034   1.29654    0.000
 4624.00    0.90702   1.30831    0.000
 4625.00    1.02829   1.31248    0.000
 4626.00    1.00040   1.30910    0.000
 4627.00    0.90274   1.30241    0.000
 4628.00    0.91644   1.29573    0.000
 4629.00    0.97504   1.29250    0.000
 4630.00    0.94105   1.29017    0.000
 4631.00    0.87521   1.28419    0.000
 4632.00    0.97010   1.28036    0.000
 4633.00    1.11154   1.28623    0.000
 4634.00    1.20732   1.29294    0.000
 4635.00    1.29215   1.28726    0.000
 4636.00    1.24929   1.27394    0.000
 4637.00    1.18175   1.26508    0.000
 4638.00    1.06808   1.26011    0.000
 4639.00    0.94749   1.25125    0.000
 4640.00    0.85292   1.23749    0.000
 4641.00    0.76122   1.22648    0.000
 4642.00    0.90700   1.22670    0.000
 4643.00    1.07005   1.24102    0.000
 4644.00    0.98023   1.26197    0.000
 4645.00    0.88086   1.27406    0.000
 4646.00    0.83115   1.26838    0.000
 4647.00    0.78507   1.24686    0.000
 4648.00    0.86392   1.21576    0.000
 4649.00    0.94000   1.18774    0.000
 4650.00    0.97089   1.17913    0.000
 4651.00    1.00239   1.19389    0.000
 4652.00    1.04003   1.21998    0.000
 4653.00    1.07807   1.24266    0.000
 4654.00    1.11911   1.25508    0.000
 4655.00    1.12014   1.25626    0.000
 4656.00    0.89748   1.24506    0.000
 4657.00    0.74145   1.22570    0.000
 4658.00    0.88275   1.21363    0.000
 4659.00    1.02195   1.22326    0.000
 4660.00    1.15344   1.25538    0.000
 4661.00    1.18790   1.29578    0.000
 4662.00    0.92468   1.32328    0.000
 4663.00    0.75208   1.32525    0.000
 4664.00    0.81580   1.30560    0.000
 4665.00    0.90211   1.27930    0.000
 4666.00    1.03907   1.25856    0.000
 4667.00    1.14884   1.24071    0.000
 4668.00    1.20581   1.21122    0.000
 4669.00    1.22471   1.16689    0.000
 4670.00    1.17914   1.13159    0.000
 4671.00    1.16748   1.13252    0.000
 4672.00    1.20613   1.16768    0.000
 4673.00    1.18819   1.21132    0.000
 4674.00    1.09643   1.24039    0.000
 4675.00    1.07644   1.24885    0.000
 4676.00    1.13890   1.24692    0.000
 4677.00    1.17898   1.24934    0.000
 4678.00    1.19640   1.26090    0.000
 4679.00    1.14445   1.27135    0.000
 4680.00    1.03050   1.26676    0.000
 4681.00    1.00882   1.24649    0.000
 4682.00    1.05983   1.22279    0.000
 4683.00    1.02721   1.20710    0.000
 4684.00    0.93665   1.20497    0.000
 4685.00    0.96082   1.21696    0.000
 4686.00    1.05466   1.23615    0.000
 4687.00    1.07708   1.25080    0.000
 4688.00    1.06163   1.25457    0.000
 4689.00    1.06918   1.25036    0.000
 4690.00    1.08732   1.24503    0.000
 4691.00    1.08940   1.24280    0.000
 4692.00    1.08512   1.24122    0.000
 4693.00    0.95563   1.23754    0.000
 4694.00    0.78388   1.23683    0.000
 4695.00    0.89821   1.24535    0.000
 4696.00    1.09374   1.26117    0.000
 4697.00    1.07273   1.27781    0.000
 4698.00    1.00102   1.28789    0.000
 4699.00    1.02875   1.28252    0.000
 4700.00    1.07519   1.25948    0.000
 4701.00    1.00033   1.23150    0.000
 4702.00    0.90783   1.21460    0.000
 4703.00    0.91170   1.20778    0.000
 4704.00    0.92575   1.19837    0.000
 4705.00    1.03182   1.18632    0.000
 4706.00    1.14421   1.18580    0.000
 4707.00    1.12805   1.20066    0.000
 4708.00    1.10752   1.21418    0.000
 4709.00    0.93251   1.21064    0.000
 4710.00    0.76381   1.19480    0.000
 4711.00    0.80777   1.18393    0.000
 4712.00    0.85540   1.19079    0.000
 4713.00    0.95941   1.21468    0.000
 4714.00    1.06038   1.24052    0.000
 4715.00    1.13162   1.24990    0.000
 4716.00    1.19139   1.23992    0.000
 4717.00    1.17011   1.22747    0.000
 4718.00    1.15486   1.23139    0.000
 4719.00    1.17240   1.25205    0.000
 4720.00    1.17068   1.27457    0.000
 4721.00    1.08505   1.28913    0.000
 4722.00    1.02080   1.29592    0.000
 4723.00    1.03327   1.29552    0.000
 4724.00    1.05025   1.28886    0.000
 4725.00    1.08081   1.28337    0.000
 4726.00    1.11264   1.28685    0.000
 4727.00    1.14774   1.29418    0.000
 4728.00    1.19645   1.28873    0.000
 4729.00    1.27518   1.26109    0.000
 4730.00    1.31863   1.22280    0.000
 4731.00    1.29464   1.19590    0.000
 4732.00    1.22707   1.18987    0.000
 4733.00    1.08683   1.19757    0.000
 4734.00    1.07603   1.21033    0.000
 4735.00    1.25449   1.22470    0.000
 4736.00    1.28811   1.23766    0.000
 4737.00    1.13551   1.24447    0.000
 4738.00    1.07397   1.24197    0.000
 4739.00    1.11559   1.23551    0.000
 4740.00    1.06765   1.23710    0.000
 4741.00    0.93024   1.24788    0.000
 4742.00    1.02011   1.25487    0.000
 4743.00    1.31024   1.25253    0.000
 4744.00    1.39537   1.25026    0.000
 4745.00    1.32136   1.25531    0.000
 4746.00    1.23196   1.26304    0.000
 4747.00    1.13207   1.26735    0.000
 4748.00    1.17001   1.27067    0.000
 4749.00    1.29041   1.27664    0.000
 4750.00    1.24258   1.28185    0.000
 4751.00    1.10693   1.28293    0.000
 4752.00    1.03325   1.28217    0.000
 4753.00    0.98763   1.28012    0.000
 4754.00    1.02972   1.27283    0.000
 4755.00    1.10596   1.25954    0.000
 4756.00    1.10466   1.24544    0.000
 4757.00    1.07766   1.23565    0.000
 4758.00    1.13029   1.23107    0.000
 4759.00    1.20505   1.23057    0.000
 4760.00    1.21535   1.23385    0.000
 4761.00    1.21091   1.24039    0.015
 4762.00    1.22151   1.24556    0.015
 4763.00    1.23488   1.24052    0.016
 4764.00    1.15578   1.22117    0.016
 4765.00    1.06366   1.19588    0.015
 4766.00    1.02624   1.17686    0.015
 4767.00    0.99437   1.16738    0.015
 4768.00    1.02379   1.16563    0.016
 4769.00    1.05718   1.17318    0.016
 4770.00    1.08643   1.19121    0.016
 4771.00    1.11556   1.21401    0.016
 4772.00    1.15282   1.23060    0.016
 4773.00    1.18840   1.23284    0.016
 4774.00    1.17545   1.22505    0.016
 4775.00    1.15642   1.22260    0.016
 4776.00    1.04963   1.23437    0.015
 4777.00    0.95438   1.25185    0.015
 4778.00    0.96777   1.26225    0.015
 4779.00    0.98876   1.26389    0.015
 4780.00    1.06175   1.26110    0.015
 4781.00    1.10675   1.25455    0.015
 4782.00    1.00349   1.24512    0.015
 4783.00    0.92072   1.23648    0.015
 4784.00    0.92522   1.22861    0.015
 4785.00    0.94310   1.21956    0.015
 4786.00    1.00803   1.21272    0.015
 4787.00    1.05601   1.21049    0.015
 4788.00    1.05391   1.20734    0.015
 4789.00    1.05770   1.20077    0.015
 4790.00    1.07627   1.19648    0.015
 4791.00    1.08889   1.19707    0.015
 4792.00    1.08858   1.20099    0.015
 4793.00    1.09098   1.20958    0.015
 4794.00    1.09849   1.22424    0.015
 4795.00    1.08363   1.24404    0.015
 4796.00    1.03202   1.26648    0.015
 4797.00    0.98826   1.28463    0.015
 4798.00    0.95579   1.28965    0.015
 4799.00    0.96094   1.27887    0.015
 4800.00    1.01376   1.25754    0.015
 4801.00    1.05328   1.23543    0.015
 4802.00    1.07795   1.22390    0.015
 4803.00    1.01904   1.22971    0.015
 4804.00    0.87778   1.24789    0.015
 4805.00    0.83271   1.26356    0.015
 4806.00    0.87118   1.26419    0.015
 4807.00    0.93325   1.25043    0.015
 4808.00    1.01336   1.23371    0.015
 4809.00    1.04542   1.22322    0.015
 4810.00    1.04516   1.22003    0.015
 4811.00    1.05224   1.22287    0.015
 4812.00    1.06365   1.23018    0.015
 4813.00    1.03305   1.23765    0.015
 4814.00    0.98086   1.24183    0.015
 4815.00    0.99818   1.24382    0.015
 4816.00    1.04644   1.24667    0.016
 4817.00    1.07828   1.25198    0.016
 4818.00    1.10386   1.25952    0.016
 4819.00    1.11634   1.26787    0.016
 4820.00    1.12456   1.27516    0.016
 4821.00    1.08590   1.27972    0.016
 4822.00    1.03447   1.27979    0.016
 4823.00    0.93767   1.27299    0.016
 4824.00    0.83073   1.25643    0.016
 4825.00    0.94348   1.23117    0.016
 4826.00    1.09537   1.20903    0.016
 4827.00    1.14441   1.20558    0.016
 4828.00    1.17942   1.21990    0.015
 4829.00    1.07832   1.23389    0.015
 4830.00    0.96399   1.23520    0.015
 4831.00    1.01793   1.22830    0.016
 4832.00    1.08209   1.22181    0.016
 4833.00    0.96125   1.21626    0.016
 4834.00    0.83580   1.20984    0.016
 4835.00    0.76301   1.20798    0.016
 4836.00    0.70139   1.21614    0.016
 4837.00    0.93174   1.22885    0.016
 4838.00    1.13844   1.23659    0.016
 4839.00    1.02240   1.23657    0.016
 4840.00    0.91239   1.22957    0.015
 4841.00    0.85686   1.21596    0.015
 4842.00    0.81383   1.20075    0.015
 4843.00    0.85373   1.19254    0.016
 4844.00    0.89810   1.19277    0.016
 4845.00    0.96552   1.19571    0.016
 4846.00    1.01856   1.20075    0.016
 4847.00    1.01177   1.21224    0.016
 4848.00    0.97689   1.22572    0.000
 4849.00    0.84527   1.22858    0.000
 4850.00    0.75502   1.21690    0.000
 4851.00    0.78478   1.20223    0.000
 4852.00    0.83715   1.19778    0.000
 4853.00    0.94550   1.20247    0.000
 4854.00    1.01464   1.20532    0.000
 4855.00    1.00015   1.19890    0.000
 4856.00    1.05192   1.17996    0.000
 4857.00    1.22647   1.15025    0.000
 4858.00    1.30637   1.12325    0.000
 4859.00    1.23305   1.11097    0.000
 4860.00    1.18296   1.10074    0.000
 4861.00    1.16586   1.06339    0.000
 4862.00    1.13453   0.98783    0.000
 4863.00    1.08540   0.90247    0.000
 4864.00    1.02717   0.85947    0.000
 4865.00    0.95892   0.88653    0.000
 4866.00    0.89748   0.95862    0.000
 4867.00    0.84263   1.03116    0.000
 4868.00    0.93043   1.08355    0.000
 4869.00    1.14040   1.11745    0.000
 4870.00    1.09010   1.13733    0.000
 4871.00    0.84348   1.14401    0.000
 4872.00    0.76517   1.13434    0.000
 4873.00    0.79841   1.10971    0.000
 4874.00    0.90383   1.08811    0.000
 4875.00    1.05113   1.09139    0.016
 4876.00    1.05631   1.11768    0.016
 4877.00    0.98962   1.14545    0.016
 4878.00    0.97082   1.16230    0.016
 4879.00    0.97301   1.17237    0.016
 4880.00    1.04249   1.18283    0.016
 4881.00    1.13728   1.19653    0.016
 4882.00    1.11370   1.20836    0.016
 4883.00    1.05237   1.20840    0.016
 4884.00    1.01065   1.19789    0.016
 4885.00    0.97415   1.18928    0.016
 4886.00    0.99471   1.18515    0.015
 4887.00    1.02771   1.17660    0.015
 4888.00    0.85389   1.16300    0.015
 4889.00    0.64422   1.15429    0.015
 4890.00    0.78451   1.15366    0.015
 4891.00    0.97090   1.15088    0.015
 4892.00    1.05022   1.13602    0.016
 4893.00    1.11960   1.11667    0.016
 4894.00    1.13565   1.11718    0.016
 4895.00    1.14868   1.15225    0.015
 4896.00    1.04471   1.20713    0.015
 4897.00    0.93925   1.25509    0.015
 4898.00    0.96423   1.28296    0.015
 4899.00    0.98652   1.29203    0.016
 4900.00    0.94475   1.28684    0.015
 4901.00    0.90535   1.27066    0.015
 4902.00    0.89656   1.24968    0.015
 4903.00    0.89689   1.23352    0.015
 4904.00    0.97648   1.22462    0.015
 4905.00    1.05472   1.21744    0.015
 4906.00    1.12417   1.21337    0.015
 4907.00    1.17868   1.22157    0.015
 4908.00    1.15806   1.24056    0.015
 4909.00    1.13382   1.25394    0.015
 4910.00    1.09480   1.24797    0.015
 4911.00    1.06324   1.22430    0.015
 4912.00    1.05682   1.19619    0.015
 4913.00    1.06761   1.17960    0.015
 4914.00    1.12739   1.18285    0.015
 4915.00    1.15761   1.20040    0.015
 4916.00    1.11590   1.22138    0.015
 4917.00    1.05093   1.23950    0.015
 4918.00    0.93710   1.24857    0.015
 4919.00    0.85582   1.23722    0.015
 4920.00    0.83390   1.19782    0.015
 4921.00    0.89356   1.13948    0.015
 4922.00    1.08328   1.08766    0.015
 4923.00    1.15397   1.06798    0.015
 4924.00    1.05806   1.08608    0.015
 4925.00    0.99048   1.12181    0.015
 4926.00    0.95779   1.14962    0.015
 4927.00    0.95802   1.16542    0.015
 4928.00    0.99396   1.18313    0.015
 4929.00    1.04137   1.20889    0.015
 4930.00    1.09976   1.23517    0.015
 4931.00    1.10061   1.25533    0.015
 4932.00    1.05285   1.26772    0.015
 4933.00    1.00355   1.26945    0.015
 4934.00    0.95309   1.25569    0.015
 4935.00    1.01471   1.22615    0.015
 4936.00    1.14953   1.19439    0.015
 4937.00    1.16151   1.18035    0.015
 4938.00    1.10328   1.18406    0.015
 4939.00    1.06209   1.18289    0.015
 4940.00    1.02940   1.16366    0.000
 4941.00    0.96398   1.14211    0.000
 4942.00    0.88448   1.14356    0.000
 4943.00    0.92730   1.17251    0.000
 4944.00    1.01530   1.21005    0.000
 4945.00    1.02904   1.23803    0.000
 4946.00    1.01955   1.25229    0.000
 4947.00    0.97289   1.25431    0.000
 4948.00    0.91653   1.24856    0.000
 4949.00    0.84266   1.24540    0.000
 4950.00    0.76507   1.25170    0.000
 4951.00    0.84331   1.26291    0.000
 4952.00    0.94780   1.27172    0.000
 4953.00    1.02442   1.27551    0.000
 4954.00    1.09750   1.27334    0.000
 4955.00    1.05728   1.26476    0.000
 4956.00    1.00700   1.25154    0.000
 4957.00    1.09325   1.23159    0.000
 4958.00    1.18671   1.19529    0.000
 4959.00    1.18552   1.14223    0.000
 4960.00    1.18154   1.10029    0.000
 4961.00    1.10068   1.10373    0.000
 4962.00    1.02069   1.14872    0.000
 4963.00    0.95969   1.19717    0.000
 4964.00    0.90209   1.22269    0.000
 4965.00    0.88640   1.22731    0.000
 4966.00    0.88995   1.22012    0.000
 4967.00    1.05463   1.20421    0.000
 4968.00    1.17929   1.18458    0.000
 4969.00    1.05401   1.17057    0.000
 4970.00    0.95962   1.16638    0.000
 4971.00    1.01670   1.16918    0.000
 4972.00    1.03998   1.17608    0.000
 4973.00    0.92871   1.18668    0.000
 4974.00    0.87652   1.20041    0.000
 4975.00    1.01978   1.21452    0.000
 4976.00    1.12681   1.22561    0.000
 4977.00    1.13257   1.23121    0.000
 4978.00    1.11732   1.22938    0.000
 4979.00    1.05180   1.21950    0.000
 4980.00    1.05626   1.20331    0.000
 4981.00    1.20526   1.18478    0.000
 4982.00    1.23989   1.16617    0.000
 4983.00    1.06906   1.14314    0.000
 4984.00    0.93670   1.11147    0.000
 4985.00    0.86479   1.08015    0.000
 4986.00    0.80088   1.06663    0.000
 4987.00    0.74801   1.07832    0.000
 4988.00    0.84782   1.10801    0.000
 4989.00    1.13303   1.14312    0.000
 4990.00    1.22451   1.17089    0.000
 4991.00    1.10862   1.18192    0.000
 4992.00    1.00832   1.17696    0.000
 4993.00    0.92274   1.16707    0.000
 4994.00    0.87717   1.16345    0.000
 4995.00    0.86493   1.16719    0.000
 4996.00    0.90455   1.17244    0.000
 4997.00    0.98219   1.17803    0.000
 4998.00    1.03728   1.18560    0.000
 4999.00    1.07787   1.19064    0.000
 5000.00    1.12615   1.18560    0.000
 5001.00    1.17876   1.16783    0.000
 5002.00    1.21970   1.14321    0.000
 5003.00    1.25491   1.12370    0.000
 5004.00    1.29624   1.11703    0.000
 5005.00    1.34017   1.11986    0.000
 5006.00    1.25548   1.12117    0.000
 5007.00    1.12416   1.11109    0.000
 5008.00    1.14483   1.09245    0.000
 5009.00    1.21213   1.08321    0.000
 5010.00    1.18423   1.09746    0.000
 5011.00    1.13202   1.12625    0.000
 5012.00    1.07389   1.14669    0.000
 5013.00    1.01452   1.14460    0.000
 5014.00    0.91164   1.12149    0.000
 5015.00    0.80165   1.08888    0.000
 5016.00    0.87122   1.06271    0.000
 5017.00    0.96282   1.05546    0.000
 5018.00    0.97864   1.06633    0.000
 5019.00    0.98807   1.08149    0.000
 5020.00    0.95965   1.09013    0.000
 5021.00    0.92939   1.09596    0.000
 5022.00    0.94965   1.10576    0.000
 5023.00    0.96990   1.11536    0.000
 5024.00    0.94114   1.11773    0.000
 5025.00    0.91293   1.11742    0.000
 5026.00    0.89587   1.12409    0.000
 5027.00    0.88000   1.13605    0.000
 5028.00    0.87793   1.14235    0.000
 5029.00    0.87571   1.13835    0.015
 5030.00    0.87224   1.13238    0.015
 5031.00    0.88404   1.13622    0.015
 5032.00    0.98845   1.15106    0.015
 5033.00    1.07866   1.16909    0.015
 5034.00    1.10098   1.18568    0.015
 5035.00    1.08690   1.19850    0.015
 5036.00    0.93106   1.19939    0.015
 5037.00    0.81030   1.18056    0.015
 5038.00    0.80331   1.14946    0.015
 5039.00    0.82833   1.12478    0.015
 5040.00    0.94123   1.11201    0.015
 5041.00    1.03202   1.09594    0.015
 5042.00    1.07079   1.06450    0.015
 5043.00    1.07935   1.02978    0.015
 5044.00    1.02653   1.01986    0.015
 5045.00    0.96493   1.04933    0.015
 5046.00    0.88781   1.10284    0.015
 5047.00    0.84263   1.15397    0.015
 5048.00    0.84689   1.18780    0.015
 5049.00    0.88367   1.19852    0.015
 5050.00    0.96468   1.18421    0.015
 5051.00    0.96293   1.15332    0.015
 5052.00    0.86213   1.12377    0.015
 5053.00    0.83568   1.10882    0.015
 5054.00    0.88770   1.11057    0.015
 5055.00    0.95677   1.12562    0.015
 5056.00    1.04173   1.14834    0.015
 5057.00    1.01958   1.17045    0.015
 5058.00    0.90955   1.18521    0.015
 5059.00    0.91050   1.19208    0.015
 5060.00    0.99161   1.19486    0.015
 5061.00    1.08729   1.19657    0.015
 5062.00    1.19220   1.19861    0.015
 5063.00    1.10326   1.20214    0.015
 5064.00    0.90686   1.20412    0.015
 5065.00    0.95236   1.19520    0.015
 5066.00    1.11448   1.16920    0.015
 5067.00    1.10046   1.13575    0.015
 5068.00    1.01310   1.11470    0.015
 5069.00    0.96130   1.11324    0.015
 5070.00    0.92216   1.12053    0.015
 5071.00    0.85862   1.12761    0.015
 5072.00    0.78774   1.13498    0.015
 5073.00    0.84792   1.14010    0.015
 5074.00    0.94084   1.13756    0.015
 5075.00    0.95225   1.13186    0.015
 5076.00    0.94714   1.13202    0.015
 5077.00    0.92977   1.13698    0.015
 5078.00    0.91046   1.14033    0.015
 5079.00    0.91436   1.13934    0.015
 5080.00    0.92102   1.12908    0.014
 5081.00    0.93255   1.10304    0.014
 5082.00    0.94448   1.06953    0.015
 5083.00    0.88932   1.05036    0.014
 5084.00    0.83115   1.05473    0.014
 5085.00    0.83578   1.07111    0.014
 5086.00    0.84290   1.08847    0.014
 5087.00    0.93706   1.10710    0.014
 5088.00    1.02862   1.12676    0.014
 5089.00    1.07203   1.14140    0.014
 5090.00    1.10899   1.14820    0.014
 5091.00    1.07407   1.15099    0.014
 5092.00    1.03838   1.15361    0.014
 5093.00    0.99663   1.15741    0.014
 5094.00    0.96464   1.16425    0.014
 5095.00    0.99018   1.17442    0.014
 5096.00    1.01303   1.18193    0.014
 5097.00    1.02333   1.17838    0.014
 5098.00    1.02085   1.16160    0.014
 5099.00    0.96964   1.13638    0.014
 5100.00    0.92560   1.10886    0.014
 5101.00    0.90437   1.08677    0.014
 5102.00    0.88966   1.08102    0.014
 5103.00    0.89249   1.09575    0.014
 5104.00    0.90271   1.11934    0.014
 5105.00    0.93002   1.13502    0.014
 5106.00    0.92587   1.13673    0.014
 5107.00    0.85880   1.12894    0.014
 5108.00    0.82455   1.11654    0.014
 5109.00    0.84749   1.10169    0.014
 5110.00    0.89821   1.08836    0.014
 5111.00    0.99130   1.08168    0.014
 5112.00    1.03354   1.08283    0.014
 5113.00    1.00765   1.09101    0.014
 5114.00    0.93954   1.10575    0.014
 5115.00    0.82161   1.12293    0.015
 5116.00    0.86720   1.13690    0.015
 5117.00    1.08292   1.14679    0.015
 5118.00    1.12297   1.15554    0.015
 5119.00    1.00177   1.16526    0.015
 5120.00    0.97277   1.17408    0.015
 5121.00    1.01834   1.17636    0.015
 5122.00    1.02842   1.16822    0.015
 5123.00    1.01324   1.15117    0.015
 5124.00    0.96623   1.12854    0.014
 5125.00    0.89933   1.10236    0.014
 5126.00    0.87618   1.07723    0.014
 5127.00    0.87692   1.06187    0.015
 5128.00    0.79959   1.06016    0.015
 5129.00    0.68521   1.06558    0.015
 5130.00    0.72070   1.06957    0.015
 5131.00    0.81751   1.07041    0.015
 5132.00    0.89695   1.07267    0.015
 5133.00    0.97032   1.08101    0.015
 5134.00    0.97283   1.09436    0.015
 5135.00    0.95444   1.10733    0.015
 5136.00    0.95606   1.11772    0.015
 5137.00    0.96257   1.12669    0.015
 5138.00    1.07487   1.13070    0.015
 5139.00    1.20806   1.12247    0.015
 5140.00    1.08250   1.10222    0.015
 5141.00    0.91703   1.08061    0.014
 5142.00    0.83979   1.06960    0.015
 5143.00    0.77259   1.07042    0.015
 5144.00    0.81222   1.07192    0.015
 5145.00    0.86001   1.06854    0.015
 5146.00    0.88391   1.06834    0.015
 5147.00    0.90683   1.07438    0.015
 5148.00    0.96748   1.07744    0.015
 5149.00    1.02392   1.07367    0.015
 5150.00    0.89037   1.07081    0.015
 5151.00    0.76998   1.07448    0.015
 5152.00    0.87779   1.07902    0.015
 5153.00    0.97157   1.07565    0.015
 5154.00    0.91607   1.06501    0.015
 5155.00    0.87539   1.05597    0.015
 5156.00    0.94613   1.05550    0.015
 5157.00    1.00979   1.06575    0.015
 5158.00    1.03287   1.08598    0.015
 5159.00    1.03756   1.11153    0.015
 5160.00    0.95849   1.13429    0.015
 5161.00    0.89229   1.14813    0.014
 5162.00    0.87413   1.15301    0.014
 5163.00    0.87340   1.15128    0.014
 5164.00    0.92704   1.14292    0.014
 5165.00    0.92880   1.12804    0.014
 5166.00    0.79315   1.10629    0.014
 5167.00    0.69194   1.07011    0.014
 5168.00    0.66907   1.01051    0.014
 5169.00    0.64722   0.93633    0.014
 5170.00    0.62742   0.87853    0.014
 5171.00    0.66321   0.86487    0.014
 5172.00    0.79440   0.88708    0.014
 5173.00    0.90583   0.90310    0.014
 5174.00    0.98755   0.88388    0.014
 5175.00    1.01679   0.85283    0.014
 5176.00    0.97671   0.85992    0.014
 5177.00    0.94815   0.91897    0.014
 5178.00    0.93299   0.99514    0.014
 5179.00    0.92687   1.05124    0.014
 5180.00    0.93003   1.07933    0.014
 5181.00    0.93842   1.08746    0.014
 5182.00    0.95155   1.07941    0.014
 5183.00    0.92411   1.05081    0.014
 5184.00    0.86434   0.99539    0.014
 5185.00    0.82084   0.92033    0.014
 5186.00    0.78877   0.86060    0.014
 5187.00    0.73533   0.85906    0.014
 5188.00    0.66874   0.91992    0.014
 5189.00    0.76590   1.00055    0.014
 5190.00    0.95106   1.05815    0.000
 5191.00    1.01870   1.08490    0.000
 5192.00    1.03148   1.09252    0.000
 5193.00    0.91607   1.08431    0.000
 5194.00    0.74910   1.06021    0.000
 5195.00    0.73383   1.03562    0.000
 5196.00    0.77064   1.02923    0.000
 5197.00    0.88418   1.04028    0.000
 5198.00    1.01988   1.05705    0.000
 5199.00    0.93655   1.07505    0.000
 5200.00    0.80090   1.09432    0.000
 5201.00    0.82270   1.11240    0.000
 5202.00    0.87481   1.12567    0.000
 5203.00    0.92883   1.13062    0.000
 5204.00    0.98314   1.12494    0.000
 5205.00    0.93538   1.10855    0.000
 5206.00    0.87643   1.08161    0.000
 5207.00    0.89087   1.04659    0.000
 5208.00    0.91061   1.01325    0.000
 5209.00    0.94771   0.99171    0.000
 5210.00    0.98547   0.98173    0.000
 5211.00    0.90595   0.98031    0.014
 5212.00    0.83112   0.99256    0.014
 5213.00    0.94685   1.02349    0.014
 5214.00    1.05132   1.06711    0.014
 5215.00    0.97311   1.10883    0.014
 5216.00    0.90192   1.13337    0.014
 5217.00    0.90215   1.13365    0.014
 5218.00    0.90988   1.11762    0.014
 5219.00    0.97213   1.10409    0.014
 5220.00    1.03045   1.10698    0.014
 5221.00    1.06687   1.12474    0.014
 5222.00    1.09377   1.14610    0.014
 5223.00    1.07835   1.16166    0.014
 5224.00    1.03093   1.16654    0.014
 5225.00    0.86661   1.15695    0.014
 5226.00    0.74901   1.13046    0.014
 5227.00    0.77437   1.08906    0.014
 5228.00    0.82214   1.04186    0.014
 5229.00    0.92822   1.00690    0.014
 5230.00    0.99215   1.00442    0.014
 5231.00    0.96180   1.03755    0.014
 5232.00    0.92031   1.08474    0.014
 5233.00    0.85725   1.11928    0.014
 5234.00    0.86511   1.12863    0.014
 5235.00    0.99286   1.11666    0.014
 5236.00    1.04306   1.09954    0.014
 5237.00    0.97843   1.09512    0.014
 5238.00    0.95017   1.10934    0.014
 5239.00    0.96926   1.13409    0.014
 5240.00    0.98270   1.15639    0.014
 5241.00    0.98966   1.16835    0.014
 5242.00    0.95700   1.17097    0.014
 5243.00    0.88427   1.16969    0.014
 5244.00    0.80455   1.16807    0.014
 5245.00    0.71859   1.16748    0.013
 5246.00    0.76330   1.16923    0.013
 5247.00    0.91074   1.17022    0.014
 5248.00    1.00340   1.16090    0.014
 5249.00    1.05818   1.13782    0.014
 5250.00    1.02288   1.11291    0.014
 5251.00    0.93298   1.09875    0.014
 5252.00    0.88094   1.09333    0.014
 5253.00    0.84894   1.09070    0.014
 5254.00    0.85038   1.09323    0.014
 5255.00    0.86718   1.10223    0.014
 5256.00    0.90332   1.11059    0.014
 5257.00    0.94710   1.11408    0.014
 5258.00    0.90182   1.12033    0.014
 5259.00    0.82653   1.13837    0.014
 5260.00    0.76637   1.16366    0.014
 5261.00    0.71049   1.18130    0.015
 5262.00    0.79151   1.17991    0.015
 5263.00    0.90450   1.15710    0.015
 5264.00    0.99401   1.11740    0.015
 5265.00    1.07912   1.07037    0.015
 5266.00    0.99558   1.02696    0.015
 5267.00    0.88761   0.99510    0.015
 5268.00    0.85374   0.97999    0.015
 5269.00    0.82766   0.98264    0.015
 5270.00    0.90751   0.99052    0.015
 5271.00    0.99457   0.98263    0.016
 5272.00    0.94632   0.96058    0.015
 5273.00    0.89353   0.95596    0.015
 5274.00    0.92301   0.98777    0.015
 5275.00    0.94921   1.03559    0.015
 5276.00    0.86707   1.06974    0.015
 5277.00    0.79798   1.08386    0.015
 5278.00    0.92742   1.09196    0.015
 5279.00    1.03925   1.10966    0.015
 5280.00    0.97931   1.13837    0.014
 5281.00    0.92700   1.16312    0.014
 5282.00    0.92837   1.16859    0.014
 5283.00    0.92182   1.15351    0.014
 5284.00    0.87231   1.12814    0.014
 5285.00    0.84202   1.10493    0.014
 5286.00    0.89531   1.09511    0.014
 5287.00    0.94953   1.10690    0.014
 5288.00    1.00706   1.13743    0.013
 5289.00    1.02323   1.17027    0.013
 5290.00    0.91515   1.18974    0.014
 5291.00    0.83138   1.19525    0.014
 5292.00    0.80974   1.19636    0.014
 5293.00    0.80626   1.19839    0.014
 5294.00    0.84273   1.19872    0.014
 5295.00    0.88740   1.19449    0.014
 5296.00    0.94773   1.18654    0.013
 5297.00    0.97351   1.17414    0.013
 5298.00    0.94176   1.15184    0.013
 5299.00    0.95029   1.11790    0.013
 5300.00    1.01763   1.08429    0.013
 5301.00    1.05537   1.06975    0.013
 5302.00    1.05512   1.07939    0.013
 5303.00    1.00025   1.09917    0.013
 5304.00    0.88362   1.11571    0.014
 5305.00    0.87581   1.13115    0.014
 5306.00    0.97653   1.15214    0.014
 5307.00    0.99854   1.17482    0.014
 5308.00    0.95132   1.18831    0.014
 5309.00    0.97263   1.18852    0.014
 5310.00    1.04703   1.18312    0.014
 5311.00    0.97342   1.18238    0.014
 5312.00    0.79896   1.18808    0.014
 5313.00    0.81884   1.19399    0.014
 5314.00    0.95478   1.19467    0.014
 5315.00    0.91744   1.19032    0.014
 5316.00    0.78981   1.18374    0.014
 5317.00    0.78377   1.17592    0.014
 5318.00    0.83266   1.16617    0.014
 5319.00    0.84977   1.15652    0.014
 5320.00    0.85454   1.15218    0.014
 5321.00    0.84758   1.15461    0.014
 5322.00    0.83674   1.15869    0.014
 5323.00    0.86627   1.15887    0.014
 5324.00    0.90699   1.15298    0.014
 5325.00    0.92445   1.14038    0.023
 5326.00    0.93661   1.12294    0.174
 5327.00    0.91080   1.10657   -1.000
 5328.00    0.87806   1.09203   -1.000
 5329.00    0.87785   1.06740   -1.000
 5330.00    0.88221   1.02683   -1.000
 5331.00    0.90596   0.99343   -1.000
 5332.00    0.93167   0.99960   -1.000
 5333.00    0.97771   1.04478   -1.000
 5334.00    1.02505   1.09549   -1.000
 5335.00    1.08266   1.12620   -1.000
 5336.00    1.14018   1.14027   10.914
 5337.00    1.03198   1.15040    0.027
 5338.00    0.92812   1.15805    0.014
 5339.00    0.94824   1.15863    0.013
 5340.00    0.96937   1.15164    0.013
 5341.00    1.00491   1.13755    0.013
 5342.00    1.03492   1.11621    0.013
 5343.00    1.01313   1.09564    0.013
 5344.00    0.98148   1.09066    0.013
 5345.00    0.88267   1.10512    0.013
 5346.00    0.81578   1.12561    0.013
 5347.00    0.91736   1.13719    0.013
 5348.00    0.98753   1.13718    0.013
 5349.00    0.92430   1.13181    0.013
 5350.00    0.87264   1.12536    0.013
 5351.00    0.86154   1.11890    0.013
 5352.00    0.86729   1.11731    0.013
 5353.00    0.92267   1.12695    0.013
 5354.00    0.97187   1.14529    0.013
 5355.00    1.00556   1.16304    0.013
 5356.00    0.98877   1.17615    0.013
 5357.00    0.86273   1.18761    0.013
 5358.00    0.79774   1.19871    0.012
 5359.00    0.84743   1.20685    0.013
 5360.00    0.87718   1.21085    0.013
 5361.00    0.87421   1.21154    0.013
 5362.00    0.86260   1.20796    0.013
 5363.00    0.83853   1.19773    0.013
 5364.00    0.82758   1.18157    0.013
 5365.00    0.83322   1.16432    0.013
 5366.00    0.83149   1.15016    0.013
 5367.00    0.82156   1.13953    0.013
 5368.00    0.91248   1.13222   -2.000
 5369.00    1.10256   1.12848   -2.000
 5370.00    1.16118   1.12490   -2.000
 5371.00    1.10581   1.11397   -2.000
 5372.00    1.06205   1.09106   -2.000
 5373.00    1.02715   1.06352   -2.000
 5374.00    1.01921   1.05037   -2.000
 5375.00    1.02936   1.06584   -2.000
 5376.00    1.00574   1.10353   -2.000
 5377.00    0.96225   1.14257   -2.000
 5378.00    0.96068   1.16736   -2.000
 5379.00    0.98061   1.17637   -2.000
 5380.00    0.93190   1.17650   -2.000
 5381.00    0.85269   1.17401   -2.000
 5382.00    0.88882   1.16989   -2.000
 5383.00    0.96896   1.16287    0.013
 5384.00    0.97887   1.15373    0.013
 5385.00    0.96600   1.14541    0.013
 5386.00    0.96546   1.14164    0.013
 5387.00    0.96826   1.14500    0.013
 5388.00    1.01588   1.15330    0.013
 5389.00    1.07348   1.16006    0.013
 5390.00    1.01047   1.16002    0.013
 5391.00    0.92604   1.15234    0.013
 5392.00    0.90154   1.13983    0.013
 5393.00    0.88517   1.12698    0.013
 5394.00    0.88419   1.11701    0.013
 5395.00    0.88469   1.11011    0.013
 5396.00    0.94694   1.10479    0.013
 5397.00    1.01292   1.09832    0.013
 5398.00    1.01635   1.08668    0.013
 5399.00    1.01782   1.07078    0.013
 5400.00    0.96445   1.06196    0.012
 5401.00    0.91006   1.07086    0.012
 5402.00    0.82931   1.09232    0.012
 5403.00    0.76089   1.11196    0.012
 5404.00    0.85970   1.12137    0.012
 5405.00    0.94522   1.11706    0.012
 5406.00    0.91113   1.09594    0.012
 5407.00    0.87655   1.06316    0.012
 5408.00    0.83866   1.03617    0.012
 5409.00    0.82832   1.03091    0.012
 5410.00    0.95967   1.04484    0.012
 5411.00    1.05470   1.06022    0.012
 5412.00    0.99897   1.06605    0.012
 5413.00    0.96763   1.07014    0.012
 5414.00    1.02006   1.08454    0.013
 5415.00    1.05287   1.10708    0.013
 5416.00    1.02893   1.12551    0.013
 5417.00    0.98158   1.13428    0.013
 5418.00    0.87641   1.13921    0.013
 5419.00    0.81929   1.14664    0.012
 5420.00    0.86445   1.15444    0.012
 5421.00    0.91431   1.15641    0.013
 5422.00    0.97287   1.15154    0.013
 5423.00    1.00842   1.14508    0.013
 5424.00    1.00679   1.14128    0.013
 5425.00    0.99109   1.13773    0.013
 5426.00    0.95544   1.13064    0.013
 5427.00    0.93852   1.12457    0.013
 5428.00    0.94497   1.12837    0.013
 5429.00    0.97702   1.13976    0.013
 5430.00    1.03721   1.14287    0.013
 5431.00    1.03124   1.12576    0.013
 5432.00    0.96113   1.09760    0.013
 5433.00    0.93310   1.07995    0.013
 5434.00    0.94105   1.07988    0.013
 5435.00    0.96021   1.08371    0.013
 5436.00    0.98782   1.07914    0.013
 5437.00    0.97828   1.07027    0.012
 5438.00    0.94415   1.06943    0.012
 5439.00    0.91986   1.08361    0.012
 5440.00    0.90125   1.10979    0.012
 5441.00    0.90409   1.13881    0.012
 5442.00    0.91776   1.16194    0.012
 5443.00    0.96027   1.17558    0.012
 5444.00    1.01537   1.18099    0.012
 5445.00    1.01454   1.17974    0.012
 5446.00    0.99273   1.16949    0.012
 5447.00    0.96990   1.14564    0.012
 5448.00    0.94674   1.10955    0.012
 5449.00    0.91116   1.07513    0.012
 5450.00    0.87229   1.06179    0.012
 5451.00    0.84510   1.07592    0.012
 5452.00    0.82044   1.10377    0.012
 5453.00    0.82757   1.12624    0.012
 5454.00    0.84018   1.13454    0.012
 5455.00    0.78427   1.12883    0.012
 5456.00    0.71938   1.11055    0.012
 5457.00    0.73398   1.08386    0.012
 5458.00    0.75594   1.06202    0.012
 5459.00    0.87856   1.06126    0.012
 5460.00    1.00684   1.08320    0.012
 5461.00    1.02171   1.11119    0.012
 5462.00    1.03370   1.12728    0.012
 5463.00    1.00880   1.12623    0.012
 5464.00    0.98400   1.11349    0.012
 5465.00    0.96177   1.09808    0.012
 5466.00    0.93846   1.08940    0.012
 5467.00    0.90130   1.09255    0.012
 5468.00    0.87100   1.10373    0.012
 5469.00    0.90002   1.11506    0.012
 5470.00    0.92038   1.12264    0.013
 5471.00    0.88523   1.12580    0.012
 5472.00    0.86932   1.12378    0.012
 5473.00    0.94984   1.11774    0.013
 5474.00    1.01018   1.11083    0.013
 5475.00    0.98858   1.10393    0.013
 5476.00    0.98079   1.09526    0.012
 5477.00    1.01953   1.08284    0.013
 5478.00    1.05550   1.06569   -2.000
 5479.00    1.08362   1.04904   -2.000
 5480.00    1.08985   1.04536   -2.000
 5481.00    1.04292   1.05947   -2.000
 5482.00    1.04592   1.07814   -2.000
 5483.00    1.15352   1.08534   -2.000
 5484.00    1.16167   1.08189   -2.000
 5485.00    0.98871   1.08133   -2.000
 5486.00    1.01947   1.09192   -2.000
 5487.00    1.37454   1.10889   -2.000
 5488.00    1.44317   1.12085   -2.000
 5489.00    1.11166   1.12070   -2.000
 5490.00    0.91689   1.11256   -2.000
 5491.00    0.89024   1.10722   -2.000
 5492.00    0.82622   1.10984   -2.000
 5493.00    0.72172   1.11622   -2.000
 5494.00    0.74613   1.12086   -2.000
 5495.00    0.89379   1.12211   -2.000
 5496.00    0.97468   1.12097   -2.000
 5497.00    0.99931   1.11918   -2.000
 5498.00    0.97929   1.11639   -2.000
 5499.00    0.92614   1.11085   -2.000
 5500.00    0.92456   1.10526   -2.000
 5501.00    0.95660   1.10542   -2.000
 5502.00    1.01869   1.10975    0.012
 5503.00    1.09793   1.10945    0.012
 5504.00    1.06052   1.10197    0.012
 5505.00    0.96517   1.09472    0.011
 5506.00    0.88667   1.09308    0.011
 5507.00    0.81541   1.09285    0.012
 5508.00    0.82785   1.08801    0.012
 5509.00    0.87114   1.08135    0.012
 5510.00    0.89328   1.08179    0.012
 5511.00    0.90883   1.09113    0.012
 5512.00    0.98308   1.10015    0.012
 5513.00    1.07260   1.09908    0.012
 5514.00    1.06115   1.08681    0.012
 5515.00    1.02828   1.07064    0.012
 5516.00    0.95775   1.06057    0.012
 5517.00    0.88090   1.06221    0.012
 5518.00    0.87457   1.07405    0.012
 5519.00    0.87718   1.09092    0.012
 5520.00    0.81130   1.10854    0.012
 5521.00    0.73939   1.12393    0.012
 5522.00    0.77861   1.13410    0.012
 5523.00    0.82365   1.13760    0.012
 5524.00    0.88480   1.13638    0.012
 5525.00    0.94494   1.13384    0.012
 5526.00    0.90613   1.13101    0.012
 5527.00    0.86748   1.12542    0.012
 5528.00    0.83212   1.11357    0.012
 5529.00    0.80264   1.09468    0.012
 5530.00    0.84475   1.07416    0.012
 5531.00    0.88501   1.06299    0.011
 5532.00    0.90985   1.06906    0.012
 5533.00    0.92633   1.08768    0.012
 5534.00    0.89084   1.10532    0.012
 5535.00    0.87450   1.11302    0.011
 5536.00    0.95181   1.11144    0.011
 5537.00    1.00379   1.10605    0.011
 5538.00    0.95520   1.10238    0.011
 5539.00    0.93574   1.10342    0.011
 5540.00    1.01242   1.10820    0.011
 5541.00    1.05768   1.11464    0.011
 5542.00    1.01531   1.12229    0.011
 5543.00    0.97465   1.12981    0.011
 5544.00    0.93811   1.13317    0.011
 5545.00    0.92847   1.12967    0.011
 5546.00    0.97429   1.12211    0.011
 5547.00    0.98291   1.11610    0.012
 5548.00    0.92485   1.11458    0.012
 5549.00    0.87827   1.11747    0.011
 5550.00    0.84970   1.12419    0.011
 5551.00    0.84700   1.13317    0.011
 5552.00    0.87991   1.14095    0.011
 5553.00    0.88312   1.14437    0.012
 5554.00    0.85032   1.14224    0.012
 5555.00    0.81519   1.13485    0.012
 5556.00    0.77756   1.12454    0.012
 5557.00    0.77743   1.11601    0.012
 5558.00    0.81264   1.11308    0.012
 5559.00    0.85792   1.11476    0.012
 5560.00    0.91155   1.11727    0.012
 5561.00    0.90438   1.11877    0.012
 5562.00    0.85274   1.11944    0.012
 5563.00    0.81961   1.11853    0.012
 5564.00    0.79837   1.11422    0.012
 5565.00    0.85108   1.10659    0.012
 5566.00    0.94536   1.09857    0.012
 5567.00    0.98124   1.09291    0.012
 5568.00    0.98858   1.08961    0.012
 5569.00    0.96494   1.08753    0.011
 5570.00    0.92822   1.08591    0.011
 5571.00    0.92246   1.08413    0.011
 5572.00    0.92791   1.08266    0.011
 5573.00    0.96084   1.08260    0.012
 5574.00    1.00218   1.08262    0.012
 5575.00    0.95410   1.08117    0.012
 5576.00    0.88324   1.08136    0.012
 5577.00    0.81070   1.08643    0.012
 5578.00    0.73781   1.09385    0.011
 5579.00    0.74595   1.09984    0.011
 5580.00    0.76731   1.10431    0.011
 5581.00    0.79062   1.10804    0.011
 5582.00    0.81417   1.11025    0.011
 5583.00    0.83067   1.10970    0.011
 5584.00    0.84657   1.10646    0.011
 5585.00    0.83492   1.10251    0.011
 5586.00    0.82193   1.09878    0.011
 5587.00    0.86692   1.09182    0.011
 5588.00    0.91246   1.07663    0.011
 5589.00    0.93934   1.05336    0.011
 5590.00    0.96421   1.02939    0.011
 5591.00    0.94924   1.01458    0.011
 5592.00    0.93679   1.01456    0.012
 5593.00    0.95355   1.02724    0.012
 5594.00    0.96433   1.04400    0.012
 5595.00    0.92701   1.05586    0.012
 5596.00    0.89654   1.06082    0.012
 5597.00    0.90741   1.06481    0.012
 5598.00    0.91815   1.07313    0.012
 5599.00    0.92824   1.08166    0.012
 5600.00    0.93182   1.08124    0.012
 5601.00    0.91009   1.07059    0.012
 5602.00    0.90063   1.05719    0.012
 5603.00    0.93084   1.04644    0.012
 5604.00    0.94565   1.03870    0.012
 5605.00    0.91828   1.03643    0.012
 5606.00    0.88972   1.04549    0.012
 5607.00    0.85837   1.06714    0.012
 5608.00    0.85377   1.09377    0.012
 5609.00    0.90344   1.11523    0.012
 5610.00    0.92895   1.12672    0.012
 5611.00    0.91179   1.13010    0.012
 5612.00    0.91259   1.12987    0.012
 5613.00    0.94118   1.12946    0.012
 5614.00    0.93407   1.12900    0.011
 5615.00    0.87852   1.12423    0.011
 5616.00    0.83561   1.10853    0.011
 5617.00    0.80779   1.08091    0.011
 5618.00    0.79627   1.05311    0.011
 5619.00    0.80191   1.04167    0.011
 5620.00    0.81991   1.05010    0.011
 5621.00    0.84938   1.06628    0.011
 5622.00    0.84672   1.07885    0.011
 5623.00    0.81772   1.08677    0.011
 5624.00    0.84093   1.09200    0.011
 5625.00    0.90177   1.09167    0.011
 5626.00    0.91618   1.08241    0.011
 5627.00    0.90121   1.06880    0.011
 5628.00    0.88655   1.06156    0.011
 5629.00    0.87206   1.06638    0.011
 5630.00    0.90312   1.07912    0.011
 5631.00    0.95611   1.09290    0.011
 5632.00    0.92179   1.10422    0.011
 5633.00    0.85120   1.11180    0.011
 5634.00    0.82207   1.11485    0.011
 5635.00    0.80769   1.11362    0.011
 5636.00    0.76304   1.10935    0.011
 5637.00    0.70932   1.10307    0.011
 5638.00    0.74354   1.09521    0.011
 5639.00    0.79968   1.08671    0.011
 5640.00    0.81673   1.07995    0.011
 5641.00    0.82588   1.07707    0.011
 5642.00    0.79648   1.07700    0.011
 5643.00    0.76096   1.07652    0.011
 5644.00    0.80080   1.07507    0.011
 5645.00    0.84951   1.07522    0.011
 5646.00    0.87577   1.07817    0.011
 5647.00    0.90024   1.08234    0.011
 5648.00    0.87728   1.08627    0.011
 5649.00    0.85221   1.08985    0.011
 5650.00    0.82979   1.09280    0.011
 5651.00    0.80838   1.09421    0.011
 5652.00    0.83504   1.09435    0.011
 5653.00    0.85833   1.09554    0.011
 5654.00    0.81946   1.09921    0.011
 5655.00    0.78511   1.10290    0.011
 5656.00    0.80097   1.10222    0.011
 5657.00    0.81378   1.09612    0.011
 5658.00    0.80297   1.08682    0.011
 5659.00    0.79170   1.07433    0.011
 5660.00    0.77776   1.05704    0.011
 5661.00    0.77052   1.04018    0.010
 5662.00    0.79451   1.03457    0.011
 5663.00    0.81102   1.04196    0.011
 5664.00    0.79910   1.05193    0.010
 5665.00    0.80135   1.05724    0.010
 5666.00    0.84860   1.06185    0.010
 5667.00    0.89646   1.07051    0.010
 5668.00    0.94598   1.07999    0.011
 5669.00    0.97287   1.08411    0.011
 5670.00    0.94756   1.08194    0.011
 5671.00    0.93874   1.07802    0.011
 5672.00    0.96281   1.07694    0.011
 5673.00    0.96794   1.08024    0.011
 5674.00    0.94014   1.08733    0.011
 5675.00    0.89881   1.09642    0.011
 5676.00    0.83689   1.10435    0.011
 5677.00    0.81979   1.10841    0.011
 5678.00    0.86264   1.10920    0.012
 5679.00    0.86667   1.10941    0.012
 5680.00    0.82497   1.10969    0.011
 5681.00    0.76851   1.10843    0.011
 5682.00    0.69673   1.10486    0.011
 5683.00    0.70379   1.09908    0.011
 5684.00    0.78306   1.09070    0.011
 5685.00    0.83115   1.08084    0.011
 5686.00    0.85407   1.07361    0.011
 5687.00    0.86251   1.07174    0.011
 5688.00    0.86068   1.07241    0.011
 5689.00    0.82617   1.07066    0.011
 5690.00    0.77129   1.06604    0.011
 5691.00    0.75504   1.06342    0.011
 5692.00    0.75984   1.06752    0.011
 5693.00    0.76665   1.07827    0.011
 5694.00    0.77442   1.09139    0.011
 5695.00    0.76644   1.10196    0.011
 5696.00    0.75202   1.10720    0.011
 5697.00    0.74895   1.10753    0.011
 5698.00    0.74984   1.10528    0.011
 5699.00    0.76312   1.10140    0.011
 5700.00    0.78005   1.09487    0.011
 5701.00    0.74592   1.08571    0.011
 5702.00    0.69934   1.07593    0.011
 5703.00    0.70460   1.06706    0.011
 5704.00    0.72007   1.06034    0.011
 5705.00    0.70872   1.05818    0.010
 5706.00    0.69325   1.06127    0.010
 5707.00    0.72003   1.06534    0.010
 5708.00    0.75160   1.06438    0.011
 5709.00    0.79939   1.05621    0.011
 5710.00    0.84842   1.04310    0.011
 5711.00    0.84897   1.02910    0.011
 5712.00    0.84754   1.01866    0.011
 5713.00    0.84354   1.01539    0.011
 5714.00    0.84064   1.02052    0.011
 5715.00    0.88428   1.03340    0.011
 5716.00    0.92390   1.05139    0.011
 5717.00    0.89460   1.06931    0.011
 5718.00    0.86238   1.08242    0.011
 5719.00    0.79920   1.08987    0.011
 5720.00    0.74228   1.09395    0.011
 5721.00    0.73228   1.09739    0.011
 5722.00    0.72700   1.10170    0.011
 5723.00    0.74876   1.10688    0.011
 5724.00    0.77207   1.11219    0.011
 5725.00    0.80249   1.11658    0.011
 5726.00    0.82205   1.11858    0.011
 5727.00    0.80123   1.11649    0.011
 5728.00    0.78564   1.10960    0.011
 5729.00    0.78630   1.09968    0.011
 5730.00    0.78861   1.09149    0.011
 5731.00    0.79529   1.08912    0.011
 5732.00    0.79593   1.09107    0.011
 5733.00    0.78286   1.09212    0.011
 5734.00    0.78886   1.09090    0.011
 5735.00    0.83235   1.09146    0.011
 5736.00    0.87178   1.09672    0.011
 5737.00    0.90425   1.10402    0.011
 5738.00    0.91902   1.10854    0.011
 5739.00    0.90727   1.10846    0.011
 5740.00    0.89176   1.10571    0.000
 5741.00    0.87132   1.10304    0.000
 5742.00    0.86584   1.10166    0.000
 5743.00    0.87771   1.10108    0.000
 5744.00    0.87918   1.10036    0.000
 5745.00    0.86998   1.09949    0.000
 5746.00    0.87641   1.09986    0.000
 5747.00    0.89696   1.10255    0.000
 5748.00    0.92104   1.10586    0.000
 5749.00    0.94793   1.10589    0.000
 5750.00    0.94950   1.10125    0.000
 5751.00    0.93333   1.09605    0.000
 5752.00    0.92592   1.09533    0.000
 5753.00    0.92388   1.09772    0.000
 5754.00    0.93273   1.09613    0.000
 5755.00    0.94743   1.08649    0.000
 5756.00    0.95318   1.07355    0.000
 5757.00    0.95477   1.06703    0.000
 5758.00    0.92002   1.07246    0.000
 5759.00    0.87069   1.08639    0.000
 5760.00    0.85851   1.10028    0.000
 5761.00    0.85905   1.10726    0.000
 5762.00    0.87320   1.10489    0.000
 5763.00    0.89129   1.09457    0.000
 5764.00    0.91843   1.08061    0.000
 5765.00    0.94773   1.06952    0.000
 5766.00    0.96224   1.06751    0.000
 5767.00    0.97391   1.07590    0.000
 5768.00    0.95057   1.08937    0.000
 5769.00    0.92202   1.10071    0.000
 5770.00    0.93149   1.10660    0.000
 5771.00    0.94509   1.10778    0.000
 5772.00    0.94265   1.10620    0.000
 5773.00    0.93905   1.10315    0.000
 5774.00    0.87700   1.09926    0.000
 5775.00    0.81280   1.09503    0.000
 5776.00    0.82412   1.09127    0.000
 5777.00    0.83725   1.08890    0.000
 5778.00    0.90388   1.08862    0.000
 5779.00    0.96664   1.09003    0.000
 5780.00    0.96739   1.09071    0.000
 5781.00    0.95926   1.08688    0.000
 5782.00    0.86130   1.07592    0.000
 5783.00    0.76734   1.05911    0.000
 5784.00    0.70228   1.04236    0.000
 5785.00    0.65231   1.03212    0.000
 5786.00    0.68610   1.02962    0.000
 5787.00    0.73542   1.03152    0.000
 5788.00    0.85355   1.03608    0.000
 5789.00    0.94242   1.04462    0.000
 5790.00    0.92466   1.05678    0.000
 5791.00    0.89931   1.06816   -2.000
 5792.00    0.85078   1.07410   -2.000
 5793.00    0.82852   1.07415   -2.000
 5794.00    0.87447   1.07257   -2.000
 5795.00    0.91076   1.07443   -2.000
 5796.00    0.92549   1.08097   -2.000
 5797.00    0.92239   1.08890   -2.000
 5798.00    0.88479   1.09343   -2.000
 5799.00    0.85971   1.09198   -2.000
 5800.00    0.85577   1.08693   -2.000
 5801.00    0.86884   1.08473   -2.000
 5802.00    0.90703   1.08994   -2.000
 5803.00    0.90807   1.10058   -2.000
 5804.00    0.86084   1.11035   -2.000
 5805.00    0.84993   1.11413   -2.000
 5806.00    0.88060   1.11061   -2.000
 5807.00    0.93272   1.10235   -2.000
 5808.00    1.00650   1.09420   -2.000
 5809.00    1.00964   1.09011   -2.000
 5810.00    0.94988   1.09062   -2.000
 5811.00    0.92863   1.09372    0.000
 5812.00    0.93760   1.09742    0.000
 5813.00    0.93623   1.10072    0.000
 5814.00    0.92773   1.10288    0.000
 5815.00    0.91239   1.10295    0.000
 5816.00    0.89291   1.09998    0.000
 5817.00    0.90183   1.09381    0.000
 5818.00    0.92574   1.08625    0.000
 5819.00    0.94179   1.08149    0.000
 5820.00    0.95425   1.08327    0.000
 5821.00    0.95382   1.09102    0.000
 5822.00    0.94831   1.10011    0.000
 5823.00    0.93674   1.10618    0.000
 5824.00    0.92313   1.10805    0.000
 5825.00    0.88863   1.10704    0.000
 5826.00    0.84824   1.10524    0.000
 5827.00    0.85059   1.10439    0.000
 5828.00    0.86290   1.10484    0.000
 5829.00    0.89333   1.10575    0.000
 5830.00    0.92716   1.10633    0.000
 5831.00    0.89196   1.10670    0.000
 5832.00    0.84681   1.10716    0.000
 5833.00    0.79742   1.10746    0.000
 5834.00    0.74758   1.10706    0.000
 5835.00    0.74145   1.10578    0.000
 5836.00    0.73827   1.10383    0.000
 5837.00    0.78904   1.10178    0.000
 5838.00    0.84158   1.10039    0.000
 5839.00    0.83257   1.09972    0.000
 5840.00    0.82466   1.09887    0.000
 5841.00    0.85256   1.09772    0.000
 5842.00    0.87811   1.09800    0.000
 5843.00    0.86820   1.10121    0.000
 5844.00    0.86399   1.10613    0.000
 5845.00    0.91519   1.10984    0.000
 5846.00    0.95901   1.11024    0.000
 5847.00    0.95107   1.10704    0.000
 5848.00    0.94775   1.10106    0.000
 5849.00    0.96934   1.09380    0.000
 5850.00    0.98086   1.08742    0.000
 5851.00    0.94870   1.08388    0.000
 5852.00    0.91553   1.08297    0.000
 5853.00    0.87872   1.08181    0.000
 5854.00    0.86416   1.07713    0.000
 5855.00    0.91625   1.06850    0.000
 5856.00    0.96285   1.05928    0.000
 5857.00    0.99542   1.05300    0.000
 5858.00    1.00708   1.04869    0.000
 5859.00    0.97283   1.04228    0.000
 5860.00    0.93206   1.03358    0.000
 5861.00    0.87890   1.02856    0.000
 5862.00    0.84590   1.03228    0.000
 5863.00    0.84641   1.04261    0.000
 5864.00    0.84407   1.05280    0.000
 5865.00    0.83760   1.05880    0.000
 5866.00    0.84876   1.06154    0.000
 5867.00    0.88252   1.06292    0.000
 5868.00    0.93464   1.06254    0.000
 5869.00    1.00747   1.06026    0.000
 5870.00    1.04307   1.05926    0.000
 5871.00    1.04159   1.06310    0.000
 5872.00    1.01195   1.07095    0.000
 5873.00    0.95758   1.07830    0.000
 5874.00    0.91234   1.08160    0.000
 5875.00    0.87415   1.08091    0.000
 5876.00    0.86763   1.07861    0.000
 5877.00    0.88264   1.07667    0.000
 5878.00    0.88821   1.07494    0.000
 5879.00    0.88815   1.07199    0.000
 5880.00    0.87073   1.06696    0.000
 5881.00    0.84429   1.06035    0.000
 5882.00    0.81433   1.05352    0.000
 5883.00    0.78278   1.04826    0.000
 5884.00    0.77800   1.04559    0.000
 5885.00    0.78358   1.04462    0.000
 5886.00    0.79298   1.04339    0.000
 5887.00    0.80364   1.04100    0.000
 5888.00    0.79157   1.03664    0.000
 5889.00    0.77321   1.02546    0.000
 5890.00    0.76709   0.99774    0.000
 5891.00    0.76374   0.94775    0.000
 5892.00    0.77546   0.88692    0.000
 5893.00    0.78993   0.84345    0.000
 5894.00    0.79499   0.83957    0.000
 5895.00    0.79873   0.86808    0.000
 5896.00    0.82927   0.89776    0.000
 5897.00    0.86251   0.90267    0.000
 5898.00    0.84619   0.88445    0.000
 5899.00    0.82673   0.86807    0.000
 5900.00    0.81565   0.87673    0.000
 5901.00    0.80495   0.91078    0.011
 5902.00    0.84318   0.95225    0.011
 5903.00    0.87928   0.98600    0.011
 5904.00    0.85526   1.00914    0.010
 5905.00    0.83208   1.02421    0.010
 5906.00    0.82104   1.03301    0.010
 5907.00    0.80880   1.03700    0.010
 5908.00    0.78531   1.03834    0.010
 5909.00    0.76015   1.03939    0.010
 5910.00    0.72352   1.04154    0.010
 5911.00    0.69986   1.04446    0.010
 5912.00    0.74443   1.04697    0.010
 5913.00    0.78089   1.04859    0.010
 5914.00    0.78304   1.04882    0.010
 5915.00    0.77710   1.04571    0.010
 5916.00    0.74285   1.03777    0.010
 5917.00    0.71799   1.02744    0.010
 5918.00    0.72078   1.02034    0.010
 5919.00    0.74258   1.02027    0.010
 5920.00    0.81206   1.02630    0.010
 5921.00    0.88280   1.03448    0.010
 5922.00    0.95626   1.04116    0.010
 5923.00    0.98448   1.04447    0.010
 5924.00    0.92789   1.04456    0.010
 5925.00    0.87189   1.04344    0.010
 5926.00    0.81685   1.04371    0.010
 5927.00    0.78918   1.04640    0.010
 5928.00    0.80079   1.05007    0.010
 5929.00    0.82160   1.05210    0.010
 5930.00    0.85401   1.05067    0.010
 5931.00    0.88673   1.04577    0.010
 5932.00    0.91978   1.03976    0.010
 5933.00    0.93682   1.03656    0.010
 5934.00    0.93815   1.03840    0.010
 5935.00    0.92432   1.04291    0.010
 5936.00    0.89740   1.04517    0.010
 5937.00    0.86763   1.04355    0.010
 5938.00    0.83571   1.04171    0.010
 5939.00    0.83660   1.04359    0.010
 5940.00    0.85948   1.04858    0.010
 5941.00    0.85386   1.05260    0.010
 5942.00    0.83153   1.05227    0.010
 5943.00    0.82570   1.04737    0.010
 5944.00    0.82833   1.04086    0.010
 5945.00    0.83878   1.03707    0.010
 5946.00    0.85271   1.03839    0.010
 5947.00    0.83824   1.04361    0.010
 5948.00    0.81297   1.04921    0.010
 5949.00    0.78037   1.05157    0.010
 5950.00    0.74542   1.04856    0.010
 5951.00    0.76013   1.04149    0.010
 5952.00    0.78830   1.03509    0.010
 5953.00    0.81759   1.03300    0.010
 5954.00    0.84714   1.03385    0.010
 5955.00    0.83041   1.03393    0.010
 5956.00    0.80549   1.03276    0.010
 5957.00    0.80170   1.03258    0.010
 5958.00    0.80076   1.03342    0.010
 5959.00    0.77695   1.03308    0.010
 5960.00    0.75095   1.03177    0.010
 5961.00    0.70851   1.03287    0.010
 5962.00    0.66510   1.03836    0.010
 5963.00    0.68511   1.04652    0.010
 5964.00    0.70672   1.05397    0.010
 5965.00    0.72532   1.05831    0.010
 5966.00    0.74402   1.05877    0.010
 5967.00    0.76508   1.05594    0.010
 5968.00    0.78707   1.05166    0.010
 5969.00    0.82147   1.04866    0.010
 5970.00    0.85242   1.04896    0.010
 5971.00    0.85254   1.05236    0.010
 5972.00    0.84795   1.05679    0.010
 5973.00    0.81239   1.06041    0.010
 5974.00    0.78447   1.06256    0.010
 5975.00    0.79571   1.06281    0.010
 5976.00    0.80443   1.06044    0.010
 5977.00    0.80269   1.05474    0.009
 5978.00    0.79572   1.04592    0.009
 5979.00    0.77079   1.03621    0.009
 5980.00    0.74781   1.02938    0.010
 5981.00    0.73041   1.02837    0.009
 5982.00    0.71602   1.03304    0.009
 5983.00    0.70905   1.03990    0.009
 5984.00    0.71042   1.04397    0.009
 5985.00    0.72949   1.04171    0.009
 5986.00    0.74168   1.03369    0.010
 5987.00    0.74114   1.02482    0.010
 5988.00    0.73568   1.02079    0.010
 5989.00    0.72227   1.02349    0.010
 5990.00    0.71795   1.02998    0.010
 5991.00    0.72650   1.03630    0.010
 5992.00    0.75070   1.04070    0.010
 5993.00    0.79440   1.04316    0.010
 5994.00    0.82363   1.04454    0.010
 5995.00    0.83698   1.04664    0.010
 5996.00    0.83294   1.05066    0.010
 5997.00    0.81207   1.05480    0.010
 5998.00    0.80506   1.05548    0.010
 5999.00    0.80987   1.05126    0.010
 6000.00    0.81913   1.04459    0.010
 6001.00    0.83173   1.03946    0.010
 6002.00    0.82554   1.03800    0.010
 6003.00    0.80695   1.03890    0.010
 6004.00    0.79141   1.03890    0.010
 6005.00    0.77766   1.03638    0.010
 6006.00    0.76499   1.03310    0.010
 6007.00    0.75286   1.03151    0.010
 6008.00    0.76538   1.03079    0.010
 6009.00    0.78864   1.02747    0.010
 6010.00    0.82134   1.02091    0.010
 6011.00    0.85756   1.01569    0.010
 6012.00    0.86322   1.01694    0.010
 6013.00    0.85918   1.02422    0.010
 6014.00    0.81117   1.03143    0.010
 6015.00    0.75150   1.03341    0.010
 6016.00    0.71806   1.03115    0.010
 6017.00    0.69032   1.02883    0.010
 6018.00    0.68877   1.02815    0.010
 6019.00    0.69174   1.02776    0.010
 6020.00    0.75312   1.02668    0.010
 6021.00    0.82213   1.02517    0.010
 6022.00    0.90076   1.02279    0.010
 6023.00    0.98027   1.01915    0.010
 6024.00    0.94768   1.01610    0.010
 6025.00    0.90884   1.01610    0.010
 6026.00    0.87588   1.01926    0.010
 6027.00    0.84381   1.02406    0.010
 6028.00    0.88828   1.02950    0.010
 6029.00    0.92869   1.03496    0.010
 6030.00    0.87491   1.03978    0.010
 6031.00    0.82407   1.04416    0.010
 6032.00    0.81079   1.04866    0.010
 6033.00    0.80074   1.05260    0.009
 6034.00    0.81863   1.05531    0.010
 6035.00    0.83265   1.05731    0.010
 6036.00    0.82201   1.05905    0.009
 6037.00    0.80365   1.06017    0.009
 6038.00    0.74672   1.06034    0.009
 6039.00    0.70264   1.05974    0.009
 6040.00    0.71057   1.05841    0.009
 6041.00    0.73547   1.05611    0.009
 6042.00    0.81738   1.05293    0.009
 6043.00    0.87991   1.04991    0.010
 6044.00    0.88752   1.04862    0.010
 6045.00    0.89483   1.04981    0.010
 6046.00    0.90140   1.05293    0.010
 6047.00    0.91032   1.05679    0.010
 6048.00    0.92416   1.06005    0.010
 6049.00    0.92207   1.06208    0.010
 6050.00    0.89104   1.06295    0.010
 6051.00    0.85172   1.06294    0.010
 6052.00    0.79924   1.06254    0.010
 6053.00    0.76200   1.06235    0.010
 6054.00    0.74602   1.06218    0.010
 6055.00    0.73184   1.06068    0.010
 6056.00    0.71985   1.05686    0.010
 6057.00    0.70597   1.05131    0.010
 6058.00    0.69002   1.04559    0.010
 6059.00    0.67933   1.04143    0.010
 6060.00    0.67365   1.04039    0.010
 6061.00    0.69293   1.04289    0.010
 6062.00    0.73322   1.04732    0.010
 6063.00    0.76482   1.05099    0.010
 6064.00    0.78997   1.05155    0.009
 6065.00    0.80356   1.04767    0.009
 6066.00    0.80964   1.03923    0.009
 6067.00    0.81164   1.02835    0.009
 6068.00    0.81132   1.01992    0.009
 6069.00    0.81760   1.01957    0.009
 6070.00    0.82717   1.02904    0.009
 6071.00    0.83941   1.04320    0.009
 6072.00    0.85281   1.05486    0.009
 6073.00    0.85241   1.06135    0.009
 6074.00    0.84693   1.06417    0.009
 6075.00    0.83948   1.06542    0.009
 6076.00    0.83143   1.06584    0.010
 6077.00    0.82207   1.06518    0.010
 6078.00    0.81237   1.06284    0.009
 6079.00    0.82191   1.05805    0.010
 6080.00    0.83553   1.05057    0.010
 6081.00    0.86184   1.04206    0.010
 6082.00    0.89029   1.03514    0.010
 6083.00    0.90975   1.03101    0.010
 6084.00    0.92807   1.02848    0.010
 6085.00    0.92822   1.02621    0.010
 6086.00    0.92677   1.02494    0.010
 6087.00    0.89489   1.02561    0.010
 6088.00    0.86143   1.02756    0.010
 6089.00    0.85623   1.03012    0.010
 6090.00    0.85192   1.03305    0.010
 6091.00    0.87476   1.03465    0.010
 6092.00    0.89613   1.03273    0.009
 6093.00    0.88632   1.02776    0.010
 6094.00    0.87483   1.02340    0.010
 6095.00    0.84309   1.02297    0.009
 6096.00    0.81308   1.02666    0.009
 6097.00    0.79749   1.03270    0.009
 6098.00    0.78117   1.03904    0.009
 6099.00    0.76029   1.04330    0.009
 6100.00    0.74055   1.04456    0.009
 6101.00    0.72632   1.04436    0.009
 6102.00    0.71340   1.04299    0.009
 6103.00    0.70562   1.03708    0.009
 6104.00    0.70523   1.02316    0.009
 6105.00    0.72918   1.00391    0.009
 6106.00    0.75510   0.98995    0.009
 6107.00    0.78654   0.99136    0.009
 6108.00    0.81268   1.00566    0.009
 6109.00    0.82621   1.02070    0.010
 6110.00    0.83514   1.02874    0.010
 6111.00    0.83460   1.03117    0.010
 6112.00    0.83345   1.03255    0.010
 6113.00    0.83124   1.03464    0.010
 6114.00    0.82606   1.03635    0.010
 6115.00    0.81623   1.03779    0.010
 6116.00    0.80456   1.04040    0.010
 6117.00    0.79036   1.04334    0.009
 6118.00    0.78789   1.04404    0.009
 6119.00    0.79959   1.04180    0.009
 6120.00    0.81654   1.03828    0.009
 6121.00    0.83908   1.03416    0.009
 6122.00    0.85348   1.02693    0.009
 6123.00    0.86022   1.01395    0.009
 6124.00    0.85698   0.99774    0.009
 6125.00    0.84548   0.98551    0.009
 6126.00    0.83904   0.98413    0.009
 6127.00    0.83630   0.99399    0.009
 6128.00    0.82539   1.00681    0.009
 6129.00    0.80924   1.01467    0.009
 6130.00    0.78549   1.01758    0.009
 6131.00    0.75747   1.01964    0.009
 6132.00    0.75969   1.02369    0.009
 6133.00    0.77668   1.02984    0.009
 6134.00    0.78760   1.03577    0.009
 6135.00    0.79595   1.03813    0.010
 6136.00    0.81608   1.03439    0.010
 6137.00    0.84045   1.02251    0.010
 6138.00    0.83135   1.00140    0.010
 6139.00    0.81203   0.97550    0.010
 6140.00    0.78078   0.95626    0.010
 6141.00    0.74650   0.95494    0.010
 6142.00    0.76025   0.97104    0.010
 6143.00    0.78392   0.99065    0.010
 6144.00    0.81974   1.00161    0.010
 6145.00    0.85754   1.00550    0.010
 6146.00    0.86256   1.01121    0.010
 6147.00    0.86360   1.02177    0.010
 6148.00    0.83103   1.03220    0.009
 6149.00    0.79567   1.03737    0.009
 6150.00    0.76784   1.03615    0.009
 6151.00    0.74037   1.03025    0.009
 6152.00    0.74455   1.02259    0.009
 6153.00    0.74904   1.01674    0.009
 6154.00    0.74532   1.01508    0.009
 6155.00    0.74209   1.01735    0.009
 6156.00    0.74845   1.02045    0.009
 6157.00    0.75381   1.02087    0.009
 6158.00    0.74774   1.01819    0.009
 6159.00    0.74025   1.01510    0.009
 6160.00    0.72142   1.01257    0.009
 6161.00    0.70694   1.00769    0.009
 6162.00    0.71858   0.99615    0.009
 6163.00    0.73427   0.97470    0.009
 6164.00    0.76918   0.94513    0.010
 6165.00    0.80135   0.91772    0.010
 6166.00    0.82290   0.90553    0.010
 6167.00    0.83780   0.91258    0.010
 6168.00    0.83126   0.93078    0.010
 6169.00    0.81901   0.94810    0.010
 6170.00    0.79112   0.95661    0.010
 6171.00    0.76630   0.95459    0.010
 6172.00    0.74868   0.94601    0.010
 6173.00    0.74591   0.94011    0.010
 6174.00    0.77321   0.94494    0.009
 6175.00    0.79720   0.95825    0.009
 6176.00    0.81535   0.97099    0.009
 6177.00    0.82879   0.97824    0.009
 6178.00    0.83496   0.98142    0.009
 6179.00    0.83714   0.98313    0.009
 6180.00    0.83390   0.98516    0.009
 6181.00    0.82799   0.98848    0.009
 6182.00    0.81887   0.99235    0.009
 6183.00    0.81114   0.99534    0.009
 6184.00    0.80488   0.99794    0.009
 6185.00    0.82069   1.00098    0.009
 6186.00    0.85699   1.00314    0.009
 6187.00    0.88666   1.00269    0.009
 6188.00    0.91089   0.99887    0.009
 6189.00    0.88169   0.99193    0.009
 6190.00    0.81404   0.98321    0.009
 6191.00    0.77301   0.97427    0.009
 6192.00    0.74879   0.96482    0.009
 6193.00    0.72065   0.95386    0.009
 6194.00    0.69035   0.94362    0.010
 6195.00    0.63266   0.94080    0.010
 6196.00    0.56181   0.94993   -2.000
 6197.00    0.67145   0.96620   -2.000
 6198.00    0.85589   0.98069   -2.000
 6199.00    1.04934   0.98905   -2.000
 6200.00    1.24598   0.99096   -2.000
 6201.00    1.23997   0.98702   -2.000
 6202.00    1.17331   0.97923   -2.000
 6203.00    0.98651   0.97242   -2.000
 6204.00    0.76985   0.97186   -2.000
 6205.00    0.71240   0.97787   -2.000
 6206.00    0.68701   0.98593   -2.000
 6207.00    0.75191   0.99202   -2.000
 6208.00    0.83106   0.99558    0.009
 6209.00    0.84100   0.99795    0.009
 6210.00    0.84284   0.99971    0.009
 6211.00    0.80491   1.00035    0.009
 6212.00    0.76384   0.99918    0.009
 6213.00    0.77802   0.99538    0.009
 6214.00    0.79464   0.98808    0.009
 6215.00    0.81594   0.97705    0.009
 6216.00    0.83707   0.96308    0.009
 6217.00    0.84712   0.94945    0.009
 6218.00    0.85659   0.94113    0.009
 6219.00    0.85532   0.94037    0.009
 6220.00    0.85319   0.94485    0.009
 6221.00    0.84143   0.94929    0.009
 6222.00    0.82915   0.94976    0.009
 6223.00    0.81292   0.94800    0.009
 6224.00    0.80018   0.94859    0.009
 6225.00    0.80790   0.95280    0.009
 6226.00    0.81222   0.95801    0.009
 6227.00    0.80080   0.96157    0.009
 6228.00    0.78971   0.96341    0.009
 6229.00    0.77984   0.96442    0.009
 6230.00    0.77722   0.96360    0.009
 6231.00    0.79754   0.95849    0.009
 6232.00    0.81606   0.94751    0.009
 6233.00    0.82971   0.93294    0.009
 6234.00    0.82888   0.92198    0.009
 6235.00    0.79469   0.92158    0.009
 6236.00    0.75478   0.93206    0.009
 6237.00    0.70345   0.94811    0.009
 6238.00    0.67627   0.96285    0.009
 6239.00    0.69102   0.97090    0.009
 6240.00    0.71143   0.97099    0.009
 6241.00    0.74045   0.96552    0.009
 6242.00    0.76474   0.95787    0.009
 6243.00    0.78271   0.95064    0.009
 6244.00    0.79663   0.94507    0.009
 6245.00    0.80580   0.94031    0.009
 6246.00    0.81574   0.93526    0.009
 6247.00    0.82648   0.93144    0.009
 6248.00    0.83257   0.93105    0.009
 6249.00    0.83441   0.93449    0.009
 6250.00    0.84280   0.94175    0.009
 6251.00    0.85647   0.95157    0.009
 6252.00    0.85104   0.95975    0.009
 6253.00    0.83207   0.96145    0.009
 6254.00    0.81436   0.95461    0.009
 6255.00    0.79744   0.94165    0.009
 6256.00    0.80586   0.92865    0.009
 6257.00    0.82807   0.92050    0.009
 6258.00    0.82981   0.91679    0.009
 6259.00    0.82187   0.91377    0.009
 6260.00    0.86543   0.90965    0.010
 6261.00    0.92997   0.90686    0.010
 6262.00    0.95353   0.90969    0.011
 6263.00    0.96284   0.91966    0.011
 6264.00    0.91349   0.93368    0.011
 6265.00    0.84693   0.94745    0.011
 6266.00    0.81352   0.95766    0.010
 6267.00    0.78816   0.96190    0.010
 6268.00    0.79838   0.96096    0.009
 6269.00    0.81558   0.95930    0.009
 6270.00    0.84343   0.95992    0.009
 6271.00    0.87290   0.96149    0.009
 6272.00    0.83024   0.96191    0.009
 6273.00    0.77944   0.96164    0.009
 6274.00    0.76445   0.96265    0.009
 6275.00    0.75216   0.96566    0.009
 6276.00    0.77028   0.96919    0.009
 6277.00    0.78962   0.97123    0.009
 6278.00    0.81702   0.97137    0.009
 6279.00    0.84450   0.97048    0.009
 6280.00    0.87284   0.96873    0.000
 6281.00    0.90056   0.96516    0.000
 6282.00    0.91766   0.95918    0.000
 6283.00    0.92984   0.95232    0.000
 6284.00    0.89030   0.94805    0.000
 6285.00    0.85013   0.94887    0.000
 6286.00    0.80532   0.95390    0.000
 6287.00    0.76725   0.96020    0.000
 6288.00    0.76753   0.96580    0.000
 6289.00    0.76702   0.97126    0.000
 6290.00    0.76292   0.97743    0.000
 6291.00    0.75842   0.98301    0.000
 6292.00    0.75240   0.98552    0.000
 6293.00    0.74544   0.98357    0.000
 6294.00    0.73552   0.97846    0.000
 6295.00    0.73466   0.97333    0.000
 6296.00    0.75769   0.97040    0.000
 6297.00    0.77984   0.96910    0.000
 6298.00    0.79998   0.96669    0.000
 6299.00    0.79852   0.96129    0.000
 6300.00    0.75469   0.95474    0.000
 6301.00    0.71641   0.95066    0.000
 6302.00    0.68762   0.94955    0.000
 6303.00    0.68080   0.94833    0.000
 6304.00    0.70689   0.94511    0.000
 6305.00    0.72910   0.94263    0.000
 6306.00    0.74622   0.94478    0.000
 6307.00    0.75155   0.95181    0.000
 6308.00    0.74323   0.96067    0.000
 6309.00    0.73045   0.96904    0.000
 6310.00    0.71312   0.97647    0.000
 6311.00    0.71010   0.98195    0.000
 6312.00    0.71997   0.98351    0.000
 6313.00    0.71539   0.98079    0.000
 6314.00    0.69932   0.97568    0.000
 6315.00    0.68355   0.97071    0.000
 6316.00    0.66798   0.96677    0.000
 6317.00    0.67017   0.96251    0.000
 6318.00    0.68324   0.95733    0.000
 6319.00    0.70380   0.95251    0.000
 6320.00    0.72837   0.94844    0.000
 6321.00    0.75108   0.94527    0.009
 6322.00    0.77291   0.94554    0.009
 6323.00    0.77832   0.95066    0.009
 6324.00    0.77716   0.95804    0.009
 6325.00    0.74789   0.96451    0.009
 6326.00    0.70903   0.96972    0.009
 6327.00    0.68049   0.97458    0.009
 6328.00    0.65492   0.97889    0.009
 6329.00    0.68541   0.98161    0.009
 6330.00    0.72921   0.98228    0.009
 6331.00    0.72923   0.98194    0.009
 6332.00    0.72089   0.98157    0.009
 6333.00    0.71001   0.98140    0.009
 6334.00    0.69875   0.98218    0.009
 6335.00    0.71053   0.98367    0.009
 6336.00    0.72480   0.98300    0.009
 6337.00    0.73884   0.97662    0.009
 6338.00    0.75287   0.96469    0.009
 6339.00    0.74126   0.95314    0.009
 6340.00    0.72871   0.94859    0.009
 6341.00    0.71249   0.95226    0.009
 6342.00    0.69723   0.96064    0.009
 6343.00    0.71633   0.96955    0.009
 6344.00    0.73593   0.97547    0.009
 6345.00    0.76360   0.97612    0.009
 6346.00    0.78889   0.97164    0.009
 6347.00    0.79033   0.96533    0.009
 6348.00    0.79285   0.96201    0.009
 6349.00    0.80317   0.96346    0.009
 6350.00    0.80843   0.96812    0.009
 6351.00    0.78575   0.97409    0.009
 6352.00    0.76229   0.97993    0.009
 6353.00    0.73534   0.98427    0.009
 6354.00    0.71446   0.98610    0.009
 6355.00    0.71565   0.98467    0.009
 6356.00    0.72810   0.97960    0.009
 6357.00    0.77484   0.97180    0.009
 6358.00    0.81070   0.96388    0.009
 6359.00    0.81838   0.95807    0.009
 6360.00    0.81604   0.95346    0.009
 6361.00    0.79134   0.94784    0.009
 6362.00    0.76933   0.94172    0.009
 6363.00    0.75248   0.93712    0.009
 6364.00    0.74552   0.93421    0.009
 6365.00    0.75522   0.93243    0.009
 6366.00    0.76921   0.93273    0.009
 6367.00    0.78953   0.93648    0.009
 6368.00    0.79062   0.94348    0.009
 6369.00    0.76674   0.95216    0.009
 6370.00    0.74678   0.96087    0.009
 6371.00    0.73128   0.96810    0.009
 6372.00    0.73385   0.97264    0.009
 6373.00    0.75464   0.97478    0.009
 6374.00    0.76905   0.97640    0.009
 6375.00    0.77779   0.97913    0.009
 6376.00    0.77414   0.98266    0.009
 6377.00    0.76077   0.98538    0.009
 6378.00    0.75271   0.98623    0.009
 6379.00    0.74830   0.98501    0.009
 6380.00    0.74687   0.98170    0.009
 6381.00    0.74725   0.97641    0.009
 6382.00    0.74873   0.97047    0.009
 6383.00    0.75078   0.96606    0.009
 6384.00    0.77010   0.96470    0.009
 6385.00    0.79731   0.96617    0.009
 6386.00    0.81520   0.96852    0.009
 6387.00    0.82942   0.97005    0.009
 6388.00    0.78630   0.97103    0.009
 6389.00    0.72395   0.97238    0.009
 6390.00    0.72696   0.97402    0.008
 6391.00    0.74838   0.97494    0.008
 6392.00    0.80543   0.97446    0.008
 6393.00    0.87075   0.97204    0.009
 6394.00    0.87838   0.96676    0.009
 6395.00    0.87526   0.95804    0.009
 6396.00    0.84184   0.94852    0.009
 6397.00    0.80406   0.94439    0.009
 6398.00    0.79548   0.94919    0.009
 6399.00    0.78993   0.95933    0.009
 6400.00    0.78624   0.96720    0.009
 6401.00    0.78266   0.96657    0.009
 6402.00    0.80428   0.95707    0.009
 6403.00    0.82672   0.94650    0.009
 6404.00    0.84036   0.94511    0.009
 6405.00    0.85296   0.95484    0.009
 6406.00    0.83347   0.96911    0.009
 6407.00    0.81497   0.98024    0.009
 6408.00    0.81132   0.98403    0.009
 6409.00    0.80673   0.98091    0.009
 6410.00    0.79299   0.97411    0.009
 6411.00    0.78231   0.96788    0.009
 6412.00    0.79299   0.96506    0.009
 6413.00    0.80264   0.96401    0.008
 6414.00    0.80668   0.96195    0.008
 6415.00    0.80673   0.95996    0.008
 6416.00    0.78959   0.96052    0.008
 6417.00    0.77664   0.96384    0.008
 6418.00    0.77865   0.96840    0.009
 6419.00    0.78030   0.97234    0.009
 6420.00    0.78087   0.97381    0.009
 6421.00    0.78037   0.97143    0.009
 6422.00    0.77716   0.96476    0.009
 6423.00    0.77358   0.95583    0.009
 6424.00    0.76920   0.94992    0.009
 6425.00    0.76826   0.95202    0.009
 6426.00    0.77386   0.96140    0.009
 6427.00    0.78194   0.97245    0.009
 6428.00    0.79415   0.98054    0.009
 6429.00    0.80572   0.98468    0.009
 6430.00    0.81637   0.98580    0.009
 6431.00    0.81955   0.98373    0.009
 6432.00    0.81318   0.97702    0.009
 6433.00    0.79986   0.96628    0.009
 6434.00    0.77872   0.95652    0.009
 6435.00    0.76154   0.95358    0.009
 6436.00    0.74829   0.95839    0.008
 6437.00    0.74931   0.96728    0.008
 6438.00    0.76283   0.97509    0.009
 6439.00    0.77977   0.97750    0.009
 6440.00    0.79934   0.97253    0.009
 6441.00    0.79898   0.96186    0.008
 6442.00    0.78509   0.95238    0.008
 6443.00    0.76416   0.95179    0.008
 6444.00    0.73905   0.96092    0.009
 6445.00    0.72866   0.97421    0.009
 6446.00    0.72591   0.98579    0.009
 6447.00    0.73822   0.99276    0.009
 6448.00    0.75730   0.99556    0.009
 6449.00    0.78829   0.99480    0.009
 6450.00    0.82388   0.98864    0.009
 6451.00    0.82718   0.97501    0.009
 6452.00    0.81985   0.95567    0.009
 6453.00    0.81553   0.93910    0.009
 6454.00    0.81205   0.93464    0.009
 6455.00    0.83091   0.94268    0.009
 6456.00    0.85484   0.95566    0.009
 6457.00    0.83596   0.96475    0.009
 6458.00    0.80932   0.96668    0.009
 6459.00    0.76706   0.96563    0.009
 6460.00    0.72263   0.96759    0.008
 6461.00    0.72743   0.97372    0.008
 6462.00    0.73715   0.97983    0.008
 6463.00    0.75875   0.97984    0.008
 6464.00    0.78109   0.97005    0.008
 6465.00    0.78406   0.95356    0.008
 6466.00    0.78639   0.94057    0.008
 6467.00    0.76541   0.93921    0.008
 6468.00    0.74604   0.94873    0.008
 6469.00    0.77120   0.96275    0.009
 6470.00    0.79589   0.97431    0.009
 6471.00    0.81388   0.97954    0.009
 6472.00    0.82769   0.97848    0.009
 6473.00    0.80280   0.97345    0.009
 6474.00    0.78003   0.96737    0.009
 6475.00    0.77163   0.96329    0.009
 6476.00    0.75983   0.96218    0.009
 6477.00    0.73021   0.96207    0.009
 6478.00    0.71009   0.96178    0.009
 6479.00    0.73011   0.96249    0.009
 6480.00    0.74418   0.96527    0.009
 6481.00    0.73749   0.96883    0.009
 6482.00    0.73396   0.97036    0.008
 6483.00    0.73969   0.96718    0.008
 6484.00    0.75155   0.95890    0.008
 6485.00    0.77877   0.94902    0.008
 6486.00    0.78553   0.94305    0.008
 6487.00    0.74817   0.94395    0.008
 6488.00    0.72511   0.95011    0.008
 6489.00    0.72877   0.95744    0.008
 6490.00    0.75355   0.96273    0.008
 6491.00    0.81283   0.96473    0.008
 6492.00    0.85170   0.96319    0.008
 6493.00    0.86132   0.95801    0.009
 6494.00    0.85872   0.94879    0.009
 6495.00    0.84074   0.93443    0.009
 6496.00    0.82285   0.91392    0.009
 6497.00    0.80508   0.88969    0.009
 6498.00    0.80319   0.86897    0.009
 6499.00    0.81686   0.85851    0.009
 6500.00    0.82282   0.86035    0.009
 6501.00    0.82209   0.87130    0.009
 6502.00    0.82023   0.88606    0.009
 6503.00    0.81750   0.90185    0.009
 6504.00    0.81932   0.91727    0.009
 6505.00    0.82420   0.93117    0.009
 6506.00    0.80598   0.94275    0.008
 6507.00    0.77423   0.95146    0.008
 6508.00    0.74357   0.95737    0.008
 6509.00    0.71347   0.96055    0.008
 6510.00    0.72387   0.96105    0.008
 6511.00    0.75220   0.95970    0.008
 6512.00    0.78502   0.95824    0.008
 6513.00    0.81954   0.95804    0.009
 6514.00    0.80879   0.95899    0.009
 6515.00    0.78343   0.95980    0.008
 6516.00    0.74717   0.95905    0.008
 6517.00    0.70795   0.95589    0.008
 6518.00    0.70626   0.95056    0.008
 6519.00    0.71289   0.94426    0.009
 6520.00    0.73384   0.93873    0.009
 6521.00    0.75732   0.93558    0.009
 6522.00    0.78013   0.93624    0.009
 6523.00    0.80286   0.94087    0.009
 6524.00    0.81773   0.94757    0.009
 6525.00    0.83184   0.95373    0.009
 6526.00    0.82691   0.95754    0.009
 6527.00    0.82085   0.95873    0.009
 6528.00    0.82098   0.95770    0.000
 6529.00    0.82149   0.95501    0.000
 6530.00    0.85412   0.95214    0.000
 6531.00    0.88523   0.95098    0.000
 6532.00    0.87826   0.95200    0.000
 6533.00    0.86877   0.95358    0.000
 6534.00    0.82565   0.95355    0.000
 6535.00    0.78496   0.95145    0.000
 6536.00    0.76590   0.94904    0.000
 6537.00    0.74895   0.94853    0.000
 6538.00    0.74589   0.95042    0.000
 6539.00    0.73982   0.95348    0.000
 6540.00    0.71833   0.95628    0.000
 6541.00    0.70974   0.95851    0.000
 6542.00    0.75441   0.96038    0.000
 6543.00    0.80307   0.96153    0.000
 6544.00    0.86543   0.96076    0.000
 6545.00    0.90885   0.95727    0.000
 6546.00    0.89771   0.95127    0.000
 6547.00    0.87872   0.94322    0.000
 6548.00    0.84045   0.93381    0.000
 6549.00    0.80345   0.92518    0.000
 6550.00    0.76913   0.92073    0.000
 6551.00    0.73847   0.92157    0.000
 6552.00    0.71453   0.92528    0.000
 6553.00    0.72257   0.92784    0.000
 6554.00    0.78209   0.92691    0.000
 6555.00    0.89688   0.92261    0.000
 6556.00    1.08975   0.91590    0.000
 6557.00    1.31995   0.90779    0.000
 6558.00    1.59654   0.89985    0.000
 6559.00    1.78589   0.89395    0.000
 6560.00    1.87968   0.89036    0.000
 6561.00    1.82277   0.88583    0.000
 6562.00    1.62028   0.87380    0.000
 6563.00    1.38244   0.84685    0.000
 6564.00    1.11449   0.80154    0.000
 6565.00    0.92463   0.74733    0.000
 6566.00    0.79335   0.70916    0.000
 6567.00    0.73145   0.70946    0.000
 6568.00    0.71529   0.74750    0.000
 6569.00    0.71727   0.80188    0.000
 6570.00    0.72972   0.84880    0.000
 6571.00    0.73394   0.87741    0.000
 6572.00    0.73402   0.89080    0.000
 6573.00    0.73166   0.89613    0.000
 6574.00    0.72824   0.89752    0.000
 6575.00    0.76346   0.89618    0.000
 6576.00    0.81311   0.89300    0.000
 6577.00    0.91853   0.89077    0.000
 6578.00    1.04162   0.89316    0.000
 6579.00    1.14033   0.90159    0.000
 6580.00    1.23258   0.91351    0.000
 6581.00    1.23665   0.92429    0.000
 6582.00    1.22166   0.93023    0.000
 6583.00    1.12774   0.93081    0.000
 6584.00    1.02027   0.92868    0.000
 6585.00    0.93293   0.92738    0.000
 6586.00    0.84820   0.92817    0.000
 6587.00    0.80523   0.92995    0.000
 6588.00    0.76609   0.93098    0.000
 6589.00    0.76421   0.93129    0.000
 6590.00    0.76439   0.93251    0.000
 6591.00    0.77479   0.93531    0.000
 6592.00    0.78525   0.93804    0.000
 6593.00    0.78082   0.93741    0.000
 6594.00    0.77672   0.93055    0.000
 6595.00    0.78031   0.91795    0.000
 6596.00    0.78585   0.90487    0.000
 6597.00    0.81617   0.89850    0.000
 6598.00    0.84464   0.90166    0.000
 6599.00    0.85739   0.91057    0.000
 6600.00    0.86563   0.91892    0.000
 6601.00    0.84520   0.92357    0.000
 6602.00    0.82292   0.92642    0.000
 6603.00    0.79142   0.93035    0.000
 6604.00    0.76101   0.93539    0.000
 6605.00    0.73504   0.93926    0.000
 6606.00    0.71408   0.93985    0.000
 6607.00    0.70989   0.93705    0.000
 6608.00    0.71353   0.93241    0.000
 6609.00    0.73926   0.92729    0.009
 6610.00    0.76799   0.92212    0.009
 6611.00    0.80397   0.91736    0.009
 6612.00    0.82421   0.91464    0.009
 6613.00    0.81160   0.91607    0.009
 6614.00    0.78711   0.92146    0.009
 6615.00    0.74106   0.92797    0.009
 6616.00    0.70002   0.93262    0.009
 6617.00    0.66693   0.93491    0.008
 6618.00    0.65463   0.93637    0.008
 6619.00    0.67127   0.93792    0.008
 6620.00    0.69590   0.93936    0.008
 6621.00    0.73032   0.94031    0.008
 6622.00    0.76256   0.94110    0.008
 6623.00    0.79243   0.94194    0.008
 6624.00    0.79790   0.94211    0.008
 6625.00    0.78013   0.94023    0.008
 6626.00    0.75017   0.93561    0.008
 6627.00    0.70998   0.92927    0.008
 6628.00    0.68663   0.92379    0.008
 6629.00    0.67574   0.92137    0.008
 6630.00    0.67855   0.92212    0.008
 6631.00    0.69024   0.92429    0.009
 6632.00    0.71975   0.92568    0.009
 6633.00    0.75939   0.92501    0.009
 6634.00    0.78962   0.92198    0.009
 6635.00    0.81519   0.91705    0.009
 6636.00    0.82633   0.91155    0.009
 6637.00    0.83130   0.90806    0.009
 6638.00    0.81461   0.90864    0.009
 6639.00    0.78999   0.91311    0.009
 6640.00    0.77393   0.91898    0.008
 6641.00    0.76053   0.92326    0.008
 6642.00    0.74750   0.92486    0.008
 6643.00    0.73457   0.92458    0.008
 6644.00    0.71520   0.92323    0.008
 6645.00    0.69449   0.92028    0.008
 6646.00    0.69045   0.91566    0.008
 6647.00    0.68919   0.91145    0.008
 6648.00    0.68658   0.91016    0.008
 6649.00    0.68381   0.91241    0.008
 6650.00    0.67109   0.91613    0.008
 6651.00    0.65750   0.91912    0.008
 6652.00    0.68816   0.92081    0.008
 6653.00    0.72108   0.92146    0.009
 6654.00    0.74779   0.92102    0.009
 6655.00    0.77381   0.91968    0.009
 6656.00    0.75880   0.91813    0.009
 6657.00    0.74495   0.91714    0.009
 6658.00    0.75549   0.91691    0.009
 6659.00    0.76742   0.91699    0.009
 6660.00    0.79591   0.91712    0.009
 6661.00    0.82019   0.91692    0.009
 6662.00    0.80956   0.91603    0.008
 6663.00    0.79677   0.91379    0.008
 6664.00    0.77059   0.90965    0.008
 6665.00    0.75163   0.90367    0.008
 6666.00    0.76772   0.89747    0.008
 6667.00    0.78019   0.89369    0.008
 6668.00    0.77836   0.89368    0.008
 6669.00    0.77464   0.89681    0.008
 6670.00    0.76474   0.90103    0.008
 6671.00    0.76199   0.90501    0.008
 6672.00    0.77908   0.90909    0.008
 6673.00    0.78705   0.91340    0.008
 6674.00    0.77336   0.91718    0.008
 6675.00    0.74933   0.91953    0.008
 6676.00    0.70406   0.92009    0.008
 6677.00    0.68602   0.91894    0.008
 6678.00    0.71660   0.91562    0.009
 6679.00    0.73905   0.90890    0.009
 6680.00    0.74879   0.89903    0.009
 6681.00    0.74674   0.88948    0.009
 6682.00    0.72852   0.88489    0.009
 6683.00    0.71211   0.88695    0.009
 6684.00    0.69791   0.89324    0.008
 6685.00    0.69990   0.89961    0.008
 6686.00    0.71913   0.90400    0.008
 6687.00    0.73720   0.90672    0.008
 6688.00    0.75417   0.90815    0.008
 6689.00    0.75735   0.90839    0.008
 6690.00    0.74912   0.90776    0.008
 6691.00    0.73690   0.90708    0.008
 6692.00    0.72177   0.90714    0.008
 6693.00    0.72688   0.90786    0.008
 6694.00    0.74493   0.90873    0.008
 6695.00    0.76705   0.90895    0.008
 6696.00    0.79145   0.90790    0.000
 6697.00    0.78454   0.90525    0.000
 6698.00    0.76238   0.90116    0.000
 6699.00    0.74595   0.89670    0.000
 6700.00    0.73192   0.89379    0.000
 6701.00    0.74745   0.89384    0.000
 6702.00    0.77363   0.89688    0.000
 6703.00    0.78098   0.90116    0.000
 6704.00    0.78260   0.90434    0.000
 6705.00    0.80803   0.90488    0.000
 6706.00    0.83951   0.90274    0.000
 6707.00    0.86845   0.89967    0.000
 6708.00    0.89687   0.89781    0.000
 6709.00    0.91302   0.89813    0.000
 6710.00    0.92719   0.89992    0.000
 6711.00    0.95397   0.90153    0.000
 6712.00    0.98228   0.90185    0.000
 6713.00    1.03518   0.90079    0.000
 6714.00    1.09012   0.89912    0.000
 6715.00    1.06843   0.89708    0.000
 6716.00    1.04312   0.89433    0.000
 6717.00    0.94359   0.89006    0.000
 6718.00    0.84456   0.88358    0.000
 6719.00    0.83174   0.87551    0.000
 6720.00    0.81848   0.86791    0.000
 6721.00    0.79685   0.86387    0.000
 6722.00    0.77950   0.86517    0.000
 6723.00    0.81127   0.87068    0.000
 6724.00    0.84704   0.87720    0.000
 6725.00    0.91459   0.88218    0.000
 6726.00    0.98312   0.88543    0.000
 6727.00    1.05749   0.88742    0.000
 6728.00    1.10868   0.88811    0.000
 6729.00    1.05009   0.88763    0.000
 6730.00    0.98165   0.88715    0.000
 6731.00    0.87517   0.88779    0.000
 6732.00    0.79000   0.88968    0.000
 6733.00    0.77346   0.89172    0.000
 6734.00    0.76320   0.89286    0.000
 6735.00    0.77007   0.89292    0.000
 6736.00    0.76821   0.89227    0.000
 6737.00    0.74596   0.89168    0.000
 6738.00    0.72998   0.89143    0.000
 6739.00    0.72668   0.89117    0.000
 6740.00    0.73299   0.89000    0.000
 6741.00    0.75618   0.88770    0.000
 6742.00    0.77567   0.88496    0.000
 6743.00    0.78945   0.88286    0.000
 6744.00    0.79380   0.88160    0.000
 6745.00    0.78539   0.88053    0.000
 6746.00    0.77991   0.87943    0.000
 6747.00    0.77792   0.87892    0.000
 6748.00    0.77383   0.87949    0.000
 6749.00    0.76757   0.88046    0.000
 6750.00    0.77931   0.88030    0.000
 6751.00    0.80773   0.87823    0.000
 6752.00    0.83522   0.87486    0.000
 6753.00    0.86193   0.87171    0.009
 6754.00    0.86943   0.87008    0.009
 6755.00    0.86312   0.87036    0.009
 6756.00    0.82155   0.87232    0.009
 6757.00    0.75775   0.87539    0.009
 6758.00    0.72127   0.87925    0.009
 6759.00    0.69986   0.88373    0.009
 6760.00    0.74281   0.88802    0.010
 6761.00    0.81661   0.89152    0.010
 6762.00    0.83453   0.89398    0.010
 6763.00    0.82933   0.89529    0.010
 6764.00    0.82652   0.89543    0.010
 6765.00    0.82454   0.89473    0.010
 6766.00    0.83194   0.89366    0.010
 6767.00    0.84213   0.89224    0.010
 6768.00    0.86707   0.88996    0.010
 6769.00    0.89567   0.88614    0.010
 6770.00    0.93137   0.88125    0.009
 6771.00    0.96848   0.87697    0.009
 6772.00    0.95861   0.87461    0.009
 6773.00    0.94134   0.87414    0.009
 6774.00    0.92096   0.87492    0.009
 6775.00    0.90021   0.87672    0.009
 6776.00    0.86883   0.88005    0.009
 6777.00    0.83661   0.88484    0.009
 6778.00    0.83623   0.88988    0.009
 6779.00    0.83724   0.89399    0.009
 6780.00    0.79708   0.89665    0.009
 6781.00    0.75730   0.89806    0.009
 6782.00    0.75573   0.89828    0.009
 6783.00    0.75454   0.89697    0.009
 6784.00    0.76034   0.89356    0.009
 6785.00    0.76925   0.88789    0.009
 6786.00    0.81226   0.88088    0.009
 6787.00    0.85313   0.87433    0.009
 6788.00    0.87757   0.87017    0.009
 6789.00    0.89498   0.86934    0.009
 6790.00    0.87142   0.87137    0.009
 6791.00    0.84011   0.87471    0.009
 6792.00    0.77294   0.87782    0.009
 6793.00    0.72572   0.87972    0.009
 6794.00    0.75388   0.88022    0.009
 6795.00    0.78192   0.87960    0.009
 6796.00    0.80955   0.87838    0.009
 6797.00    0.82812   0.87711    0.009
 6798.00    0.82240   0.87629    0.009
 6799.00    0.81627   0.87627    0.009
 6800.00    0.80921   0.87683    0.009
 6801.00    0.80784   0.87767    0.009
 6802.00    0.81781   0.87877    0.009
 6803.00    0.82672   0.88017    0.009
 6804.00    0.83381   0.88172    0.009
 6805.00    0.81429   0.88284    0.009
 6806.00    0.75440   0.88295    0.009
 6807.00    0.72971   0.88200    0.009
 6808.00    0.75191   0.88047    0.009
 6809.00    0.77577   0.87899    0.009
 6810.00    0.80156   0.87802    0.009
 6811.00    0.82842   0.87757    0.009
 6812.00    0.85641   0.87745    0.009
 6813.00    0.86462   0.87762    0.009
 6814.00    0.85479   0.87798    0.009
 6815.00    0.83652   0.87850    0.009
 6816.00    0.81148   0.87871    0.009
 6817.00    0.80003   0.87807    0.009
 6818.00    0.79821   0.87703    0.009
 6819.00    0.78350   0.87664    0.009
 6820.00    0.76078   0.87734    0.009
 6821.00    0.75499   0.87827    0.009
 6822.00    0.75839   0.87831    0.009
 6823.00    0.78411   0.87762    0.009
 6824.00    0.82035   0.87748    0.009
 6825.00    0.78728   0.87882    0.009
 6826.00    0.72602   0.88121    0.009
 6827.00    0.73599   0.88334    0.009
 6828.00    0.77069   0.88416    0.009
 6829.00    0.77638   0.88325    0.009
 6830.00    0.77357   0.88075    0.009
 6831.00    0.73735   0.87756    0.009
 6832.00    0.69303   0.87523    0.009
 6833.00    0.68862   0.87508    0.009
 6834.00    0.69203   0.87694    0.009
 6835.00    0.70165   0.87933    0.009
 6836.00    0.71221   0.88113    0.009
 6837.00    0.74685   0.88217    0.009
 6838.00    0.78420   0.88270    0.009
 6839.00    0.79194   0.88233    0.009
 6840.00    0.79746   0.88022    0.009
 6841.00    0.76837   0.87591    0.009
 6842.00    0.73789   0.86976    0.009
 6843.00    0.72160   0.86282    0.009
 6844.00    0.70818   0.85676    0.009
 6845.00    0.80506   0.85349    0.009
 6846.00    0.89355   0.85428    0.009
 6847.00    0.84022   0.85887    0.009
 6848.00    0.79264   0.86513    0.009
 6849.00    0.80514   0.87054    0.009
 6850.00    0.81675   0.87374    0.009
 6851.00    0.82180   0.87499    0.009
 6852.00    0.82142   0.87531    0.009
 6853.00    0.79035   0.87536    0.009
 6854.00    0.76275   0.87514    0.009
 6855.00    0.75080   0.87420    0.008
 6856.00    0.74359   0.87180    0.008
 6857.00    0.75390   0.86766    0.008
 6858.00    0.76108   0.86268    0.008
 6859.00    0.75858   0.85865    0.008
 6860.00    0.75962   0.85699    0.009
 6861.00    0.77000   0.85744    0.009
 6862.00    0.76830   0.85834    0.009
 6863.00    0.73932   0.85828    0.009
 6864.00    0.71763   0.85745    0.009
 6865.00    0.71020   0.85745    0.009
 6866.00    0.70176   0.85985    0.009
 6867.00    0.69160   0.86417    0.009
 6868.00    0.70139   0.86793    0.009
 6869.00    0.74101   0.86878    0.009
 6870.00    0.75757   0.86654    0.009
 6871.00    0.74384   0.86317    0.009
 6872.00    0.74961   0.86075    0.009
 6873.00    0.77794   0.85988    0.009
 6874.00    0.77019   0.85975    0.009
 6875.00    0.72563   0.85942    0.008
 6876.00    0.69897   0.85911    0.008
 6877.00    0.68841   0.85968    0.008
 6878.00    0.69368   0.86161    0.008
 6879.00    0.71150   0.86469    0.008
 6880.00    0.73751   0.86847    0.008
 6881.00    0.76924   0.87204    0.008
 6882.00    0.77824   0.87409    0.009
 6883.00    0.77333   0.87352    0.009
 6884.00    0.78419   0.87031    0.009
 6885.00    0.80348   0.86583    0.009
 6886.00    0.80674   0.86216    0.009
 6887.00    0.80256   0.86082    0.009
 6888.00    0.80427   0.86173    0.009
 6889.00    0.80834   0.86378    0.009
 6890.00    0.80180   0.86634    0.009
 6891.00    0.79165   0.86951    0.009
 6892.00    0.78651   0.87326    0.009
 6893.00    0.78281   0.87690    0.009
 6894.00    0.79145   0.87950    0.009
 6895.00    0.80301   0.88062    0.009
 6896.00    0.76652   0.88025    0.009
 6897.00    0.72086   0.87865    0.008
 6898.00    0.71847   0.87661    0.009
 6899.00    0.72246   0.87490    0.009
 6900.00    0.74195   0.87395    0.009
 6901.00    0.76311   0.87367    0.009
 6902.00    0.74840   0.87348    0.009
 6903.00    0.73116   0.87301    0.009
 6904.00    0.70952   0.87257    0.009
 6905.00    0.68773   0.87284    0.009
 6906.00    0.68139   0.87403    0.009
 6907.00    0.67660   0.87546    0.009
 6908.00    0.72385   0.87663    0.009
 6909.00    0.76669   0.87794    0.009
 6910.00    0.73984   0.87984    0.009
 6911.00    0.71487   0.88201    0.009
 6912.00    0.70877   0.88329    0.009
 6913.00    0.70378   0.88282    0.009
 6914.00    0.70679   0.88055    0.009
 6915.00    0.71408   0.87681    0.009
 6916.00    0.74496   0.87204    0.008
 6917.00    0.76547   0.86720    0.008
 6918.00    0.74023   0.86360    0.008
 6919.00    0.72238   0.86241    0.008
 6920.00    0.73130   0.86364    0.008
 6921.00    0.74248   0.86620    0.008
 6922.00    0.76055   0.86924    0.008
 6923.00    0.77314   0.87212    0.009
 6924.00    0.77161   0.87424    0.009
 6925.00    0.77367   0.87487    0.009
 6926.00    0.78372   0.87325    0.009
 6927.00    0.78196   0.86969    0.009
 6928.00    0.75747   0.86583    0.009
 6929.00    0.75182   0.86404    0.009
 6930.00    0.77788   0.86546    0.009
 6931.00    0.78808   0.86922    0.009
 6932.00    0.77495   0.87321    0.009
 6933.00    0.75930   0.87551    0.009
 6934.00    0.74039   0.87556    0.009
 6935.00    0.76585   0.87391    0.009
 6936.00    0.84192   0.87191    0.009
 6937.00    0.87426   0.87088    0.009
 6938.00    0.86260   0.87142    0.009
 6939.00    0.81383   0.87294    0.009
 6940.00    0.73211   0.87430    0.009
 6941.00    0.69706   0.87517    0.009
 6942.00    0.69852   0.87590    0.009
 6943.00    0.71294   0.87684    0.009
 6944.00    0.73628   0.87754    0.009
 6945.00    0.73421   0.87695    0.009
 6946.00    0.71680   0.87425    0.009
 6947.00    0.71025   0.86984    0.009
 6948.00    0.70942   0.86569    0.009
 6949.00    0.72740   0.86421    0.009
 6950.00    0.75398   0.86653    0.009
 6951.00    0.76080   0.87120    0.009
 6952.00    0.75985   0.87536    0.009
 6953.00    0.77219   0.87693    0.009
 6954.00    0.78896   0.87578    0.009
 6955.00    0.77249   0.87318    0.009
 6956.00    0.74668   0.87072    0.009
 6957.00    0.75418   0.86941    0.009
 6958.00    0.76939   0.86959    0.009
 6959.00    0.78400   0.87118    0.009
 6960.00    0.79850   0.87361    0.009
 6961.00    0.79062   0.87590    0.009
 6962.00    0.77953   0.87739    0.009
 6963.00    0.73843   0.87818    0.009
 6964.00    0.69422   0.87880    0.009
 6965.00    0.70949   0.87956    0.009
 6966.00    0.72872   0.88022    0.009
 6967.00    0.75569   0.88037    0.009
 6968.00    0.78290   0.87999    0.009
 6969.00    0.77734   0.87955    0.009
 6970.00    0.77144   0.87982    0.009
 6971.00    0.75503   0.88083    0.009
 6972.00    0.73786   0.88189    0.009
 6973.00    0.70930   0.88204    0.009
 6974.00    0.68454   0.88128    0.009
 6975.00    0.69625   0.88033    0.009
 6976.00    0.71407   0.87958    0.009
 6977.00    0.77437   0.87817    0.009
 6978.00    0.82370   0.87451    0.009
 6979.00    0.81412   0.86768    0.009
 6980.00    0.80358   0.85830    0.009
 6981.00    0.78888   0.84894    0.009
 6982.00    0.77329   0.84318    0.009
 6983.00    0.75452   0.84400    0.009
 6984.00    0.74566   0.85146    0.009
 6985.00    0.76638   0.86226    0.009
 6986.00    0.77906   0.87232    0.009
 6987.00    0.77135   0.87927    0.009
 6988.00    0.75787   0.88278    0.010
 6989.00    0.73179   0.88355    0.010
 6990.00    0.71437   0.88224    0.010
 6991.00    0.71337   0.87942    0.010
 6992.00    0.71074   0.87607    0.010
 6993.00    0.70542   0.87371    0.010
 6994.00    0.71808   0.87350    0.010
 6995.00    0.75683   0.87513    0.010
 6996.00    0.77467   0.87701    0.010
 6997.00    0.76580   0.87787    0.009
 6998.00    0.74795   0.87767    0.009
 6999.00    0.71998   0.87716    0.009
 7000.00    0.68926   0.87641    0.009
 7001.00    0.65580   0.87470    0.009
 7002.00    0.69881   0.87155    0.009
 7003.00    0.80871   0.86802    0.009
 7004.00    0.83293   0.86587    0.009
 7005.00    0.79112   0.86579    0.009
 7006.00    0.75268   0.86647    0.009
 7007.00    0.71654   0.86617    0.009
 7008.00    0.68974   0.86457    0.009
 7009.00    0.66849   0.86324    0.009
 7010.00    0.65851   0.86359    0.009
 7011.00    0.65437   0.86582    0.009
 7012.00    0.67769   0.86880    0.009
 7013.00    0.71335   0.87109    0.009
 7014.00    0.70809   0.87196    0.009
 7015.00    0.68703   0.87152    0.009
 7016.00    0.72020   0.86995    0.009
 7017.00    0.77116   0.86664    0.009
 7018.00    0.80128   0.86082    0.009
 7019.00    0.82568   0.85385    0.009
 7020.00    0.80895   0.84943    0.009
 7021.00    0.78292   0.85096    0.009
 7022.00    0.78238   0.85819    0.009
 7023.00    0.78644   0.86693    0.009
 7024.00    0.76844   0.87284    0.009
 7025.00    0.74737   0.87377    0.009
 7026.00    0.78875   0.87057    0.009
 7027.00    0.83633   0.86599    0.010
 7028.00    0.80352   0.86308    0.010
 7029.00    0.76567   0.86330    0.010
 7030.00    0.74868   0.86601    0.010
 7031.00    0.73242   0.86945    0.010
 7032.00    0.75243   0.87258    0.010
 7033.00    0.77237   0.87509    0.010
 7034.00    0.79040   0.87688    0.010
 7035.00    0.80715   0.87767    0.009
 7036.00    0.80593   0.87742    0.009
 7037.00    0.80473   0.87669    0.009
 7038.00    0.80360   0.87598    0.009
 7039.00    0.79758   0.87504    0.009
 7040.00    0.75855   0.87319    0.009
 7041.00    0.72679   0.87078    0.009
 7042.00    0.73299   0.87017    0.009
 7043.00    0.75115   0.87398    0.009
 7044.00    0.81967   0.88229    0.009
 7045.00    0.86448   0.89169    0.010
 7046.00    0.82681   0.89841    0.010
 7047.00    0.80514   0.90084    0.010
 7048.00    0.83031   0.90022    0.010
 7049.00    0.82608   0.89918    0.010
 7050.00    0.74848   0.89946   -2.000
 7051.00    0.71105   0.90060   -2.000
 7052.00    0.76005   0.90084   -2.000
 7053.00    0.79602   0.89865   -2.000
 7054.00    0.80764   0.89352   -2.000
 7055.00    0.80972   0.88586   -2.000
 7056.00    0.79621   0.87653   -2.000
 7057.00    0.79282   0.86739   -2.000
 7058.00    0.80392   0.86070   -2.000
 7059.00    0.81531   0.85745   -2.000
 7060.00    0.82708   0.85688   -2.000
 7061.00    0.84377   0.85675   -2.000
 7062.00    0.86592   0.85506   -2.000
 7063.00    0.84122   0.85167   -2.000
 7064.00    0.77070   0.84828   -2.000
 7065.00    0.75597   0.84670   -2.000
 7066.00    0.78935   0.84746   -2.000
 7067.00    0.80793   0.84924   -2.000
 7068.00    0.81526   0.85029   -2.000
 7069.00    0.79801   0.84922   -2.000
 7070.00    0.76436   0.84596   -2.000
 7071.00    0.78965   0.84231   -2.000
 7072.00    0.84940   0.84044   -2.000
 7073.00    0.86949   0.84209   -2.000
 7074.00    0.86938   0.84691   -2.000
 7075.00    0.83828   0.85290   -2.000
 7076.00    0.79349   0.85799   -2.000
 7077.00    0.79618   0.86112   -2.000
 7078.00    0.81688   0.86232   -2.000
 7079.00    0.85455   0.86212   -2.000
 7080.00    0.89770   0.86142   -2.000
 7081.00    0.87412   0.86099   -2.000
 7082.00    0.83257   0.86110   -2.000
 7083.00    0.79658   0.86124   -2.000
 7084.00    0.76183   0.86026   -2.000
 7085.00    0.77608   0.85681   -2.000
 7086.00    0.79895   0.85003   -2.000
 7087.00    0.79665   0.84074   -2.000
 7088.00    0.79097   0.83130   -2.000
 7089.00    0.86970   0.82410   -2.000
 7090.00    0.95645   0.81973   -2.000
 7091.00    0.89098   0.81647   -2.000
 7092.00    0.81658   0.81294   -2.000
 7093.00    0.79328   0.80902   -2.000
 7094.00    0.77147   0.80589   -2.000
 7095.00    0.78237   0.80436   -2.000
 7096.00    0.79162   0.80452   -2.000
 7097.00    0.75965   0.80522   -2.000
 7098.00    0.73419   0.80594   -2.000
 7099.00    0.79504   0.80660   -2.000
 7100.00    0.84548   0.80789   -2.000
 7101.00    0.80366   0.81096   -2.000
 7102.00    0.76804   0.81555   -2.000
 7103.00    0.77290   0.82110   -2.000
 7104.00    0.78205   0.82502   -2.000
 7105.00    0.81310   0.82677   -2.000
 7106.00    0.82799   0.82685   -2.000
 7107.00    0.77638   0.82706   -2.000
 7108.00    0.74146   0.82813   -2.000
 7109.00    0.76340   0.82954   -2.000
 7110.00    0.78857   0.83024   -2.000
 7111.00    0.82298   0.82988   -2.000
 7112.00    0.83456   0.82859   -2.000
 7113.00    0.79013   0.82658   -2.000
 7114.00    0.75818   0.82426   -2.000
 7115.00    0.75265   0.82274   -2.000
 7116.00    0.77310   0.82320   -2.000
 7117.00    0.84130   0.82574   -2.000
 7118.00    0.86304   0.82934   -2.000
 7119.00    0.81013   0.83266   -2.000
 7120.00    0.78871   0.83514   -2.000
 7121.00    0.81166   0.83638   -2.000
 7122.00    0.82585   0.83637   -2.000
 7123.00    0.82917   0.83509   -2.000
 7124.00    0.92511   0.83285   -2.000
 7125.00    1.12230   0.83054   -2.000
 7126.00    1.16739   0.82878   -2.000
 7127.00    1.06577   0.82773   -2.000
 7128.00    0.98129   0.82620   -2.000
 7129.00    0.91136   0.82297   -2.000
 7130.00    0.88104   0.81827   -2.000
 7131.00    0.88037   0.81298   -2.000
 7132.00    0.92609   0.80787   -2.000
 7133.00    1.00233   0.80321   -2.000
 7134.00    0.93776   0.79985   -2.000
 7135.00    0.79208   0.79915   -2.000
 7136.00    0.80746   0.80204   -2.000
 7137.00    0.90366   0.80729   -2.000
 7138.00    0.92439   0.81301   -2.000
 7139.00    0.91234   0.81742   -2.000
 7140.00    0.84640   0.81971   -2.000
 7141.00    0.76039   0.82018   -2.000
 7142.00    0.81924   0.81938   -2.000
 7143.00    0.92385   0.81858   -2.000
 7144.00    0.85032   0.81883   -2.000
 7145.00    0.72982   0.82025   -2.000
 7146.00    0.76928   0.82188   -2.000
 7147.00    0.84321   0.82284   -2.000
 7148.00    0.84477   0.82235   -2.000
 7149.00    0.83396   0.81976   -2.000
 7150.00    0.76634   0.81508   -2.000
 7151.00    0.69135   0.80957   -2.000
 7152.00    0.74649   0.80584   -2.000
 7153.00    0.81343   0.80652   -2.000
 7154.00    0.84610   0.81149   -2.000
 7155.00    0.87688   0.81855   -2.000
 7156.00    0.81223   0.82537   -2.000
 7157.00    0.74633   0.83046   -2.000
 7158.00    0.74844   0.83372   -2.000
 7159.00    0.75673   0.83593   -2.000
 7160.00    0.90552   0.83766   -2.000
 7161.00    1.04913   0.83875   -2.000
 7162.00    1.12753   0.83825   -2.000
 7163.00    1.17928   0.83618   -2.000
 7164.00    1.00357   0.83309   -2.000
 7165.00    0.82467   0.82909   -2.000
 7166.00    0.62556   0.82357   -2.000
 7167.00    0.48918   0.81602   -2.000
 7168.00    0.66422   0.80887   -2.000
 7169.00    0.81372   0.80533   -2.000
 7170.00    0.86035   0.80724   -2.000
 7171.00    0.89089   0.81276   -2.000
 7172.00    0.86765   0.81861   -2.000
 7173.00    0.83965   0.82292   -2.000
 7174.00    0.79823   0.82589   -2.000
 7175.00    0.77255   0.82839   -2.000
 7176.00    0.78482   0.83041   -2.000
 7177.00    0.80966   0.83100   -2.000
 7178.00    0.86072   0.82955   -2.000
 7179.00    0.91372   0.82688   -2.000
 7180.00    0.97025   0.82434   -2.000
 7181.00    0.98709   0.82257   -2.000
 7182.00    0.94111   0.82045   -2.000
 7183.00    0.85987   0.81687   -2.000
 7184.00    0.72965   0.81269   -2.000
 7185.00    0.63026   0.81052   -2.000
 7186.00    0.56857   0.81213   -2.000
 7187.00    0.62192   0.81649   -2.000
 7188.00    0.79929   0.82005   -2.000
 7189.00    0.88628   0.81952   -2.000
 7190.00    0.88734   0.81453   -2.000
 7191.00    0.86612   0.80746   -2.000
 7192.00    0.82621   0.80229   -2.000
 7193.00    0.76595   0.80154   -2.000
 7194.00    0.69066   0.80472   -2.000
 7195.00    0.66405   0.80953   -2.000
 7196.00    0.66900   0.81346   -2.000
 7197.00    0.69859   0.81599   -2.000
 7198.00    0.74215   0.81745   -2.000
 7199.00    0.84033   0.81807   -2.000
 7200.00    0.96547   0.81788   -2.000
 7201.00    0.99694   0.81725   -2.000
 7202.00    0.98840   0.81698   -2.000
 7203.00    0.94354   0.81678   -2.000
 7204.00    0.88541   0.81594   -2.000
 7205.00    0.74291   0.81450   -2.000
 7206.00    0.57428   0.81363   -2.000
 7207.00    0.61359   0.81422   -2.000
 7208.00    0.70657   0.81469   -2.000
 7209.00    0.66547   0.81236   -2.000
 7210.00    0.59615   0.80665   -2.000
 7211.00    0.60156   0.80026   -2.000
 7212.00    0.61937   0.79758   -2.000
 7213.00    0.78363   0.80048   -2.000
 7214.00    0.96618   0.80718   -2.000
 7215.00    0.86911   0.81417   -2.000
 7216.00    0.74783   0.81841   -2.000
 7217.00    0.71799   0.81960   -2.000
 7218.00    0.69279   0.81924   -2.000
