###################################################################
## OUTPUT of StarlightChains_v04.for    [Cid@UFSC - 01/Apr/2007] ##
###################################################################

## Some input info
KUG0210-078._38_39.txt                   [arq_obs]
Base.CB07.vall.4m                        [arq_base]
Masks.EmLines.NEW.gm                     [arq_masks]
StCv04.C11.config                        [arq_config]
   66                                    [N_base]
    0                                    [N_YAV_components = # of components with extra extinction!]
    0                                    [i_FitPowerLaw (1/0 = Yes/No)]
-9.99                                    [alpha_PowerLaw]
CCM                                      [red_law_option]
 1.458241                                [q_norm = A(l_norm)/A(V)]

## (Re)Sampling Parameters
 3741.00                                 [l_ini (A)]
 7218.00                                 [l_fin (A)]
    1.00                                 [dl    (A)]     (OBS: dl_cushion =    50.00 A)

## Normalization info
 4020.00                                 [l_norm (A) - for base]
 4010.00                                 [llow_norm (A) - window for f_obs]
 4060.00                                 [lupp_norm (A) - window for f_obs]
1.789881E-17                             [fobs_norm (in input units)]

## S/N
 3691.00                                 [llow_SN (A) - window for S/N]
 7268.00                                 [lupp_SN (A) - window for S/N]
   4.667                                 [S/N in S/N window]
   4.039                                 [S/N in norm. window]
   0.024                                 [S/N_err in S/N window]
   0.020                                 [S/N_err in norm. window]
  1.0000                                 [fscale_chi2]

## etc...
    -2007664                             [idum_orig]
  2432                                   [NOl_eff]
  2423                                   [Nl_eff]
     9    NSIGMA                         [Ntot_cliped & clip_method]
  1858080                                [Nglobal_steps]
   7                                     [N_chains]
  35                                     [NEX0s_base = N_base in EX0s-fits]
 0   0   1        9   2.0   2.205E+03    [Clip-Bug, RC-Crash & Burn-In warning-flags, n_censored_weights, wei_nsig_threshold & wei_limit]
    50     50.158     49.774      0.384  [idt_all, wdt_TotTime, wdt_UsrTime & wdt_SysTime (sec)]

## Synthesis Results - Best model ##

 8.88019E-06                             [chi2/Nl_eff]
     9.85290                             [adev (%)]

   114.25550                             [sum-of-x (%)]
 7.87867E-18                             [Flux_tot (units of input spectrum!)]
 6.95514E-13                             [Mini_tot (???)]
 3.54074E-13                             [Mcor_tot (???)]

 -20.02                                  [v0_min  (km/s)]
 293.74                                  [vd_min  (km/s)]
-0.7102                                  [AV_min  (mag)]
 0.0000                                  [YAV_min (mag)]

# j     x_j(%)      Mini_j(%)     Mcor_j(%)     age_j(yr)     Z_j      (L/M)_j    YAV?  Mstars   component_j        a/Fe...       SSP_chi2r SSP_adev(%)   SSP_AV   SSP_x(%)
  1      0.0000     0.0000E+00    0.0000E+00    1.000000E+06  0.00400  1.094E-02    0   1.0000   age020_m42            0.0000     2.9804E-05    19.4200   3.5048    93.0027
  2      0.0000     0.0000E+00    0.0000E+00    3.160000E+06  0.00400  4.007E-02    0   0.9999   age045_m42            0.0000     2.4573E-05    17.7637   2.7584   100.2153
  3      0.0000     0.0000E+00    0.0000E+00    5.010000E+06  0.00400  2.539E-02    0   0.9488   age055_m42            0.0000     2.6966E-05    18.5602   3.0883    97.3858
  4      0.0000     0.0000E+00    0.0000E+00    6.610000E+06  0.00400  2.620E-02    0   0.9220   age061_m42            0.0000     2.4609E-05    17.7796   2.6867   100.3925
  5      0.0000     0.0000E+00    0.0000E+00    1.000000E+07  0.00400  1.322E-02    0   0.8862   age070_m42            0.0000     2.8049E-05    19.5521   2.4332   101.5150
  6      0.0000     0.0000E+00    0.0000E+00    1.445000E+07  0.00400  7.883E-03    0   0.8571   age078_m42            0.0000     2.9098E-05    19.7900   2.7612    98.8644
  7      0.0000     0.0000E+00    0.0000E+00    2.512000E+07  0.00400  5.251E-03    0   0.8174   age090_m42            0.0000     2.8434E-05    19.7873   2.3053   102.0216
  8      0.0000     0.0000E+00    0.0000E+00    4.000000E+07  0.00400  3.649E-03    0   0.7851   age104_m42            0.0000     2.7045E-05    19.3044   2.0724   103.1282
  9      0.0000     0.0000E+00    0.0000E+00    5.500000E+07  0.00400  3.098E-03    0   0.7629   age110_m42            0.0000     2.4732E-05    18.1216   2.2085   103.7698
 10      0.0000     0.0000E+00    0.0000E+00    1.015200E+08  0.00400  2.228E-03    0   0.7207   age116_m42            0.0000     2.3183E-05    17.3018   2.2181   104.3763
 11      0.0000     0.0000E+00    0.0000E+00    2.861200E+08  0.00400  1.093E-03    0   0.6648   age125_m42            0.0000     2.2978E-05    17.3709   1.6481   107.4560
 12      0.0000     0.0000E+00    0.0000E+00    5.088000E+08  0.00400  6.597E-04    0   0.6365   age130_m42            0.0000     2.0370E-05    16.0684   1.6201   109.1060
 13      0.0000     0.0000E+00    0.0000E+00    1.434000E+09  0.00400  2.132E-04    0   0.5798   age139_m42            0.0000     1.6898E-05    15.1326   0.6399   111.8142
 14      2.1230     3.5705E-01    3.7713E-01    4.250000E+09  0.00400  5.895E-05    0   0.5377   age158_m42            0.0000     1.5368E-05    14.5407   0.1868   108.0089
 15      0.0000     0.0000E+00    0.0000E+00    7.500000E+09  0.00400  3.510E-05    0   0.5212   age171_m42            0.0000     1.4443E-05    13.9830  -0.0120   107.6877
 16      1.8360     9.0787E-01    8.9774E-01    1.300000E+10  0.00400  2.005E-05    0   0.5034   age193_m42            0.0000     1.3825E-05    13.5106  -0.1846   107.3711
 17      0.0000     0.0000E+00    0.0000E+00    1.800000E+10  0.00400  1.525E-05    0   0.4967   age213_m42            0.0000     1.4146E-05    13.7179  -0.2057   106.8204
 18      0.0000     0.0000E+00    0.0000E+00    1.000000E+06  0.00800  1.238E-02    0   1.0000   age020_m52            0.0000     2.9795E-05    19.4249   3.5012    93.1886
 19      0.0000     0.0000E+00    0.0000E+00    3.160000E+06  0.00800  3.074E-02    0   0.9966   age045_m52            0.0000     2.9306E-05    19.2612   3.4213    94.1432
 20      0.0000     0.0000E+00    0.0000E+00    5.010000E+06  0.00800  2.668E-02    0   0.9443   age055_m52            0.0000     2.7743E-05    18.8523   3.1752    96.3688
 21      0.0000     0.0000E+00    0.0000E+00    6.610000E+06  0.00800  2.136E-02    0   0.9177   age061_m52            0.0000     2.7026E-05    19.4771   1.9335   102.7390
 22      0.0000     0.0000E+00    0.0000E+00    1.000000E+07  0.00800  1.215E-02    0   0.8827   age070_m52            0.0000     2.9959E-05    20.3317   2.6187   100.9925
 23      0.0000     0.0000E+00    0.0000E+00    1.445000E+07  0.00800  8.717E-03    0   0.8552   age078_m52            0.0000     2.8695E-05    19.7365   2.7265   100.2700
 24      0.0000     0.0000E+00    0.0000E+00    2.512000E+07  0.00800  5.592E-03    0   0.8162   age090_m52            0.0000     2.8332E-05    19.8247   2.3679   103.2637
 25      0.0000     0.0000E+00    0.0000E+00    4.000000E+07  0.00800  3.896E-03    0   0.7841   age104_m52            0.0000     2.6487E-05    19.0727   2.2697   104.4658
 26      0.5666     2.6150E-03    3.7118E-03    1.015200E+08  0.00800  2.148E-03    0   0.7226   age116_m52            0.0000     2.3811E-05    17.8134   2.1915   104.9671
 27      0.0000     0.0000E+00    0.0000E+00    2.861200E+08  0.00800  9.925E-04    0   0.6683   age125_m52            0.0000     2.0273E-05    16.0759   1.6845   110.1559
 28      0.0000     0.0000E+00    0.0000E+00    9.047900E+08  0.00800  3.141E-04    0   0.6138   age135_m52            0.0000     1.5142E-05    14.0882   0.8576   115.9922
 29      0.0000     0.0000E+00    0.0000E+00    1.434000E+09  0.00800  1.719E-04    0   0.5853   age139_m52            0.0000     1.4888E-05    14.3352   0.2789   113.5562
 30      7.7688     9.7845E-01    1.0763E+00    2.500000E+09  0.00800  7.872E-05    0   0.5600   age150_m52            0.0000     1.2974E-05    13.1943  -0.0057   111.2640
 31      0.0000     0.0000E+00    0.0000E+00    4.250000E+09  0.00800  4.336E-05    0   0.5426   age158_m52            0.0000     1.3139E-05    13.2655  -0.0207   110.2079
 32      5.0060     1.5711E+00    1.6415E+00    6.250000E+09  0.00800  3.159E-05    0   0.5319   age166_m52            0.0000     1.1769E-05    12.2753  -0.2421   110.9645
 33      0.0000     0.0000E+00    0.0000E+00    1.300000E+10  0.00800  1.361E-05    0   0.5073   age193_m52            0.0000     1.0411E-05    11.1304  -0.7307   111.0898
 34      0.0000     0.0000E+00    0.0000E+00    1.800000E+10  0.00800  9.886E-06    0   0.4990   age213_m52            0.0000     9.4971E-06    10.2128  -0.8596   111.3589
 35      0.0000     0.0000E+00    0.0000E+00    1.000000E+06  0.02000  1.544E-02    0   1.0000   age020_m62            0.0000     2.9950E-05    19.4651   3.4966    93.4171
 36      0.0000     0.0000E+00    0.0000E+00    3.160000E+06  0.02000  3.762E-02    0   0.9858   age045_m62            0.0000     2.9813E-05    19.3995   3.4354    94.2603
 37      0.0000     0.0000E+00    0.0000E+00    5.010000E+06  0.02000  3.296E-02    0   0.9342   age055_m62            0.0000     2.5637E-05    18.0300   3.0415    98.8708
 38      0.0000     0.0000E+00    0.0000E+00    8.710000E+06  0.02000  1.154E-02    0   0.8861   age067_m62            0.0000     4.0992E-05    24.7861   2.1212   101.7826
 39      0.0000     0.0000E+00    0.0000E+00    1.445000E+07  0.02000  7.663E-03    0   0.8472   age078_m62            0.0000     3.2318E-05    21.4757   2.2779   102.7593
 40      0.0000     0.0000E+00    0.0000E+00    2.512000E+07  0.02000  4.532E-03    0   0.8099   age090_m62            0.0000     3.2615E-05    21.5625   2.2706   102.4476
 41      0.0000     0.0000E+00    0.0000E+00    5.500000E+07  0.02000  2.733E-03    0   0.7595   age110_m62            0.0000     2.6752E-05    19.1579   2.2550   103.6312
 42      0.0000     0.0000E+00    0.0000E+00    1.609000E+08  0.02000  1.369E-03    0   0.6985   age120_m62            0.0000     2.2519E-05    17.0599   2.0642   107.6908
 43      4.4040     4.8445E-02    6.3892E-02    2.861200E+08  0.02000  9.013E-04    0   0.6714   age125_m62            0.0000     2.0041E-05    15.8085   1.7960   111.5825
 44      0.0000     0.0000E+00    0.0000E+00    5.088000E+08  0.02000  5.028E-04    0   0.6449   age130_m62            0.0000     1.6074E-05    13.9170   1.3895   115.7633
 45      0.0000     0.0000E+00    0.0000E+00    9.047900E+08  0.02000  2.428E-04    0   0.6179   age135_m62            0.0000     1.3585E-05    13.3432   0.7924   115.5776
 46      0.0000     0.0000E+00    0.0000E+00    1.434000E+09  0.02000  1.263E-04    0   0.5908   age139_m62            0.0000     1.3034E-05    13.2882   0.3452   114.0446
 47      0.0000     0.0000E+00    0.0000E+00    2.500000E+09  0.02000  5.985E-05    0   0.5673   age150_m62            0.0000     1.1691E-05    12.2824  -0.0396   113.2512
 48      0.0000     0.0000E+00    0.0000E+00    4.250000E+09  0.02000  3.271E-05    0   0.5468   age158_m62            0.0000     1.0085E-05    10.9115  -0.3707   113.3616
 49     23.3302     1.7008E+01    1.7262E+01    1.000000E+10  0.02000  1.360E-05    0   0.5167   age181_m62            0.0000     8.7162E-06     9.5213  -0.7542   114.3192
 50     13.9330     1.9391E+01    1.9094E+01    1.800000E+10  0.02000  7.124E-06    0   0.5013   age213_m62            0.0000     8.1615E-06     8.8202  -0.9926   114.5364
 51      0.0000     0.0000E+00    0.0000E+00    1.000000E+06  0.05000  2.592E-02    0   0.9998   age020_m72            0.0000     3.0571E-05    19.7044   3.4916    93.3340
 52      0.0000     0.0000E+00    0.0000E+00    3.160000E+06  0.05000  4.845E-02    0   0.9577   age045_m72            0.0000     2.7981E-05    18.7540   3.3089    95.8689
 53      0.0000     0.0000E+00    0.0000E+00    5.010000E+06  0.05000  3.072E-02    0   0.9147   age055_m72            0.0000     3.1280E-05    20.5604   2.8493    99.2214
 54      0.0000     0.0000E+00    0.0000E+00    6.610000E+06  0.05000  1.455E-02    0   0.8877   age061_m72            0.0000     4.8266E-05    26.7558   2.1610   102.1896
 55      0.0000     0.0000E+00    0.0000E+00    1.000000E+07  0.05000  9.074E-03    0   0.8524   age070_m72            0.0000     3.2365E-05    20.5765   3.0170    99.1028
 56      0.0000     0.0000E+00    0.0000E+00    2.512000E+07  0.05000  4.250E-03    0   0.7902   age090_m72            0.0000     2.9785E-05    19.9678   2.7183   101.2440
 57      0.0000     0.0000E+00    0.0000E+00    4.000000E+07  0.05000  3.087E-03    0   0.7618   age104_m72            0.0000     2.9495E-05    19.9422   2.4908   102.9710
 58      0.0000     0.0000E+00    0.0000E+00    1.015200E+08  0.05000  1.700E-03    0   0.7096   age116_m72            0.0000     2.4303E-05    17.8613   2.2144   106.8695
 59      0.0000     0.0000E+00    0.0000E+00    2.861200E+08  0.05000  7.384E-04    0   0.6633   age125_m72            0.0000     1.7773E-05    14.8097   1.6475   113.8229
 60      0.0000     0.0000E+00    0.0000E+00    5.088000E+08  0.05000  3.819E-04    0   0.6372   age130_m72            0.0000     1.4209E-05    13.4572   1.1346   116.6329
 61      0.0000     0.0000E+00    0.0000E+00    9.047900E+08  0.05000  1.676E-04    0   0.6110   age135_m72            0.0000     1.1558E-05    12.1893   0.4141   115.6365
 62      0.0000     0.0000E+00    0.0000E+00    1.434000E+09  0.05000  8.837E-05    0   0.5874   age139_m72            0.0000     1.1254E-05    12.0189  -0.0495   115.3165
 63     18.9641     4.4417E+00    4.8843E+00    2.500000E+09  0.05000  4.233E-05    0   0.5598   age150_m72            0.0000     9.6228E-06    10.4872  -0.3836   114.8519
 64      0.0000     0.0000E+00    0.0000E+00    6.250000E+09  0.05000  1.435E-05    0   0.5249   age166_m72            0.0000     8.5229E-06     9.3677  -0.8610   114.2611
 65     36.3239     5.5294E+01    5.4699E+01    1.300000E+10  0.05000  6.513E-06    0   0.5036   age193_m72            0.0000     9.0418E-06     9.8839  -1.0000   110.8793
 66      0.0000     0.0000E+00    0.0000E+00    1.800000E+10  0.05000  4.527E-06    0   0.4945   age213_m72            0.0000     1.1735E-05    11.6475  -1.0000   105.2959


## Synthesis Results - Average & Chains ##

# j      x_j: min, <> & last-chain-values for 1 ...  7 chains
  1      0.0000      1.9330      4.5529      1.0879      0.0000      0.0000      1.6678      0.0000      0.0084
  2      0.0000      4.3244      3.0563     31.5786     20.6030     17.5178      0.0000      0.0000     22.8692
  3      0.0000      1.8731      0.5250      0.2514      0.0000      0.0000      7.1098      7.8035      0.0000
  4      0.0000      3.2547      2.6500     29.4266     14.7171      3.0662      5.2255      6.0986     17.0897
  5      0.0000      2.3194      0.1505      0.0796      0.0000      0.0000      7.7880      0.8787      0.0000
  6      0.0000      1.8536      2.1259      0.0992      0.0000      0.0000      1.1876      0.0000      0.0000
  7      0.0000      1.5749      1.1242      0.0086      0.0000      0.0000      6.3566      2.3147      0.0086
  8      0.0000      1.5506      0.0000      0.0000      0.0000      0.0114      0.0000      0.0000      0.0000
  9      0.0000      2.1440      1.6138      7.7496     14.7008     18.0870      0.0000      5.8227     11.5223
 10      0.0000      4.1774      0.0000     32.3062     29.5576     30.5532      9.0041      1.8377     28.1070
 11      0.0000      1.7765      2.2042      0.2112      0.0000      0.0000      1.6661      7.6192      0.0000
 12      0.0000      1.1478      1.1728      0.3288      0.0000      0.0000      9.0019      0.2155      0.0000
 13      0.0000      2.1054      5.1707      0.2600      0.0000      0.0000      1.3491      0.3157      0.0000
 14      2.1230      1.5036      0.8140      0.0477      0.0000      0.0000      0.0000      4.7116      0.0000
 15      0.0000      2.2027      1.6523      0.0000      0.0000      0.0000      0.0000      0.0000      0.0000
 16      1.8360      2.1501      0.6733      0.4797      0.0000      0.0000      0.3375      4.8410      0.0000
 17      0.0000      1.3994      0.0000      0.0000      0.0000      1.6192      2.9331      4.2251      0.0000
 18      0.0000      1.6342      1.6980      0.0481      0.0000      0.0000      0.0000      0.0000      0.0000
 19      0.0000      2.2159      0.0000      0.5755      0.0000      0.0000      0.0000      1.1972      0.0000
 20      0.0000      1.8749      9.7190      0.3029      0.0000      0.0024      0.9590      0.0000      0.0000
 21      0.0000      1.9540      2.7832      0.0677      0.0000      0.0000      1.5675      0.0000      0.0000
 22      0.0000      1.7897      0.8553      0.3243      0.0000      0.0000      3.0475      0.0000      0.0000
 23      0.0000      1.8271      1.9097      0.7554      0.0000      2.9542      0.7661      1.6384      0.0000
 24      0.0000      2.0212      0.0000      0.1259      0.0000      0.6715      7.8799      4.6209      0.0000
 25      0.0000      1.7501      0.6395      0.0317      0.0000      0.0000      0.0394      2.4909      0.0000
 26      0.5666      2.0693      0.8568      4.1046      6.8324      2.4683      0.0000      3.9963      5.5861
 27      0.0000      2.2176      0.0000      0.1843      0.0000      0.0000      2.7625      0.0000      0.0000
 28      0.0000      1.8481      1.6557      0.2604      0.0000      0.0000      1.8516      0.4434      0.0000
 29      0.0000      1.5411      9.8597      0.2975      0.0000      0.0000      2.3749      0.0000      0.0000
 30      7.7688      1.8656      0.7155      0.4561      0.0000      0.0000      0.9948      3.6886      0.0000
 31      0.0000      1.6169      2.6601      0.0000      0.0000      0.0000      8.4362      1.7039      0.0000
 32      5.0060      1.4235      0.0000      0.0000      0.0000      0.0000      0.3700      3.2745      0.0000
 33      0.0000      1.6633      0.7721      0.2682      0.0000      0.0000      0.0000      1.0121      0.0000
 34      0.0000      1.3025      0.0000      0.2674      0.0000      0.0000      0.0000      0.0000      0.0000
 35      0.0000      1.8473      4.5824      0.0590      0.0035      0.0062      0.2050      2.6340      0.0000
 36      0.0000      1.4419      7.6263      0.2998      0.0000      0.0000      0.0852      0.5934      0.0000
 37      0.0000      1.7733      0.0893      0.1174      0.0000      0.0020      3.3250      0.0000      0.0000
 38      0.0000      1.7094      1.2455      0.0788      0.0000      0.0000      0.0000      0.3623      0.0000
 39      0.0000      1.5909      0.8840      0.2827      0.0000      0.0000      0.9116      1.1770      0.0000
 40      0.0000      1.6687      6.5901      0.0000      0.0000      0.0000      3.3441      0.0000      0.0000
 41      0.0000      2.0522      0.0000      0.1453      0.0000      0.0000      7.3604      0.0000      0.0068
 42      0.0000      1.4430      2.3249      0.0000      0.0000      6.5953      1.3502      0.8618      0.0307
 43      4.4040      2.2837      4.2061      0.2732      0.0000      5.4135      0.0000      1.0536      0.0000
 44      0.0000      2.1785      2.0385      0.4369      0.0000      0.0000      0.0000      0.0000      0.0000
 45      0.0000      1.5231      1.9319      0.0000      0.0005      0.0000      1.1195      0.0000      0.0000
 46      0.0000      1.4558      0.0000      0.1077      0.0000      0.0000      0.0000      0.1233      0.0000
 47      0.0000      2.1553      0.0000      0.2958      0.0000      0.0000      0.0000      0.0000      0.0000
 48      0.0000      1.5900      0.0000      0.1644      0.0000      0.0000      1.2269      0.0000      0.0000
 49     23.3302      1.7185      4.8409      0.2469      0.0000      0.0000      4.1834      2.0684      0.0000
 50     13.9330      1.1784      3.5834      0.3086      0.0000      0.0000      0.0000      0.8635      0.0000
 51      0.0000      1.5690      0.0000      0.1873      0.0000      0.0000      0.0000      2.7688      0.0000
 52      0.0000      1.6427      0.7102      0.0000      0.0000      0.0000      1.2437      0.0000      0.0000
 53      0.0000      1.9138      0.4659      0.0000      0.0000      0.0000      0.0000      0.7111      0.0000
 54      0.0000      1.8864      3.2760      0.4660      0.0000      1.9840      0.0000      0.0983      0.0000
 55      0.0000      2.0164      1.3986      0.1408      0.0000      3.5857      0.0000     15.6087      0.0000
 56      0.0000      1.8374      0.0000      0.3002      0.0000      0.0000      4.9905      0.0000      0.0377
 57      0.0000      1.2922      0.6450      0.2434      0.0000      0.0000      0.2536      1.4724      0.0000
 58      0.0000      2.1185      0.0000      0.0000      0.0000      0.1310      9.2629      0.0000      0.0000
 59      0.0000      2.0803      5.3921      0.0000      0.0000      0.0000      0.0000      0.3179      0.0000
 60      0.0000      4.5969      2.3544     11.5986     42.9013     34.4075      0.5077      1.6304     44.7335
 61      0.0000      1.7058      1.1080      0.2573      0.6838      0.0000      0.5112      5.1463      0.0000
 62      0.0000      1.7779      0.6799      0.2550      0.0000      0.0000      0.8078      6.0603      0.0000
 63     18.9641      1.8116      1.3396      0.6195      0.0000      0.0000      0.0000      5.4371      0.0000
 64      0.0000      2.5316      2.3690      0.3829      0.0000      0.0000      0.0000      0.0000      0.0000
 65     36.3239      1.6134      1.9118      0.0526      0.0000      0.0000      0.0000      0.5660      0.0000
 66      0.0000      1.4067      2.2674      0.4750      0.0000      0.0000      0.0000      0.0000      0.0000

# j      m_j: min, <> & last-chain-values for 1 ...  7 chains
  1  0.0000E+00  1.7815E-02  3.6521E-02  5.0694E-02  0.0000E+00  0.0000E+00  3.3482E-02  0.0000E+00  8.5364E-04
  2  0.0000E+00  1.0880E-02  6.6928E-03  4.0171E-01  5.6755E-01  3.2583E-01  0.0000E+00  0.0000E+00  6.3659E-01
  3  0.0000E+00  7.0572E-03  1.7215E-03  4.7889E-03  0.0000E+00  0.0000E+00  5.8351E-02  3.7580E-02  0.0000E+00
  4  0.0000E+00  1.1548E-02  8.1835E-03  5.2790E-01  5.7173E-01  8.0428E-02  4.0386E-02  2.7658E-02  6.7087E-01
  5  0.0000E+00  1.5676E-02  8.8510E-04  2.7205E-03  0.0000E+00  0.0000E+00  1.1466E-01  7.5907E-03  0.0000E+00
  6  0.0000E+00  2.0320E-02  2.0284E-02  5.4975E-03  0.0000E+00  0.0000E+00  2.8360E-02  0.0000E+00  0.0000E+00
  7  0.0000E+00  2.4719E-02  1.5357E-02  6.7901E-04  0.0000E+00  0.0000E+00  2.1732E-01  4.6434E-02  1.4970E-03
  8  0.0000E+00  3.3636E-02  0.0000E+00  0.0000E+00  0.0000E+00  1.8300E-03  0.0000E+00  0.0000E+00  0.0000E+00
  9  0.0000E+00  5.3232E-02  3.4875E-02  9.7285E-01  3.9963E+00  3.3199E+00  0.0000E+00  1.8478E-01  3.1652E+00
 10  0.0000E+00  1.3624E-01  0.0000E+00  5.3273E+00  1.0555E+01  7.3667E+00  6.3967E-01  7.6606E-02  1.0142E+01
 11  0.0000E+00  1.0894E-01  1.1765E-01  6.5499E-02  0.0000E+00  0.0000E+00  2.2256E-01  5.9722E-01  0.0000E+00
 12  0.0000E+00  1.1166E-01  9.9302E-02  1.6171E-01  0.0000E+00  0.0000E+00  1.9075E+00  2.6801E-02  0.0000E+00
 13  0.0000E+00  5.7729E-01  1.2340E+00  3.6047E-01  0.0000E+00  0.0000E+00  8.0580E-01  1.1065E-01  0.0000E+00
 14  3.7713E-01  1.3827E+00  6.5154E-01  2.2189E-01  0.0000E+00  0.0000E+00  0.0000E+00  5.5384E+00  0.0000E+00
 15  0.0000E+00  3.2977E+00  2.1531E+00  0.0000E+00  0.0000E+00  0.0000E+00  0.0000E+00  0.0000E+00  0.0000E+00
 16  8.9774E-01  5.4427E+00  1.4834E+00  6.1392E+00  0.0000E+00  0.0000E+00  1.8613E+00  1.5663E+01  0.0000E+00
 17  0.0000E+00  4.5954E+00  0.0000E+00  0.0000E+00  0.0000E+00  3.9309E+01  2.0981E+01  1.7734E+01  0.0000E+00
 18  0.0000E+00  1.3309E-02  1.2036E-02  1.9812E-03  0.0000E+00  0.0000E+00  0.0000E+00  0.0000E+00  0.0000E+00
 19  0.0000E+00  7.2432E-03  0.0000E+00  9.5110E-03  0.0000E+00  0.0000E+00  0.0000E+00  5.0020E-03  0.0000E+00
 20  0.0000E+00  6.6907E-03  3.0186E-02  5.4647E-03  0.0000E+00  6.2405E-05  7.4548E-03  0.0000E+00  0.0000E+00
 21  0.0000E+00  8.4643E-03  1.0493E-02  1.4837E-03  0.0000E+00  0.0000E+00  1.4790E-02  0.0000E+00  0.0000E+00
 22  0.0000E+00  1.3110E-02  5.4526E-03  1.2009E-02  0.0000E+00  0.0000E+00  4.8625E-02  0.0000E+00  0.0000E+00
 23  0.0000E+00  1.8073E-02  1.6441E-02  3.7782E-02  0.0000E+00  2.1603E-01  1.6506E-02  2.0714E-02  0.0000E+00
 24  0.0000E+00  2.9744E-02  0.0000E+00  9.3676E-03  0.0000E+00  7.3056E-02  2.5260E-01  8.6917E-02  0.0000E+00
 25  0.0000E+00  3.5513E-02  1.1294E-02  3.2488E-03  0.0000E+00  0.0000E+00  1.7403E-03  6.4604E-02  0.0000E+00
 26  3.7118E-03  7.0187E-02  2.5292E-02  7.0390E-01  2.5373E+00  6.1893E-01  0.0000E+00  1.7325E-01  2.0963E+00
 27  0.0000E+00  1.5055E-01  0.0000E+00  6.3271E-02  0.0000E+00  0.0000E+00  4.0853E-01  0.0000E+00  0.0000E+00
 28  0.0000E+00  3.6412E-01  2.8392E-01  2.5940E-01  0.0000E+00  0.0000E+00  7.9465E-01  1.1165E-01  0.0000E+00
 29  0.0000E+00  5.2905E-01  2.9460E+00  5.1631E-01  0.0000E+00  0.0000E+00  1.7759E+00  0.0000E+00  0.0000E+00
 30  1.0763E+00  1.3381E+00  4.4667E-01  1.6542E+00  0.0000E+00  0.0000E+00  1.5543E+00  3.3816E+00  0.0000E+00
 31  0.0000E+00  2.0400E+00  2.9211E+00  0.0000E+00  0.0000E+00  0.0000E+00  2.3185E+01  2.7478E+00  0.0000E+00
 32  1.6415E+00  2.4167E+00  0.0000E+00  0.0000E+00  0.0000E+00  0.0000E+00  1.3681E+00  7.1053E+00  0.0000E+00
 33  0.0000E+00  6.2509E+00  2.5253E+00  5.0962E+00  0.0000E+00  0.0000E+00  0.0000E+00  4.8618E+00  0.0000E+00
 34  0.0000E+00  6.6286E+00  0.0000E+00  6.8797E+00  0.0000E+00  0.0000E+00  0.0000E+00  0.0000E+00  0.0000E+00
 35  0.0000E+00  1.2063E-02  2.6044E-02  1.9467E-03  2.5031E-04  2.9933E-04  2.9167E-03  2.1985E-02  0.0000E+00
 36  0.0000E+00  3.8096E-03  1.7537E-02  4.0053E-03  0.0000E+00  0.0000E+00  4.9038E-04  2.0040E-03  0.0000E+00
 37  0.0000E+00  5.0676E-03  2.2203E-04  1.6959E-03  0.0000E+00  4.1686E-05  2.0697E-02  0.0000E+00  0.0000E+00
 38  0.0000E+00  1.3234E-02  8.3927E-03  3.0852E-03  0.0000E+00  0.0000E+00  0.0000E+00  3.5848E-03  0.0000E+00
 39  0.0000E+00  1.7733E-02  8.5767E-03  1.5933E-02  0.0000E+00  0.0000E+00  2.2135E-02  1.6770E-02  0.0000E+00
 40  0.0000E+00  3.0066E-02  1.0335E-01  0.0000E+00  0.0000E+00  0.0000E+00  1.3125E-01  0.0000E+00  0.0000E+00
 41  0.0000E+00  5.7500E-02  0.0000E+00  2.0580E-02  0.0000E+00  0.0000E+00  4.4923E-01  0.0000E+00  2.1081E-03
 42  0.0000E+00  7.4233E-02  1.0410E-01  0.0000E+00  0.0000E+00  2.5083E+00  1.5130E-01  5.6668E-02  1.7468E-02
 43  6.3892E-02  1.7152E-01  2.7495E-01  1.0375E-01  0.0000E+00  3.0058E+00  0.0000E+00  1.0114E-01  0.0000E+00
 44  0.0000E+00  2.8172E-01  2.2944E-01  2.8564E-01  0.0000E+00  0.0000E+00  0.0000E+00  0.0000E+00  0.0000E+00
 45  0.0000E+00  3.9081E-01  4.3143E-01  0.0000E+00  1.3273E-03  0.0000E+00  6.2569E-01  0.0000E+00  0.0000E+00
 46  0.0000E+00  6.8660E-01  0.0000E+00  2.5678E-01  0.0000E+00  0.0000E+00  0.0000E+00  7.4305E-02  0.0000E+00
 47  0.0000E+00  2.0598E+00  0.0000E+00  1.4293E+00  0.0000E+00  0.0000E+00  0.0000E+00  0.0000E+00  0.0000E+00
 48  0.0000E+00  2.6799E+00  0.0000E+00  1.4012E+00  0.0000E+00  0.0000E+00  4.5044E+00  0.0000E+00  0.0000E+00
 49  1.7262E+01  6.5827E+00  1.6140E+01  4.7826E+00  0.0000E+00  0.0000E+00  3.4906E+01  1.0127E+01  0.0000E+00
 50  1.9094E+01  8.3608E+00  2.2127E+01  1.1069E+01  0.0000E+00  0.0000E+00  0.0000E+00  7.8307E+00  0.0000E+00
 51  0.0000E+00  6.1021E-03  0.0000E+00  3.6822E-03  0.0000E+00  0.0000E+00  0.0000E+00  1.3763E-02  0.0000E+00
 52  0.0000E+00  3.2739E-03  1.2319E-03  0.0000E+00  0.0000E+00  0.0000E+00  5.3992E-03  0.0000E+00  0.0000E+00
 53  0.0000E+00  5.7455E-03  1.2175E-03  0.0000E+00  0.0000E+00  0.0000E+00  0.0000E+00  2.7285E-03  0.0000E+00
 54  0.0000E+00  1.1604E-02  1.7540E-02  1.4492E-02  0.0000E+00  9.0226E-02  0.0000E+00  7.7253E-04  0.0000E+00
 55  0.0000E+00  1.9098E-02  1.1529E-02  6.7444E-03  0.0000E+00  2.5107E-01  0.0000E+00  1.8896E-01  0.0000E+00
 56  0.0000E+00  3.4445E-02  0.0000E+00  2.8454E-02  0.0000E+00  0.0000E+00  2.0378E-01  0.0000E+00  7.8132E-03
 57  0.0000E+00  3.2151E-02  1.3967E-02  3.0623E-02  0.0000E+00  0.0000E+00  1.3744E-02  4.6826E-02  0.0000E+00
 58  0.0000E+00  8.9160E-02  0.0000E+00  0.0000E+00  0.0000E+00  4.0764E-02  8.4916E-01  0.0000E+00  0.0000E+00
 59  0.0000E+00  1.8841E-01  4.2505E-01  0.0000E+00  0.0000E+00  0.0000E+00  0.0000E+00  3.6799E-02  0.0000E+00
 60  0.0000E+00  7.7332E-01  3.4473E-01  9.8654E+00  7.9019E+01  4.2791E+01  1.8605E-01  3.5058E-01  8.3259E+01
 61  0.0000E+00  6.2699E-01  3.5446E-01  4.7813E-01  2.7519E+00  0.0000E+00  4.0931E-01  2.4178E+00  0.0000E+00
 62  0.0000E+00  1.1915E+00  3.9659E-01  8.6403E-01  0.0000E+00  0.0000E+00  1.1792E+00  5.1914E+00  0.0000E+00
 63  4.8843E+00  2.4155E+00  1.5546E+00  4.1768E+00  0.0000E+00  0.0000E+00  0.0000E+00  9.2663E+00  0.0000E+00
 64  0.0000E+00  9.3365E+00  7.6042E+00  7.1391E+00  0.0000E+00  0.0000E+00  0.0000E+00  0.0000E+00  0.0000E+00
 65  5.4699E+01  1.2578E+01  1.2972E+01  2.0723E+00  0.0000E+00  0.0000E+00  0.0000E+00  5.6398E+00  0.0000E+00
 66  0.0000E+00  1.5493E+01  2.1734E+01  2.6448E+01  0.0000E+00  0.0000E+00  0.0000E+00  0.0000E+00  0.0000E+00

# AV, chi2 & Mass for <> & i_chain = 1 ...  7 solutions
AV      -0.7102      1.6191      0.7906      1.6337      1.4859      1.4952      1.3930      0.8847      1.4966
chi2 8.8802E-06  1.2831E-04  3.2313E-05  3.9620E-05  3.2552E-05  3.2696E-05  3.7782E-05  2.8562E-05  3.2550E-05
Mass 3.5407E-13  1.5619E-12  5.8980E-13  3.1504E-13  1.1929E-13  1.7888E-13  5.2925E-13  4.5574E-13  1.1976E-13
 -20.02                                  [v0_min (km/s) before EX0s...]
 293.74                                  [vd_min (km/s) before EX0s...]


## Synthetic spectrum (Best Model) ##l_obs f_obs f_syn wei
 3478    [Nl_obs]
 3741.00    0.62393   0.48917    0.000
 3742.00    0.67584   0.48661    0.000
 3743.00    0.64138   0.47601    0.000
 3744.00    0.54797   0.46334    0.000
 3745.00    0.42021   0.45135    0.039
 3746.00    0.40269   0.44001    0.039
 3747.00    0.44116   0.43609    0.039
 3748.00    0.36329   0.44242    0.039
 3749.00    0.23425   0.45500    0.040
 3750.00    0.33037   0.47432    0.040
 3751.00    0.51149   0.50004    0.039
 3752.00    0.54277   0.52576    0.039
 3753.00    0.52604   0.54750    0.038
 3754.00    0.47623   0.56394    0.037
 3755.00    0.41757   0.57284    0.036
 3756.00    0.48318   0.57488    0.036
 3757.00    0.57606   0.57139    0.036
 3758.00    0.52030   0.56355    0.036
 3759.00    0.43859   0.55643    0.036
 3760.00    0.40314   0.55104    0.042
 3761.00    0.37383   0.54557    0.053
 3762.00    0.39072   0.54461    0.043
 3763.00    0.41195   0.54740    0.035
 3764.00    0.46234   0.54919    0.034
 3765.00    0.51441   0.55536    0.034
 3766.00    0.52764   0.56665    0.034
 3767.00    0.54004   0.57666    0.034
 3768.00    0.56380   0.58947    0.034
 3769.00    0.58386   0.60787    0.034
 3770.00    0.51403   0.62514    0.033
 3771.00    0.44806   0.64128    0.033
 3772.00    0.43274   0.65920    0.033
 3773.00    0.43315   0.67580    0.033
 3774.00    0.57173   0.69002    0.033
 3775.00    0.69806   0.70299    0.033
 3776.00    0.74502   0.71500    0.033
 3777.00    0.77107   0.72642    0.034
 3778.00    0.69133   0.73570    0.034
 3779.00    0.61301   0.74210    0.034
 3780.00    0.54053   0.74590    0.034
 3781.00    0.47595   0.74537    0.034
 3782.00    0.43819   0.73895    0.034
 3783.00    0.39122   0.72596    0.035
 3784.00    0.31787   0.70833    0.035
 3785.00    0.25346   0.68796    0.034
 3786.00    0.21092   0.66359    0.035
 3787.00    0.20382   0.63866    0.035
 3788.00    0.27144   0.61765    0.035
 3789.00    0.29860   0.59798    0.034
 3790.00    0.25168   0.57951    0.034
 3791.00    0.21477   0.56540    0.034
 3792.00    0.19390   0.55309    0.034
 3793.00    0.21050   0.54122    0.034
 3794.00    0.27972   0.53254    0.033
 3795.00    0.30791   0.52638    0.033
 3796.00    0.28540   0.52352    0.033
 3797.00    0.23109   0.52695    0.033
 3798.00    0.14215   0.53524    0.032
 3799.00    0.09682   0.54789    0.032
 3800.00    0.09340   0.56604    0.033
 3801.00    0.08450   0.58611    0.033
 3802.00    0.07097   0.60521    0.033
 3803.00    0.15215   0.62361    0.034
 3804.00    0.30401   0.63846    0.034
 3805.00    0.46869   0.64881    0.034
 3806.00    0.64177   0.65608    0.034
 3807.00    0.66616   0.65826    0.034
 3808.00    0.60522   0.65634    0.033
 3809.00    0.58440   0.65173    0.033
 3810.00    0.58364   0.64148    0.034
 3811.00    0.48291   0.62730    0.034
 3812.00    0.33896   0.61131    0.035
 3813.00    0.34956   0.59119    0.034
 3814.00    0.41748   0.56997    0.033
 3815.00    0.45430   0.55050    0.033
 3816.00    0.48136   0.53075    0.033
 3817.00    0.49686   0.51256    0.034
 3818.00    0.50933   0.49730    0.035
 3819.00    0.59742   0.48326    0.034
 3820.00    0.70170   0.47024    0.034
 3821.00    0.72144   0.45819    0.033
 3822.00    0.72682   0.44721    0.034
 3823.00    0.46235   0.43700    0.033
 3824.00    0.16326   0.42691    0.032
 3825.00    0.10091   0.41809    0.032
 3826.00    0.05981   0.41047    0.032
 3827.00    0.13486   0.40355    0.032
 3828.00    0.21616   0.39795    0.033
 3829.00    0.24385   0.39257    0.033
 3830.00    0.27101   0.38787    0.033
 3831.00    0.34468   0.38448    0.033
 3832.00    0.42213   0.38073    0.034
 3833.00    0.58390   0.37861    0.034
 3834.00    0.71338   0.37910    0.034
 3835.00    0.44130   0.38034    0.034
 3836.00    0.19569   0.38520    0.033
 3837.00    0.17385   0.39424    0.033
 3838.00    0.16706   0.40494    0.034
 3839.00    0.25485   0.42036    0.033
 3840.00    0.32156   0.43963    0.033
 3841.00    0.28421   0.45901    0.033
 3842.00    0.26694   0.48059    0.034
 3843.00    0.33006   0.50185    0.033
 3844.00    0.41207   0.51896    0.033
 3845.00    0.55689   0.53417    0.034
 3846.00    0.67543   0.54577    0.035
 3847.00    0.72020   0.55168    0.000
 3848.00    0.74823   0.55514    0.000
 3849.00    0.73605   0.55641    0.000
 3850.00    0.68646   0.55342    0.000
 3851.00    0.55930   0.54882    0.000
 3852.00    0.46558   0.54412    0.000
 3853.00    0.43218   0.53613    0.000
 3854.00    0.45124   0.52708    0.000
 3855.00    0.55304   0.51984    0.000
 3856.00    0.61153   0.51185    0.000
 3857.00    0.61007   0.50568    0.000
 3858.00    0.59861   0.50413    0.000
 3859.00    0.57498   0.50505    0.000
 3860.00    0.56556   0.50939    0.000
 3861.00    0.57140   0.51717    0.000
 3862.00    0.56768   0.52555    0.000
 3863.00    0.55491   0.53354    0.000
 3864.00    0.55643   0.53991    0.000
 3865.00    0.56989   0.54311    0.000
 3866.00    0.59874   0.54338    0.000
 3867.00    0.63893   0.54112    0.000
 3868.00    0.58113   0.53715    0.000
 3869.00    0.46004   0.53329    0.000
 3870.00    0.46762   0.53001    0.000
 3871.00    0.54793   0.52856    0.000
 3872.00    0.57422   0.52927    0.000
 3873.00    0.57395   0.53035    0.000
 3874.00    0.54059   0.53263    0.000
 3875.00    0.49317   0.53463    0.000
 3876.00    0.55840   0.53409    0.000
 3877.00    0.66468   0.53325    0.000
 3878.00    0.63278   0.53146    0.000
 3879.00    0.55828   0.52795    0.000
 3880.00    0.50922   0.52486    0.000
 3881.00    0.46669   0.52266    0.031
 3882.00    0.46417   0.52108    0.031
 3883.00    0.47000   0.51999    0.031
 3884.00    0.41200   0.52139    0.032
 3885.00    0.34348   0.52570    0.033
 3886.00    0.28107   0.53151    0.033
 3887.00    0.21942   0.54193    0.033
 3888.00    0.35032   0.55705    0.033
 3889.00    0.49769   0.57375    0.033
 3890.00    0.49273   0.59295    0.033
 3891.00    0.48018   0.61374    0.033
 3892.00    0.44816   0.63246    0.033
 3893.00    0.41412   0.64820    0.033
 3894.00    0.27106   0.66174    0.032
 3895.00    0.14089   0.67156    0.032
 3896.00    0.27441   0.67783    0.032
 3897.00    0.41279   0.68176    0.032
 3898.00    0.60859   0.68362    0.032
 3899.00    0.77591   0.68511    0.032
 3900.00    0.71118   0.68453    0.031
 3901.00    0.66483   0.68445    0.030
 3902.00    0.73082   0.68684    0.030
 3903.00    0.77932   0.68810    0.029
 3904.00    0.74366   0.69346    0.029
 3905.00    0.71939   0.70271    0.028
 3906.00    0.73977   0.71235    0.029
 3907.00    0.73634   0.72673    0.029
 3908.00    0.65528   0.74203    0.029
 3909.00    0.58567   0.75583    0.030
 3910.00    0.54761   0.76950    0.030
 3911.00    0.54599   0.77834    0.030
 3912.00    0.63038   0.78274    0.031
 3913.00    0.68122   0.78255    0.032
 3914.00    0.66356   0.77534    0.032
 3915.00    0.67520   0.76420    0.033
 3916.00    0.73891   0.74886    0.033
 3917.00    0.73302   0.72917    0.033
 3918.00    0.61902   0.70861    0.033
 3919.00    0.55782   0.68725    0.033
 3920.00    0.56867   0.66469    0.033
 3921.00    0.59901   0.64286    0.033
 3922.00    0.65277   0.62122    0.033
 3923.00    0.66095   0.59710    0.033
 3924.00    0.62087   0.57177    0.033
 3925.00    0.51151   0.54411    0.033
 3926.00    0.33743   0.51219    0.033
 3927.00    0.27959   0.47910    0.033
 3928.00    0.31747   0.44496    0.033
 3929.00    0.32528   0.41130    0.033
 3930.00    0.31131   0.38207    0.033
 3931.00    0.38089   0.35848    0.034
 3932.00    0.50365   0.34270    0.034
 3933.00    0.50039   0.33642    0.034
 3934.00    0.42701   0.34005    0.034
 3935.00    0.46998   0.35266    0.034
 3936.00    0.56928   0.37275    0.034
 3937.00    0.66704   0.39970    0.034
 3938.00    0.76417   0.42985    0.035
 3939.00    0.82007   0.46073    0.035
 3940.00    0.86122   0.49317    0.035
 3941.00    0.76672   0.52431    0.034
 3942.00    0.63122   0.55319    0.034
 3943.00    0.54238   0.58239    0.034
 3944.00    0.46527   0.61002    0.034
 3945.00    0.47657   0.63648    0.034
 3946.00    0.50589   0.66351    0.034
 3947.00    0.49932   0.68730    0.034
 3948.00    0.48699   0.70912    0.034
 3949.00    0.42992   0.73056    0.034
 3950.00    0.36751   0.74576    0.034
 3951.00    0.59272   0.75662    0.035
 3952.00    0.84134   0.76514    0.035
 3953.00    0.75519   0.76630    0.035
 3954.00    0.65366   0.76251    0.035
 3955.00    0.58664   0.75364    0.035
 3956.00    0.52363   0.73648    0.034
 3957.00    0.64709   0.71521    0.035
 3958.00    0.75902   0.68789    0.035
 3959.00    0.65257   0.65273    0.035
 3960.00    0.56060   0.61503    0.000
 3961.00    0.63193   0.57406    0.000
 3962.00    0.69600   0.53043    0.000
 3963.00    0.70298   0.48860    0.000
 3964.00    0.70030   0.44907    0.000
 3965.00    0.64024   0.41470    0.000
 3966.00    0.57953   0.38851    0.000
 3967.00    0.51574   0.37111    0.000
 3968.00    0.45428   0.36448    0.000
 3969.00    0.40178   0.37000    0.000
 3970.00    0.37765   0.38748    0.000
 3971.00    0.44425   0.41510    0.000
 3972.00    0.50858   0.45207    0.000
 3973.00    0.56677   0.49650    0.000
 3974.00    0.67535   0.54462    0.000
 3975.00    0.90092   0.59520    0.000
 3976.00    1.05627   0.64474    0.000
 3977.00    1.07058   0.69102    0.000
 3978.00    1.02309   0.73430    0.000
 3979.00    0.86749   0.77120    0.000
 3980.00    0.83518   0.80323    0.000
 3981.00    0.99161   0.83036    0.035
 3982.00    1.05765   0.85182    0.036
 3983.00    1.00212   0.87235    0.036
 3984.00    0.92521   0.88835    0.036
 3985.00    0.82296   0.90180    0.036
 3986.00    0.84098   0.91711    0.035
 3987.00    0.98458   0.92818    0.035
 3988.00    1.12101   0.93869    0.035
 3989.00    1.25085   0.94863    0.035
 3990.00    1.28423   0.95451    0.035
 3991.00    1.23932   0.96134    0.035
 3992.00    1.17002   0.96520    0.035
 3993.00    1.08329   0.96658    0.035
 3994.00    1.06636   0.97105    0.035
 3995.00    1.09320   0.97418    0.035
 3996.00    1.01035   0.97659    0.035
 3997.00    0.86738   0.98229    0.035
 3998.00    0.83771   0.98864    0.035
 3999.00    0.86201   0.99368    0.035
 4000.00    0.92880   0.99722    0.035
 4001.00    1.01306   1.00005    0.035
 4002.00    0.93135   1.00205    0.034
 4003.00    0.79135   1.00116    0.034
 4004.00    0.82297   0.99951    0.034
 4005.00    0.90545   0.99983    0.035
 4006.00    0.94682   1.00241    0.035
 4007.00    0.97810   1.00722    0.035
 4008.00    0.89970   1.01432    0.035
 4009.00    0.79949   1.02416    0.035
 4010.00    0.81459   1.03674    0.035
 4011.00    0.84760   1.04904    0.035
 4012.00    0.85565   1.05850    0.035
 4013.00    0.86084   1.06922    0.034
 4014.00    0.95678   1.07943    0.035
 4015.00    1.05974   1.08445    0.035
 4016.00    1.00079   1.08925    0.035
 4017.00    0.93502   1.09327    0.035
 4018.00    0.85110   1.09470    0.034
 4019.00    0.76999   1.09545    0.034
 4020.00    0.81971   1.09430    0.034
 4021.00    0.87795   1.09308    0.034
 4022.00    1.08641   1.09118    0.035
 4023.00    1.27291   1.08757    0.035
 4024.00    1.22303   1.08264    0.035
 4025.00    1.17702   1.07385    0.035
 4026.00    1.16035   1.06426    0.035
 4027.00    1.14324   1.05214    0.035
 4028.00    1.12364   1.03458    0.035
 4029.00    1.11697   1.01915    0.036
 4030.00    1.16961   1.00443    0.035
 4031.00    1.17633   0.99154    0.035
 4032.00    1.01080   0.98718    0.034
 4033.00    0.86325   0.98663    0.033
 4034.00    0.77204   0.99273    0.033
 4035.00    0.72823   1.00599    0.032
 4036.00    0.81053   1.01862    0.033
 4037.00    0.88312   1.03203    0.033
 4038.00    0.93357   1.04149    0.033
 4039.00    0.99100   1.04270    0.034
 4040.00    1.06227   1.03840    0.034
 4041.00    1.10602   1.02749    0.034
 4042.00    1.10238   1.01386    0.034
 4043.00    1.07392   0.99855    0.034
 4044.00    1.00799   0.98388    0.035
 4045.00    0.96343   0.97826    0.035
 4046.00    0.94720   0.97797    0.035
 4047.00    0.97367   0.98138    0.035
 4048.00    1.04999   0.99165    0.035
 4049.00    1.04641   1.00313    0.035
 4050.00    0.96055   1.01428    0.036
 4051.00    0.92406   1.02401    0.036
 4052.00    0.93240   1.02591    0.035
 4053.00    0.93935   1.02361    0.035
 4054.00    0.94520   1.02015    0.035
 4055.00    1.00000   1.01047    0.035
 4056.00    1.08928   0.99935    0.036
 4057.00    1.10572   0.98876    0.036
 4058.00    1.07718   0.97556    0.035
 4059.00    1.06909   0.96576    0.035
 4060.00    1.07204   0.95792    0.036
 4061.00    0.99576   0.94733    0.035
 4062.00    0.88235   0.94115    0.035
 4063.00    0.89246   0.94103    0.035
 4064.00    0.95248   0.94170    0.035
 4065.00    0.95162   0.94473    0.035
 4066.00    0.92979   0.94897    0.035
 4067.00    0.87330   0.95557    0.035
 4068.00    0.80675   0.96609    0.035
 4069.00    0.88157   0.97065    0.035
 4070.00    0.99034   0.97202    0.035
 4071.00    1.01358   0.97571    0.035
 4072.00    1.02025   0.97604    0.035
 4073.00    1.12004   0.97576    0.035
 4074.00    1.23385   0.97448    0.035
 4075.00    1.17684   0.97412    0.034
 4076.00    1.10094   0.98129    0.034
 4077.00    0.96403   0.98934    0.034
 4078.00    0.82266   0.99907    0.034
 4079.00    0.89899   1.01458    0.034
 4080.00    0.98366   1.03001    0.034
 4081.00    1.08396   1.04696    0.034
 4082.00    1.18031   1.06557    0.034
 4083.00    1.12405   1.08212    0.034
 4084.00    1.07256   1.09827    0.034
 4085.00    1.09948   1.11239    0.033
 4086.00    1.11371   1.12381    0.033
 4087.00    0.99736   1.13268    0.033
 4088.00    0.89821   1.13773    0.033
 4089.00    0.92526   1.13914    0.033
 4090.00    0.94698   1.13361    0.033
 4091.00    0.93889   1.12385    0.033
 4092.00    0.94918   1.11004    0.000
 4093.00    1.04172   1.08854    0.000
 4094.00    1.07903   1.06535    0.000
 4095.00    0.91354   1.03986    0.000
 4096.00    0.79401   1.01275    0.000
 4097.00    0.81584   0.99021    0.000
 4098.00    0.84164   0.96856    0.000
 4099.00    0.87783   0.94955    0.000
 4100.00    0.87938   0.94003    0.000
 4101.00    0.80312   0.93734    0.000
 4102.00    0.78297   0.93960    0.000
 4103.00    0.87201   0.94858    0.000
 4104.00    0.94350   0.96090    0.000
 4105.00    0.98520   0.97559    0.000
 4106.00    0.97408   0.99309    0.000
 4107.00    0.88445   1.00775    0.000
 4108.00    0.85270   1.02057    0.000
 4109.00    0.89659   1.03321    0.000
 4110.00    0.91764   1.04220    0.000
 4111.00    0.91240   1.05052    0.000
 4112.00    0.99078   1.05779    0.000
 4113.00    1.15404   1.06215    0.033
 4114.00    1.23471   1.06629    0.033
 4115.00    1.24142   1.06959    0.033
 4116.00    1.17060   1.06982    0.033
 4117.00    1.03860   1.06859    0.033
 4118.00    0.93840   1.06727    0.033
 4119.00    0.86026   1.06501    0.033
 4120.00    0.92011   1.06323    0.033
 4121.00    1.06394   1.05969    0.033
 4122.00    0.93994   1.05614    0.033
 4123.00    0.67366   1.05503    0.033
 4124.00    0.71352   1.05100    0.033
 4125.00    0.89454   1.04474    0.033
 4126.00    0.99626   1.03716    0.034
 4127.00    1.06650   1.02795    0.034
 4128.00    1.00955   1.01952    0.034
 4129.00    0.90955   1.00979    0.034
 4130.00    0.83543   1.00016    0.034
 4131.00    0.76867   0.99619    0.034
 4132.00    0.81577   0.99378    0.034
 4133.00    0.88960   0.99606    0.034
 4134.00    1.00173   1.00302    0.034
 4135.00    1.12108   1.00725    0.034
 4136.00    1.16970   1.01458    0.034
 4137.00    1.20799   1.01932    0.034
 4138.00    1.18238   1.01950    0.033
 4139.00    1.14998   1.01907    0.033
 4140.00    1.21186   1.01165    0.033
 4141.00    1.28026   1.00111    0.034
 4142.00    1.22127   0.99217    0.034
 4143.00    1.15789   0.98463    0.033
 4144.00    1.18928   0.97884    0.034
 4145.00    1.21875   0.97454    0.034
 4146.00    1.17860   0.97191    0.034
 4147.00    1.13460   0.97123    0.034
 4148.00    1.03126   0.97373    0.033
 4149.00    0.94418   0.97538    0.033
 4150.00    1.01745   0.97502    0.034
 4151.00    1.08452   0.97616    0.034
 4152.00    1.10749   0.97598    0.034
 4153.00    1.12744   0.97811    0.033
 4154.00    1.13089   0.98269    0.033
 4155.00    1.13257   0.98828    0.033
 4156.00    1.12651   0.99792    0.033
 4157.00    1.09335   1.00836    0.032
 4158.00    0.96271   1.02065    0.032
 4159.00    0.84783   1.03196    0.032
 4160.00    0.78049   1.04227    0.032
 4161.00    0.73427   1.05187    0.032
 4162.00    0.74232   1.05607    0.032
 4163.00    0.81816   1.05737    0.033
 4164.00    1.04378   1.05475    0.033
 4165.00    1.21316   1.04778    0.033
 4166.00    1.27482   1.03988    0.033
 4167.00    1.27001   1.02844    0.033
 4168.00    1.15409   1.01558    0.033
 4169.00    1.10147   1.00367    0.033
 4170.00    1.14156   0.98817    0.033
 4171.00    1.10310   0.97524    0.033
 4172.00    0.96346   0.96679    0.032
 4173.00    0.89455   0.95898    0.032
 4174.00    0.90593   0.95447    0.032
 4175.00    0.96681   0.95085    0.033
 4176.00    1.07725   0.95054    0.033
 4177.00    1.12713   0.95581    0.033
 4178.00    1.12357   0.96238    0.033
 4179.00    1.12167   0.96880    0.033
 4180.00    1.12106   0.97491    0.033
 4181.00    1.12242   0.98183    0.032
 4182.00    1.12513   0.98916    0.032
 4183.00    1.00977   0.99731    0.032
 4184.00    0.82363   1.00227    0.032
 4185.00    0.80297   1.00390    0.032
 4186.00    0.86886   1.00860    0.032
 4187.00    0.96101   1.01334    0.032
 4188.00    1.06507   1.01761    0.032
 4189.00    1.14262   1.01865    0.032
 4190.00    1.20982   1.01653    0.032
 4191.00    1.13022   1.01645    0.032
 4192.00    1.00186   1.01430    0.032
 4193.00    0.92834   1.00761    0.032
 4194.00    0.87011   0.99664    0.032
 4195.00    0.87745   0.98588    0.032
 4196.00    0.89982   0.97634    0.032
 4197.00    0.90181   0.96652    0.032
 4198.00    0.90006   0.95993    0.032
 4199.00    0.93965   0.95571    0.032
 4200.00    0.98508   0.95671    0.032
 4201.00    1.09834   0.96447    0.032
 4202.00    1.21852   0.97481    0.032
 4203.00    1.11570   0.98953    0.032
 4204.00    0.99834   1.00577    0.031
 4205.00    1.00592   1.02049    0.031
 4206.00    1.01732   1.03738    0.031
 4207.00    1.01461   1.05078    0.032
 4208.00    1.01263   1.05855    0.032
 4209.00    1.03220   1.06573    0.032
 4210.00    1.05272   1.07000    0.032
 4211.00    1.08705   1.07162    0.032
 4212.00    1.11401   1.07229    0.032
 4213.00    1.07128   1.06977    0.032
 4214.00    1.05409   1.07033    0.032
 4215.00    1.21246   1.07515    0.032
 4216.00    1.32546   1.07738    0.032
 4217.00    1.19727   1.07776    0.032
 4218.00    1.09402   1.07404    0.032
 4219.00    1.09728   1.06634    0.032
 4220.00    1.08533   1.05467    0.031
 4221.00    1.01980   1.03645    0.031
 4222.00    0.92815   1.01257    0.031
 4223.00    0.75917   0.98695    0.031
 4224.00    0.68511   0.96294    0.031
 4225.00    0.85059   0.94282    0.031
 4226.00    0.97262   0.93378    0.032
 4227.00    1.00021   0.93358    0.031
 4228.00    1.01308   0.93946    0.031
 4229.00    0.99815   0.95233    0.031
 4230.00    1.01417   0.96759    0.030
 4231.00    1.08113   0.98535    0.030
 4232.00    1.11230   1.00452    0.030
 4233.00    1.09181   1.01844    0.030
 4234.00    1.12580   1.02934    0.030
 4235.00    1.22895   1.04009    0.030
 4236.00    1.26737   1.04873    0.030
 4237.00    1.23337   1.06014    0.030
 4238.00    1.24704   1.07242    0.030
 4239.00    1.30774   1.08494    0.030
 4240.00    1.23220   1.09852    0.030
 4241.00    1.03809   1.10983    0.030
 4242.00    0.94190   1.12080    0.030
 4243.00    0.92076   1.12637    0.030
 4244.00    0.93084   1.12705    0.030
 4245.00    0.96194   1.12249    0.031
 4246.00    1.05198   1.11151    0.031
 4247.00    1.17682   1.09972    0.032
 4248.00    1.22136   1.08347    0.032
 4249.00    1.22456   1.06811    0.032
 4250.00    1.22758   1.05698    0.032
 4251.00    1.23053   1.04556    0.032
 4252.00    1.19419   1.03717    0.032
 4253.00    1.14278   1.03118    0.032
 4254.00    1.11440   1.03075    0.031
 4255.00    1.09353   1.03671    0.031
 4256.00    1.05927   1.04023    0.031
 4257.00    1.02135   1.04377    0.031
 4258.00    1.00745   1.04969    0.031
 4259.00    0.99893   1.05938    0.031
 4260.00    0.95070   1.07391    0.031
 4261.00    0.89537   1.08635    0.031
 4262.00    0.99964   1.09601    0.032
 4263.00    1.12575   1.10336    0.032
 4264.00    1.27884   1.10684    0.032
 4265.00    1.43457   1.10481    0.032
 4266.00    1.33823   1.09650    0.032
 4267.00    1.22648   1.08021    0.031
 4268.00    1.22766   1.05856    0.031
 4269.00    1.23121   1.03484    0.031
 4270.00    1.10352   1.01213    0.031
 4271.00    0.97488   0.99725    0.030
 4272.00    0.82145   0.98619    0.030
 4273.00    0.68704   0.98141    0.031
 4274.00    0.81425   0.98707    0.031
 4275.00    0.93668   0.99816    0.031
 4276.00    1.01571   1.01593    0.031
 4277.00    1.09299   1.03290    0.033
 4278.00    1.15865   1.04420    0.072
 4279.00    1.23659   1.05761   -1.000
 4280.00    1.37809   1.06631   -1.000
 4281.00    1.51575   1.06958   -1.000
 4282.00    1.63739   1.06839   -2.000
 4283.00    1.71987   1.05836   -2.000
 4284.00    1.66721   1.04892   -2.000
 4285.00    1.55666   1.03905   -2.000
 4286.00    1.27787   1.02726   -2.000
 4287.00    1.10581   1.01327   -2.000
 4288.00    1.19848   0.99962   -2.000
 4289.00    1.30533   0.99063   -2.000
 4290.00    1.44247   0.98399   -2.000
 4291.00    1.44936   0.97926   -2.000
 4292.00    1.21442   0.96892   -2.000
 4293.00    1.05991   0.95945   -2.000
 4294.00    1.03584   0.95088   -2.000
 4295.00    0.97937   0.93671   -2.000
 4296.00    0.87680   0.92107   -2.000
 4297.00    0.84656   0.89861   -2.000
 4298.00    0.90684   0.87567    0.031
 4299.00    0.95643   0.85667    0.031
 4300.00    0.99422   0.83559    0.031
 4301.00    1.01401   0.81675    0.031
 4302.00    1.01627   0.80203    0.031
 4303.00    0.96278   0.78944    0.031
 4304.00    0.86147   0.78354    0.031
 4305.00    0.86797   0.78113    0.031
 4306.00    0.95595   0.78272    0.031
 4307.00    1.02353   0.79409    0.031
 4308.00    1.07758   0.81227    0.031
 4309.00    1.10271   0.84027    0.031
 4310.00    1.11101   0.87549    0.030
 4311.00    1.06216   0.91721    0.030
 4312.00    0.98435   0.96493    0.030
 4313.00    0.98186   1.01533    0.030
 4314.00    1.01243   1.06841    0.030
 4315.00    1.02833   1.11504    0.030
 4316.00    1.03871   1.15178    0.030
 4317.00    1.08356   1.17795    0.030
 4318.00    1.13943   1.19240    0.030
 4319.00    1.14779   1.19579    0.030
 4320.00    1.14344   1.19121    0.030
 4321.00    1.11806   1.17588    0.030
 4322.00    1.08808   1.15620    0.030
 4323.00    1.09591   1.13733    0.031
 4324.00    1.11032   1.12279    0.031
 4325.00    1.19490   1.12183    0.031
 4326.00    1.28877   1.12718    0.032
 4327.00    1.30305   1.13858    0.031
 4328.00    1.30990   1.15343    0.031
 4329.00    1.33262   1.17083    0.031
 4330.00    1.35624   1.19083    0.000
 4331.00    1.31629   1.20540    0.000
 4332.00    1.27469   1.21331    0.000
 4333.00    1.21474   1.21220    0.000
 4334.00    1.15926   1.20281    0.000
 4335.00    1.21142   1.18460    0.000
 4336.00    1.26203   1.16265    0.000
 4337.00    1.29242   1.14182    0.000
 4338.00    1.30453   1.12156    0.000
 4339.00    1.15701   1.10802    0.000
 4340.00    1.03133   1.10268    0.000
 4341.00    1.04671   1.10386    0.000
 4342.00    1.06430   1.11149    0.000
 4343.00    1.09300   1.12625    0.000
 4344.00    1.09965   1.14355    0.000
 4345.00    1.01631   1.16090    0.000
 4346.00    0.99167   1.17773    0.000
 4347.00    1.16562   1.19157    0.000
 4348.00    1.28836   1.20007    0.000
 4349.00    1.26494   1.20021    0.000
 4350.00    1.22925   1.19859    0.000
 4351.00    1.16359   1.20034    0.031
 4352.00    1.15923   1.20245    0.031
 4353.00    1.28381   1.20435    0.031
 4354.00    1.36923   1.20859    0.031
 4355.00    1.38305   1.21682    0.030
 4356.00    1.36618   1.22701    0.030
 4357.00    1.30024   1.23812    0.031
 4358.00    1.26990   1.25244    0.031
 4359.00    1.28947   1.26822    0.031
 4360.00    1.28903   1.28192    0.031
 4361.00    1.26388   1.29138    0.031
 4362.00    1.27114   1.29981    0.031
 4363.00    1.31366   1.30657    0.031
 4364.00    1.30255   1.30763    0.031
 4365.00    1.23998   1.30337    0.031
 4366.00    1.19963   1.29513    0.031
 4367.00    1.17806   1.28607    0.031
 4368.00    1.19404   1.27367    0.031
 4369.00    1.23800   1.25920    0.031
 4370.00    1.24588   1.24488    0.031
 4371.00    1.23016   1.22922    0.031
 4372.00    1.16810   1.21405    0.031
 4373.00    1.07951   1.19994    0.031
 4374.00    1.21311   1.18862    0.031
 4375.00    1.45753   1.17923    0.033
 4376.00    1.44068   1.16705    0.033
 4377.00    1.31108   1.15250    0.033
 4378.00    1.16967   1.13528    0.033
 4379.00    1.02387   1.11731    0.033
 4380.00    1.06558   1.09760    0.032
 4381.00    1.16607   1.07431    0.031
 4382.00    1.08134   1.05534    0.031
 4383.00    0.94814   1.04334    0.030
 4384.00    0.99525   1.03879    0.030
 4385.00    1.08088   1.03858    0.030
 4386.00    1.14736   1.04242    0.030
 4387.00    1.21061   1.05386    0.030
 4388.00    1.14092   1.06955    0.030
 4389.00    1.05424   1.08968    0.030
 4390.00    1.08675   1.11184    0.030
 4391.00    1.12989   1.13231    0.030
 4392.00    1.24125   1.15065    0.030
 4393.00    1.35625   1.16593    0.030
 4394.00    1.36616   1.18103    0.030
 4395.00    1.37287   1.19428    0.030
 4396.00    1.28740   1.20066    0.030
 4397.00    1.20595   1.20205    0.030
 4398.00    1.21256   1.19745    0.030
 4399.00    1.21887   1.18963    0.031
 4400.00    1.22149   1.18192    0.031
 4401.00    1.21926   1.16947    0.030
 4402.00    1.17614   1.15373    0.030
 4403.00    1.15199   1.14083    0.031
 4404.00    1.24675   1.13534    0.031
 4405.00    1.32203   1.13473    0.031
 4406.00    1.30150   1.13694    0.031
 4407.00    1.28939   1.14575    0.031
 4408.00    1.31091   1.15985    0.031
 4409.00    1.31393   1.17574    0.031
 4410.00    1.25561   1.19191    0.030
 4411.00    1.19818   1.20755    0.030
 4412.00    1.14322   1.21944    0.030
 4413.00    1.13602   1.22672    0.030
 4414.00    1.24328   1.23587    0.030
 4415.00    1.34491   1.24408    0.030
 4416.00    1.43487   1.25038    0.030
 4417.00    1.46324   1.25616    0.030
 4418.00    1.38073   1.25955    0.030
 4419.00    1.33758   1.26283    0.030
 4420.00    1.35638   1.26396    0.030
 4421.00    1.37751   1.26521    0.031
 4422.00    1.40185   1.26815    0.031
 4423.00    1.35731   1.26751    0.031
 4424.00    1.22898   1.26591    0.030
 4425.00    1.18124   1.26300    0.030
 4426.00    1.21989   1.25955    0.031
 4427.00    1.31295   1.25741    0.031
 4428.00    1.45747   1.25195    0.031
 4429.00    1.49752   1.24903    0.031
 4430.00    1.45045   1.24723    0.031
 4431.00    1.42093   1.24326    0.031
 4432.00    1.40429   1.24054    0.031
 4433.00    1.39195   1.23818    0.031
 4434.00    1.38239   1.24031    0.031
 4435.00    1.33747   1.24600    0.031
 4436.00    1.27259   1.25221    0.031
 4437.00    1.27682   1.26043    0.031
 4438.00    1.31497   1.26665    0.031
 4439.00    1.24881   1.27256    0.031
 4440.00    1.13838   1.27939    0.030
 4441.00    1.25293   1.28665    0.031
 4442.00    1.44924   1.29588    0.031
 4443.00    1.43196   1.30444    0.031
 4444.00    1.34898   1.31195    0.031
 4445.00    1.37214   1.31604    0.031
 4446.00    1.42247   1.31923    0.031
 4447.00    1.43512   1.32164    0.031
 4448.00    1.43991   1.31862    0.031
 4449.00    1.50799   1.31314    0.031
 4450.00    1.58647   1.30288    0.031
 4451.00    1.55789   1.28760    0.031
 4452.00    1.51611   1.26875    0.031
 4453.00    1.39345   1.24705    0.030
 4454.00    1.26390   1.22885    0.030
 4455.00    1.25374   1.21108    0.030
 4456.00    1.24947   1.19554    0.030
 4457.00    1.23338   1.18377    0.030
 4458.00    1.21847   1.17631    0.030
 4459.00    1.28902   1.17432    0.030
 4460.00    1.35503   1.17546    0.030
 4461.00    1.32932   1.18456    0.000
 4462.00    1.31027   1.19597    0.000
 4463.00    1.36942   1.20789    0.000
 4464.00    1.42120   1.22203    0.000
 4465.00    1.41310   1.23645    0.000
 4466.00    1.39645   1.25285    0.000
 4467.00    1.32780   1.26735    0.000
 4468.00    1.28066   1.28413    0.000
 4469.00    1.33669   1.30152    0.000
 4470.00    1.37584   1.31727    0.000
 4471.00    1.34904   1.33344    0.000
 4472.00    1.33749   1.34824    0.000
 4473.00    1.37552   1.36105    0.000
 4474.00    1.45250   1.37143    0.000
 4475.00    1.63660   1.37978    0.000
 4476.00    1.67607   1.38435    0.000
 4477.00    1.37474   1.38460    0.000
 4478.00    1.17359   1.38125    0.000
 4479.00    1.17651   1.37780    0.000
 4480.00    1.25844   1.37385    0.000
 4481.00    1.48040   1.37197    0.000
 4482.00    1.59807   1.37188    0.030
 4483.00    1.55399   1.37132    0.030
 4484.00    1.50093   1.37092    0.030
 4485.00    1.43563   1.36899    0.030
 4486.00    1.44963   1.36664    0.030
 4487.00    1.55872   1.36336    0.030
 4488.00    1.58054   1.35963    0.030
 4489.00    1.51010   1.35624    0.030
 4490.00    1.49100   1.35098    0.029
 4491.00    1.51978   1.34630    0.029
 4492.00    1.55264   1.34112    0.029
 4493.00    1.58887   1.33925    0.029
 4494.00    1.55278   1.34199    0.029
 4495.00    1.46436   1.34815    0.029
 4496.00    1.39843   1.35948    0.029
 4497.00    1.34678   1.37183    0.029
 4498.00    1.35236   1.38728    0.030
 4499.00    1.38971   1.40282    0.030
 4500.00    1.40819   1.42013    0.030
 4501.00    1.41755   1.44010    0.029
 4502.00    1.47024   1.45710    0.029
 4503.00    1.54100   1.47177    0.029
 4504.00    1.54399   1.48257    0.029
 4505.00    1.52278   1.48981    0.029
 4506.00    1.48633   1.49369    0.029
 4507.00    1.44529   1.49421    0.029
 4508.00    1.44958   1.49277    0.029
 4509.00    1.46522   1.48765    0.029
 4510.00    1.35136   1.47899    0.029
 4511.00    1.21117   1.46940    0.029
 4512.00    1.27298   1.45975    0.029
 4513.00    1.36702   1.45057    0.029
 4514.00    1.46718   1.44277    0.029
 4515.00    1.56805   1.43584    0.030
 4516.00    1.48005   1.42864    0.029
 4517.00    1.37676   1.42319    0.029
 4518.00    1.47551   1.41627    0.029
 4519.00    1.58344   1.40892    0.029
 4520.00    1.51243   1.39888    0.029
 4521.00    1.43951   1.38529    0.029
 4522.00    1.38081   1.37017    0.029
 4523.00    1.32631   1.35056    0.029
 4524.00    1.35053   1.33027    0.029
 4525.00    1.36555   1.30921    0.029
 4526.00    1.27760   1.28974    0.029
 4527.00    1.20589   1.27215    0.029
 4528.00    1.26125   1.25932    0.029
 4529.00    1.32236   1.25057    0.029
 4530.00    1.41745   1.24773    0.029
 4531.00    1.46931   1.24847    0.029
 4532.00    1.31885   1.25361    0.028
 4533.00    1.21255   1.26431    0.028
 4534.00    1.27501   1.27680    0.028
 4535.00    1.31728   1.29412    0.028
 4536.00    1.29511   1.30880    0.029
 4537.00    1.29195   1.32308    0.029
 4538.00    1.34012   1.33542    0.029
 4539.00    1.37815   1.34485    0.029
 4540.00    1.39269   1.35305    0.029
 4541.00    1.38581   1.35793    0.029
 4542.00    1.33598   1.36135    0.029
 4543.00    1.31206   1.36040    0.029
 4544.00    1.33339   1.35843    0.029
 4545.00    1.35206   1.35468    0.028
 4546.00    1.36664   1.35103    0.029
 4547.00    1.41093   1.34774    0.029
 4548.00    1.49509   1.34493    0.029
 4549.00    1.53426   1.34450    0.029
 4550.00    1.52024   1.34345    0.000
 4551.00    1.50126   1.34600    0.000
 4552.00    1.47708   1.35030    0.000
 4553.00    1.41067   1.35743    0.000
 4554.00    1.30542   1.36640    0.000
 4555.00    1.24944   1.37744    0.000
 4556.00    1.23339   1.38931    0.000
 4557.00    1.32367   1.39991    0.000
 4558.00    1.48978   1.40963    0.000
 4559.00    1.50726   1.41686    0.000
 4560.00    1.43172   1.42250    0.000
 4561.00    1.44730   1.42520    0.000
 4562.00    1.51271   1.42682    0.000
 4563.00    1.58011   1.42760    0.000
 4564.00    1.64846   1.42776    0.000
 4565.00    1.55792   1.42855    0.000
 4566.00    1.40222   1.42931    0.000
 4567.00    1.43022   1.42963    0.000
 4568.00    1.52258   1.43068    0.000
 4569.00    1.50951   1.43162    0.000
 4570.00    1.46527   1.43245    0.000
 4571.00    1.51405   1.43399    0.000
 4572.00    1.58562   1.43383    0.000
 4573.00    1.48066   1.43155    0.000
 4574.00    1.34072   1.42732    0.000
 4575.00    1.30364   1.42108    0.000
 4576.00    1.28247   1.41302    0.000
 4577.00    1.32924   1.40356    0.000
 4578.00    1.38379   1.39532    0.000
 4579.00    1.39507   1.38681    0.000
 4580.00    1.40303   1.37956    0.000
 4581.00    1.38830   1.37443    0.000
 4582.00    1.37263   1.37043    0.000
 4583.00    1.38492   1.37007    0.000
 4584.00    1.39806   1.37097    0.000
 4585.00    1.43764   1.37450    0.000
 4586.00    1.47559   1.37852    0.000
 4587.00    1.48513   1.38229    0.000
 4588.00    1.49713   1.38477    0.000
 4589.00    1.53545   1.38513    0.000
 4590.00    1.55546   1.38415    0.000
 4591.00    1.43702   1.38107    0.000
 4592.00    1.34198   1.37738    0.000
 4593.00    1.38149   1.37281    0.000
 4594.00    1.41071   1.36792    0.000
 4595.00    1.39293   1.36452    0.000
 4596.00    1.37934   1.36059    0.000
 4597.00    1.38146   1.35938    0.000
 4598.00    1.37296   1.35962    0.000
 4599.00    1.33126   1.36140    0.000
 4600.00    1.31396   1.36632    0.000
 4601.00    1.36141   1.37155    0.000
 4602.00    1.42227   1.38027    0.000
 4603.00    1.51369   1.38943    0.000
 4604.00    1.56262   1.40162    0.000
 4605.00    1.52771   1.41430    0.000
 4606.00    1.65390   1.42706    0.000
 4607.00    2.05709   1.43982    0.000
 4608.00    2.31664   1.45077    0.000
 4609.00    2.35990   1.46055    0.000
 4610.00    2.35962   1.46852    0.000
 4611.00    2.30175   1.47560    0.000
 4612.00    2.29303   1.48004    0.000
 4613.00    2.34159   1.48467    0.000
 4614.00    2.17623   1.48704    0.000
 4615.00    1.79103   1.48871    0.000
 4616.00    1.56886   1.48992    0.000
 4617.00    1.49445   1.49099    0.000
 4618.00    1.50665   1.49140    0.000
 4619.00    1.58803   1.49204    0.000
 4620.00    1.58493   1.49238    0.000
 4621.00    1.52245   1.49145    0.000
 4622.00    1.52109   1.49058    0.000
 4623.00    1.55742   1.48899    0.000
 4624.00    1.49598   1.48675    0.000
 4625.00    1.38190   1.48387    0.000
 4626.00    1.39836   1.48074    0.000
 4627.00    1.47588   1.47701    0.000
 4628.00    1.46285   1.47238    0.000
 4629.00    1.41331   1.46656    0.000
 4630.00    1.45327   1.45974    0.000
 4631.00    1.52401   1.45155    0.000
 4632.00    1.51257   1.44288    0.000
 4633.00    1.47734   1.43275    0.000
 4634.00    1.46847   1.42207    0.000
 4635.00    1.46591   1.41133    0.000
 4636.00    1.49781   1.39978    0.000
 4637.00    1.53637   1.38996    0.000
 4638.00    1.48137   1.37982    0.000
 4639.00    1.41232   1.37061    0.000
 4640.00    1.32924   1.36131    0.000
 4641.00    1.24462   1.35270    0.000
 4642.00    1.42586   1.34402    0.000
 4643.00    1.62644   1.33641    0.000
 4644.00    1.50439   1.33028    0.000
 4645.00    1.37013   1.32587    0.000
 4646.00    1.32047   1.32443    0.000
 4647.00    1.27834   1.32524    0.000
 4648.00    1.49968   1.32851    0.000
 4649.00    1.70503   1.33468    0.000
 4650.00    1.64918   1.34146    0.000
 4651.00    1.58933   1.35028    0.000
 4652.00    1.48860   1.35988    0.000
 4653.00    1.39915   1.37007    0.000
 4654.00    1.39212   1.38095    0.000
 4655.00    1.39477   1.39083    0.000
 4656.00    1.45150   1.39965    0.000
 4657.00    1.48729   1.40495    0.000
 4658.00    1.42967   1.40753    0.000
 4659.00    1.40024   1.40563    0.000
 4660.00    1.47411   1.40048    0.000
 4661.00    1.49908   1.39164    0.000
 4662.00    1.37406   1.37879    0.000
 4663.00    1.29000   1.36405    0.000
 4664.00    1.31275   1.34894    0.000
 4665.00    1.34351   1.33600    0.000
 4666.00    1.39219   1.32549    0.000
 4667.00    1.40794   1.31901    0.000
 4668.00    1.35971   1.31608    0.000
 4669.00    1.34292   1.31715    0.000
 4670.00    1.37937   1.32196    0.000
 4671.00    1.46346   1.32902    0.000
 4672.00    1.61823   1.33837    0.000
 4673.00    1.65094   1.34654    0.000
 4674.00    1.52446   1.35346    0.000
 4675.00    1.46734   1.35874    0.000
 4676.00    1.48991   1.36231    0.000
 4677.00    1.50923   1.36398    0.000
 4678.00    1.52527   1.36382    0.000
 4679.00    1.47857   1.36371    0.000
 4680.00    1.37581   1.36260    0.000
 4681.00    1.34777   1.36197    0.000
 4682.00    1.37859   1.36183    0.000
 4683.00    1.42428   1.36201    0.000
 4684.00    1.48026   1.36253    0.000
 4685.00    1.51312   1.36346    0.000
 4686.00    1.53194   1.36455    0.000
 4687.00    1.51821   1.36539    0.000
 4688.00    1.48722   1.36648    0.000
 4689.00    1.39400   1.36751    0.000
 4690.00    1.27214   1.36825    0.000
 4691.00    1.28857   1.36901    0.000
 4692.00    1.35979   1.36875    0.000
 4693.00    1.38154   1.36752    0.000
 4694.00    1.38659   1.36430    0.000
 4695.00    1.47425   1.35996    0.000
 4696.00    1.58536   1.35529    0.000
 4697.00    1.51682   1.34875    0.000
 4698.00    1.40623   1.34188    0.000
 4699.00    1.44431   1.33399    0.000
 4700.00    1.51036   1.32807    0.000
 4701.00    1.37356   1.32235    0.000
 4702.00    1.20726   1.31829    0.000
 4703.00    1.30051   1.31503    0.000
 4704.00    1.42120   1.31387    0.000
 4705.00    1.40189   1.31444    0.000
 4706.00    1.37296   1.31659    0.000
 4707.00    1.35212   1.32167    0.000
 4708.00    1.33155   1.32673    0.000
 4709.00    1.42688   1.33372    0.000
 4710.00    1.52006   1.34093    0.000
 4711.00    1.53750   1.35017    0.000
 4712.00    1.55172   1.36125    0.000
 4713.00    1.51642   1.37306    0.000
 4714.00    1.47492   1.38552    0.000
 4715.00    1.37263   1.39867    0.000
 4716.00    1.29989   1.41170    0.000
 4717.00    1.43607   1.42375    0.000
 4718.00    1.55509   1.43406    0.000
 4719.00    1.58080   1.44197    0.000
 4720.00    1.59591   1.44723    0.000
 4721.00    1.56486   1.44863    0.000
 4722.00    1.53630   1.44624    0.000
 4723.00    1.51666   1.43938    0.000
 4724.00    1.50011   1.42984    0.000
 4725.00    1.49286   1.41823    0.000
 4726.00    1.48045   1.40597    0.000
 4727.00    1.45482   1.39379    0.000
 4728.00    1.45976   1.38313    0.000
 4729.00    1.53211   1.37515    0.000
 4730.00    1.53275   1.36931    0.000
 4731.00    1.39631   1.36776    0.000
 4732.00    1.32449   1.36818    0.000
 4733.00    1.36045   1.37152    0.000
 4734.00    1.39538   1.37748    0.000
 4735.00    1.42882   1.38455    0.000
 4736.00    1.45289   1.39223    0.000
 4737.00    1.46491   1.40007    0.000
 4738.00    1.49929   1.40832    0.000
 4739.00    1.55900   1.41608    0.000
 4740.00    1.52550   1.42353    0.000
 4741.00    1.39886   1.42989    0.000
 4742.00    1.45967   1.43623    0.000
 4743.00    1.68564   1.44171    0.000
 4744.00    1.73231   1.44595    0.000
 4745.00    1.63979   1.44947    0.000
 4746.00    1.54861   1.45120    0.000
 4747.00    1.45834   1.45208    0.000
 4748.00    1.43456   1.45033    0.000
 4749.00    1.45057   1.44798    0.000
 4750.00    1.43553   1.44328    0.000
 4751.00    1.40429   1.43840    0.000
 4752.00    1.40092   1.43208    0.000
 4753.00    1.41016   1.42569    0.000
 4754.00    1.34270   1.41901    0.000
 4755.00    1.24537   1.41204    0.000
 4756.00    1.31312   1.40540    0.000
 4757.00    1.43557   1.39797    0.000
 4758.00    1.52503   1.39051    0.000
 4759.00    1.60533   1.38283    0.000
 4760.00    1.58567   1.37520    0.000
 4761.00    1.54314   1.36785    0.026
 4762.00    1.55657   1.36123    0.026
 4763.00    1.58025   1.35666    0.027
 4764.00    1.52413   1.35398    0.026
 4765.00    1.45677   1.35376    0.026
 4766.00    1.48234   1.35637    0.026
 4767.00    1.51733   1.36117    0.026
 4768.00    1.42856   1.36886    0.026
 4769.00    1.33179   1.37819    0.026
 4770.00    1.46313   1.38901    0.026
 4771.00    1.60104   1.40020    0.027
 4772.00    1.57002   1.41084    0.026
 4773.00    1.53964   1.42085    0.026
 4774.00    1.52741   1.42892    0.026
 4775.00    1.51953   1.43501    0.027
 4776.00    1.57465   1.43849    0.026
 4777.00    1.61607   1.43938    0.026
 4778.00    1.52874   1.43780    0.026
 4779.00    1.44661   1.43392    0.026
 4780.00    1.40021   1.42811    0.025
 4781.00    1.37772   1.42163    0.025
 4782.00    1.48190   1.41446    0.025
 4783.00    1.54119   1.40786    0.025
 4784.00    1.40927   1.40256    0.025
 4785.00    1.30366   1.39890    0.025
 4786.00    1.29051   1.39762    0.025
 4787.00    1.30824   1.39901    0.025
 4788.00    1.41719   1.40294    0.025
 4789.00    1.48953   1.40907    0.026
 4790.00    1.46966   1.41672    0.026
 4791.00    1.46108   1.42530    0.026
 4792.00    1.47696   1.43354    0.026
 4793.00    1.51244   1.44126    0.025
 4794.00    1.58481   1.44746    0.026
 4795.00    1.60184   1.45217    0.026
 4796.00    1.52797   1.45511    0.026
 4797.00    1.47946   1.45623    0.026
 4798.00    1.46750   1.45600    0.026
 4799.00    1.48953   1.45388    0.026
 4800.00    1.55462   1.45178    0.026
 4801.00    1.56107   1.44807    0.026
 4802.00    1.50202   1.44501    0.026
 4803.00    1.48769   1.44119    0.026
 4804.00    1.51740   1.43827    0.026
 4805.00    1.51779   1.43519    0.026
 4806.00    1.49269   1.43326    0.026
 4807.00    1.45254   1.43194    0.026
 4808.00    1.40088   1.43208    0.026
 4809.00    1.41919   1.43346    0.026
 4810.00    1.48456   1.43631    0.026
 4811.00    1.53979   1.44044    0.026
 4812.00    1.58903   1.44533    0.026
 4813.00    1.57258   1.45097    0.026
 4814.00    1.52237   1.45628    0.026
 4815.00    1.48260   1.46108    0.026
 4816.00    1.44746   1.46470    0.026
 4817.00    1.41691   1.46624    0.026
 4818.00    1.38812   1.46635    0.026
 4819.00    1.47016   1.46458    0.026
 4820.00    1.58825   1.46135    0.026
 4821.00    1.61798   1.45634    0.026
 4822.00    1.62366   1.45051    0.026
 4823.00    1.58950   1.44409    0.026
 4824.00    1.54645   1.43806    0.026
 4825.00    1.52324   1.43214    0.026
 4826.00    1.50357   1.42671    0.027
 4827.00    1.41434   1.42254    0.026
 4828.00    1.31564   1.41904    0.026
 4829.00    1.35497   1.41657    0.026
 4830.00    1.40770   1.41424    0.026
 4831.00    1.43341   1.41299    0.026
 4832.00    1.45749   1.41148    0.026
 4833.00    1.43038   1.41034    0.026
 4834.00    1.40244   1.40883    0.026
 4835.00    1.47012   1.40746    0.026
 4836.00    1.53245   1.40582    0.027
 4837.00    1.45561   1.40375    0.026
 4838.00    1.38407   1.40191    0.026
 4839.00    1.38498   1.40024    0.026
 4840.00    1.38441   1.39888    0.026
 4841.00    1.37047   1.39786    0.026
 4842.00    1.36850   1.39711    0.026
 4843.00    1.44593   1.39669    0.026
 4844.00    1.49283   1.39649    0.026
 4845.00    1.38215   1.39573    0.026
 4846.00    1.30200   1.39407    0.026
 4847.00    1.34896   1.39101    0.027
 4848.00    1.38164   1.38619    0.000
 4849.00    1.36515   1.37896    0.000
 4850.00    1.37011   1.36962    0.000
 4851.00    1.43727   1.35782    0.000
 4852.00    1.46259   1.34341    0.000
 4853.00    1.38436   1.32664    0.000
 4854.00    1.36206   1.30804    0.000
 4855.00    1.45907   1.28846    0.000
 4856.00    1.51217   1.26884    0.000
 4857.00    1.48389   1.25062    0.000
 4858.00    1.45703   1.23397    0.000
 4859.00    1.43246   1.22095    0.000
 4860.00    1.39409   1.21123    0.000
 4861.00    1.33612   1.20646    0.000
 4862.00    1.32058   1.20511    0.000
 4863.00    1.35806   1.20810    0.000
 4864.00    1.34684   1.21341    0.000
 4865.00    1.28200   1.22100    0.000
 4866.00    1.29221   1.22931    0.000
 4867.00    1.37531   1.23813    0.000
 4868.00    1.37793   1.24659    0.000
 4869.00    1.31162   1.25478    0.000
 4870.00    1.27519   1.26277    0.000
 4871.00    1.26130   1.27131    0.000
 4872.00    1.30380   1.28007    0.000
 4873.00    1.38368   1.28982    0.000
 4874.00    1.42575   1.29983    0.000
 4875.00    1.44588   1.31043    0.027
 4876.00    1.46666   1.32022    0.027
 4877.00    1.48777   1.32906    0.027
 4878.00    1.47120   1.33574    0.027
 4879.00    1.43814   1.34010    0.027
 4880.00    1.48544   1.34168    0.027
 4881.00    1.56294   1.34044    0.027
 4882.00    1.54925   1.33698    0.027
 4883.00    1.50646   1.33135    0.026
 4884.00    1.41888   1.32581    0.026
 4885.00    1.31936   1.32014    0.027
 4886.00    1.38101   1.31676    0.027
 4887.00    1.47781   1.31531    0.026
 4888.00    1.40882   1.31788    0.026
 4889.00    1.31110   1.32369    0.026
 4890.00    1.37257   1.33379    0.026
 4891.00    1.45500   1.34686    0.026
 4892.00    1.44799   1.36245    0.026
 4893.00    1.43266   1.37947    0.026
 4894.00    1.48631   1.39615    0.026
 4895.00    1.54387   1.41166    0.026
 4896.00    1.60525   1.42456    0.027
 4897.00    1.66532   1.43477    0.027
 4898.00    1.57235   1.44148    0.027
 4899.00    1.48399   1.44508    0.026
 4900.00    1.50495   1.44578    0.026
 4901.00    1.51955   1.44425    0.026
 4902.00    1.45184   1.44101    0.026
 4903.00    1.39125   1.43664    0.026
 4904.00    1.39254   1.43151    0.026
 4905.00    1.39619   1.42595    0.026
 4906.00    1.41504   1.42000    0.026
 4907.00    1.40831   1.41405    0.026
 4908.00    1.27289   1.40774    0.025
 4909.00    1.19127   1.40142    0.025
 4910.00    1.32865   1.39446    0.025
 4911.00    1.44331   1.38717    0.026
 4912.00    1.48135   1.37888    0.026
 4913.00    1.48904   1.36974    0.026
 4914.00    1.41032   1.35940    0.026
 4915.00    1.37697   1.34820    0.025
 4916.00    1.45400   1.33675    0.025
 4917.00    1.46942   1.32573    0.025
 4918.00    1.35553   1.31655    0.025
 4919.00    1.31479   1.30999    0.025
 4920.00    1.40751   1.30736    0.025
 4921.00    1.45401   1.30894    0.025
 4922.00    1.42679   1.31506    0.025
 4923.00    1.40710   1.32505    0.025
 4924.00    1.39793   1.33806    0.025
 4925.00    1.43814   1.35296    0.025
 4926.00    1.53918   1.36784    0.025
 4927.00    1.57454   1.38167    0.025
 4928.00    1.53861   1.39267    0.025
 4929.00    1.49743   1.40060    0.025
 4930.00    1.45124   1.40447    0.025
 4931.00    1.41597   1.40501    0.025
 4932.00    1.38993   1.40206    0.025
 4933.00    1.37156   1.39735    0.025
 4934.00    1.35890   1.39133    0.025
 4935.00    1.36716   1.38599    0.025
 4936.00    1.38908   1.38173    0.025
 4937.00    1.38904   1.38027    0.025
 4938.00    1.37645   1.38143    0.025
 4939.00    1.37867   1.38611    0.025
 4940.00    1.38827   1.39334    0.000
 4941.00    1.44392   1.40321    0.000
 4942.00    1.51940   1.41423    0.000
 4943.00    1.52393   1.42605    0.000
 4944.00    1.50228   1.43708    0.000
 4945.00    1.51073   1.44691    0.000
 4946.00    1.52862   1.45435    0.000
 4947.00    1.53725   1.45910    0.000
 4948.00    1.54348   1.46061    0.000
 4949.00    1.42933   1.45870    0.000
 4950.00    1.28955   1.45361    0.000
 4951.00    1.34215   1.44539    0.000
 4952.00    1.42716   1.43509    0.000
 4953.00    1.47770   1.42315    0.000
 4954.00    1.52386   1.41097    0.000
 4955.00    1.48486   1.39935    0.000
 4956.00    1.43830   1.38919    0.000
 4957.00    1.38706   1.38137    0.000
 4958.00    1.33557   1.37572    0.000
 4959.00    1.37056   1.37277    0.000
 4960.00    1.40724   1.37137    0.000
 4961.00    1.44705   1.37178    0.000
 4962.00    1.48259   1.37261    0.000
 4963.00    1.42538   1.37416    0.000
 4964.00    1.37533   1.37550    0.000
 4965.00    1.41313   1.37713    0.000
 4966.00    1.43816   1.37870    0.000
 4967.00    1.35615   1.38065    0.000
 4968.00    1.30100   1.38278    0.000
 4969.00    1.41351   1.38508    0.000
 4970.00    1.48460   1.38711    0.000
 4971.00    1.35263   1.38839    0.000
 4972.00    1.26211   1.38818    0.000
 4973.00    1.33661   1.38601    0.000
 4974.00    1.38825   1.38119    0.000
 4975.00    1.36426   1.37383    0.000
 4976.00    1.33065   1.36370    0.000
 4977.00    1.27019   1.35175    0.000
 4978.00    1.26063   1.33838    0.000
 4979.00    1.37279   1.32506    0.000
 4980.00    1.45105   1.31261    0.000
 4981.00    1.45932   1.30232    0.000
 4982.00    1.45887   1.29494    0.000
 4983.00    1.44276   1.29095    0.000
 4984.00    1.40155   1.29056    0.000
 4985.00    1.32093   1.29328    0.000
 4986.00    1.26440   1.29873    0.000
 4987.00    1.24111   1.30574    0.000
 4988.00    1.29584   1.31369    0.000
 4989.00    1.44530   1.32133    0.000
 4990.00    1.50158   1.32814    0.000
 4991.00    1.45813   1.33323    0.000
 4992.00    1.38905   1.33634    0.000
 4993.00    1.29577   1.33703    0.000
 4994.00    1.29051   1.33533    0.000
 4995.00    1.35852   1.33119    0.000
 4996.00    1.35973   1.32489    0.000
 4997.00    1.31200   1.31667    0.000
 4998.00    1.25386   1.30708    0.000
 4999.00    1.18902   1.29657    0.000
 5000.00    1.17704   1.28581    0.000
 5001.00    1.19482   1.27531    0.000
 5002.00    1.21944   1.26560    0.000
 5003.00    1.24741   1.25707    0.000
 5004.00    1.34836   1.24976    0.000
 5005.00    1.48021   1.24387    0.000
 5006.00    1.52509   1.23891    0.000
 5007.00    1.53844   1.23498    0.000
 5008.00    1.42611   1.23125    0.000
 5009.00    1.27523   1.22805    0.000
 5010.00    1.25399   1.22459    0.000
 5011.00    1.26584   1.22158    0.000
 5012.00    1.31402   1.21851    0.000
 5013.00    1.36975   1.21636    0.000
 5014.00    1.35536   1.21484    0.000
 5015.00    1.32950   1.21479    0.000
 5016.00    1.23454   1.21596    0.000
 5017.00    1.13111   1.21877    0.000
 5018.00    1.15969   1.22295    0.000
 5019.00    1.19942   1.22849    0.000
 5020.00    1.21904   1.23517    0.000
 5021.00    1.23767   1.24269    0.000
 5022.00    1.24171   1.25104    0.000
 5023.00    1.24609   1.25977    0.000
 5024.00    1.28454   1.26898    0.000
 5025.00    1.32275   1.27818    0.000
 5026.00    1.35597   1.28727    0.000
 5027.00    1.38761   1.29579    0.000
 5028.00    1.40072   1.30325    0.000
 5029.00    1.40918   1.30925    0.025
 5030.00    1.38007   1.31297    0.025
 5031.00    1.35971   1.31435    0.024
 5032.00    1.39241   1.31267    0.024
 5033.00    1.41638   1.30839    0.025
 5034.00    1.39859   1.30146    0.025
 5035.00    1.37944   1.29294    0.024
 5036.00    1.35498   1.28355    0.024
 5037.00    1.34272   1.27461    0.024
 5038.00    1.37001   1.26714    0.025
 5039.00    1.38705   1.26205    0.025
 5040.00    1.37596   1.25996    0.025
 5041.00    1.38782   1.26100    0.025
 5042.00    1.45364   1.26476    0.025
 5043.00    1.48290   1.27074    0.025
 5044.00    1.43786   1.27790    0.025
 5045.00    1.41917   1.28566    0.025
 5046.00    1.44712   1.29303    0.025
 5047.00    1.45696   1.30007    0.025
 5048.00    1.43876   1.30624    0.025
 5049.00    1.40717   1.31232    0.025
 5050.00    1.35738   1.31813    0.025
 5051.00    1.35911   1.32456    0.025
 5052.00    1.42250   1.33132    0.025
 5053.00    1.38925   1.33892    0.025
 5054.00    1.25401   1.34659    0.025
 5055.00    1.25255   1.35431    0.025
 5056.00    1.37562   1.36101    0.025
 5057.00    1.45912   1.36643    0.025
 5058.00    1.51015   1.36965    0.025
 5059.00    1.46555   1.37057    0.025
 5060.00    1.35188   1.36878    0.025
 5061.00    1.32451   1.36465    0.025
 5062.00    1.35185   1.35837    0.025
 5063.00    1.34808   1.35062    0.025
 5064.00    1.32706   1.34207    0.025
 5065.00    1.31920   1.33328    0.025
 5066.00    1.31768   1.32499    0.025
 5067.00    1.33289   1.31736    0.025
 5068.00    1.35506   1.31077    0.025
 5069.00    1.39744   1.30493    0.025
 5070.00    1.44702   1.29980    0.025
 5071.00    1.43880   1.29487    0.025
 5072.00    1.41320   1.28993    0.025
 5073.00    1.39652   1.28451    0.025
 5074.00    1.38207   1.27872    0.025
 5075.00    1.36806   1.27235    0.025
 5076.00    1.35414   1.26603    0.025
 5077.00    1.28785   1.25982    0.024
 5078.00    1.21324   1.25476    0.024
 5079.00    1.24616   1.25101    0.024
 5080.00    1.29180   1.24954    0.025
 5081.00    1.27572   1.25032    0.024
 5082.00    1.25467   1.25379    0.024
 5083.00    1.27771   1.25957    0.024
 5084.00    1.30273   1.26740    0.023
 5085.00    1.34896   1.27664    0.024
 5086.00    1.39322   1.28648    0.024
 5087.00    1.32653   1.29625    0.023
 5088.00    1.26583   1.30502    0.023
 5089.00    1.31642   1.31230    0.023
 5090.00    1.36267   1.31736    0.023
 5091.00    1.36060   1.32008    0.023
 5092.00    1.35428   1.32022    0.023
 5093.00    1.31475   1.31800    0.024
 5094.00    1.28847   1.31380    0.024
 5095.00    1.34025   1.30805    0.024
 5096.00    1.39354   1.30155    0.023
 5097.00    1.45393   1.29462    0.023
 5098.00    1.47270   1.28822    0.023
 5099.00    1.33289   1.28224    0.023
 5100.00    1.22843   1.27742    0.023
 5101.00    1.23642   1.27330    0.022
 5102.00    1.24087   1.27035    0.022
 5103.00    1.23575   1.26800    0.023
 5104.00    1.22132   1.26665    0.023
 5105.00    1.18535   1.26596    0.023
 5106.00    1.16210   1.26630    0.023
 5107.00    1.16430   1.26772    0.023
 5108.00    1.21395   1.27034    0.024
 5109.00    1.34629   1.27434    0.024
 5110.00    1.41504   1.27941    0.024
 5111.00    1.38680   1.28552    0.024
 5112.00    1.32697   1.29190    0.024
 5113.00    1.22483   1.29816    0.024
 5114.00    1.21929   1.30332    0.024
 5115.00    1.32775   1.30686    0.024
 5116.00    1.38090   1.30804    0.024
 5117.00    1.37650   1.30656    0.025
 5118.00    1.35748   1.30230    0.025
 5119.00    1.32504   1.29540    0.024
 5120.00    1.32165   1.28650    0.024
 5121.00    1.34176   1.27614    0.024
 5122.00    1.31791   1.26547    0.024
 5123.00    1.26277   1.25510    0.024
 5124.00    1.25435   1.24616    0.024
 5125.00    1.27512   1.23904    0.024
 5126.00    1.27512   1.23433    0.024
 5127.00    1.26379   1.23200    0.024
 5128.00    1.26984   1.23190    0.024
 5129.00    1.28413   1.23366    0.025
 5130.00    1.25727   1.23653    0.024
 5131.00    1.21359   1.24007    0.024
 5132.00    1.27426   1.24327    0.024
 5133.00    1.37143   1.24593    0.025
 5134.00    1.33212   1.24724    0.025
 5135.00    1.25257   1.24728    0.025
 5136.00    1.20209   1.24583    0.024
 5137.00    1.15871   1.24311    0.024
 5138.00    1.17963   1.23948    0.024
 5139.00    1.21325   1.23509    0.024
 5140.00    1.26207   1.23061    0.024
 5141.00    1.31323   1.22603    0.024
 5142.00    1.26172   1.22199    0.024
 5143.00    1.19851   1.21836    0.024
 5144.00    1.19605   1.21557    0.024
 5145.00    1.19822   1.21355    0.023
 5146.00    1.20953   1.21248    0.023
 5147.00    1.22122   1.21245    0.024
 5148.00    1.31042   1.21345    0.024
 5149.00    1.39692   1.21572    0.025
 5150.00    1.34314   1.21897    0.024
 5151.00    1.29480   1.22344    0.024
 5152.00    1.34054   1.22846    0.024
 5153.00    1.37728   1.23401    0.024
 5154.00    1.31820   1.23901    0.024
 5155.00    1.26608   1.24305    0.024
 5156.00    1.26626   1.24482    0.024
 5157.00    1.26941   1.24371    0.024
 5158.00    1.28954   1.23857    0.024
 5159.00    1.29888   1.22904    0.024
 5160.00    1.25912   1.21463    0.024
 5161.00    1.22911   1.19569    0.024
 5162.00    1.23546   1.17270    0.024
 5163.00    1.23447   1.14681    0.023
 5164.00    1.21057   1.11947    0.023
 5165.00    1.17138   1.09223    0.024
 5166.00    1.09165   1.06701    0.024
 5167.00    1.03775   1.04504    0.024
 5168.00    1.04255   1.02813    0.024
 5169.00    1.04955   1.01651    0.023
 5170.00    1.06085   1.01112    0.023
 5171.00    1.06148   1.01109    0.023
 5172.00    1.04379   1.01619    0.023
 5173.00    1.08187   1.02482    0.023
 5174.00    1.20376   1.03577    0.023
 5175.00    1.27661   1.04734    0.023
 5176.00    1.28466   1.05830    0.024
 5177.00    1.25950   1.06759    0.023
 5178.00    1.19568   1.07479    0.023
 5179.00    1.16558   1.07987    0.023
 5180.00    1.17006   1.08349    0.023
 5181.00    1.16647   1.08648    0.023
 5182.00    1.15556   1.08981    0.023
 5183.00    1.10589   1.09449    0.023
 5184.00    1.02531   1.10087    0.023
 5185.00    0.98242   1.10957    0.023
 5186.00    0.96596   1.11981    0.023
 5187.00    1.07217   1.13170    0.023
 5188.00    1.25386   1.14394    0.023
 5189.00    1.27468   1.15643    0.035
 5190.00    1.20902   1.16819    0.000
 5191.00    1.14908   1.17918    0.000
 5192.00    1.09181   1.18909    0.000
 5193.00    1.14004   1.19783    0.000
 5194.00    1.23072   1.20554    0.000
 5195.00    1.28348   1.21184    0.000
 5196.00    1.32321   1.21680    0.000
 5197.00    1.37902   1.21987    0.000
 5198.00    1.43948   1.22089    0.000
 5199.00    1.31693   1.21961    0.000
 5200.00    1.15068   1.21592    0.000
 5201.00    1.18496   1.21028    0.000
 5202.00    1.25785   1.20292    0.000
 5203.00    1.16482   1.19517    0.000
 5204.00    1.04699   1.18743    0.000
 5205.00    1.09289   1.18150    0.000
 5206.00    1.15673   1.17750    0.000
 5207.00    1.18651   1.17702    0.000
 5208.00    1.21382   1.17949    0.000
 5209.00    1.22537   1.18569    0.000
 5210.00    1.23632   1.19449    0.000
 5211.00    1.30481   1.20563    0.024
 5212.00    1.36955   1.21803    0.024
 5213.00    1.28797   1.23056    0.024
 5214.00    1.21847   1.24269    0.024
 5215.00    1.34487   1.25299    0.024
 5216.00    1.46223   1.26151    0.024
 5217.00    1.48766   1.26709    0.024
 5218.00    1.49833   1.27010    0.024
 5219.00    1.40165   1.27013    0.024
 5220.00    1.32069   1.26765    0.024
 5221.00    1.32732   1.26311    0.024
 5222.00    1.32917   1.25712    0.024
 5223.00    1.30973   1.25073    0.024
 5224.00    1.28904   1.24468    0.023
 5225.00    1.26382   1.23997    0.023
 5226.00    1.25960   1.23724    0.023
 5227.00    1.31967   1.23702    0.023
 5228.00    1.35554   1.23956    0.023
 5229.00    1.32847   1.24470    0.024
 5230.00    1.29802   1.25226    0.024
 5231.00    1.26000   1.26166    0.023
 5232.00    1.25456   1.27250    0.023
 5233.00    1.31227   1.28397    0.023
 5234.00    1.34593   1.29582    0.023
 5235.00    1.33894   1.30707    0.023
 5236.00    1.34192   1.31772    0.023
 5237.00    1.35970   1.32678    0.023
 5238.00    1.38077   1.33432    0.023
 5239.00    1.40610   1.33961    0.022
 5240.00    1.41403   1.34270    0.022
 5241.00    1.40198   1.34333    0.023
 5242.00    1.35289   1.34162    0.023
 5243.00    1.26633   1.33786    0.023
 5244.00    1.26897   1.33234    0.023
 5245.00    1.35119   1.32577    0.023
 5246.00    1.34001   1.31865    0.023
 5247.00    1.25540   1.31180    0.023
 5248.00    1.22895   1.30568    0.023
 5249.00    1.24272   1.30087    0.023
 5250.00    1.26252   1.29752    0.023
 5251.00    1.28597   1.29562    0.023
 5252.00    1.28805   1.29494    0.023
 5253.00    1.27881   1.29463    0.023
 5254.00    1.26338   1.29433    0.023
 5255.00    1.24512   1.29253    0.023
 5256.00    1.26448   1.28910    0.023
 5257.00    1.29873   1.28244    0.023
 5258.00    1.33113   1.27292    0.023
 5259.00    1.36291   1.25969    0.023
 5260.00    1.34318   1.24364    0.023
 5261.00    1.30889   1.22527    0.024
 5262.00    1.36565   1.20556    0.024
 5263.00    1.44367   1.18619    0.024
 5264.00    1.36472   1.16799    0.025
 5265.00    1.25633   1.15309    0.025
 5266.00    1.19615   1.14168    0.025
 5267.00    1.14294   1.13555    0.024
 5268.00    1.17286   1.13421    0.024
 5269.00    1.21154   1.13848    0.024
 5270.00    1.18284   1.14735    0.025
 5271.00    1.14956   1.16048    0.025
 5272.00    1.28619   1.17683    0.025
 5273.00    1.42852   1.19517    0.025
 5274.00    1.35906   1.21467    0.024
 5275.00    1.29432   1.23397    0.024
 5276.00    1.38810   1.25263    0.024
 5277.00    1.47870   1.26982    0.024
 5278.00    1.52091   1.28544    0.024
 5279.00    1.54588   1.29946    0.024
 5280.00    1.40274   1.31194    0.024
 5281.00    1.27749   1.32366    0.024
 5282.00    1.27817   1.33434    0.023
 5283.00    1.29417   1.34480    0.023
 5284.00    1.39324   1.35446    0.023
 5285.00    1.47312   1.36384    0.023
 5286.00    1.46957   1.37192    0.023
 5287.00    1.46537   1.37886    0.023
 5288.00    1.45885   1.38359    0.023
 5289.00    1.43886   1.38600    0.023
 5290.00    1.37840   1.38566    0.023
 5291.00    1.34852   1.38268    0.023
 5292.00    1.39683   1.37741    0.023
 5293.00    1.42434   1.37037    0.023
 5294.00    1.40607   1.36245    0.023
 5295.00    1.38068   1.35468    0.023
 5296.00    1.34167   1.34790    0.023
 5297.00    1.31831   1.34323    0.023
 5298.00    1.32101   1.34098    0.023
 5299.00    1.35141   1.34205    0.023
 5300.00    1.42223   1.34593    0.023
 5301.00    1.44382   1.35283    0.023
 5302.00    1.40224   1.36170    0.023
 5303.00    1.37687   1.37215    0.023
 5304.00    1.36983   1.38313    0.022
 5305.00    1.39742   1.39384    0.022
 5306.00    1.45955   1.40363    0.023
 5307.00    1.46185   1.41176    0.023
 5308.00    1.41153   1.41804    0.022
 5309.00    1.38630   1.42194    0.022
 5310.00    1.38052   1.42364    0.022
 5311.00    1.39959   1.42305    0.023
 5312.00    1.43561   1.42043    0.023
 5313.00    1.42763   1.41585    0.023
 5314.00    1.39339   1.40961    0.023
 5315.00    1.40780   1.40166    0.023
 5316.00    1.44756   1.39249    0.023
 5317.00    1.40525   1.38171    0.023
 5318.00    1.32587   1.37003    0.022
 5319.00    1.34274   1.35676    0.023
 5320.00    1.39702   1.34308    0.023
 5321.00    1.34383   1.32839    0.023
 5322.00    1.25513   1.31403    0.022
 5323.00    1.30939   1.30010    0.023
 5324.00    1.40329   1.28752    0.023
 5325.00    1.34392   1.27725    0.023
 5326.00    1.24958   1.26941    0.023
 5327.00    1.24354   1.26546    0.023
 5328.00    1.25361   1.26428    0.023
 5329.00    1.31697   1.26734    0.023
 5330.00    1.38781   1.27264    0.023
 5331.00    1.35184   1.28086    0.023
 5332.00    1.30509   1.28994    0.022
 5333.00    1.31302   1.29982    0.022
 5334.00    1.32446   1.30921    0.023
 5335.00    1.30222   1.31720    0.023
 5336.00    1.27908   1.32369    0.023
 5337.00    1.29652   1.32842    0.022
 5338.00    1.31389   1.33207    0.022
 5339.00    1.32914   1.33387    0.022
 5340.00    1.34329   1.33505    0.022
 5341.00    1.34165   1.33563    0.022
 5342.00    1.34470   1.33686    0.022
 5343.00    1.39169   1.33851    0.022
 5344.00    1.43088   1.34133    0.022
 5345.00    1.41690   1.34522    0.022
 5346.00    1.39462   1.35067    0.022
 5347.00    1.32856   1.35752    0.022
 5348.00    1.27117   1.36569    0.022
 5349.00    1.25060   1.37509    0.022
 5350.00    1.24949   1.38540    0.021
 5351.00    1.31653   1.39603    0.021
 5352.00    1.36676   1.40637    0.022
 5353.00    1.36739   1.41606    0.022
 5354.00    1.39092   1.42434    0.022
 5355.00    1.47193   1.43078    0.022
 5356.00    1.51227   1.43472    0.022
 5357.00    1.46458   1.43604    0.022
 5358.00    1.42822   1.43417    0.022
 5359.00    1.41317   1.42981    0.022
 5360.00    1.40779   1.42236    0.022
 5361.00    1.41829   1.41303    0.021
 5362.00    1.41462   1.40169    0.022
 5363.00    1.39057   1.38946    0.022
 5364.00    1.36257   1.37698    0.022
 5365.00    1.32955   1.36465    0.022
 5366.00    1.31489   1.35405    0.022
 5367.00    1.32069   1.34461    0.022
 5368.00    1.30635   1.33827   -2.000
 5369.00    1.27221   1.33403   -2.000
 5370.00    1.24934   1.33321   -2.000
 5371.00    1.23626   1.33479   -2.000
 5372.00    1.26147   1.33895   -2.000
 5373.00    1.31593   1.34519   -2.000
 5374.00    1.40584   1.35220   -2.000
 5375.00    1.51956   1.36034   -2.000
 5376.00    1.53272   1.36744   -2.000
 5377.00    1.48674   1.37442   -2.000
 5378.00    1.43383   1.37964   -2.000
 5379.00    1.37737   1.38375   -2.000
 5380.00    1.37293   1.38572   -2.000
 5381.00    1.39160   1.38574   -2.000
 5382.00    1.40876   1.38414   -2.000
 5383.00    1.42534   1.38049    0.022
 5384.00    1.42795   1.37588    0.022
 5385.00    1.42602   1.36969    0.022
 5386.00    1.40123   1.36253    0.022
 5387.00    1.37022   1.35438    0.022
 5388.00    1.38316   1.34561    0.022
 5389.00    1.40589   1.33646    0.021
 5390.00    1.40883   1.32693    0.021
 5391.00    1.40825   1.31805    0.021
 5392.00    1.31761   1.30891    0.021
 5393.00    1.21475   1.30079    0.021
 5394.00    1.17409   1.29298    0.021
 5395.00    1.13945   1.28633    0.021
 5396.00    1.20517   1.28029    0.021
 5397.00    1.27693   1.27508    0.021
 5398.00    1.23340   1.27051    0.021
 5399.00    1.18716   1.26605    0.021
 5400.00    1.18982   1.26243    0.021
 5401.00    1.19422   1.25871    0.021
 5402.00    1.24324   1.25605    0.021
 5403.00    1.28638   1.25345    0.021
 5404.00    1.24994   1.25279    0.021
 5405.00    1.21873   1.25365    0.021
 5406.00    1.23456   1.25603    0.021
 5407.00    1.24808   1.26044    0.021
 5408.00    1.24635   1.26696    0.020
 5409.00    1.24105   1.27559    0.020
 5410.00    1.21734   1.28527    0.020
 5411.00    1.20517   1.29671    0.021
 5412.00    1.24095   1.30845    0.021
 5413.00    1.29829   1.32056    0.021
 5414.00    1.42972   1.33169    0.021
 5415.00    1.50951   1.34132    0.021
 5416.00    1.43995   1.34924    0.021
 5417.00    1.36962   1.35549    0.021
 5418.00    1.29737   1.35980    0.021
 5419.00    1.24871   1.36174    0.021
 5420.00    1.25027   1.36200    0.021
 5421.00    1.26368   1.36042    0.021
 5422.00    1.29904   1.35761    0.021
 5423.00    1.31529   1.35358    0.021
 5424.00    1.30066   1.34837    0.021
 5425.00    1.28297   1.34253    0.021
 5426.00    1.26093   1.33641    0.021
 5427.00    1.25611   1.33040    0.021
 5428.00    1.27274   1.32487    0.021
 5429.00    1.28091   1.32025    0.021
 5430.00    1.27976   1.31641    0.021
 5431.00    1.26927   1.31485    0.021
 5432.00    1.24973   1.31490    0.021
 5433.00    1.24734   1.31711    0.021
 5434.00    1.25960   1.32058    0.021
 5435.00    1.28045   1.32601    0.021
 5436.00    1.30777   1.33219    0.021
 5437.00    1.35503   1.33964    0.021
 5438.00    1.41550   1.34636    0.021
 5439.00    1.41306   1.35184    0.021
 5440.00    1.37419   1.35623    0.020
 5441.00    1.33151   1.35862    0.020
 5442.00    1.28690   1.35925    0.020
 5443.00    1.27037   1.35788    0.020
 5444.00    1.26611   1.35470    0.020
 5445.00    1.28978   1.35037    0.020
 5446.00    1.32392   1.34513    0.020
 5447.00    1.35272   1.33970    0.020
 5448.00    1.37984   1.33480    0.020
 5449.00    1.32503   1.32992    0.020
 5450.00    1.24844   1.32634    0.020
 5451.00    1.24421   1.32260    0.020
 5452.00    1.25572   1.32079    0.020
 5453.00    1.26645   1.31889    0.020
 5454.00    1.27704   1.31848    0.020
 5455.00    1.27146   1.31806    0.020
 5456.00    1.26375   1.31814    0.020
 5457.00    1.29260   1.31843    0.020
 5458.00    1.32482   1.31895    0.020
 5459.00    1.31138   1.31992    0.020
 5460.00    1.29538   1.32070    0.020
 5461.00    1.31445   1.32200    0.020
 5462.00    1.33387   1.32266    0.021
 5463.00    1.30873   1.32351    0.020
 5464.00    1.28486   1.32314    0.020
 5465.00    1.29075   1.32211    0.020
 5466.00    1.30118   1.32031    0.020
 5467.00    1.36981   1.31746    0.020
 5468.00    1.42502   1.31412    0.021
 5469.00    1.36408   1.31027    0.021
 5470.00    1.30508   1.30564    0.021
 5471.00    1.25856   1.30055    0.020
 5472.00    1.23068   1.29502    0.020
 5473.00    1.29625   1.28976    0.020
 5474.00    1.34620   1.28508    0.020
 5475.00    1.33272   1.28146    0.020
 5476.00    1.32681   1.27909    0.020
 5477.00    1.34638   1.27791    0.021
 5478.00    1.34735   1.27823   -2.000
 5479.00    1.29545   1.27989   -2.000
 5480.00    1.26521   1.28302   -2.000
 5481.00    1.28753   1.28650   -2.000
 5482.00    1.30884   1.29193   -2.000
 5483.00    1.32801   1.29673   -2.000
 5484.00    1.30550   1.30225   -2.000
 5485.00    1.20707   1.30658   -2.000
 5486.00    1.19317   1.31118   -2.000
 5487.00    1.31383   1.31506   -2.000
 5488.00    1.45349   1.31821   -2.000
 5489.00    1.61970   1.32127   -2.000
 5490.00    1.76543   1.32324   -2.000
 5491.00    1.88600   1.32472   -2.000
 5492.00    1.85816   1.32515   -2.000
 5493.00    1.66948   1.32581   -2.000
 5494.00    1.53682   1.32566   -2.000
 5495.00    1.45768   1.32528   -2.000
 5496.00    1.41132   1.32452   -2.000
 5497.00    1.39257   1.32244   -2.000
 5498.00    1.34943   1.32056   -2.000
 5499.00    1.28817   1.31823   -2.000
 5500.00    1.28032   1.31565   -2.000
 5501.00    1.30728   1.31236   -2.000
 5502.00    1.35155   1.30924    0.019
 5503.00    1.40570   1.30602    0.020
 5504.00    1.37632   1.30270    0.020
 5505.00    1.30543   1.29941    0.019
 5506.00    1.28557   1.29644    0.020
 5507.00    1.28763   1.29427    0.020
 5508.00    1.29592   1.29249    0.020
 5509.00    1.30650   1.29200    0.020
 5510.00    1.29814   1.29174    0.020
 5511.00    1.28386   1.29296    0.020
 5512.00    1.26115   1.29525    0.020
 5513.00    1.23625   1.29859    0.020
 5514.00    1.22278   1.30235    0.020
 5515.00    1.21173   1.30723    0.020
 5516.00    1.24835   1.31183    0.020
 5517.00    1.29298   1.31694    0.020
 5518.00    1.32250   1.32173    0.020
 5519.00    1.35010   1.32546    0.020
 5520.00    1.36587   1.32866    0.020
 5521.00    1.38059   1.33022    0.020
 5522.00    1.33807   1.33102    0.020
 5523.00    1.29256   1.33040    0.020
 5524.00    1.27096   1.32874    0.020
 5525.00    1.25088   1.32652    0.020
 5526.00    1.31176   1.32400    0.020
 5527.00    1.36764   1.32196    0.019
 5528.00    1.31619   1.32007    0.019
 5529.00    1.26805   1.31911    0.019
 5530.00    1.26029   1.31873    0.019
 5531.00    1.25706   1.31937    0.020
 5532.00    1.29164   1.32073    0.020
 5533.00    1.32445   1.32307    0.020
 5534.00    1.34627   1.32655    0.020
 5535.00    1.36098   1.32962    0.020
 5536.00    1.34095   1.33314    0.019
 5537.00    1.32330   1.33632    0.019
 5538.00    1.31513   1.34004    0.019
 5539.00    1.30890   1.34338    0.019
 5540.00    1.30904   1.34689    0.019
 5541.00    1.31111   1.35074    0.019
 5542.00    1.31853   1.35371    0.019
 5543.00    1.32183   1.35706    0.022
 5544.00    1.31533   1.35986    0.054
 5545.00    1.31729   1.36241   -1.000
 5546.00    1.33669   1.36429   -1.000
 5547.00    1.35792   1.36560   -1.000
 5548.00    1.38243   1.36664   -1.000
 5549.00    1.38203   1.36730   -1.000
 5550.00    1.34257   1.36709   -1.000
 5551.00    1.32007   1.36601    0.090
 5552.00    1.32092   1.36494    0.027
 5553.00    1.30489   1.36244    0.019
 5554.00    1.26842   1.35947    0.019
 5555.00    1.24476   1.35579    0.019
 5556.00    1.23478   1.35163    0.019
 5557.00    1.22031   1.34721    0.019
 5558.00    1.20160   1.34244    0.019
 5559.00    1.21239   1.33789    0.020
 5560.00    1.24772   1.33327    0.019
 5561.00    1.28578   1.32884    0.019
 5562.00    1.32585   1.32427    0.020
 5563.00    1.31535   1.32023    0.020
 5564.00    1.27236   1.31688    0.020
 5565.00    1.27718   1.31353    0.020
 5566.00    1.30886   1.31102    0.020
 5567.00    1.29909   1.30927    0.019
 5568.00    1.26905   1.30878    0.019
 5569.00    1.25534   1.30867    0.019
 5570.00    1.24854   1.30901    0.019
 5571.00    1.22015   1.31041    0.019
 5572.00    1.18395   1.31187    0.019
 5573.00    1.19624   1.31368    0.019
 5574.00    1.22338   1.31493    0.019
 5575.00    1.22236   1.31640    0.019
 5576.00    1.21419   1.31668    0.019
 5577.00    1.22336   1.31523    0.019
 5578.00    1.23613   1.31382    0.019
 5579.00    1.27808   1.31063    0.019
 5580.00    1.32480   1.30516    0.019
 5581.00    1.28974   1.29922    0.019
 5582.00    1.24469   1.29231    0.019
 5583.00    1.24458   1.28448    0.019
 5584.00    1.24824   1.27700    0.019
 5585.00    1.24254   1.26944    0.019
 5586.00    1.23638   1.26242    0.019
 5587.00    1.19123   1.25669    0.019
 5588.00    1.14651   1.25279    0.019
 5589.00    1.16243   1.25014    0.019
 5590.00    1.17770   1.24916    0.019
 5591.00    1.18012   1.24893    0.019
 5592.00    1.18370   1.25072    0.019
 5593.00    1.20086   1.25384    0.019
 5594.00    1.21791   1.25690    0.019
 5595.00    1.23406   1.26114    0.019
 5596.00    1.24843   1.26446    0.019
 5597.00    1.25209   1.26909    0.020
 5598.00    1.24987   1.27343    0.020
 5599.00    1.21972   1.27859    0.019
 5600.00    1.19325   1.28448    0.019
 5601.00    1.18112   1.29008    0.020
 5602.00    1.17792   1.29582    0.020
 5603.00    1.20360   1.30188    0.020
 5604.00    1.23213   1.30923    0.020
 5605.00    1.26848   1.31503    0.019
 5606.00    1.29478   1.32096    0.019
 5607.00    1.29751   1.32499    0.019
 5608.00    1.30518   1.32734    0.019
 5609.00    1.32289   1.32857    0.019
 5610.00    1.30563   1.32775    0.019
 5611.00    1.22663   1.32527    0.019
 5612.00    1.18385   1.32081    0.019
 5613.00    1.19703   1.31563    0.019
 5614.00    1.19206   1.31031    0.019
 5615.00    1.16245   1.30476    0.018
 5616.00    1.15905   1.29964    0.018
 5617.00    1.18699   1.29405    0.018
 5618.00    1.20685   1.28966    0.018
 5619.00    1.21821   1.28650    0.018
 5620.00    1.21796   1.28500    0.018
 5621.00    1.20692   1.28570    0.018
 5622.00    1.20397   1.28665    0.018
 5623.00    1.20766   1.28828    0.018
 5624.00    1.23120   1.29053    0.018
 5625.00    1.26904   1.29354    0.018
 5626.00    1.28746   1.29676    0.018
 5627.00    1.29360   1.29967    0.018
 5628.00    1.31235   1.30236    0.018
 5629.00    1.33808   1.30480    0.018
 5630.00    1.33973   1.30725    0.018
 5631.00    1.32981   1.30904    0.018
 5632.00    1.31479   1.30949    0.018
 5633.00    1.29766   1.30936    0.018
 5634.00    1.31909   1.30776    0.018
 5635.00    1.35422   1.30592    0.018
 5636.00    1.33442   1.30355    0.018
 5637.00    1.29815   1.30114    0.018
 5638.00    1.26074   1.29913    0.018
 5639.00    1.22305   1.29726    0.019
 5640.00    1.23268   1.29655    0.018
 5641.00    1.25187   1.29595    0.018
 5642.00    1.25627   1.29633    0.018
 5643.00    1.25834   1.29698    0.019
 5644.00    1.28493   1.29828    0.019
 5645.00    1.31441   1.29952    0.019
 5646.00    1.28587   1.30064    0.019
 5647.00    1.25269   1.30184    0.018
 5648.00    1.23931   1.30179    0.018
 5649.00    1.22680   1.30196    0.018
 5650.00    1.18996   1.30076    0.018
 5651.00    1.15399   1.29807    0.018
 5652.00    1.17398   1.29512    0.018
 5653.00    1.19341   1.29185    0.018
 5654.00    1.20269   1.28807    0.018
 5655.00    1.21133   1.28416    0.018
 5656.00    1.21300   1.28048    0.018
 5657.00    1.21065   1.27731    0.018
 5658.00    1.17716   1.27485    0.018
 5659.00    1.15654   1.27351    0.018
 5660.00    1.21148   1.27292    0.018
 5661.00    1.25505   1.27412    0.018
 5662.00    1.24571   1.27576    0.018
 5663.00    1.23538   1.27898    0.018
 5664.00    1.22129   1.28379    0.018
 5665.00    1.21017   1.28900    0.018
 5666.00    1.20847   1.29450    0.018
 5667.00    1.20468   1.30031    0.018
 5668.00    1.19530   1.30657    0.018
 5669.00    1.19834   1.31231    0.018
 5670.00    1.23004   1.31781    0.018
 5671.00    1.27818   1.32238    0.018
 5672.00    1.35918   1.32658    0.018
 5673.00    1.39280   1.33009    0.018
 5674.00    1.34404   1.33276    0.018
 5675.00    1.29267   1.33375    0.018
 5676.00    1.23732   1.33406    0.018
 5677.00    1.20772   1.33304    0.018
 5678.00    1.21254   1.33127    0.018
 5679.00    1.20899   1.32847    0.019
 5680.00    1.19558   1.32508    0.019
 5681.00    1.19755   1.32191    0.019
 5682.00    1.21548   1.31826    0.019
 5683.00    1.21925   1.31577    0.019
 5684.00    1.21007   1.31311    0.018
 5685.00    1.19608   1.31230    0.018
 5686.00    1.17821   1.31147    0.018
 5687.00    1.17376   1.31177    0.018
 5688.00    1.17884   1.31281    0.018
 5689.00    1.20081   1.31377    0.018
 5690.00    1.23330   1.31524    0.018
 5691.00    1.25655   1.31541    0.018
 5692.00    1.27475   1.31649    0.018
 5693.00    1.27713   1.31575    0.018
 5694.00    1.27202   1.31474    0.018
 5695.00    1.27626   1.31218    0.018
 5696.00    1.28433   1.30831    0.018
 5697.00    1.27909   1.30405    0.018
 5698.00    1.26919   1.29830    0.018
 5699.00    1.28161   1.29243    0.018
 5700.00    1.30059   1.28548    0.018
 5701.00    1.29543   1.27874    0.018
 5702.00    1.28438   1.27168    0.018
 5703.00    1.27376   1.26552    0.018
 5704.00    1.26324   1.26003    0.018
 5705.00    1.22099   1.25575    0.018
 5706.00    1.17387   1.25323    0.018
 5707.00    1.17020   1.25193    0.017
 5708.00    1.17144   1.25268    0.017
 5709.00    1.20936   1.25478    0.018
 5710.00    1.25006   1.25864    0.018
 5711.00    1.25901   1.26383    0.018
 5712.00    1.26668   1.27146    0.018
 5713.00    1.28208   1.27977    0.018
 5714.00    1.29708   1.28918    0.018
 5715.00    1.29337   1.29970    0.018
 5716.00    1.29068   1.30952    0.018
 5717.00    1.30559   1.31931    0.018
 5718.00    1.31864   1.32836    0.018
 5719.00    1.31201   1.33575    0.018
 5720.00    1.31100   1.34179    0.018
 5721.00    1.35216   1.34706    0.019
 5722.00    1.38987   1.35052    0.019
 5723.00    1.40787   1.35334    0.019
 5724.00    1.40798   1.35503    0.019
 5725.00    1.32683   1.35560    0.018
 5726.00    1.25988   1.35544    0.018
 5727.00    1.24579   1.35474    0.018
 5728.00    1.24735   1.35429    0.018
 5729.00    1.29759   1.35304    0.018
 5730.00    1.32616   1.35259    0.018
 5731.00    1.29743   1.35202    0.018
 5732.00    1.27154   1.35180    0.018
 5733.00    1.25209   1.35176    0.018
 5734.00    1.24231   1.35159    0.018
 5735.00    1.25152   1.35184    0.018
 5736.00    1.26451   1.35180    0.018
 5737.00    1.28400   1.35228    0.018
 5738.00    1.30063   1.35212    0.018
 5739.00    1.31300   1.35186    0.018
 5740.00    1.32169   1.35143    0.000
 5741.00    1.32554   1.35040    0.000
 5742.00    1.31097   1.34936    0.000
 5743.00    1.27500   1.34764    0.000
 5744.00    1.26182   1.34633    0.000
 5745.00    1.27198   1.34446    0.000
 5746.00    1.28252   1.34246    0.000
 5747.00    1.29339   1.33985    0.000
 5748.00    1.29496   1.33716    0.000
 5749.00    1.28911   1.33465    0.000
 5750.00    1.29668   1.33206    0.000
 5751.00    1.31365   1.33069    0.000
 5752.00    1.32394   1.32893    0.000
 5753.00    1.33012   1.32800    0.000
 5754.00    1.31257   1.32665    0.000
 5755.00    1.28229   1.32549    0.000
 5756.00    1.27047   1.32439    0.000
 5757.00    1.26726   1.32461    0.000
 5758.00    1.24227   1.32559    0.000
 5759.00    1.20853   1.32751    0.000
 5760.00    1.21648   1.32991    0.000
 5761.00    1.23871   1.33171    0.000
 5762.00    1.28191   1.33384    0.000
 5763.00    1.33114   1.33580    0.000
 5764.00    1.36804   1.33816    0.000
 5765.00    1.40201   1.34014    0.000
 5766.00    1.39443   1.34317    0.000
 5767.00    1.37890   1.34480    0.000
 5768.00    1.36977   1.34630    0.000
 5769.00    1.36159   1.34648    0.000
 5770.00    1.36745   1.34525    0.000
 5771.00    1.37485   1.34323    0.000
 5772.00    1.36710   1.33980    0.000
 5773.00    1.35827   1.33563    0.000
 5774.00    1.32534   1.32954    0.000
 5775.00    1.29152   1.32331    0.000
 5776.00    1.24982   1.31542    0.000
 5777.00    1.20941   1.30790    0.000
 5778.00    1.21610   1.30063    0.000
 5779.00    1.22267   1.29349    0.000
 5780.00    1.22746   1.28672    0.000
 5781.00    1.23085   1.28112    0.000
 5782.00    1.22007   1.27748    0.000
 5783.00    1.20914   1.27400    0.000
 5784.00    1.19703   1.27340    0.000
 5785.00    1.19280   1.27415    0.000
 5786.00    1.23229   1.27647    0.000
 5787.00    1.26486   1.28077    0.000
 5788.00    1.26671   1.28628    0.000
 5789.00    1.26973   1.29309    0.000
 5790.00    1.27702   1.29990    0.000
 5791.00    1.29094   1.30716   -2.000
 5792.00    1.32508   1.31358   -2.000
 5793.00    1.35132   1.31915   -2.000
 5794.00    1.35706   1.32612   -2.000
 5795.00    1.35731   1.33218   -2.000
 5796.00    1.34532   1.33734   -2.000
 5797.00    1.39276   1.34225   -2.000
 5798.00    1.55518   1.34563   -2.000
 5799.00    1.67209   1.34779   -2.000
 5800.00    1.71222   1.34925   -2.000
 5801.00    1.68260   1.35098   -2.000
 5802.00    1.54987   1.35229   -2.000
 5803.00    1.44499   1.35303   -2.000
 5804.00    1.37633   1.35359   -2.000
 5805.00    1.33437   1.35325   -2.000
 5806.00    1.32298   1.35266   -2.000
 5807.00    1.33756   1.35193   -2.000
 5808.00    1.37838   1.35146   -2.000
 5809.00    1.39194   1.35104   -2.000
 5810.00    1.38121   1.35096   -2.000
 5811.00    1.36826   1.35090    0.000
 5812.00    1.35355   1.35129    0.000
 5813.00    1.34488   1.35276    0.000
 5814.00    1.34036   1.35371    0.000
 5815.00    1.33384   1.35530    0.000
 5816.00    1.32610   1.35674    0.000
 5817.00    1.33321   1.35843    0.000
 5818.00    1.34816   1.36026    0.000
 5819.00    1.37140   1.36233    0.000
 5820.00    1.39844   1.36540    0.000
 5821.00    1.41178   1.36759    0.000
 5822.00    1.41971   1.36995    0.000
 5823.00    1.39922   1.37149    0.000
 5824.00    1.36917   1.37277    0.000
 5825.00    1.37279   1.37373    0.000
 5826.00    1.38592   1.37391    0.000
 5827.00    1.39015   1.37430    0.000
 5828.00    1.39230   1.37414    0.000
 5829.00    1.38254   1.37371    0.000
 5830.00    1.37056   1.37275    0.000
 5831.00    1.36581   1.37224    0.000
 5832.00    1.36211   1.37158    0.000
 5833.00    1.36193   1.37018    0.000
 5834.00    1.36212   1.36929    0.000
 5835.00    1.36962   1.36880    0.000
 5836.00    1.37763   1.36811    0.000
 5837.00    1.36781   1.36735    0.000
 5838.00    1.35739   1.36687    0.000
 5839.00    1.37210   1.36594    0.000
 5840.00    1.38697   1.36430    0.000
 5841.00    1.40671   1.36235    0.000
 5842.00    1.42159   1.35997    0.000
 5843.00    1.36326   1.35700    0.000
 5844.00    1.30872   1.35365    0.000
 5845.00    1.29089   1.34937    0.000
 5846.00    1.27646   1.34416    0.000
 5847.00    1.28590   1.33823    0.000
 5848.00    1.29343   1.33148    0.000
 5849.00    1.29069   1.32508    0.000
 5850.00    1.28936   1.31890    0.000
 5851.00    1.29416   1.31290    0.000
 5852.00    1.29267   1.30632    0.000
 5853.00    1.26870   1.30046    0.000
 5854.00    1.25219   1.29610    0.000
 5855.00    1.25805   1.29182    0.000
 5856.00    1.26467   1.28970    0.000
 5857.00    1.27323   1.28774    0.000
 5858.00    1.27423   1.28706    0.000
 5859.00    1.25861   1.28709    0.000
 5860.00    1.23630   1.28812    0.000
 5861.00    1.20123   1.29026    0.000
 5862.00    1.18933   1.29245    0.000
 5863.00    1.21592   1.29667    0.000
 5864.00    1.25559   1.29998    0.000
 5865.00    1.31430   1.30362    0.000
 5866.00    1.34409   1.30691    0.000
 5867.00    1.33686   1.30986    0.000
 5868.00    1.32585   1.31177    0.000
 5869.00    1.31059   1.31349    0.000
 5870.00    1.31128   1.31548    0.000
 5871.00    1.32784   1.31568    0.000
 5872.00    1.32561   1.31521    0.000
 5873.00    1.30688   1.31316    0.000
 5874.00    1.28827   1.31013    0.000
 5875.00    1.26974   1.30491    0.000
 5876.00    1.28287   1.29918    0.000
 5877.00    1.31754   1.29234    0.000
 5878.00    1.31688   1.28280    0.000
 5879.00    1.29516   1.27206    0.000
 5880.00    1.25150   1.25977    0.000
 5881.00    1.19642   1.24609    0.000
 5882.00    1.17648   1.23004    0.000
 5883.00    1.17238   1.21183    0.000
 5884.00    1.14710   1.19095    0.000
 5885.00    1.11361   1.16889    0.000
 5886.00    1.08667   1.15042    0.000
 5887.00    1.06190   1.13336    0.000
 5888.00    1.06080   1.11689    0.000
 5889.00    1.06625   1.10280    0.000
 5890.00    1.08960   1.08835    0.000
 5891.00    1.11701   1.07591    0.000
 5892.00    1.12637   1.07046    0.000
 5893.00    1.13246   1.07260    0.000
 5894.00    1.09936   1.07887    0.000
 5895.00    1.06079   1.08790    0.000
 5896.00    1.06437   1.10053    0.000
 5897.00    1.07218   1.11326    0.000
 5898.00    1.10346   1.12703    0.000
 5899.00    1.13623   1.14563    0.000
 5900.00    1.15839   1.16503    0.000
 5901.00    1.18030   1.18333    0.017
 5902.00    1.22340   1.20095    0.017
 5903.00    1.26507   1.21685    0.017
 5904.00    1.26633   1.23011    0.017
 5905.00    1.26476   1.24136    0.017
 5906.00    1.22289   1.25161    0.017
 5907.00    1.18577   1.25971    0.017
 5908.00    1.19284   1.26553    0.017
 5909.00    1.20105   1.26955    0.017
 5910.00    1.21708   1.27285    0.017
 5911.00    1.23288   1.27458    0.017
 5912.00    1.24755   1.27618    0.016
 5913.00    1.25940   1.27754    0.016
 5914.00    1.25937   1.27829    0.016
 5915.00    1.26377   1.27919    0.016
 5916.00    1.28362   1.27917    0.016
 5917.00    1.30125   1.27995    0.016
 5918.00    1.31234   1.28080    0.016
 5919.00    1.30860   1.28248    0.017
 5920.00    1.26769   1.28423    0.016
 5921.00    1.22704   1.28583    0.016
 5922.00    1.18698   1.28708    0.016
 5923.00    1.16123   1.28769    0.016
 5924.00    1.16229   1.28801    0.016
 5925.00    1.17444   1.28786    0.016
 5926.00    1.20474   1.28893    0.017
 5927.00    1.21449   1.28933    0.017
 5928.00    1.19475   1.28981    0.017
 5929.00    1.18880   1.28925    0.016
 5930.00    1.20025   1.28823    0.017
 5931.00    1.21490   1.28845    0.017
 5932.00    1.23312   1.28781    0.017
 5933.00    1.24949   1.28871    0.017
 5934.00    1.26405   1.28987    0.017
 5935.00    1.25761   1.29014    0.017
 5936.00    1.23300   1.28973    0.017
 5937.00    1.20255   1.28924    0.017
 5938.00    1.16764   1.29014    0.017
 5939.00    1.16718   1.29072    0.017
 5940.00    1.18981   1.29125    0.016
 5941.00    1.20336   1.29192    0.017
 5942.00    1.21159   1.29169    0.017
 5943.00    1.22011   1.29024    0.016
 5944.00    1.22879   1.28902    0.016
 5945.00    1.23612   1.28876    0.016
 5946.00    1.24285   1.28844    0.016
 5947.00    1.25019   1.28758    0.016
 5948.00    1.25776   1.28633    0.016
 5949.00    1.24973   1.28556    0.016
 5950.00    1.23667   1.28440    0.016
 5951.00    1.21980   1.28313    0.016
 5952.00    1.20190   1.28325    0.016
 5953.00    1.20972   1.28380    0.016
 5954.00    1.22325   1.28431    0.017
 5955.00    1.23961   1.28510    0.017
 5956.00    1.25648   1.28714    0.016
 5957.00    1.24785   1.28981    0.016
 5958.00    1.23578   1.29162    0.016
 5959.00    1.22404   1.29428    0.016
 5960.00    1.21233   1.29705    0.016
 5961.00    1.22106   1.29964    0.016
 5962.00    1.23100   1.30303    0.016
 5963.00    1.24072   1.30568    0.016
 5964.00    1.25030   1.30849    0.017
 5965.00    1.23995   1.31011    0.016
 5966.00    1.23082   1.31146    0.016
 5967.00    1.25280   1.31241    0.017
 5968.00    1.27377   1.31233    0.017
 5969.00    1.28115   1.31279    0.017
 5970.00    1.28585   1.31191    0.017
 5971.00    1.26654   1.31014    0.017
 5972.00    1.24703   1.30785    0.016
 5973.00    1.22612   1.30520    0.016
 5974.00    1.21108   1.30220    0.016
 5975.00    1.22614   1.29938    0.016
 5976.00    1.23702   1.29646    0.016
 5977.00    1.23062   1.29325    0.016
 5978.00    1.22575   1.28959    0.016
 5979.00    1.22610   1.28590    0.016
 5980.00    1.23163   1.28374    0.016
 5981.00    1.25210   1.28207    0.016
 5982.00    1.26800   1.28130    0.016
 5983.00    1.27261   1.28110    0.016
 5984.00    1.26889   1.28073    0.016
 5985.00    1.24750   1.28081    0.016
 5986.00    1.23027   1.28036    0.016
 5987.00    1.22074   1.28139    0.016
 5988.00    1.21479   1.28382    0.016
 5989.00    1.21462   1.28543    0.016
 5990.00    1.22043   1.28714    0.016
 5991.00    1.23470   1.28822    0.016
 5992.00    1.24621   1.28859    0.016
 5993.00    1.25428   1.28812    0.016
 5994.00    1.25233   1.28773    0.016
 5995.00    1.23938   1.28806    0.016
 5996.00    1.23230   1.28762    0.017
 5997.00    1.23091   1.28593    0.016
 5998.00    1.23240   1.28351    0.016
 5999.00    1.23636   1.28140    0.016
 6000.00    1.22620   1.27885    0.016
 6001.00    1.20542   1.27693    0.016
 6002.00    1.18216   1.27505    0.016
 6003.00    1.15727   1.27224    0.016
 6004.00    1.15158   1.27009    0.016
 6005.00    1.15699   1.26768    0.016
 6006.00    1.17739   1.26661    0.016
 6007.00    1.20535   1.26557    0.016
 6008.00    1.23110   1.26340    0.016
 6009.00    1.25589   1.26213    0.016
 6010.00    1.28016   1.26018    0.016
 6011.00    1.30425   1.25937    0.016
 6012.00    1.30786   1.25978    0.016
 6013.00    1.30498   1.25964    0.016
 6014.00    1.25963   1.25887    0.016
 6015.00    1.20301   1.25774    0.016
 6016.00    1.19809   1.25788    0.016
 6017.00    1.20437   1.25872    0.016
 6018.00    1.22982   1.25994    0.016
 6019.00    1.25857   1.26122    0.017
 6020.00    1.23326   1.26423    0.016
 6021.00    1.20088   1.26661    0.016
 6022.00    1.18444   1.26891    0.016
 6023.00    1.16947   1.27328    0.016
 6024.00    1.20500   1.27743    0.016
 6025.00    1.24335   1.28254    0.016
 6026.00    1.26471   1.28673    0.016
 6027.00    1.28540   1.29186    0.016
 6028.00    1.27618   1.29709    0.016
 6029.00    1.26651   1.30070    0.016
 6030.00    1.24652   1.30533    0.016
 6031.00    1.22948   1.30941    0.016
 6032.00    1.25002   1.31267    0.016
 6033.00    1.26910   1.31555    0.016
 6034.00    1.27566   1.31801    0.016
 6035.00    1.27792   1.32034    0.016
 6036.00    1.25271   1.32194    0.016
 6037.00    1.22980   1.32292    0.016
 6038.00    1.21834   1.32455    0.016
 6039.00    1.20945   1.32550    0.016
 6040.00    1.21102   1.32659    0.016
 6041.00    1.21497   1.32758    0.016
 6042.00    1.22694   1.32789    0.016
 6043.00    1.24765   1.32869    0.016
 6044.00    1.29313   1.32859    0.016
 6045.00    1.33336   1.32918    0.016
 6046.00    1.36086   1.32927    0.016
 6047.00    1.37223   1.32868    0.016
 6048.00    1.34989   1.32776    0.016
 6049.00    1.32169   1.32631    0.016
 6050.00    1.28286   1.32477    0.016
 6051.00    1.25842   1.32223    0.016
 6052.00    1.25686   1.32045    0.016
 6053.00    1.25257   1.31801    0.016
 6054.00    1.24447   1.31559    0.016
 6055.00    1.24468   1.31279    0.016
 6056.00    1.25509   1.31050    0.016
 6057.00    1.26516   1.30912    0.016
 6058.00    1.27487   1.30685    0.016
 6059.00    1.27909   1.30586    0.016
 6060.00    1.27808   1.30443    0.016
 6061.00    1.28114   1.30451    0.016
 6062.00    1.28762   1.30524    0.016
 6063.00    1.28319   1.30606    0.016
 6064.00    1.27069   1.30828    0.016
 6065.00    1.26645   1.30953    0.016
 6066.00    1.26760   1.31176    0.016
 6067.00    1.27376   1.31330    0.016
 6068.00    1.28277   1.31526    0.016
 6069.00    1.29691   1.31873    0.016
 6070.00    1.31360   1.32052    0.016
 6071.00    1.32063   1.32111    0.016
 6072.00    1.32351   1.32067    0.016
 6073.00    1.30631   1.31929    0.016
 6074.00    1.28174   1.31778    0.016
 6075.00    1.26553   1.31535    0.016
 6076.00    1.25194   1.31208    0.016
 6077.00    1.24214   1.30866    0.016
 6078.00    1.23333   1.30444    0.016
 6079.00    1.22901   1.30014    0.016
 6080.00    1.22563   1.29545    0.016
 6081.00    1.23523   1.29148    0.016
 6082.00    1.24700   1.28880    0.016
 6083.00    1.23842   1.28583    0.016
 6084.00    1.22728   1.28274    0.016
 6085.00    1.22948   1.28086    0.016
 6086.00    1.23285   1.27984    0.016
 6087.00    1.24092   1.27802    0.016
 6088.00    1.24925   1.27697    0.016
 6089.00    1.25701   1.27718    0.016
 6090.00    1.26468   1.27774    0.016
 6091.00    1.26629   1.27772    0.016
 6092.00    1.26827   1.27638    0.016
 6093.00    1.27812   1.27576    0.016
 6094.00    1.28687   1.27632    0.016
 6095.00    1.28240   1.27618    0.016
 6096.00    1.27559   1.27625    0.016
 6097.00    1.24933   1.27555    0.016
 6098.00    1.22529   1.27374    0.016
 6099.00    1.21493   1.27240    0.016
 6100.00    1.20599   1.27118    0.015
 6101.00    1.20397   1.27233    0.016
 6102.00    1.20135   1.27301    0.016
 6103.00    1.19630   1.27299    0.016
 6104.00    1.19425   1.27250    0.016
 6105.00    1.20207   1.27176    0.016
 6106.00    1.21275   1.27519    0.016
 6107.00    1.23141   1.27834    0.016
 6108.00    1.24639   1.28000    0.016
 6109.00    1.25260   1.28124    0.016
 6110.00    1.25897   1.28170    0.016
 6111.00    1.26567   1.28294    0.016
 6112.00    1.26180   1.28324    0.016
 6113.00    1.23900   1.28230    0.016
 6114.00    1.22740   1.28118    0.016
 6115.00    1.23333   1.28010    0.016
 6116.00    1.23380   1.27796    0.016
 6117.00    1.22679   1.27420    0.016
 6118.00    1.22554   1.27064    0.016
 6119.00    1.23127   1.26732    0.016
 6120.00    1.23330   1.26589    0.016
 6121.00    1.23140   1.26446    0.016
 6122.00    1.23563   1.26128    0.016
 6123.00    1.24563   1.25946    0.016
 6124.00    1.24499   1.25678    0.016
 6125.00    1.23553   1.25620    0.016
 6126.00    1.22003   1.25717    0.016
 6127.00    1.20012   1.25523    0.015
 6128.00    1.19587   1.25409    0.015
 6129.00    1.20167   1.25242    0.015
 6130.00    1.20458   1.25067    0.015
 6131.00    1.20586   1.24861    0.015
 6132.00    1.20333   1.24534    0.015
 6133.00    1.19893   1.24356    0.015
 6134.00    1.19309   1.24095    0.016
 6135.00    1.18664   1.24033    0.016
 6136.00    1.17086   1.24061    0.016
 6137.00    1.15171   1.23967    0.016
 6138.00    1.15808   1.23937    0.016
 6139.00    1.17225   1.23841    0.016
 6140.00    1.19058   1.24199    0.016
 6141.00    1.20996   1.24808    0.016
 6142.00    1.21561   1.25160    0.016
 6143.00    1.21843   1.25340    0.016
 6144.00    1.22642   1.25389    0.016
 6145.00    1.23525   1.25664    0.016
 6146.00    1.22678   1.25966    0.016
 6147.00    1.21620   1.25999    0.016
 6148.00    1.20289   1.25973    0.016
 6149.00    1.18935   1.25778    0.015
 6150.00    1.20193   1.25480    0.015
 6151.00    1.21577   1.25034    0.016
 6152.00    1.21657   1.24436    0.015
 6153.00    1.21674   1.23923    0.015
 6154.00    1.19177   1.23297    0.015
 6155.00    1.16678   1.22602    0.015
 6156.00    1.14136   1.21725    0.015
 6157.00    1.11801   1.20797    0.016
 6158.00    1.11857   1.19966    0.016
 6159.00    1.12064   1.19133    0.016
 6160.00    1.13488   1.18465    0.016
 6161.00    1.14616   1.17926    0.016
 6162.00    1.13961   1.17487    0.016
 6163.00    1.13455   1.16951    0.016
 6164.00    1.13654   1.16566    0.015
 6165.00    1.13665   1.16557    0.015
 6166.00    1.12945   1.16682    0.016
 6167.00    1.11877   1.16939    0.016
 6168.00    1.09685   1.17241    0.016
 6169.00    1.07891   1.17682    0.016
 6170.00    1.07188   1.18153    0.016
 6171.00    1.06945   1.18503    0.016
 6172.00    1.07783   1.18962    0.015
 6173.00    1.09265   1.19660    0.015
 6174.00    1.12051   1.20334    0.015
 6175.00    1.14224   1.20766    0.015
 6176.00    1.15316   1.21135    0.016
 6177.00    1.15552   1.21476    0.016
 6178.00    1.14466   1.21785    0.015
 6179.00    1.13429   1.22041    0.015
 6180.00    1.12457   1.22198    0.015
 6181.00    1.12681   1.22212    0.015
 6182.00    1.14331   1.22093    0.015
 6183.00    1.15315   1.21904    0.015
 6184.00    1.15598   1.21738    0.015
 6185.00    1.16821   1.21547    0.015
 6186.00    1.18916   1.21236    0.015
 6187.00    1.21028   1.21023    0.015
 6188.00    1.23155   1.20673    0.016
 6189.00    1.22459   1.20404    0.016
 6190.00    1.19731   1.20435    0.016
 6191.00    1.17088   1.20389    0.015
 6192.00    1.14498   1.20470    0.015
 6193.00    1.12067   1.20428    0.015
 6194.00    1.09725   1.20491    0.016
 6195.00    1.09700   1.20929    0.016
 6196.00    1.10787   1.21163   -2.000
 6197.00    1.25579   1.21388   -2.000
 6198.00    1.46051   1.21670   -2.000
 6199.00    1.57991   1.21958   -2.000
 6200.00    1.66906   1.22254   -2.000
 6201.00    1.65050   1.22327   -2.000
 6202.00    1.59970   1.22363   -2.000
 6203.00    1.47598   1.22477   -2.000
 6204.00    1.33415   1.22533   -2.000
 6205.00    1.27100   1.22385   -2.000
 6206.00    1.22369   1.22086   -2.000
 6207.00    1.21537   1.21745   -2.000
 6208.00    1.21320   1.21360    0.016
 6209.00    1.19399   1.20951    0.016
 6210.00    1.17279   1.20375    0.015
 6211.00    1.16416   1.19738    0.015
 6212.00    1.15653   1.19197    0.015
 6213.00    1.15736   1.18647    0.015
 6214.00    1.15856   1.18209    0.015
 6215.00    1.15945   1.17727    0.015
 6216.00    1.16044   1.17164    0.015
 6217.00    1.16704   1.16847    0.015
 6218.00    1.17287   1.16639    0.015
 6219.00    1.16461   1.16545    0.015
 6220.00    1.15723   1.16490    0.015
 6221.00    1.15958   1.16218    0.015
 6222.00    1.16172   1.16085    0.015
 6223.00    1.16214   1.16104    0.015
 6224.00    1.16089   1.16167    0.015
 6225.00    1.14987   1.16203    0.015
 6226.00    1.14043   1.16074    0.015
 6227.00    1.13831   1.15945    0.015
 6228.00    1.13458   1.15914    0.016
 6229.00    1.12477   1.16008    0.016
 6230.00    1.11884   1.16007    0.016
 6231.00    1.12516   1.16023    0.016
 6232.00    1.12995   1.15919    0.016
 6233.00    1.13059   1.15812    0.015
 6234.00    1.13254   1.15946    0.015
 6235.00    1.13752   1.15848    0.015
 6236.00    1.14370   1.15870    0.015
 6237.00    1.15228   1.15793    0.015
 6238.00    1.15663   1.15618    0.015
 6239.00    1.15363   1.15612    0.015
 6240.00    1.14654   1.15354    0.015
 6241.00    1.13321   1.15242    0.015
 6242.00    1.12363   1.15117    0.015
 6243.00    1.11903   1.14937    0.015
 6244.00    1.11524   1.14890    0.015
 6245.00    1.11239   1.14661    0.015
 6246.00    1.10864   1.14501    0.015
 6247.00    1.10396   1.14409    0.015
 6248.00    1.09979   1.14180    0.015
 6249.00    1.09610   1.13974    0.015
 6250.00    1.07971   1.13833    0.015
 6251.00    1.05308   1.13642    0.015
 6252.00    1.05206   1.13558    0.015
 6253.00    1.06921   1.13385    0.015
 6254.00    1.09488   1.13167    0.015
 6255.00    1.12586   1.13173    0.015
 6256.00    1.12532   1.13223    0.015
 6257.00    1.10763   1.13502    0.015
 6258.00    1.12083   1.13711    0.016
 6259.00    1.14861   1.13924    0.016
 6260.00    1.21298   1.14323    0.017
 6261.00    1.29226   1.14708    0.018
 6262.00    1.31582   1.15272    0.019
 6263.00    1.32000   1.15746    0.019
 6264.00    1.28876   1.16239    0.019
 6265.00    1.24715   1.16775    0.018
 6266.00    1.22381   1.17132    0.017
 6267.00    1.20492   1.17474    0.016
 6268.00    1.20110   1.17834    0.016
 6269.00    1.20023   1.18228    0.015
 6270.00    1.21318   1.18548    0.015
 6271.00    1.22825   1.18686    0.015
 6272.00    1.22819   1.18766    0.015
 6273.00    1.22642   1.18951    0.015
 6274.00    1.18048   1.19151    0.015
 6275.00    1.13120   1.19283    0.015
 6276.00    1.10599   1.19369    0.015
 6277.00    1.08173   1.19335    0.015
 6278.00    1.11150   1.19460    0.015
 6279.00    1.14123   1.19663    0.015
 6280.00    1.15330   1.19770    0.000
 6281.00    1.16473   1.19982    0.000
 6282.00    1.16538   1.19970    0.000
 6283.00    1.16595   1.20055    0.000
 6284.00    1.16561   1.20325    0.000
 6285.00    1.16400   1.20403    0.000
 6286.00    1.15294   1.20590    0.000
 6287.00    1.14472   1.20519    0.000
 6288.00    1.15267   1.20358    0.000
 6289.00    1.15864   1.20398    0.000
 6290.00    1.15558   1.20260    0.000
 6291.00    1.15495   1.20179    0.000
 6292.00    1.16332   1.19950    0.000
 6293.00    1.16720   1.19509    0.000
 6294.00    1.15710   1.19266    0.000
 6295.00    1.14937   1.19045    0.000
 6296.00    1.14788   1.18909    0.000
 6297.00    1.14880   1.18757    0.000
 6298.00    1.15514   1.18402    0.000
 6299.00    1.15517   1.18244    0.000
 6300.00    1.14284   1.18276    0.000
 6301.00    1.13849   1.18389    0.000
 6302.00    1.14782   1.18457    0.000
 6303.00    1.16426   1.18359    0.000
 6304.00    1.19137   1.18422    0.000
 6305.00    1.20949   1.18611    0.000
 6306.00    1.21577   1.18771    0.000
 6307.00    1.21239   1.18755    0.000
 6308.00    1.19780   1.18641    0.000
 6309.00    1.17848   1.18651    0.000
 6310.00    1.15432   1.18624    0.000
 6311.00    1.13631   1.18568    0.000
 6312.00    1.12383   1.18328    0.000
 6313.00    1.11241   1.18150    0.000
 6314.00    1.10184   1.18118    0.000
 6315.00    1.09466   1.17976    0.000
 6316.00    1.08985   1.17995    0.000
 6317.00    1.09002   1.17946    0.000
 6318.00    1.09324   1.18042    0.000
 6319.00    1.10794   1.18253    0.000
 6320.00    1.12878   1.18327    0.000
 6321.00    1.15214   1.18679    0.015
 6322.00    1.17667   1.18932    0.015
 6323.00    1.19296   1.19254    0.015
 6324.00    1.20594   1.19566    0.015
 6325.00    1.20082   1.19711    0.015
 6326.00    1.18951   1.20077    0.015
 6327.00    1.17105   1.20164    0.015
 6328.00    1.15052   1.20252    0.015
 6329.00    1.14550   1.20348    0.015
 6330.00    1.14416   1.20304    0.015
 6331.00    1.15019   1.20341    0.015
 6332.00    1.15762   1.20092    0.015
 6333.00    1.16820   1.19890    0.015
 6334.00    1.17924   1.19833    0.015
 6335.00    1.18594   1.19736    0.015
 6336.00    1.19217   1.19567    0.015
 6337.00    1.18000   1.19354    0.015
 6338.00    1.16652   1.19256    0.015
 6339.00    1.14908   1.19249    0.015
 6340.00    1.13150   1.19311    0.015
 6341.00    1.12122   1.19207    0.014
 6342.00    1.11158   1.19219    0.014
 6343.00    1.12308   1.19381    0.014
 6344.00    1.13518   1.19410    0.014
 6345.00    1.15688   1.19487    0.015
 6346.00    1.17719   1.19413    0.015
 6347.00    1.18354   1.19384    0.015
 6348.00    1.18991   1.19483    0.015
 6349.00    1.19644   1.19349    0.015
 6350.00    1.19883   1.19127    0.015
 6351.00    1.17829   1.18815    0.015
 6352.00    1.15896   1.18477    0.015
 6353.00    1.14497   1.18253    0.015
 6354.00    1.13544   1.17894    0.015
 6355.00    1.14211   1.17413    0.015
 6356.00    1.14793   1.16958    0.015
 6357.00    1.15112   1.16605    0.015
 6358.00    1.14971   1.16400    0.015
 6359.00    1.13640   1.16208    0.015
 6360.00    1.12707   1.16062    0.015
 6361.00    1.12664   1.16017    0.015
 6362.00    1.13357   1.16164    0.015
 6363.00    1.15471   1.16458    0.015
 6364.00    1.16631   1.16790    0.015
 6365.00    1.16186   1.17257    0.015
 6366.00    1.15771   1.17730    0.015
 6367.00    1.15402   1.18251    0.015
 6368.00    1.15719   1.18840    0.015
 6369.00    1.16925   1.19412    0.015
 6370.00    1.17476   1.19985    0.015
 6371.00    1.17278   1.20418    0.015
 6372.00    1.16789   1.20786    0.015
 6373.00    1.16005   1.21141    0.015
 6374.00    1.15301   1.21492    0.015
 6375.00    1.14668   1.21718    0.015
 6376.00    1.13778   1.21776    0.015
 6377.00    1.12687   1.21858    0.015
 6378.00    1.12203   1.21911    0.015
 6379.00    1.12137   1.22001    0.015
 6380.00    1.12646   1.21967    0.015
 6381.00    1.13502   1.21812    0.015
 6382.00    1.13872   1.21788    0.015
 6383.00    1.13986   1.21752    0.015
 6384.00    1.14822   1.21714    0.015
 6385.00    1.15988   1.21535    0.015
 6386.00    1.15734   1.21315    0.015
 6387.00    1.14921   1.21235    0.015
 6388.00    1.13732   1.21156    0.015
 6389.00    1.12416   1.21033    0.015
 6390.00    1.11889   1.20731    0.014
 6391.00    1.11583   1.20485    0.014
 6392.00    1.11689   1.20355    0.014
 6393.00    1.11890   1.20321    0.014
 6394.00    1.12749   1.20274    0.015
 6395.00    1.13730   1.20034    0.015
 6396.00    1.14239   1.19926    0.015
 6397.00    1.14679   1.19819    0.015
 6398.00    1.14883   1.19934    0.015
 6399.00    1.15062   1.20104    0.015
 6400.00    1.15036   1.19972    0.015
 6401.00    1.14996   1.20045    0.015
 6402.00    1.16593   1.20021    0.015
 6403.00    1.18243   1.20079    0.015
 6404.00    1.18127   1.20279    0.015
 6405.00    1.18027   1.20151    0.015
 6406.00    1.18445   1.20213    0.015
 6407.00    1.18944   1.20244    0.015
 6408.00    1.20650   1.20101    0.015
 6409.00    1.22034   1.20133    0.015
 6410.00    1.20299   1.20092    0.015
 6411.00    1.18547   1.20069    0.015
 6412.00    1.16673   1.20063    0.015
 6413.00    1.14973   1.19926    0.014
 6414.00    1.14209   1.19920    0.015
 6415.00    1.13630   1.20061    0.015
 6416.00    1.13849   1.20071    0.014
 6417.00    1.13809   1.20004    0.014
 6418.00    1.12846   1.20017    0.015
 6419.00    1.12438   1.20156    0.015
 6420.00    1.13686   1.20424    0.015
 6421.00    1.14981   1.20512    0.015
 6422.00    1.16393   1.20416    0.015
 6423.00    1.17152   1.20462    0.015
 6424.00    1.16479   1.20708    0.015
 6425.00    1.15266   1.20929    0.015
 6426.00    1.13028   1.20958    0.015
 6427.00    1.11167   1.20838    0.015
 6428.00    1.09929   1.20783    0.015
 6429.00    1.10125   1.21010    0.015
 6430.00    1.12408   1.21083    0.015
 6431.00    1.14898   1.20966    0.015
 6432.00    1.17653   1.20975    0.015
 6433.00    1.18672   1.20984    0.015
 6434.00    1.17737   1.21187    0.015
 6435.00    1.16257   1.21257    0.015
 6436.00    1.14235   1.21094    0.015
 6437.00    1.13271   1.21264    0.015
 6438.00    1.13235   1.21463    0.015
 6439.00    1.13687   1.21574    0.015
 6440.00    1.14515   1.21635    0.015
 6441.00    1.15732   1.21396    0.015
 6442.00    1.17211   1.21359    0.014
 6443.00    1.19065   1.21541    0.014
 6444.00    1.21141   1.21460    0.014
 6445.00    1.20605   1.21357    0.015
 6446.00    1.18714   1.21027    0.015
 6447.00    1.16083   1.20646    0.015
 6448.00    1.13119   1.20717    0.015
 6449.00    1.11320   1.20649    0.015
 6450.00    1.09971   1.20527    0.015
 6451.00    1.10255   1.20401    0.015
 6452.00    1.11075   1.20128    0.015
 6453.00    1.12244   1.20246    0.015
 6454.00    1.13509   1.20342    0.015
 6455.00    1.14199   1.20357    0.015
 6456.00    1.14757   1.20531    0.015
 6457.00    1.13462   1.20554    0.015
 6458.00    1.11830   1.20677    0.015
 6459.00    1.10465   1.20728    0.015
 6460.00    1.09136   1.20747    0.015
 6461.00    1.09146   1.21000    0.014
 6462.00    1.09291   1.21111    0.014
 6463.00    1.09255   1.21129    0.014
 6464.00    1.09207   1.21140    0.014
 6465.00    1.12299   1.21199    0.014
 6466.00    1.15473   1.21355    0.014
 6467.00    1.16366   1.21411    0.014
 6468.00    1.17191   1.21361    0.014
 6469.00    1.16109   1.21373    0.014
 6470.00    1.15208   1.21478    0.014
 6471.00    1.16866   1.21472    0.015
 6472.00    1.18476   1.21380    0.015
 6473.00    1.19644   1.21263    0.015
 6474.00    1.20538   1.21176    0.015
 6475.00    1.19582   1.21124    0.015
 6476.00    1.18656   1.20978    0.015
 6477.00    1.17894   1.20788    0.015
 6478.00    1.17165   1.20539    0.015
 6479.00    1.16576   1.20255    0.015
 6480.00    1.15595   1.20010    0.015
 6481.00    1.13253   1.19747    0.015
 6482.00    1.11233   1.19417    0.014
 6483.00    1.10160   1.18975    0.014
 6484.00    1.09632   1.18509    0.014
 6485.00    1.10467   1.18070    0.014
 6486.00    1.11987   1.17475    0.014
 6487.00    1.14983   1.16838    0.014
 6488.00    1.16462   1.16193    0.014
 6489.00    1.15105   1.15584    0.014
 6490.00    1.12944   1.15031    0.014
 6491.00    1.09467   1.14164    0.014
 6492.00    1.07136   1.13514    0.014
 6493.00    1.06444   1.13156    0.014
 6494.00    1.05818   1.12804    0.014
 6495.00    1.05272   1.12703    0.014
 6496.00    1.05768   1.12392    0.014
 6497.00    1.07422   1.12414    0.015
 6498.00    1.08904   1.12881    0.015
 6499.00    1.10216   1.13190    0.015
 6500.00    1.10646   1.13733    0.014
 6501.00    1.10315   1.14223    0.015
 6502.00    1.10883   1.14820    0.015
 6503.00    1.12135   1.15676    0.015
 6504.00    1.13845   1.16249    0.015
 6505.00    1.15862   1.16812    0.015
 6506.00    1.16975   1.17370    0.015
 6507.00    1.17559   1.17851    0.015
 6508.00    1.16453   1.18362    0.014
 6509.00    1.14483   1.18650    0.014
 6510.00    1.13619   1.18830    0.014
 6511.00    1.13245   1.19039    0.014
 6512.00    1.13345   1.19179    0.014
 6513.00    1.13624   1.19265    0.014
 6514.00    1.15437   1.19327    0.014
 6515.00    1.17744   1.19283    0.014
 6516.00    1.18899   1.19272    0.014
 6517.00    1.19742   1.19397    0.014
 6518.00    1.18698   1.19399    0.014
 6519.00    1.17238   1.19397    0.014
 6520.00    1.17570   1.19402    0.014
 6521.00    1.18219   1.19408    0.015
 6522.00    1.17905   1.19604    0.015
 6523.00    1.17460   1.19622    0.015
 6524.00    1.18080   1.19534    0.015
 6525.00    1.18802   1.19612    0.015
 6526.00    1.19388   1.19689    0.015
 6527.00    1.19967   1.19822    0.015
 6528.00    1.19083   1.19854    0.000
 6529.00    1.18151   1.19729    0.000
 6530.00    1.15679   1.19758    0.000
 6531.00    1.13243   1.19863    0.000
 6532.00    1.11696   1.19955    0.000
 6533.00    1.10381   1.19975    0.000
 6534.00    1.12181   1.19846    0.000
 6535.00    1.14062   1.19764    0.000
 6536.00    1.16671   1.19818    0.000
 6537.00    1.19041   1.19804    0.000
 6538.00    1.19840   1.19588    0.000
 6539.00    1.20105   1.19357    0.000
 6540.00    1.17648   1.19118    0.000
 6541.00    1.15408   1.18932    0.000
 6542.00    1.14066   1.18676    0.000
 6543.00    1.13606   1.18105    0.000
 6544.00    1.16162   1.17704    0.000
 6545.00    1.18515   1.17378    0.000
 6546.00    1.20280   1.16878    0.000
 6547.00    1.20700   1.16355    0.000
 6548.00    1.17813   1.15632    0.000
 6549.00    1.14834   1.15025    0.000
 6550.00    1.11659   1.14510    0.000
 6551.00    1.09692   1.13686    0.000
 6552.00    1.09953   1.12851    0.000
 6553.00    1.10637   1.12096    0.000
 6554.00    1.12003   1.11215    0.000
 6555.00    1.14150   1.10333    0.000
 6556.00    1.17401   1.09516    0.000
 6557.00    1.20293   1.08737    0.000
 6558.00    1.22741   1.08157    0.000
 6559.00    1.25157   1.07262    0.000
 6560.00    1.27539   1.06328    0.000
 6561.00    1.27913   1.06324    0.000
 6562.00    1.26347   1.06399    0.000
 6563.00    1.23101   1.06316    0.000
 6564.00    1.18424   1.06349    0.000
 6565.00    1.15098   1.06386    0.000
 6566.00    1.12786   1.07003    0.000
 6567.00    1.12011   1.07724    0.000
 6568.00    1.12250   1.08271    0.000
 6569.00    1.11978   1.08998    0.000
 6570.00    1.11409   1.09686    0.000
 6571.00    1.09749   1.10401    0.000
 6572.00    1.07541   1.11073    0.000
 6573.00    1.09043   1.11746    0.000
 6574.00    1.12158   1.12468    0.000
 6575.00    1.14947   1.13050    0.000
 6576.00    1.17614   1.13602    0.000
 6577.00    1.19579   1.14013    0.000
 6578.00    1.21322   1.14354    0.000
 6579.00    1.25055   1.14836    0.000
 6580.00    1.29313   1.15184    0.000
 6581.00    1.30690   1.15443    0.000
 6582.00    1.31444   1.15647    0.000
 6583.00    1.29802   1.15683    0.000
 6584.00    1.27748   1.15825    0.000
 6585.00    1.23441   1.15916    0.000
 6586.00    1.18842   1.15844    0.000
 6587.00    1.15414   1.15847    0.000
 6588.00    1.12092   1.15783    0.000
 6589.00    1.10320   1.15631    0.000
 6590.00    1.08632   1.15402    0.000
 6591.00    1.10834   1.15260    0.000
 6592.00    1.13093   1.15334    0.000
 6593.00    1.12798   1.15294    0.000
 6594.00    1.12488   1.15172    0.000
 6595.00    1.11831   1.15039    0.000
 6596.00    1.11182   1.15013    0.000
 6597.00    1.10632   1.15197    0.000
 6598.00    1.10331   1.15239    0.000
 6599.00    1.12152   1.15248    0.000
 6600.00    1.13639   1.15341    0.000
 6601.00    1.12992   1.15350    0.000
 6602.00    1.12394   1.15428    0.000
 6603.00    1.12042   1.15487    0.000
 6604.00    1.11583   1.15547    0.000
 6605.00    1.10692   1.15645    0.000
 6606.00    1.09771   1.15594    0.000
 6607.00    1.08748   1.15678    0.000
 6608.00    1.08123   1.15880    0.000
 6609.00    1.08621   1.15991    0.014
 6610.00    1.09639   1.16075    0.014
 6611.00    1.11916   1.16112    0.014
 6612.00    1.13885   1.16352    0.014
 6613.00    1.15211   1.16605    0.014
 6614.00    1.16112   1.16638    0.015
 6615.00    1.16242   1.16733    0.014
 6616.00    1.15986   1.16814    0.014
 6617.00    1.15119   1.16905    0.015
 6618.00    1.14354   1.16961    0.015
 6619.00    1.13732   1.16817    0.015
 6620.00    1.13420   1.16751    0.015
 6621.00    1.13488   1.16626    0.014
 6622.00    1.13407   1.16356    0.014
 6623.00    1.13167   1.16230    0.014
 6624.00    1.12919   1.16005    0.014
 6625.00    1.12664   1.15722    0.014
 6626.00    1.11573   1.15486    0.014
 6627.00    1.09780   1.15153    0.014
 6628.00    1.08325   1.14963    0.014
 6629.00    1.07121   1.14794    0.014
 6630.00    1.07458   1.14506    0.014
 6631.00    1.08795   1.14327    0.014
 6632.00    1.11420   1.14217    0.014
 6633.00    1.14776   1.14158    0.014
 6634.00    1.14840   1.14130    0.015
 6635.00    1.13274   1.14035    0.015
 6636.00    1.12479   1.13974    0.015
 6637.00    1.12013   1.13992    0.015
 6638.00    1.11367   1.14110    0.015
 6639.00    1.10655   1.14200    0.015
 6640.00    1.10080   1.14128    0.014
 6641.00    1.09547   1.14145    0.014
 6642.00    1.09847   1.14288    0.014
 6643.00    1.10362   1.14389    0.015
 6644.00    1.10184   1.14412    0.014
 6645.00    1.09860   1.14352    0.014
 6646.00    1.10041   1.14422    0.014
 6647.00    1.10306   1.14562    0.014
 6648.00    1.11529   1.14520    0.014
 6649.00    1.12872   1.14446    0.014
 6650.00    1.13793   1.14436    0.014
 6651.00    1.14677   1.14430    0.014
 6652.00    1.11643   1.14387    0.014
 6653.00    1.08408   1.14237    0.014
 6654.00    1.06784   1.14091    0.014
 6655.00    1.05218   1.14004    0.014
 6656.00    1.05731   1.13866    0.014
 6657.00    1.06236   1.13653    0.014
 6658.00    1.06577   1.13480    0.014
 6659.00    1.06863   1.13358    0.014
 6660.00    1.06490   1.13124    0.014
 6661.00    1.06134   1.12967    0.014
 6662.00    1.05923   1.12912    0.014
 6663.00    1.05708   1.12799    0.014
 6664.00    1.05474   1.12754    0.014
 6665.00    1.05684   1.12675    0.014
 6666.00    1.08050   1.12633    0.014
 6667.00    1.10119   1.12722    0.014
 6668.00    1.11018   1.12736    0.014
 6669.00    1.11734   1.12737    0.014
 6670.00    1.11844   1.12763    0.014
 6671.00    1.11658   1.12782    0.014
 6672.00    1.10651   1.12810    0.014
 6673.00    1.09894   1.12844    0.014
 6674.00    1.09733   1.12787    0.014
 6675.00    1.09143   1.12641    0.014
 6676.00    1.07674   1.12715    0.014
 6677.00    1.07191   1.12795    0.014
 6678.00    1.08471   1.12735    0.014
 6679.00    1.09354   1.12732    0.014
 6680.00    1.09619   1.12691    0.014
 6681.00    1.09439   1.12802    0.014
 6682.00    1.08650   1.12923    0.014
 6683.00    1.08821   1.12884    0.014
 6684.00    1.10150   1.12962    0.014
 6685.00    1.10974   1.13039    0.015
 6686.00    1.11260   1.13103    0.015
 6687.00    1.11373   1.13128    0.014
 6688.00    1.11323   1.13075    0.014
 6689.00    1.10377   1.13101    0.014
 6690.00    1.08690   1.13053    0.014
 6691.00    1.07289   1.13010    0.014
 6692.00    1.06096   1.12941    0.014
 6693.00    1.04630   1.12732    0.014
 6694.00    1.02991   1.12680    0.014
 6695.00    1.03930   1.12604    0.014
 6696.00    1.06313   1.12462    0.000
 6697.00    1.07926   1.12425    0.000
 6698.00    1.09164   1.12263    0.000
 6699.00    1.08623   1.12160    0.000
 6700.00    1.07334   1.12132    0.000
 6701.00    1.06316   1.11949    0.000
 6702.00    1.05395   1.11875    0.000
 6703.00    1.06425   1.11850    0.000
 6704.00    1.08048   1.11685    0.000
 6705.00    1.07723   1.11576    0.000
 6706.00    1.06903   1.11412    0.000
 6707.00    1.06179   1.11166    0.000
 6708.00    1.05475   1.11076    0.000
 6709.00    1.07571   1.10894    0.000
 6710.00    1.10121   1.10629    0.000
 6711.00    1.12628   1.10477    0.000
 6712.00    1.15130   1.10254    0.000
 6713.00    1.16915   1.10113    0.000
 6714.00    1.18641   1.09961    0.000
 6715.00    1.18833   1.09744    0.000
 6716.00    1.18953   1.09798    0.000
 6717.00    1.17141   1.09824    0.000
 6718.00    1.15321   1.09781    0.000
 6719.00    1.14560   1.09822    0.000
 6720.00    1.13763   1.09894    0.000
 6721.00    1.12271   1.10133    0.000
 6722.00    1.10964   1.10273    0.000
 6723.00    1.11763   1.10315    0.000
 6724.00    1.12739   1.10548    0.000
 6725.00    1.15122   1.10767    0.000
 6726.00    1.17055   1.10897    0.000
 6727.00    1.16285   1.10983    0.000
 6728.00    1.14858   1.11047    0.000
 6729.00    1.10318   1.11179    0.000
 6730.00    1.06440   1.11245    0.000
 6731.00    1.05118   1.11179    0.000
 6732.00    1.04370   1.11139    0.000
 6733.00    1.05469   1.11156    0.000
 6734.00    1.06384   1.11075    0.000
 6735.00    1.06799   1.10925    0.000
 6736.00    1.06900   1.10771    0.000
 6737.00    1.06265   1.10640    0.000
 6738.00    1.05827   1.10577    0.000
 6739.00    1.05791   1.10383    0.000
 6740.00    1.05480   1.10167    0.000
 6741.00    1.04685   1.10091    0.000
 6742.00    1.04329   1.09960    0.000
 6743.00    1.04647   1.09858    0.000
 6744.00    1.05382   1.09726    0.000
 6745.00    1.06679   1.09633    0.000
 6746.00    1.06165   1.09697    0.000
 6747.00    1.03496   1.09612    0.000
 6748.00    1.02678   1.09637    0.000
 6749.00    1.03803   1.09752    0.000
 6750.00    1.04743   1.09752    0.000
 6751.00    1.05512   1.09953    0.000
 6752.00    1.06302   1.10071    0.000
 6753.00    1.07109   1.10190    0.015
 6754.00    1.06831   1.10473    0.016
 6755.00    1.05775   1.10564    0.016
 6756.00    1.04149   1.10734    0.016
 6757.00    1.02164   1.10963    0.016
 6758.00    1.00114   1.11040    0.016
 6759.00    0.98028   1.11174    0.016
 6760.00    1.02168   1.11261    0.016
 6761.00    1.09292   1.11286    0.017
 6762.00    1.17713   1.11361    0.017
 6763.00    1.26670   1.11368    0.018
 6764.00    1.29649   1.11293    0.017
 6765.00    1.30515   1.11273    0.017
 6766.00    1.30909   1.11310    0.017
 6767.00    1.31162   1.11288    0.017
 6768.00    1.28264   1.11247    0.017
 6769.00    1.24587   1.11246    0.017
 6770.00    1.20510   1.11296    0.017
 6771.00    1.16353   1.11359    0.016
 6772.00    1.15480   1.11355    0.016
 6773.00    1.15124   1.11371    0.016
 6774.00    1.14409   1.11430    0.015
 6775.00    1.13653   1.11445    0.015
 6776.00    1.10746   1.11441    0.015
 6777.00    1.07670   1.11391    0.015
 6778.00    1.11088   1.11327    0.015
 6779.00    1.14789   1.11256    0.016
 6780.00    1.11893   1.11104    0.016
 6781.00    1.08904   1.10969    0.016
 6782.00    1.04797   1.10859    0.016
 6783.00    1.01033   1.10693    0.016
 6784.00    1.03479   1.10568    0.016
 6785.00    1.05890   1.10486    0.015
 6786.00    1.07911   1.10362    0.015
 6787.00    1.09589   1.10248    0.016
 6788.00    1.08625   1.10206    0.016
 6789.00    1.07859   1.10192    0.016
 6790.00    1.08252   1.10160    0.016
 6791.00    1.08599   1.10182    0.016
 6792.00    1.08734   1.10207    0.016
 6793.00    1.09426   1.10230    0.016
 6794.00    1.12229   1.10335    0.016
 6795.00    1.13673   1.10335    0.016
 6796.00    1.10824   1.10364    0.015
 6797.00    1.09285   1.10505    0.015
 6798.00    1.11255   1.10477    0.015
 6799.00    1.12585   1.10555    0.015
 6800.00    1.12444   1.10644    0.015
 6801.00    1.11893   1.10557    0.015
 6802.00    1.10528   1.10695    0.015
 6803.00    1.09668   1.10724    0.015
 6804.00    1.09685   1.10609    0.015
 6805.00    1.09900   1.10735    0.015
 6806.00    1.10416   1.10702    0.015
 6807.00    1.10877   1.10667    0.015
 6808.00    1.11266   1.10742    0.015
 6809.00    1.11077   1.10622    0.015
 6810.00    1.10208   1.10706    0.016
 6811.00    1.10645   1.10784    0.016
 6812.00    1.12434   1.10651    0.016
 6813.00    1.14037   1.10773    0.016
 6814.00    1.15471   1.10848    0.016
 6815.00    1.13361   1.10833    0.016
 6816.00    1.08399   1.10946    0.016
 6817.00    1.06131   1.10936    0.015
 6818.00    1.05769   1.11013    0.015
 6819.00    1.07099   1.11148    0.015
 6820.00    1.09479   1.11144    0.015
 6821.00    1.11062   1.11218    0.015
 6822.00    1.12211   1.11250    0.015
 6823.00    1.12765   1.11263    0.015
 6824.00    1.13038   1.11328    0.015
 6825.00    1.11873   1.11259    0.015
 6826.00    1.10123   1.11215    0.015
 6827.00    1.09321   1.11219    0.015
 6828.00    1.08847   1.11161    0.015
 6829.00    1.11510   1.11086    0.016
 6830.00    1.15091   1.10915    0.016
 6831.00    1.14032   1.10787    0.016
 6832.00    1.11850   1.10716    0.016
 6833.00    1.11885   1.10497    0.016
 6834.00    1.12353   1.10301    0.015
 6835.00    1.10696   1.10150    0.015
 6836.00    1.08716   1.09960    0.016
 6837.00    1.08612   1.09817    0.016
 6838.00    1.08719   1.09620    0.016
 6839.00    1.11316   1.09475    0.016
 6840.00    1.14099   1.09421    0.016
 6841.00    1.10931   1.09302    0.016
 6842.00    1.07527   1.09266    0.015
 6843.00    1.07730   1.09232    0.015
 6844.00    1.08073   1.09161    0.015
 6845.00    1.13055   1.09209    0.015
 6846.00    1.17592   1.09189    0.015
 6847.00    1.14613   1.09178    0.015
 6848.00    1.11833   1.09206    0.015
 6849.00    1.11142   1.09116    0.015
 6850.00    1.10205   1.09143    0.015
 6851.00    1.07443   1.09098    0.015
 6852.00    1.05476   1.08885    0.015
 6853.00    1.08017   1.08873    0.015
 6854.00    1.10137   1.08793    0.015
 6855.00    1.10357   1.08596    0.015
 6856.00    1.10630   1.08547    0.015
 6857.00    1.11095   1.08427    0.015
 6858.00    1.11783   1.08328    0.015
 6859.00    1.13160   1.08283    0.015
 6860.00    1.13670   1.08164    0.015
 6861.00    1.11902   1.08163    0.015
 6862.00    1.09633   1.08141    0.015
 6863.00    1.06230   1.08078    0.015
 6864.00    1.04353   1.08129    0.015
 6865.00    1.05465   1.08111    0.015
 6866.00    1.05901   1.08085    0.015
 6867.00    1.05186   1.08151    0.015
 6868.00    1.04457   1.08200    0.015
 6869.00    1.03707   1.08222    0.015
 6870.00    1.03343   1.08232    0.015
 6871.00    1.03486   1.08319    0.015
 6872.00    1.04015   1.08409    0.015
 6873.00    1.04990   1.08399    0.015
 6874.00    1.06231   1.08477    0.015
 6875.00    1.07742   1.08636    0.015
 6876.00    1.08647   1.08709    0.015
 6877.00    1.09005   1.08751    0.015
 6878.00    1.07921   1.08875    0.015
 6879.00    1.05693   1.09036    0.015
 6880.00    1.05573   1.09112    0.015
 6881.00    1.06925   1.09238    0.015
 6882.00    1.07880   1.09462    0.015
 6883.00    1.08594   1.09585    0.015
 6884.00    1.08928   1.09735    0.015
 6885.00    1.09059   1.09955    0.015
 6886.00    1.07623   1.10086    0.015
 6887.00    1.05460   1.10256    0.015
 6888.00    1.05096   1.10451    0.015
 6889.00    1.05451   1.10593    0.015
 6890.00    1.06517   1.10778    0.015
 6891.00    1.07825   1.10902    0.015
 6892.00    1.08803   1.11011    0.015
 6893.00    1.09685   1.11187    0.015
 6894.00    1.09363   1.11223    0.015
 6895.00    1.08755   1.11285    0.015
 6896.00    1.08541   1.11470    0.015
 6897.00    1.08403   1.11459    0.015
 6898.00    1.09143   1.11463    0.015
 6899.00    1.10014   1.11595    0.015
 6900.00    1.09723   1.11600    0.015
 6901.00    1.09307   1.11633    0.015
 6902.00    1.08950   1.11636    0.015
 6903.00    1.08598   1.11629    0.015
 6904.00    1.08309   1.11731    0.015
 6905.00    1.08024   1.11621    0.015
 6906.00    1.08939   1.11549    0.015
 6907.00    1.09800   1.11626    0.015
 6908.00    1.08640   1.11463    0.015
 6909.00    1.07368   1.11399    0.015
 6910.00    1.04323   1.11368    0.015
 6911.00    1.01564   1.11151    0.015
 6912.00    1.01658   1.11152    0.015
 6913.00    1.01890   1.11073    0.015
 6914.00    1.03119   1.10881    0.015
 6915.00    1.04210   1.10882    0.015
 6916.00    1.04532   1.10756    0.015
 6917.00    1.04854   1.10654    0.015
 6918.00    1.05172   1.10636    0.015
 6919.00    1.05797   1.10448    0.015
 6920.00    1.07533   1.10417    0.015
 6921.00    1.08347   1.10442    0.015
 6922.00    1.06358   1.10300    0.015
 6923.00    1.04727   1.10265    0.015
 6924.00    1.04021   1.10269    0.015
 6925.00    1.02993   1.10239    0.015
 6926.00    1.01251   1.10224    0.015
 6927.00    1.00410   1.10157    0.015
 6928.00    1.01306   1.10172    0.015
 6929.00    1.02240   1.10234    0.015
 6930.00    1.03237   1.10162    0.015
 6931.00    1.04596   1.10168    0.015
 6932.00    1.06485   1.10283    0.015
 6933.00    1.07297   1.10297    0.016
 6934.00    1.06711   1.10306    0.016
 6935.00    1.06806   1.10337    0.016
 6936.00    1.07677   1.10325    0.016
 6937.00    1.08979   1.10356    0.016
 6938.00    1.10714   1.10318    0.016
 6939.00    1.11552   1.10209    0.016
 6940.00    1.11593   1.10259    0.016
 6941.00    1.10169   1.10264    0.015
 6942.00    1.07598   1.10098    0.015
 6943.00    1.06566   1.10098    0.015
 6944.00    1.06593   1.10109    0.015
 6945.00    1.06504   1.09959    0.015
 6946.00    1.06344   1.09978    0.015
 6947.00    1.07431   1.09973    0.015
 6948.00    1.09173   1.09866    0.015
 6949.00    1.07673   1.09938    0.015
 6950.00    1.04692   1.09953    0.015
 6951.00    1.03198   1.09960    0.015
 6952.00    1.02288   1.10122    0.015
 6953.00    1.03461   1.10183    0.015
 6954.00    1.05331   1.10257    0.016
 6955.00    1.06228   1.10459    0.016
 6956.00    1.06851   1.10529    0.016
 6957.00    1.05839   1.10609    0.016
 6958.00    1.04448   1.10856    0.016
 6959.00    1.06607   1.10963    0.016
 6960.00    1.09426   1.11000    0.016
 6961.00    1.11441   1.11213    0.015
 6962.00    1.13341   1.11311    0.015
 6963.00    1.10472   1.11311    0.015
 6964.00    1.07109   1.11395    0.015
 6965.00    1.05432   1.11334    0.015
 6966.00    1.03868   1.11303    0.015
 6967.00    1.02716   1.11320    0.015
 6968.00    1.01578   1.11117    0.015
 6969.00    1.02605   1.10972    0.015
 6970.00    1.03672   1.10883    0.015
 6971.00    1.05966   1.10647    0.016
 6972.00    1.07988   1.10397    0.016
 6973.00    1.05973   1.10204    0.016
 6974.00    1.04197   1.10110    0.016
 6975.00    1.04721   1.09954    0.016
 6976.00    1.05464   1.09737    0.016
 6977.00    1.07721   1.09726    0.016
 6978.00    1.09324   1.09758    0.016
 6979.00    1.07418   1.09759    0.016
 6980.00    1.06064   1.09783    0.016
 6981.00    1.07091   1.09865    0.016
 6982.00    1.07875   1.10096    0.016
 6983.00    1.07799   1.10175    0.016
 6984.00    1.08136   1.10245    0.016
 6985.00    1.09709   1.10575    0.015
 6986.00    1.10709   1.10769    0.015
 6987.00    1.10255   1.10864    0.015
 6988.00    1.09211   1.11020    0.015
 6989.00    1.06874   1.11112    0.015
 6990.00    1.06070   1.11187    0.015
 6991.00    1.08174   1.11185    0.016
 6992.00    1.09494   1.11188    0.016
 6993.00    1.09516   1.11178    0.016
 6994.00    1.09444   1.11025    0.016
 6995.00    1.09236   1.10958    0.016
 6996.00    1.08623   1.10916    0.016
 6997.00    1.07493   1.10767    0.016
 6998.00    1.07198   1.10637    0.016
 6999.00    1.07844   1.10480    0.016
 7000.00    1.07696   1.10352    0.016
 7001.00    1.06761   1.10240    0.016
 7002.00    1.05875   1.10066    0.016
 7003.00    1.05032   1.10004    0.016
 7004.00    1.05105   1.09913    0.016
 7005.00    1.05885   1.09711    0.016
 7006.00    1.06863   1.09654    0.016
 7007.00    1.07976   1.09623    0.016
 7008.00    1.06249   1.09542    0.016
 7009.00    1.02836   1.09465    0.016
 7010.00    1.02547   1.09283    0.016
 7011.00    1.03877   1.09237    0.016
 7012.00    1.03929   1.09317    0.016
 7013.00    1.03407   1.09185    0.016
 7014.00    1.05396   1.09138    0.016
 7015.00    1.08354   1.09221    0.017
 7016.00    1.04807   1.09159    0.016
 7017.00    0.99124   1.09132    0.016
 7018.00    1.01685   1.09141    0.016
 7019.00    1.06514   1.09191    0.016
 7020.00    1.04298   1.09319    0.016
 7021.00    1.00490   1.09264    0.016
 7022.00    1.04059   1.09298    0.016
 7023.00    1.08961   1.09544    0.016
 7024.00    1.08739   1.09635    0.016
 7025.00    1.07807   1.09696    0.016
 7026.00    1.06650   1.09836    0.016
 7027.00    1.05471   1.09986    0.016
 7028.00    1.04449   1.10124    0.016
 7029.00    1.03436   1.10162    0.016
 7030.00    1.03911   1.10380    0.016
 7031.00    1.04430   1.10670    0.016
 7032.00    1.05291   1.10656    0.017
 7033.00    1.06185   1.10828    0.017
 7034.00    1.07947   1.11192    0.017
 7035.00    1.09323   1.11311    0.017
 7036.00    1.05277   1.11501    0.017
 7037.00    1.01618   1.11772    0.017
 7038.00    1.01517   1.11919    0.017
 7039.00    1.01486   1.12102    0.017
 7040.00    1.01930   1.12254    0.017
 7041.00    1.02373   1.12392    0.017
 7042.00    1.02810   1.12590    0.017
 7043.00    1.03319   1.12551    0.017
 7044.00    1.04136   1.12450    0.016
 7045.00    1.04821   1.12543    0.016
 7046.00    1.05051   1.12366    0.016
 7047.00    1.05653   1.11998    0.017
 7048.00    1.07347   1.11813    0.017
 7049.00    1.08050   1.11450    0.017
 7050.00    1.06277   1.10944   -2.000
 7051.00    1.05133   1.10549   -2.000
 7052.00    1.05341   1.10068   -2.000
 7053.00    1.06680   1.09536   -2.000
 7054.00    1.10131   1.08969   -2.000
 7055.00    1.12647   1.08440   -2.000
 7056.00    1.13637   1.08019   -2.000
 7057.00    1.13891   1.07464   -2.000
 7058.00    1.13090   1.07013   -2.000
 7059.00    1.11724   1.06697   -2.000
 7060.00    1.09648   1.06281   -2.000
 7061.00    1.09701   1.06026   -2.000
 7062.00    1.12114   1.05796   -2.000
 7063.00    1.15195   1.05556   -2.000
 7064.00    1.18929   1.05541   -2.000
 7065.00    1.18171   1.05428   -2.000
 7066.00    1.13538   1.05344   -2.000
 7067.00    1.09604   1.05462   -2.000
 7068.00    1.06201   1.05450   -2.000
 7069.00    1.06048   1.05507   -2.000
 7070.00    1.08066   1.05648   -2.000
 7071.00    1.13773   1.05666   -2.000
 7072.00    1.21638   1.05776   -2.000
 7073.00    1.22171   1.05825   -2.000
 7074.00    1.18965   1.05786   -2.000
 7075.00    1.17104   1.05836   -2.000
 7076.00    1.15838   1.05757   -2.000
 7077.00    1.16031   1.05603   -2.000
 7078.00    1.16777   1.05380   -2.000
 7079.00    1.15309   1.05085   -2.000
 7080.00    1.13129   1.04888   -2.000
 7081.00    1.13528   1.04473   -2.000
 7082.00    1.14620   1.04012   -2.000
 7083.00    1.11993   1.03739   -2.000
 7084.00    1.08545   1.03208   -2.000
 7085.00    1.09062   1.02761   -2.000
 7086.00    1.10275   1.02482   -2.000
 7087.00    1.07623   1.01972   -2.000
 7088.00    1.04454   1.01677   -2.000
 7089.00    1.06690   1.01413   -2.000
 7090.00    1.09439   1.01040   -2.000
 7091.00    1.11350   1.00973   -2.000
 7092.00    1.13211   1.00817   -2.000
 7093.00    1.12011   1.00655   -2.000
 7094.00    1.10715   1.00717   -2.000
 7095.00    1.06585   1.00662   -2.000
 7096.00    1.02582   1.00674   -2.000
 7097.00    1.01743   1.00772   -2.000
 7098.00    1.01099   1.00785   -2.000
 7099.00    1.03044   1.00913   -2.000
 7100.00    1.04352   1.01000   -2.000
 7101.00    1.00026   1.01017   -2.000
 7102.00    0.96577   1.01112   -2.000
 7103.00    0.98859   1.01178   -2.000
 7104.00    1.01243   1.01228   -2.000
 7105.00    1.04146   1.01238   -2.000
 7106.00    1.05652   1.01244   -2.000
 7107.00    1.01411   1.01308   -2.000
 7108.00    0.98211   1.01289   -2.000
 7109.00    0.98564   1.01257   -2.000
 7110.00    0.99364   1.01303   -2.000
 7111.00    1.01453   1.01281   -2.000
 7112.00    1.02531   1.01235   -2.000
 7113.00    1.01129   1.01203   -2.000
 7114.00    1.01348   1.01182   -2.000
 7115.00    1.04996   1.01175   -2.000
 7116.00    1.08959   1.01029   -2.000
 7117.00    1.13500   1.00945   -2.000
 7118.00    1.12953   1.00954   -2.000
 7119.00    1.04232   1.00771   -2.000
 7120.00    1.01132   1.00621   -2.000
 7121.00    1.05957   1.00519   -2.000
 7122.00    1.09237   1.00334   -2.000
 7123.00    1.10601   1.00232   -2.000
 7124.00    1.09956   1.00020   -2.000
 7125.00    1.07113   0.99831   -2.000
 7126.00    1.07526   0.99824   -2.000
 7127.00    1.11080   0.99604   -2.000
 7128.00    1.06887   0.99512   -2.000
 7129.00    0.96106   0.99593   -2.000
 7130.00    0.94470   0.99412   -2.000
 7131.00    0.99681   0.99441   -2.000
 7132.00    1.05984   0.99582   -2.000
 7133.00    1.13004   0.99481   -2.000
 7134.00    1.08893   0.99612   -2.000
 7135.00    0.98369   0.99765   -2.000
 7136.00    0.99985   0.99712   -2.000
 7137.00    1.07692   0.99909   -2.000
 7138.00    1.09067   1.00034   -2.000
 7139.00    1.07691   0.99961   -2.000
 7140.00    1.05587   1.00173   -2.000
 7141.00    1.03213   1.00252   -2.000
 7142.00    0.99274   1.00146   -2.000
 7143.00    0.94841   1.00342   -2.000
 7144.00    0.95718   1.00394   -2.000
 7145.00    0.97996   1.00306   -2.000
 7146.00    1.00131   1.00484   -2.000
 7147.00    1.02235   1.00524   -2.000
 7148.00    1.04645   1.00529   -2.000
 7149.00    1.07108   1.00672   -2.000
 7150.00    1.05961   1.00677   -2.000
 7151.00    1.04347   1.00792   -2.000
 7152.00    1.01335   1.00921   -2.000
 7153.00    0.98195   1.00896   -2.000
 7154.00    1.01387   1.01016   -2.000
 7155.00    1.04926   1.01103   -2.000
 7156.00    1.03432   1.01093   -2.000
 7157.00    1.01791   1.01172   -2.000
 7158.00    0.96319   1.01195   -2.000
 7159.00    0.91641   1.01221   -2.000
 7160.00    1.04992   1.01250   -2.000
 7161.00    1.17586   1.01223   -2.000
 7162.00    1.20658   1.01320   -2.000
 7163.00    1.23019   1.01354   -2.000
 7164.00    1.19320   1.01294   -2.000
 7165.00    1.13733   1.01421   -2.000
 7166.00    0.96173   1.01510   -2.000
 7167.00    0.84626   1.01471   -2.000
 7168.00    1.02929   1.01594   -2.000
 7169.00    1.18077   1.01694   -2.000
 7170.00    1.20526   1.01647   -2.000
 7171.00    1.19530   1.01744   -2.000
 7172.00    1.07021   1.01793   -2.000
 7173.00    0.98134   1.01708   -2.000
 7174.00    0.99462   1.01765   -2.000
 7175.00    1.00968   1.01697   -2.000
 7176.00    1.02905   1.01566   -2.000
 7177.00    1.05266   1.01601   -2.000
 7178.00    1.08510   1.01396   -2.000
 7179.00    1.10018   1.01207   -2.000
 7180.00    1.08383   1.01220   -2.000
 7181.00    1.06625   1.00951   -2.000
 7182.00    1.04671   1.00786   -2.000
 7183.00    1.01175   1.00780   -2.000
 7184.00    0.95539   1.00507   -2.000
 7185.00    0.91112   1.00417   -2.000
 7186.00    0.88163   1.00416   -2.000
 7187.00    0.90955   1.00218   -2.000
 7188.00    0.99936   1.00205   -2.000
 7189.00    1.03313   1.00202   -2.000
 7190.00    1.01362   1.00109   -2.000
 7191.00    0.96225   1.00189   -2.000
 7192.00    0.88418   1.00213   -2.000
 7193.00    0.87774   1.00194   -2.000
 7194.00    0.92418   1.00305   -2.000
 7195.00    0.96318   1.00337   -2.000
 7196.00    0.99735   1.00378   -2.000
 7197.00    0.98329   1.00502   -2.000
 7198.00    0.94187   1.00495   -2.000
 7199.00    0.94036   1.00556   -2.000
 7200.00    0.95856   1.00681   -2.000
 7201.00    1.03080   1.00626   -2.000
 7202.00    1.12613   1.00684   -2.000
 7203.00    1.12478   1.00791   -2.000
 7204.00    1.08807   1.00735   -2.000
 7205.00    0.95972   1.00817   -2.000
 7206.00    0.80298   1.00882   -2.000
 7207.00    0.84871   1.00853   -2.000
 7208.00    0.94671   1.01013   -2.000
 7209.00    0.94174   1.01087   -2.000
 7210.00    0.91512   1.01119   -2.000
 7211.00    0.91700   1.01319   -2.000
 7212.00    0.92360   1.01409   -2.000
 7213.00    0.94639   1.01558   -2.000
 7214.00    0.97119   1.01770   -2.000
 7215.00    1.01361   1.01849   -2.000
 7216.00    1.05755   1.02080   -2.000
 7217.00    1.04656   1.02303   -2.000
 7218.00    1.03278   1.02446   -2.000
