###################################################################
## OUTPUT of StarlightChains_v04.for    [Cid@UFSC - 01/Apr/2007] ##
###################################################################

## Some input info
KUG0210-078._6_21.txt                    [arq_obs]
Base.CB07.vall.4m                        [arq_base]
Masks.EmLines.NEW.gm                     [arq_masks]
StCv04.C11.config                        [arq_config]
   66                                    [N_base]
    0                                    [N_YAV_components = # of components with extra extinction!]
    0                                    [i_FitPowerLaw (1/0 = Yes/No)]
-9.99                                    [alpha_PowerLaw]
CCM                                      [red_law_option]
 1.458241                                [q_norm = A(l_norm)/A(V)]

## (Re)Sampling Parameters
 3741.00                                 [l_ini (A)]
 7218.00                                 [l_fin (A)]
    1.00                                 [dl    (A)]     (OBS: dl_cushion =    50.00 A)

## Normalization info
 4020.00                                 [l_norm (A) - for base]
 4010.00                                 [llow_norm (A) - window for f_obs]
 4060.00                                 [lupp_norm (A) - window for f_obs]
5.820839E-18                             [fobs_norm (in input units)]

## S/N
 3691.00                                 [llow_SN (A) - window for S/N]
 7268.00                                 [lupp_SN (A) - window for S/N]
   2.156                                 [S/N in S/N window]
   2.526                                 [S/N in norm. window]
   0.006                                 [S/N_err in S/N window]
   0.007                                 [S/N_err in norm. window]
  1.0000                                 [fscale_chi2]

## etc...
    -2007213                             [idum_orig]
  2389                                   [NOl_eff]
  2374                                   [Nl_eff]
    15    NSIGMA                         [Ntot_cliped & clip_method]
  1401890                                [Nglobal_steps]
   7                                     [N_chains]
  23                                     [NEX0s_base = N_base in EX0s-fits]
 0   1   1       16   2.0   9.732E+02    [Clip-Bug, RC-Crash & Burn-In warning-flags, n_censored_weights, wei_nsig_threshold & wei_limit]
    39     39.099     38.693      0.406  [idt_all, wdt_TotTime, wdt_UsrTime & wdt_SysTime (sec)]

## Synthesis Results - Best model ##

 8.36876E-05                             [chi2/Nl_eff]
    49.78701                             [adev (%)]

   128.80310                             [sum-of-x (%)]
 2.96477E-18                             [Flux_tot (units of input spectrum!)]
 2.49581E-14                             [Mini_tot (???)]
 1.43051E-14                             [Mcor_tot (???)]

-270.12                                  [v0_min  (km/s)]
 328.44                                  [vd_min  (km/s)]
-0.6908                                  [AV_min  (mag)]
 0.0000                                  [YAV_min (mag)]

# j     x_j(%)      Mini_j(%)     Mcor_j(%)     age_j(yr)     Z_j      (L/M)_j    YAV?  Mstars   component_j        a/Fe...       SSP_chi2r SSP_adev(%)   SSP_AV   SSP_x(%)
  1      0.0000     0.0000E+00    0.0000E+00    1.000000E+06  0.00400  1.094E-02    0   1.0000   age020_m42            0.0000     1.3240E-05    59.6041   2.1870   113.9994
  2      0.0000     0.0000E+00    0.0000E+00    3.160000E+06  0.00400  4.007E-02    0   0.9999   age045_m42            0.0000     1.2347E-05    55.9877   1.4493   122.2808
  3      0.0000     0.0000E+00    0.0000E+00    5.010000E+06  0.00400  2.539E-02    0   0.9488   age055_m42            0.0000     1.2752E-05    57.6026   1.7759   119.0175
  4      0.0152     5.3422E-05    8.5935E-05    6.610000E+06  0.00400  2.620E-02    0   0.9220   age061_m42            0.0000     1.2361E-05    55.6510   1.3771   122.3879
  5      0.0000     0.0000E+00    0.0000E+00    1.000000E+07  0.00400  1.322E-02    0   0.8862   age070_m42            0.0000     1.2770E-05    57.0357   1.1103   122.9924
  6      0.0000     0.0000E+00    0.0000E+00    1.445000E+07  0.00400  7.883E-03    0   0.8571   age078_m42            0.0000     1.2946E-05    57.8858   1.4375   120.0493
  7      0.0000     0.0000E+00    0.0000E+00    2.512000E+07  0.00400  5.251E-03    0   0.8174   age090_m42            0.0000     1.2773E-05    56.8824   0.9761   123.4492
  8      4.5230     1.1432E-01    1.5659E-01    4.000000E+07  0.00400  3.649E-03    0   0.7851   age104_m42            0.0000     1.2559E-05    56.1754   0.7453   124.8313
  9      0.9728     2.8959E-02    3.8545E-02    5.500000E+07  0.00400  3.098E-03    0   0.7629   age110_m42            0.0000     1.2253E-05    54.7632   0.8962   125.7696
 10      0.0000     0.0000E+00    0.0000E+00    1.015200E+08  0.00400  2.228E-03    0   0.7207   age116_m42            0.0000     1.2071E-05    53.5272   0.9135   126.5094
 11      0.0000     0.0000E+00    0.0000E+00    2.861200E+08  0.00400  1.093E-03    0   0.6648   age125_m42            0.0000     1.1996E-05    53.3048   0.3534   129.5951
 12      0.0000     0.0000E+00    0.0000E+00    5.088000E+08  0.00400  6.597E-04    0   0.6365   age130_m42            0.0000     1.1675E-05    51.7394   0.3339   131.8106
 13      9.9392     4.2995E+00    4.3493E+00    1.434000E+09  0.00400  2.132E-04    0   0.5798   age139_m42            0.0000     1.1176E-05    51.2130  -0.6582   135.3823
 14      9.1136     1.4258E+01    1.3376E+01    4.250000E+09  0.00400  5.895E-05    0   0.5377   age158_m42            0.0000     1.1265E-05    51.1379  -1.0000   124.0764
 15      0.0000     0.0000E+00    0.0000E+00    7.500000E+09  0.00400  3.510E-05    0   0.5212   age171_m42            0.0000     1.2087E-05    48.5025  -1.0000   111.7377
 16      0.5074     2.3340E+00    2.0499E+00    1.300000E+10  0.00400  2.005E-05    0   0.5034   age193_m42            0.0000     1.3307E-05    46.9083  -1.0000   102.1380
 17      0.8735     5.2827E+00    4.5780E+00    1.800000E+10  0.00400  1.525E-05    0   0.4967   age213_m42            0.0000     1.3642E-05    46.6622  -1.0000    99.9079
 18      0.0000     0.0000E+00    0.0000E+00    1.000000E+06  0.00800  1.238E-02    0   1.0000   age020_m52            0.0000     1.3263E-05    59.6409   2.1833   114.2575
 19      0.0000     0.0000E+00    0.0000E+00    3.160000E+06  0.00800  3.074E-02    0   0.9966   age045_m52            0.0000     1.3189E-05    59.2440   2.1034   115.3668
 20      0.0000     0.0000E+00    0.0000E+00    5.010000E+06  0.00800  2.668E-02    0   0.9443   age055_m52            0.0000     1.2908E-05    58.0815   1.8626   117.7856
 21      0.0000     0.0000E+00    0.0000E+00    6.610000E+06  0.00800  2.136E-02    0   0.9177   age061_m52            0.0000     1.2697E-05    57.7213   0.5993   124.6781
 22      0.0000     0.0000E+00    0.0000E+00    1.000000E+07  0.00800  1.215E-02    0   0.8827   age070_m52            0.0000     1.3044E-05    58.2271   1.3014   122.0921
 23      0.0000     0.0000E+00    0.0000E+00    1.445000E+07  0.00800  8.717E-03    0   0.8552   age078_m52            0.0000     1.2900E-05    57.7395   1.4064   121.7023
 24      0.0000     0.0000E+00    0.0000E+00    2.512000E+07  0.00800  5.592E-03    0   0.8162   age090_m52            0.0000     1.2751E-05    56.9948   1.0496   124.7520
 25      0.3967     9.3918E-03    1.2848E-02    4.000000E+07  0.00800  3.896E-03    0   0.7841   age104_m52            0.0000     1.2481E-05    56.0094   0.9595   126.2478
 26      0.0000     0.0000E+00    0.0000E+00    1.015200E+08  0.00800  2.148E-03    0   0.7226   age116_m52            0.0000     1.2162E-05    54.3083   0.8861   127.1524
 27      0.0000     0.0000E+00    0.0000E+00    2.861200E+08  0.00800  9.925E-04    0   0.6683   age125_m52            0.0000     1.1676E-05    51.5970   0.4040   132.9413
 28      6.4106     1.8823E+00    2.0157E+00    9.047900E+08  0.00800  3.141E-04    0   0.6138   age135_m52            0.0000     1.0928E-05    50.2309  -0.4229   140.7716
 29      3.2764     1.7578E+00    1.7950E+00    1.434000E+09  0.00800  1.719E-04    0   0.5853   age139_m52            0.0000     1.0973E-05    52.0251  -0.9945   137.7258
 30      4.5587     5.3408E+00    5.2182E+00    2.500000E+09  0.00800  7.872E-05    0   0.5600   age150_m52            0.0000     1.1713E-05    47.9057  -1.0000   117.0356
 31      0.0000     0.0000E+00    0.0000E+00    4.250000E+09  0.00800  4.336E-05    0   0.5426   age158_m52            0.0000     1.1881E-05    47.9439  -1.0000   114.7356
 32      0.3628     1.0591E+00    9.8286E-01    6.250000E+09  0.00800  3.159E-05    0   0.5319   age166_m52            0.0000     1.3461E-05    45.1789  -1.0000   103.0616
 33      0.0000     0.0000E+00    0.0000E+00    1.300000E+10  0.00800  1.361E-05    0   0.5073   age193_m52            0.0000     1.9065E-05    42.2165  -1.0000    79.3036
 34      0.0000     0.0000E+00    0.0000E+00    1.800000E+10  0.00800  9.886E-06    0   0.4990   age213_m52            0.0000     2.0489E-05    41.5960  -1.0000    74.7733
 35      0.0000     0.0000E+00    0.0000E+00    1.000000E+06  0.02000  1.544E-02    0   1.0000   age020_m62            0.0000     1.3304E-05    59.7402   2.1797   114.5123
 36      0.0000     0.0000E+00    0.0000E+00    3.160000E+06  0.02000  3.762E-02    0   0.9858   age045_m62            0.0000     1.3285E-05    59.5910   2.1198   115.5346
 37      0.0000     0.0000E+00    0.0000E+00    5.010000E+06  0.02000  3.296E-02    0   0.9342   age055_m62            0.0000     1.2598E-05    56.6770   1.7376   120.7323
 38      0.0000     0.0000E+00    0.0000E+00    8.710000E+06  0.02000  1.154E-02    0   0.8861   age067_m62            0.0000     1.4312E-05    62.5595   0.7783   121.8380
 39      0.0000     0.0000E+00    0.0000E+00    1.445000E+07  0.02000  7.663E-03    0   0.8472   age078_m62            0.0000     1.3244E-05    59.5668   0.9587   123.8093
 40      0.6453     1.3132E-02    1.8556E-02    2.512000E+07  0.02000  4.532E-03    0   0.8099   age090_m62            0.0000     1.3247E-05    59.4310   0.9564   123.2867
 41      0.0000     0.0000E+00    0.0000E+00    5.500000E+07  0.02000  2.733E-03    0   0.7595   age110_m62            0.0000     1.2554E-05    56.4547   0.9491   125.2602
 42      0.0000     0.0000E+00    0.0000E+00    1.609000E+08  0.02000  1.369E-03    0   0.6985   age120_m62            0.0000     1.2019E-05    53.0351   0.7788   130.0548
 43      0.0000     0.0000E+00    0.0000E+00    2.861200E+08  0.02000  9.013E-04    0   0.6714   age125_m62            0.0000     1.1689E-05    50.6542   0.5169   134.6345
 44      2.8401     5.2095E-01    5.8615E-01    5.088000E+08  0.02000  5.028E-04    0   0.6449   age130_m62            0.0000     1.1107E-05    48.9029   0.1210   140.2496
 45      0.0000     0.0000E+00    0.0000E+00    9.047900E+08  0.02000  2.428E-04    0   0.6179   age135_m62            0.0000     1.0807E-05    50.4009  -0.4724   140.5874
 46     28.2002     2.0592E+01    2.1226E+01    1.434000E+09  0.02000  1.263E-04    0   0.5908   age139_m62            0.0000     1.0797E-05    51.6183  -0.9199   139.0979
 47      5.2410     8.0762E+00    7.9935E+00    2.500000E+09  0.02000  5.985E-05    0   0.5673   age150_m62            0.0000     1.1691E-05    47.5326  -1.0000   118.5240
 48      0.0000     0.0000E+00    0.0000E+00    4.250000E+09  0.02000  3.271E-05    0   0.5468   age158_m62            0.0000     1.4300E-05    43.7651  -1.0000    99.8787
 49      0.0000     0.0000E+00    0.0000E+00    1.000000E+10  0.02000  1.360E-05    0   0.5167   age181_m62            0.0000     1.8512E-05    41.4555  -1.0000    82.8296
 50      0.0000     0.0000E+00    0.0000E+00    1.800000E+10  0.02000  7.124E-06    0   0.5013   age213_m62            0.0000     2.1402E-05    40.7305  -1.0000    73.7174
 51      2.0431     7.2696E-03    1.2681E-02    1.000000E+06  0.05000  2.592E-02    0   0.9998   age020_m72            0.0000     1.3429E-05    60.0985   2.1706   114.4890
 52      0.0000     0.0000E+00    0.0000E+00    3.160000E+06  0.05000  4.845E-02    0   0.9577   age045_m72            0.0000     1.2996E-05    58.4752   2.0015   117.4238
 53      0.0000     0.0000E+00    0.0000E+00    5.010000E+06  0.05000  3.072E-02    0   0.9147   age055_m72            0.0000     1.3255E-05    59.9337   1.5456   120.2448
 54      0.0000     0.0000E+00    0.0000E+00    6.610000E+06  0.05000  1.455E-02    0   0.8877   age061_m72            0.0000     1.4914E-05    65.3964   0.8686   121.1721
 55      0.0000     0.0000E+00    0.0000E+00    1.000000E+07  0.05000  9.074E-03    0   0.8524   age070_m72            0.0000     1.3267E-05    60.6250   1.7517   119.7064
 56      0.0000     0.0000E+00    0.0000E+00    2.512000E+07  0.05000  4.250E-03    0   0.7902   age090_m72            0.0000     1.2908E-05    58.4834   1.4352   122.2212
 57      0.0000     0.0000E+00    0.0000E+00    4.000000E+07  0.05000  3.087E-03    0   0.7618   age104_m72            0.0000     1.2834E-05    57.6179   1.2012   123.9957
 58      0.0000     0.0000E+00    0.0000E+00    1.015200E+08  0.05000  1.700E-03    0   0.7096   age116_m72            0.0000     1.2229E-05    54.0738   0.9341   128.8009
 59      0.0000     0.0000E+00    0.0000E+00    2.861200E+08  0.05000  7.384E-04    0   0.6633   age125_m72            0.0000     1.1370E-05    49.8644   0.3813   137.6086
 60      6.5661     1.5857E+00    1.7628E+00    5.088000E+08  0.05000  3.819E-04    0   0.6372   age130_m72            0.0000     1.0892E-05    49.8306  -0.1212   141.5975
 61     31.9138     1.7561E+01    1.8721E+01    9.047900E+08  0.05000  1.676E-04    0   0.6110   age135_m72            0.0000     1.0675E-05    51.3062  -0.8216   141.2950
 62      8.1953     8.5529E+00    8.7654E+00    1.434000E+09  0.05000  8.837E-05    0   0.5874   age139_m72            0.0000     1.1617E-05    47.4818  -1.0000   120.8787
 63      2.0062     4.3710E+00    4.2691E+00    2.500000E+09  0.05000  4.233E-05    0   0.5598   age150_m72            0.0000     1.4097E-05    44.0354  -1.0000   101.9509
 64      0.1265     8.1289E-01    7.4444E-01    6.250000E+09  0.05000  1.435E-05    0   0.5249   age166_m72            0.0000     1.9741E-05    41.3213  -1.0000    78.5864
 65      0.0000     0.0000E+00    0.0000E+00    1.300000E+10  0.05000  6.513E-06    0   0.5036   age193_m72            0.0000     2.3609E-05    41.0314  -1.0000    68.7874
 66      0.0756     1.5393E+00    1.3280E+00    1.800000E+10  0.05000  4.527E-06    0   0.4945   age213_m72            0.0000     2.5909E-05    41.1988  -1.0000    63.2105


## Synthesis Results - Average & Chains ##

# j      x_j: min, <> & last-chain-values for 1 ...  7 chains
  1      0.0000      0.3216      2.0432      0.0000      0.8998      0.0000      0.0000      0.0000      0.5123
  2      0.0000      0.1820      0.6180      0.0000      0.0000      0.0000      0.0000      0.9464      0.0000
  3      0.0000      0.2352      0.0000      0.2443      0.0000      0.0000      0.0000      0.0000      0.0000
  4      0.0152      0.1663      0.1061      0.9708      0.6764      0.0000      0.0000      0.0000      0.0000
  5      0.0000      0.2399      0.0000      0.0000      0.1462      0.0000      1.0742      0.4553      0.0000
  6      0.0000      0.1011      0.0000      0.0000      0.2428      0.0000      0.4980      0.0000      0.0000
  7      0.0000      0.3578      0.0000      0.0000      0.0499      0.0000      1.5525      0.0000      0.5924
  8      4.5230      0.3086      0.0000      3.3866      0.0000      0.4124      0.0000      0.0000      1.0860
  9      0.9728      0.2822      0.4091      0.6527      0.0399      1.3012      0.0000      0.0000      1.4501
 10      0.0000      0.4791      0.0000      0.0000      0.0000      0.0000      0.0000      0.0000      0.4716
 11      0.0000      0.2765      0.0000      0.0374      0.4642      0.3936      0.0000      0.0000      0.0000
 12      0.0000      0.5953      0.0000      0.0000      0.0000      0.4884      1.3355      0.0000      0.4173
 13      9.9392      4.0455      3.2149      7.2938      1.7453      3.0980      3.5401      2.9201      0.0000
 14      9.1136      1.9154      0.0000      3.6761      0.0000      1.7667      2.3462      2.2749      0.0000
 15      0.0000      1.5528      0.8136      0.0000      2.3443      0.0000      0.0000      0.5638      3.3735
 16      0.5074      0.6555      0.0000      1.2060      0.1613      0.0000      0.0000      0.2461      0.1642
 17      0.8735      0.4727      0.5733      0.8141      0.0000      0.0000      0.0000      0.0000      0.0000
 18      0.0000      0.2405      0.0000      0.5616      0.0000      0.3806      0.0000      0.0000      0.1597
 19      0.0000      0.1284      0.0000      0.0000      0.0000      0.0000      0.0000      0.0000      0.0000
 20      0.0000      0.2309      0.0000      0.0000      0.0000      0.0000      0.0000      0.0000      0.6554
 21      0.0000      0.2661      0.8081      0.1401      0.0000      0.0000      1.2531      0.6054      0.0298
 22      0.0000      0.1797      0.1138      0.0000      0.5779      0.0000      0.4046      0.0000      0.0000
 23      0.0000      0.1501      1.1025      0.0000      0.0578      0.0000      0.0000      0.0000      0.0000
 24      0.0000      0.2317      0.0000      0.0000      0.0000      0.0000      0.2023      0.2067      0.0000
 25      0.3967      0.2375      0.0000      1.1961      0.0000      0.0000      0.2360      0.0000      0.3864
 26      0.0000      0.3070      0.0000      0.0000      0.0000      0.0752      0.0000      1.6784      0.0000
 27      0.0000      0.1953      0.6776      0.0000      0.0000      0.9810      0.0000      0.5356      0.0000
 28      6.4106      1.1575      0.0000      1.1026      1.2138      0.9613      1.0256      1.9250      3.8175
 29      3.2764      2.8582      7.6533      7.0286      4.4518      4.5432      1.6172      7.7591      0.0000
 30      4.5587      1.7683      1.3025      1.7404      0.5645      3.5215      1.5811      5.1582      0.0000
 31      0.0000      1.7040      1.9846      0.0000      1.4493      1.8741      1.1567      0.1698      0.0000
 32      0.3628      0.6469      1.4760      0.8092      0.0000      1.1118      0.3068      1.4963      0.0000
 33      0.0000      0.2369      0.0000      0.0000      0.7418      0.0000      0.5132      0.1638      0.0000
 34      0.0000      0.3158      0.2189      0.0000      0.0000      0.0000      1.7931      0.0000      0.1366
 35      0.0000      0.1186      0.0000      0.0000      0.0000      0.0000      0.0000      0.0000      0.0000
 36      0.0000      0.2434      0.0000      0.0000      0.5618      0.3970      0.7875      0.0000      0.7953
 37      0.0000      0.1828      0.0000      0.0000      0.0000      0.0000      0.4264      0.0000      0.3150
 38      0.0000      0.5681      1.1402      0.0000      0.0000      0.3987      2.1475      0.0000      0.1967
 39      0.0000      0.3751      0.0000      0.3306      0.0000      0.6595      0.0000      0.0000      0.0000
 40      0.6453      0.2020      0.0000      1.3352      0.0000      0.0000      0.0000      0.0000      0.3695
 41      0.0000      0.2436      0.0000      0.0000      0.0000      0.6316      0.6637      0.9485      0.2012
 42      0.0000      0.2174      0.0000      0.0243      0.0036      0.0000      1.5766      0.0000      0.3642
 43      0.0000      0.3805      1.2523      0.0000      0.0000      1.8921      0.0000      1.0468      0.0000
 44      2.8401      0.4008      0.6357      1.0007      1.6463      0.5068      0.0000      0.8102      0.0000
 45      0.0000      1.7042      2.1583      0.4094      1.5172      0.6323      3.9798      0.4676      1.1285
 46     28.2002      2.5662      0.6421      6.5722      4.6394      4.2236      3.9067      6.0851      9.0546
 47      5.2410      1.7499      0.0000      2.2064      6.0558      2.9063      3.3358      0.0000      5.1422
 48      0.0000      0.5754      0.0604      0.0000      0.0000      0.5360      1.4557      1.0959      0.0000
 49      0.0000      0.3004      0.0000      0.0000      0.0000      0.0000      0.0000      0.0000      0.7050
 50      0.0000      0.2398      0.0000      0.0000      0.0000      0.0000      0.5576      0.6584      0.3681
 51      2.0431      0.1119      0.0000      0.7377      0.0000      0.3007      0.5339      0.2505      0.0000
 52      0.0000      0.1819      0.3015      0.0000      0.8754      0.0000      0.0000      0.0000      1.3100
 53      0.0000      0.2098      0.0512      0.0000      1.5385      0.0000      0.0000      0.0207      0.4696
 54      0.0000      0.2748      0.2770      0.0000      0.0000      0.0000      0.0000      0.1645      0.5365
 55      0.0000      0.0829      0.0000      0.0195      0.0000      0.0000      0.4408      0.1818      0.0000
 56      0.0000      0.1957      0.5755      0.5472      1.0790      0.1559      0.0000      0.6135      0.2817
 57      0.0000      0.1747      0.0000      0.0000      0.0000      0.0818      0.0000      0.0000      0.0339
 58      0.0000      0.1905      1.0267      0.1799      1.4483      0.0000      0.0507      0.4696      0.0000
 59      0.0000      0.5967      0.0000      0.0000      0.5940      0.0000      0.0000      1.5612      1.7740
 60      6.5661      5.3162      4.6830      3.0781      5.1786      6.6117      3.9065      5.2589      4.5856
 61     31.9138     81.5839     83.1183     72.9201     79.2545     81.5408     77.8445     77.6905     78.6359
 62      8.1953      1.4552      3.0354      2.1536      1.1582      1.0828      2.8879      0.0000      3.3393
 63      2.0062      5.0408      6.2340      5.1454      8.0630      4.9682      4.2686      4.8261      4.3088
 64      0.1265      0.2169      0.0000      0.9254      0.0000      0.4650      0.0000      0.4472      0.7488
 65      0.0000      0.2493      0.3704      0.0000      0.5594      0.2105      0.0000      0.0000      0.2708
 66      0.0756      0.7809      0.8922      0.8661      0.0000      0.5237      0.7934      0.0000      1.8120

# j      m_j: min, <> & last-chain-values for 1 ...  7 chains
  1  0.0000E+00  4.0038E-03  2.7150E-02  0.0000E+00  1.2594E-02  0.0000E+00  0.0000E+00  0.0000E+00  5.5845E-03
  2  0.0000E+00  6.1850E-04  2.2418E-03  0.0000E+00  0.0000E+00  0.0000E+00  0.0000E+00  3.8407E-03  0.0000E+00
  3  0.0000E+00  1.1968E-03  0.0000E+00  1.3044E-03  0.0000E+00  0.0000E+00  0.0000E+00  0.0000E+00  0.0000E+00
  4  8.5935E-05  7.9708E-04  5.4291E-04  4.8822E-03  3.6450E-03  0.0000E+00  0.0000E+00  0.0000E+00  0.0000E+00
  5  0.0000E+00  2.1900E-03  0.0000E+00  0.0000E+00  1.5003E-03  0.0000E+00  9.4953E-03  4.9638E-03  0.0000E+00
  6  0.0000E+00  1.4974E-03  0.0000E+00  0.0000E+00  4.0416E-03  0.0000E+00  7.1392E-03  0.0000E+00  0.0000E+00
  7  0.0000E+00  7.5858E-03  0.0000E+00  0.0000E+00  1.1887E-03  0.0000E+00  3.1868E-02  0.0000E+00  1.0998E-02
  8  1.5659E-01  9.0421E-03  0.0000E+00  1.0413E-01  0.0000E+00  1.3801E-02  0.0000E+00  0.0000E+00  2.7868E-02
  9  3.8545E-02  9.4627E-03  1.4646E-02  2.2968E-02  1.5064E-03  4.9841E-02  0.0000E+00  0.0000E+00  4.2588E-02
 10  0.0000E+00  2.1106E-02  0.0000E+00  0.0000E+00  0.0000E+00  0.0000E+00  0.0000E+00  0.0000E+00  1.8195E-02
 11  0.0000E+00  2.2902E-02  0.0000E+00  3.2485E-03  4.3234E-02  3.7234E-02  0.0000E+00  0.0000E+00  0.0000E+00
 12  0.0000E+00  7.8220E-02  0.0000E+00  0.0000E+00  0.0000E+00  7.3292E-02  1.6991E-01  0.0000E+00  4.8023E-02
 13  4.3493E+00  1.4982E+00  1.2709E+00  2.8346E+00  7.2677E-01  1.3104E+00  1.2695E+00  1.2915E+00  0.0000E+00
 14  1.3376E+01  2.3792E+00  0.0000E+00  4.7917E+00  0.0000E+00  2.5065E+00  2.8219E+00  3.3745E+00  0.0000E+00
 15  0.0000E+00  3.1400E+00  1.7562E+00  0.0000E+00  5.3303E+00  0.0000E+00  0.0000E+00  1.3615E+00  5.9743E+00
 16  2.0499E+00  2.2413E+00  0.0000E+00  4.3271E+00  6.2023E-01  0.0000E+00  0.0000E+00  1.0051E+00  4.9177E-01
 17  4.5780E+00  2.0966E+00  2.7143E+00  3.7892E+00  0.0000E+00  0.0000E+00  0.0000E+00  0.0000E+00  0.0000E+00
 18  0.0000E+00  2.6453E-03  0.0000E+00  6.4822E-03  0.0000E+00  4.7812E-03  0.0000E+00  0.0000E+00  1.5386E-03
 19  0.0000E+00  5.6702E-04  0.0000E+00  0.0000E+00  0.0000E+00  0.0000E+00  0.0000E+00  0.0000E+00  0.0000E+00
 20  0.0000E+00  1.1131E-03  0.0000E+00  0.0000E+00  0.0000E+00  0.0000E+00  0.0000E+00  0.0000E+00  2.7667E-03
 21  0.0000E+00  1.5570E-03  5.0467E-03  8.6009E-04  0.0000E+00  0.0000E+00  7.0993E-03  4.2301E-03  1.5255E-04
 22  0.0000E+00  1.7776E-03  1.2014E-03  0.0000E+00  6.4289E-03  0.0000E+00  3.8758E-03  0.0000E+00  0.0000E+00
 23  0.0000E+00  2.0049E-03  1.5723E-02  0.0000E+00  8.6777E-04  0.0000E+00  0.0000E+00  0.0000E+00  0.0000E+00
 24  0.0000E+00  4.6046E-03  0.0000E+00  0.0000E+00  0.0000E+00  0.0000E+00  3.8944E-03  4.9059E-03  0.0000E+00
 25  1.2848E-02  6.5089E-03  0.0000E+00  3.4400E-02  0.0000E+00  0.0000E+00  6.2640E-03  0.0000E+00  9.2736E-03
 26  0.0000E+00  1.4063E-02  0.0000E+00  0.0000E+00  0.0000E+00  3.9329E-03  0.0000E+00  9.1826E-02  0.0000E+00
 27  0.0000E+00  1.7908E-02  6.6324E-02  0.0000E+00  0.0000E+00  1.0275E-01  0.0000E+00  5.8656E-02  0.0000E+00
 28  2.0157E+00  3.0803E-01  0.0000E+00  3.0791E-01  3.6318E-01  2.9218E-01  2.6427E-01  6.1176E-01  8.8972E-01
 29  1.7950E+00  1.3253E+00  3.7881E+00  3.4199E+00  2.3210E+00  2.4061E+00  7.2608E-01  4.2965E+00  0.0000E+00
 30  5.2182E+00  1.7131E+00  1.3469E+00  1.7693E+00  6.1491E-01  3.8964E+00  1.4831E+00  5.9676E+00  0.0000E+00
 31  0.0000E+00  2.9039E+00  3.6102E+00  0.0000E+00  2.7771E+00  3.6478E+00  1.9087E+00  3.4552E-01  0.0000E+00
 32  9.8286E-01  1.4833E+00  3.6127E+00  1.9471E+00  0.0000E+00  2.9118E+00  6.8124E-01  4.0973E+00  0.0000E+00
 33  0.0000E+00  1.2024E+00  0.0000E+00  0.0000E+00  4.2339E+00  0.0000E+00  2.5225E+00  9.9289E-01  0.0000E+00
 34  0.0000E+00  2.1704E+00  1.6061E+00  0.0000E+00  0.0000E+00  0.0000E+00  1.1934E+01  0.0000E+00  8.2248E-01
 35  0.0000E+00  1.0463E-03  0.0000E+00  0.0000E+00  0.0000E+00  0.0000E+00  0.0000E+00  0.0000E+00  0.0000E+00
 36  0.0000E+00  8.6873E-04  0.0000E+00  0.0000E+00  2.2541E-03  1.6181E-03  2.7209E-03  0.0000E+00  2.4854E-03
 37  0.0000E+00  7.0566E-04  0.0000E+00  0.0000E+00  0.0000E+00  0.0000E+00  1.5938E-03  0.0000E+00  1.0650E-03
 38  0.0000E+00  5.9409E-03  1.2727E-02  0.0000E+00  0.0000E+00  4.7622E-03  2.1744E-02  0.0000E+00  1.8014E-03
 39  0.0000E+00  5.6468E-03  0.0000E+00  5.2233E-03  0.0000E+00  1.1342E-02  0.0000E+00  0.0000E+00  0.0000E+00
 40  1.8556E-02  4.9170E-03  0.0000E+00  3.4097E-02  0.0000E+00  0.0000E+00  0.0000E+00  0.0000E+00  7.8758E-03
 41  0.0000E+00  9.2187E-03  0.0000E+00  0.0000E+00  0.0000E+00  2.7302E-02  2.4320E-02  4.2869E-02  6.6675E-03
 42  0.0000E+00  1.5107E-02  0.0000E+00  1.7686E-03  2.8264E-04  0.0000E+00  1.0607E-01  0.0000E+00  2.2164E-02
 43  0.0000E+00  3.8603E-02  1.3561E-01  0.0000E+00  0.0000E+00  2.1922E-01  0.0000E+00  1.2681E-01  0.0000E+00
 44  5.8615E-01  7.0003E-02  1.1853E-01  1.8342E-01  3.2332E-01  1.0111E-01  0.0000E+00  1.6900E-01  0.0000E+00
 45  0.0000E+00  5.9061E-01  7.9846E-01  1.4890E-01  5.9121E-01  2.5030E-01  1.3355E+00  1.9351E-01  3.4253E-01
 46  2.1226E+01  1.6347E+00  4.3662E-01  4.3933E+00  3.3231E+00  3.0730E+00  2.4097E+00  4.6292E+00  5.0515E+00
 47  7.9935E+00  2.2588E+00  0.0000E+00  2.9886E+00  8.7893E+00  4.2848E+00  4.1693E+00  0.0000E+00  5.8132E+00
 48  0.0000E+00  1.3099E+00  1.4682E-01  0.0000E+00  0.0000E+00  1.3935E+00  3.2088E+00  2.9793E+00  0.0000E+00
 49  0.0000E+00  1.5543E+00  0.0000E+00  0.0000E+00  0.0000E+00  0.0000E+00  0.0000E+00  0.0000E+00  3.1946E+00
 50  0.0000E+00  2.2975E+00  0.0000E+00  0.0000E+00  0.0000E+00  0.0000E+00  5.1742E+00  7.5350E+00  3.0891E+00
 51  1.2681E-02  5.8765E-04  0.0000E+00  4.0661E-03  0.0000E+00  1.8039E-03  2.7155E-03  1.5714E-03  0.0000E+00
 52  0.0000E+00  4.8973E-04  8.6636E-04  0.0000E+00  2.6496E-03  0.0000E+00  0.0000E+00  0.0000E+00  3.0883E-03
 53  0.0000E+00  8.5067E-04  2.2148E-04  0.0000E+00  7.0143E-03  0.0000E+00  0.0000E+00  1.0008E-04  1.6675E-03
 54  0.0000E+00  2.2832E-03  2.4567E-03  0.0000E+00  0.0000E+00  0.0000E+00  0.0000E+00  1.6318E-03  3.9040E-03
 55  0.0000E+00  1.0607E-03  0.0000E+00  2.6166E-04  0.0000E+00  0.0000E+00  5.4601E-03  2.7775E-03  0.0000E+00
 56  0.0000E+00  4.9564E-03  1.5555E-02  1.4540E-02  3.0718E-02  4.5095E-03  0.0000E+00  1.8549E-02  6.2477E-03
 57  0.0000E+00  5.8698E-03  0.0000E+00  0.0000E+00  0.0000E+00  3.1390E-03  0.0000E+00  0.0000E+00  9.9892E-04
 58  0.0000E+00  1.0828E-02  6.2299E-02  1.0728E-02  9.2568E-02  0.0000E+00  2.7897E-03  3.1875E-02  0.0000E+00
 59  0.0000E+00  7.3000E-02  0.0000E+00  0.0000E+00  8.1704E-02  0.0000E+00  0.0000E+00  2.2808E-01  1.9006E-01
 60  1.7628E+00  1.2079E+00  1.1359E+00  7.3393E-01  1.3230E+00  1.7159E+00  8.5948E-01  1.4270E+00  9.1251E-01
 61  1.8721E+01  4.0503E+01  4.4049E+01  3.7989E+01  4.4241E+01  4.6236E+01  3.7421E+01  4.6061E+01  3.4190E+01
 62  8.7654E+00  1.3172E+00  2.9330E+00  2.0457E+00  1.1788E+00  1.1195E+00  2.5313E+00  0.0000E+00  2.6473E+00
 63  4.2691E+00  9.0784E+00  1.1984E+01  9.7241E+00  1.6327E+01  1.0219E+01  7.4437E+00  1.0379E+01  6.7961E+00
 64  7.4444E-01  1.0807E+00  0.0000E+00  4.8372E+00  0.0000E+00  2.6458E+00  0.0000E+00  2.6602E+00  3.2666E+00
 65  0.0000E+00  2.6254E+00  4.1630E+00  0.0000E+00  6.6230E+00  2.5320E+00  0.0000E+00  0.0000E+00  2.4970E+00
 66  1.3280E+00  1.1616E+01  1.4167E+01  1.3520E+01  0.0000E+00  8.8979E+00  1.1428E+01  0.0000E+00  2.3606E+01

# AV, chi2 & Mass for <> & i_chain = 1 ...  7 solutions
AV      -0.6908     -0.6942     -0.6807     -0.6953     -0.6936     -0.6926     -0.6911     -0.6859     -0.6976
chi2 8.3688E-05  1.1146E-05  1.1619E-05  1.1079E-05  1.2196E-05  1.5135E-05  1.3419E-05  1.3323E-05  1.1846E-05
Mass 1.4305E-14  1.6824E-14  1.6049E-14  1.6010E-14  1.4975E-14  1.4762E-14  1.7448E-14  1.4247E-14  1.9123E-14
-270.12                                  [v0_min (km/s) before EX0s...]
 328.44                                  [vd_min (km/s) before EX0s...]


## Synthetic spectrum (Best Model) ##l_obs f_obs f_syn wei
 3478    [Nl_obs]
 3741.00    0.11998   0.67603    0.000
 3742.00    0.40350   0.66362    0.000
 3743.00    0.49231   0.65006    0.000
 3744.00    0.49210   0.64028    0.000
 3745.00    0.44002   0.63780    0.015
 3746.00    0.42706   0.64185    0.015
 3747.00    0.43396   0.65286    0.014
 3748.00    0.27086   0.66771    0.014
 3749.00    0.03301   0.68702    0.014
 3750.00    0.16639   0.70841    0.014
 3751.00    0.43992   0.72791    0.014
 3752.00    0.73744   0.74324    0.014
 3753.00    1.04264   0.75380    0.014
 3754.00    1.37820   0.76262    0.014
 3755.00    1.72189   0.76825    0.014
 3756.00    1.87927   0.76941    0.014
 3757.00    1.99576   0.76859    0.014
 3758.00    1.76783   0.76602    0.014
 3759.00    1.47976   0.76225    0.014
 3760.00    1.01890   0.75791    0.014
 3761.00    0.53508   0.75063    0.013
 3762.00    0.26832   0.74282    0.013
 3763.00    0.02196   0.73639    0.013
 3764.00    0.74275   0.73013    0.013
 3765.00    1.51933   0.72611    0.013
 3766.00    1.10590   0.72687    0.013
 3767.00    0.66958   0.73334    0.013
 3768.00    0.88036   0.74486    0.013
 3769.00    1.07818   0.76092    0.013
 3770.00    0.96102   0.78099    0.013
 3771.00    0.80509   0.80488    0.013
 3772.00    0.14101   0.83158    0.013
 3773.00   -0.41771   0.85757    0.000
 3774.00   -0.05147   0.88236    0.000
 3775.00    0.27428   0.90483    0.013
 3776.00    0.33754   0.92225    0.013
 3777.00    0.33289   0.93545    0.013
 3778.00   -0.01541   0.94275    0.000
 3779.00   -0.17336   0.94426    0.000
 3780.00    0.44789   0.93977    0.013
 3781.00    0.76315   0.92802    0.013
 3782.00    0.04059   0.91333    0.013
 3783.00   -0.56514   0.89522    0.000
 3784.00   -0.83673   0.87408    0.000
 3785.00   -0.78462   0.85165    0.000
 3786.00    0.05835   0.82756    0.013
 3787.00    0.58880   0.80331    0.013
 3788.00    0.46053   0.77893    0.013
 3789.00    0.27983   0.75531    0.013
 3790.00    0.00307   0.73380    0.013
 3791.00   -0.12756   0.71568    0.000
 3792.00   -0.02427   0.70153    0.000
 3793.00   -0.05282   0.69379    0.000
 3794.00   -0.26653   0.69456    0.000
 3795.00   -0.20105   0.70355    0.000
 3796.00    0.20951   0.71975    0.012
 3797.00    0.45578   0.74148    0.012
 3798.00    0.52305   0.76858    0.012
 3799.00    0.03237   0.79794    0.012
 3800.00   -0.99451   0.82713    0.000
 3801.00   -1.23431   0.85439    0.000
 3802.00   -0.80717   0.87778    0.000
 3803.00   -0.34858   0.89837    0.000
 3804.00    0.13347   0.91435    0.013
 3805.00    0.36331   0.92484    0.013
 3806.00    0.42780   0.93072    0.013
 3807.00    0.54219   0.93221    0.013
 3808.00    0.68520   0.92975    0.013
 3809.00    0.83752   0.92492    0.013
 3810.00    0.99450   0.91797    0.013
 3811.00    0.91491   0.90933    0.013
 3812.00    0.73302   0.90099    0.013
 3813.00    0.73288   0.89118    0.013
 3814.00    0.80014   0.88102    0.013
 3815.00    0.49820   0.87134    0.013
 3816.00    0.08020   0.86117    0.013
 3817.00    0.18304   0.85070    0.013
 3818.00    0.42250   0.83758    0.013
 3819.00    0.33397   0.82145    0.012
 3820.00    0.17517   0.80457    0.012
 3821.00   -0.23548   0.78686    0.000
 3822.00   -0.68887   0.76747    0.000
 3823.00   -0.23706   0.74641    0.000
 3824.00    0.33091   0.72322    0.013
 3825.00    0.44853   0.69971    0.013
 3826.00    0.52572   0.67692    0.012
 3827.00    0.22272   0.65392    0.012
 3828.00   -0.10072   0.63308    0.000
 3829.00   -0.45088   0.61588    0.000
 3830.00   -0.79449   0.60313    0.000
 3831.00   -0.54043   0.59704    0.000
 3832.00   -0.29277   0.59763    0.000
 3833.00   -0.18740   0.60522    0.000
 3834.00   -0.08874   0.62104    0.000
 3835.00   -0.07343   0.64365    0.000
 3836.00   -0.00058   0.67128    0.000
 3837.00    0.55860   0.70344    0.013
 3838.00    0.97828   0.73618    0.013
 3839.00    0.52043   0.76935    0.013
 3840.00    0.09590   0.80209    0.013
 3841.00   -0.16416   0.83166    0.000
 3842.00   -0.36056   0.85878    0.000
 3843.00   -0.30210   0.88129    0.000
 3844.00   -0.17753   0.89987    0.000
 3845.00    0.16684   0.91549    0.013
 3846.00    0.36343   0.92777    0.013
 3847.00    0.14500   0.93736    0.000
 3848.00    0.07017   0.94338    0.000
 3849.00    0.34022   0.94693    0.000
 3850.00    0.43190   0.94937    0.000
 3851.00    0.15362   0.95029    0.000
 3852.00    0.05964   0.95102    0.000
 3853.00    0.29805   0.95117    0.000
 3854.00    0.44358   0.95176    0.000
 3855.00    0.44263   0.95493    0.000
 3856.00    0.40690   0.95920    0.000
 3857.00    0.32303   0.96504    0.000
 3858.00    0.28015   0.97101    0.000
 3859.00    0.28721   0.97655    0.000
 3860.00    0.44975   0.98194    0.000
 3861.00    0.77929   0.98608    0.000
 3862.00    0.97157   0.98826    0.000
 3863.00    1.03380   0.98695    0.000
 3864.00    0.87959   0.98317    0.000
 3865.00    0.54458   0.97638    0.000
 3866.00    0.69597   0.96841    0.000
 3867.00    1.20513   0.96026    0.000
 3868.00    1.30153   0.95137    0.000
 3869.00    1.13132   0.94247    0.000
 3870.00    0.90323   0.93224    0.000
 3871.00    0.64243   0.92125    0.000
 3872.00    0.68748   0.91113    0.000
 3873.00    0.88299   0.90028    0.000
 3874.00    0.93140   0.88813    0.000
 3875.00    0.91724   0.87408    0.000
 3876.00    0.92072   0.85634    0.000
 3877.00    0.93062   0.83728    0.000
 3878.00    1.07663   0.81595    0.000
 3879.00    1.26460   0.79351    0.000
 3880.00    0.86489   0.77149    0.000
 3881.00    0.31431   0.74867    0.012
 3882.00    0.35957   0.72870    0.012
 3883.00    0.52941   0.71387    0.012
 3884.00    0.70485   0.70510    0.013
 3885.00    0.88122   0.70354    0.013
 3886.00    0.54404   0.70768    0.013
 3887.00    0.14325   0.71859    0.013
 3888.00    0.08804   0.73530    0.013
 3889.00    0.06241   0.75610    0.013
 3890.00    0.55935   0.78008    0.013
 3891.00    1.08233   0.80376    0.013
 3892.00    0.53016   0.82709    0.013
 3893.00   -0.03961   0.84817    0.000
 3894.00   -0.60890   0.86827    0.000
 3895.00   -1.12756   0.88632    0.000
 3896.00   -0.61077   0.90153    0.000
 3897.00   -0.11893   0.91626    0.000
 3898.00    0.07786   0.92772    0.012
 3899.00    0.25109   0.93920    0.012
 3900.00    0.23235   0.95120    0.012
 3901.00    0.25406   0.96312    0.011
 3902.00    0.52279   0.97622    0.011
 3903.00    0.85341   0.98787    0.011
 3904.00    1.48185   1.00017    0.011
 3905.00    1.80044   1.01226    0.011
 3906.00    0.90559   1.02177    0.011
 3907.00    0.22966   1.03001    0.011
 3908.00    0.26731   1.03546    0.011
 3909.00    0.55840   1.03675    0.011
 3910.00    1.54840   1.03533    0.012
 3911.00    2.18851   1.03031    0.012
 3912.00    2.00239   1.02304    0.012
 3913.00    1.74036   1.01392    0.012
 3914.00    1.32340   1.00265    0.012
 3915.00    0.99459   0.99155    0.012
 3916.00    0.82238   0.97813    0.012
 3917.00    0.68298   0.96364    0.012
 3918.00    0.59457   0.94608    0.013
 3919.00    0.60576   0.92493    0.013
 3920.00    0.75284   0.90043    0.012
 3921.00    0.86112   0.87035    0.012
 3922.00    0.92278   0.83667    0.013
 3923.00    0.98667   0.79796    0.013
 3924.00    1.05294   0.75662    0.012
 3925.00    0.89950   0.71424    0.013
 3926.00    0.54079   0.67294    0.013
 3927.00    0.68197   0.63760    0.013
 3928.00    1.23483   0.61008    0.013
 3929.00    1.34418   0.59305    0.013
 3930.00    1.13199   0.58728    0.013
 3931.00    0.61958   0.59287    0.013
 3932.00   -0.08391   0.61005    0.000
 3933.00    0.11885   0.63659    0.013
 3934.00    0.82596   0.66968    0.013
 3935.00    0.58422   0.70738    0.013
 3936.00   -0.11684   0.74603    0.000
 3937.00   -0.00457   0.78345    0.000
 3938.00    0.44775   0.81904    0.014
 3939.00    0.65588   0.85141    0.014
 3940.00    0.77667   0.87898    0.014
 3941.00    0.63200   0.90176    0.014
 3942.00    0.40709   0.92144    0.013
 3943.00    0.90000   0.93842    0.013
 3944.00    1.57319   0.95246    0.014
 3945.00    1.06204   0.96285    0.014
 3946.00    0.30938   0.97081    0.014
 3947.00    0.36258   0.97644    0.014
 3948.00    0.54482   0.97809    0.014
 3949.00    0.11361   0.97628    0.014
 3950.00   -0.39084   0.97151    0.000
 3951.00   -0.14051   0.96337    0.000
 3952.00    0.17129   0.95073    0.014
 3953.00    0.47577   0.93245    0.014
 3954.00    0.77992   0.90838    0.014
 3955.00    0.43465   0.87928    0.014
 3956.00    0.09944   0.84508    0.013
 3957.00    0.72224   0.80627    0.013
 3958.00    1.33961   0.76378    0.013
 3959.00    1.85423   0.71788    0.013
 3960.00    2.25665   0.67139    0.000
 3961.00    1.39467   0.62678    0.000
 3962.00    0.59602   0.58752    0.000
 3963.00    0.29528   0.55668    0.000
 3964.00    0.11778   0.53539    0.000
 3965.00    0.67164   0.52558    0.000
 3966.00    1.09131   0.52783    0.000
 3967.00    0.88099   0.54251    0.000
 3968.00    0.70381   0.56917    0.000
 3969.00    0.65364   0.60534    0.000
 3970.00    0.75858   0.64861    0.000
 3971.00    1.35928   0.69638    0.000
 3972.00    1.76316   0.74530    0.000
 3973.00    1.63402   0.79349    0.000
 3974.00    1.58578   0.83840    0.000
 3975.00    1.72538   0.87927    0.000
 3976.00    1.83942   0.91626    0.000
 3977.00    1.90209   0.94818    0.000
 3978.00    1.96521   0.97628    0.000
 3979.00    2.02913   1.00013    0.000
 3980.00    1.88627   1.02025    0.000
 3981.00    1.42684   1.03857    0.014
 3982.00    1.06483   1.05412    0.014
 3983.00    0.83385   1.06854    0.014
 3984.00    0.74859   1.08184    0.014
 3985.00    0.83591   1.09322    0.014
 3986.00    0.77323   1.10358    0.014
 3987.00    0.55393   1.11121    0.014
 3988.00    0.70177   1.11753    0.014
 3989.00    1.18775   1.12252    0.014
 3990.00    1.45227   1.12612    0.014
 3991.00    1.53699   1.12967    0.014
 3992.00    1.88666   1.13284    0.014
 3993.00    2.42562   1.13594    0.014
 3994.00    2.09463   1.13857    0.014
 3995.00    1.21817   1.14112    0.014
 3996.00    1.04317   1.14363    0.014
 3997.00    1.25257   1.14643    0.014
 3998.00    1.10483   1.14863    0.014
 3999.00    0.78696   1.15120    0.014
 4000.00    0.85196   1.15408    0.014
 4001.00    1.07432   1.15668    0.013
 4002.00    1.77619   1.15992    0.014
 4003.00    2.64648   1.16344    0.014
 4004.00    2.61314   1.16904    0.014
 4005.00    2.31205   1.17523    0.014
 4006.00    1.84486   1.18301    0.013
 4007.00    1.33687   1.19147    0.013
 4008.00    0.98226   1.19907    0.013
 4009.00    0.65813   1.20653    0.013
 4010.00    0.81361   1.21260    0.013
 4011.00    1.04361   1.21851    0.014
 4012.00    0.94285   1.22325    0.013
 4013.00    0.80407   1.22691    0.013
 4014.00    0.83461   1.22966    0.013
 4015.00    0.87825   1.23046    0.013
 4016.00    0.69534   1.23071    0.013
 4017.00    0.50289   1.23009    0.013
 4018.00    0.75005   1.22811    0.013
 4019.00    0.99683   1.22567    0.013
 4020.00    1.05131   1.22148    0.013
 4021.00    1.09331   1.21551    0.013
 4022.00    0.91507   1.20840    0.013
 4023.00    0.79739   1.20059    0.013
 4024.00    1.33143   1.19256    0.013
 4025.00    1.76642   1.18504    0.013
 4026.00    1.44955   1.17832    0.013
 4027.00    1.10199   1.17372    0.013
 4028.00    0.57736   1.17073    0.013
 4029.00    0.24681   1.17085    0.013
 4030.00    0.80562   1.17427    0.013
 4031.00    1.26322   1.17945    0.013
 4032.00    1.34109   1.18714    0.013
 4033.00    1.41298   1.19482    0.013
 4034.00    1.46614   1.20144    0.013
 4035.00    1.44356   1.20546    0.013
 4036.00    1.21951   1.20582    0.013
 4037.00    1.04698   1.20350    0.013
 4038.00    0.99212   1.19955    0.013
 4039.00    1.00000   1.19385    0.013
 4040.00    1.13192   1.18852    0.013
 4041.00    1.16710   1.18391    0.013
 4042.00    1.03561   1.18054    0.013
 4043.00    0.74945   1.17864    0.014
 4044.00    0.22996   1.17794    0.014
 4045.00    0.19977   1.17935    0.014
 4046.00    0.81817   1.18078    0.014
 4047.00    1.28223   1.18256    0.014
 4048.00    1.56608   1.18256    0.014
 4049.00    1.92202   1.18060    0.014
 4050.00    2.35220   1.17787    0.014
 4051.00    1.93108   1.17435    0.014
 4052.00    0.73687   1.16998    0.014
 4053.00    0.64458   1.16485    0.014
 4054.00    1.43422   1.15972    0.014
 4055.00    1.31505   1.15491    0.014
 4056.00    0.55593   1.15126    0.014
 4057.00    0.39183   1.14762    0.014
 4058.00    0.59525   1.14429    0.014
 4059.00    0.80817   1.14212    0.014
 4060.00    1.02620   1.14077    0.013
 4061.00    0.86918   1.13926    0.013
 4062.00    0.53638   1.13788    0.013
 4063.00    0.97469   1.13799    0.014
 4064.00    1.72455   1.13833    0.014
 4065.00    2.00905   1.13819    0.014
 4066.00    2.13308   1.13661    0.014
 4067.00    1.94671   1.13338    0.013
 4068.00    1.67019   1.12862    0.013
 4069.00    1.70898   1.12334    0.013
 4070.00    1.82351   1.11804    0.013
 4071.00    1.51836   1.11376    0.013
 4072.00    1.13188   1.11077    0.013
 4073.00    1.08740   1.10941    0.014
 4074.00    1.09446   1.10940    0.014
 4075.00    0.92434   1.11102    0.013
 4076.00    0.73463   1.11505    0.013
 4077.00    0.32901   1.12096    0.013
 4078.00   -0.09242   1.12795    0.000
 4079.00    0.41538   1.13542    0.013
 4080.00    0.95876   1.14165    0.013
 4081.00    0.91498   1.14614    0.013
 4082.00    0.87745   1.14908    0.013
 4083.00    1.19777   1.14964    0.013
 4084.00    1.52855   1.14807    0.013
 4085.00    2.03158   1.14381    0.013
 4086.00    2.43186   1.13549    0.013
 4087.00    1.77471   1.12314    0.013
 4088.00    1.19282   1.10609    0.013
 4089.00    1.16327   1.08479    0.013
 4090.00    1.20059   1.05921    0.013
 4091.00    1.61302   1.03077    0.013
 4092.00    1.94882   1.00072    0.000
 4093.00    1.94165   0.97021    0.000
 4094.00    1.85625   0.94211    0.000
 4095.00    1.48352   0.91737    0.000
 4096.00    1.11550   0.89803    0.000
 4097.00    0.76202   0.88550    0.000
 4098.00    0.56789   0.88020    0.000
 4099.00    0.79030   0.88213    0.000
 4100.00    0.90056   0.89149    0.000
 4101.00    0.75897   0.90733    0.000
 4102.00    0.70233   0.92792    0.000
 4103.00    0.81098   0.95155    0.000
 4104.00    0.93506   0.97642    0.000
 4105.00    1.08536   1.00057    0.000
 4106.00    1.32185   1.02369    0.000
 4107.00    1.68649   1.04462    0.000
 4108.00    1.98403   1.06330    0.000
 4109.00    2.19390   1.07980    0.000
 4110.00    2.20767   1.09367    0.000
 4111.00    1.99572   1.10530    0.000
 4112.00    1.58819   1.11426    0.000
 4113.00    0.98212   1.12090    0.013
 4114.00    0.69103   1.12558    0.013
 4115.00    0.68194   1.12840    0.013
 4116.00    0.74170   1.12973    0.013
 4117.00    0.85579   1.12991    0.013
 4118.00    0.91109   1.13006    0.013
 4119.00    0.92559   1.12934    0.013
 4120.00    0.68746   1.12840    0.013
 4121.00    0.29559   1.12659    0.013
 4122.00    0.40077   1.12452    0.013
 4123.00    0.77000   1.12220    0.013
 4124.00    1.25246   1.11980    0.013
 4125.00    1.78713   1.11826    0.013
 4126.00    2.19409   1.11693    0.014
 4127.00    2.55034   1.11812    0.014
 4128.00    2.63247   1.12061    0.014
 4129.00    2.62183   1.12554    0.013
 4130.00    1.67762   1.13130    0.013
 4131.00    0.46778   1.13831    0.013
 4132.00    0.37399   1.14519    0.013
 4133.00    0.54222   1.15156    0.013
 4134.00    1.10870   1.15740    0.013
 4135.00    1.75035   1.16013    0.013
 4136.00    1.53916   1.16135    0.013
 4137.00    1.20343   1.16027    0.013
 4138.00    0.99737   1.15756    0.013
 4139.00    0.80510   1.15428    0.013
 4140.00    1.10402   1.15047    0.013
 4141.00    1.43693   1.14688    0.013
 4142.00    1.17137   1.14434    0.013
 4143.00    0.88517   1.14291    0.013
 4144.00    1.50563   1.14206    0.013
 4145.00    2.08365   1.14145    0.013
 4146.00    1.20007   1.14067    0.013
 4147.00    0.40793   1.13975    0.013
 4148.00    1.02984   1.13880    0.013
 4149.00    1.57634   1.13896    0.013
 4150.00    1.37956   1.13912    0.013
 4151.00    1.21306   1.14120    0.013
 4152.00    1.26150   1.14381    0.013
 4153.00    1.34809   1.14790    0.013
 4154.00    1.64289   1.15321    0.013
 4155.00    1.78353   1.15865    0.012
 4156.00    1.25036   1.16501    0.012
 4157.00    0.79538   1.17007    0.012
 4158.00    0.62160   1.17462    0.012
 4159.00    0.68946   1.17663    0.012
 4160.00    1.48651   1.17687    0.012
 4161.00    1.99508   1.17462    0.012
 4162.00    1.76282   1.16961    0.012
 4163.00    1.57437   1.16286    0.012
 4164.00    1.48270   1.15367    0.012
 4165.00    1.40245   1.14320    0.012
 4166.00    1.34409   1.13200    0.012
 4167.00    1.40550   1.12138    0.012
 4168.00    1.66707   1.11122    0.012
 4169.00    1.59528   1.10274    0.012
 4170.00    1.03518   1.09585    0.012
 4171.00    0.72148   1.09160    0.012
 4172.00    0.72515   1.09040    0.012
 4173.00    0.92243   1.09151    0.012
 4174.00    1.33943   1.09469    0.012
 4175.00    1.45888   1.09881    0.012
 4176.00    1.28051   1.10377    0.012
 4177.00    1.32636   1.10939    0.012
 4178.00    1.57012   1.11518    0.012
 4179.00    1.57647   1.12087    0.012
 4180.00    1.39817   1.12576    0.012
 4181.00    1.31584   1.13087    0.012
 4182.00    1.29915   1.13534    0.012
 4183.00    1.47024   1.13975    0.012
 4184.00    1.75389   1.14384    0.012
 4185.00    1.87135   1.14626    0.012
 4186.00    1.90190   1.14865    0.012
 4187.00    1.60333   1.14977    0.012
 4188.00    1.15548   1.14936    0.012
 4189.00    1.34790   1.14698    0.012
 4190.00    1.79018   1.14290    0.012
 4191.00    1.98890   1.13777    0.012
 4192.00    2.10672   1.13107    0.013
 4193.00    1.79617   1.12429    0.013
 4194.00    1.36622   1.11769    0.013
 4195.00    0.99070   1.11298    0.012
 4196.00    0.62768   1.10975    0.012
 4197.00    1.01893   1.10927    0.012
 4198.00    1.54879   1.11172    0.012
 4199.00    1.32539   1.11593    0.012
 4200.00    0.99547   1.12194    0.012
 4201.00    0.89535   1.12936    0.012
 4202.00    0.81867   1.13730    0.012
 4203.00    0.68485   1.14483    0.012
 4204.00    0.54731   1.15244    0.012
 4205.00    1.00692   1.15837    0.012
 4206.00    1.48410   1.16336    0.012
 4207.00    1.46641   1.16647    0.012
 4208.00    1.44618   1.16852    0.012
 4209.00    1.35131   1.16943    0.012
 4210.00    1.28032   1.16976    0.013
 4211.00    1.55679   1.16894    0.013
 4212.00    1.80490   1.16724    0.013
 4213.00    1.78468   1.16420    0.012
 4214.00    1.67763   1.15971    0.012
 4215.00    0.97360   1.15486    0.012
 4216.00    0.39576   1.14740    0.012
 4217.00    0.48860   1.13857    0.012
 4218.00    0.65188   1.12777    0.012
 4219.00    1.11592   1.11687    0.012
 4220.00    1.45874   1.10595    0.012
 4221.00    1.37443   1.09672    0.012
 4222.00    1.25240   1.09033    0.012
 4223.00    1.01864   1.08656    0.012
 4224.00    0.89852   1.08658    0.012
 4225.00    1.06518   1.08917    0.012
 4226.00    1.15216   1.09532    0.012
 4227.00    1.06601   1.10222    0.012
 4228.00    1.10466   1.10909    0.012
 4229.00    1.37867   1.11548    0.012
 4230.00    1.28744   1.12067    0.011
 4231.00    0.59488   1.12504    0.011
 4232.00    0.48394   1.12947    0.012
 4233.00    1.21257   1.13437    0.012
 4234.00    1.52232   1.13863    0.012
 4235.00    1.30026   1.14402    0.011
 4236.00    1.24718   1.14876    0.011
 4237.00    1.38314   1.15315    0.011
 4238.00    1.48365   1.15668    0.011
 4239.00    1.54916   1.15895    0.011
 4240.00    1.37372   1.15955    0.011
 4241.00    0.98858   1.15807    0.011
 4242.00    0.79250   1.15573    0.011
 4243.00    0.74137   1.15179    0.011
 4244.00    0.88256   1.14711    0.011
 4245.00    1.15338   1.14245    0.011
 4246.00    1.46699   1.13852    0.012
 4247.00    1.80587   1.13574    0.012
 4248.00    1.86822   1.13352    0.012
 4249.00    1.78819   1.13263    0.012
 4250.00    1.69794   1.13316    0.012
 4251.00    1.60313   1.13411    0.012
 4252.00    1.62899   1.13543    0.012
 4253.00    1.70111   1.13777    0.012
 4254.00    1.41688   1.14081    0.012
 4255.00    1.01651   1.14479    0.011
 4256.00    0.78735   1.14841    0.011
 4257.00    0.60491   1.15233    0.011
 4258.00    0.86052   1.15586    0.011
 4259.00    1.21428   1.15851    0.011
 4260.00    1.62306   1.16033    0.011
 4261.00    2.04168   1.15951    0.011
 4262.00    1.67840   1.15614    0.011
 4263.00    1.20813   1.14977    0.011
 4264.00    1.15975   1.14165    0.011
 4265.00    1.15258   1.13176    0.011
 4266.00    1.36288   1.12200    0.011
 4267.00    1.58649   1.11346    0.011
 4268.00    1.07986   1.10694    0.011
 4269.00    0.55875   1.10303    0.011
 4270.00    1.05887   1.10208    0.011
 4271.00    1.53581   1.10482    0.011
 4272.00    1.39992   1.10867    0.011
 4273.00    1.27679   1.11362    0.011
 4274.00    1.32892   1.11866    0.011
 4275.00    1.41925   1.12270    0.011
 4276.00    1.85653   1.12439    0.011
 4277.00    2.23596   1.12390    0.012
 4278.00    2.23009   1.12057    0.012
 4279.00    2.21022   1.11529    0.012
 4280.00    2.11786   1.10850    0.012
 4281.00    1.95416   1.09993    0.012
 4282.00    1.49263   1.09152   -2.000
 4283.00    1.09116   1.08217   -2.000
 4284.00    0.89703   1.07359   -2.000
 4285.00    0.75920   1.06566   -2.000
 4286.00    0.78505   1.05825   -2.000
 4287.00    0.99047   1.05143   -2.000
 4288.00    1.64129   1.04435   -2.000
 4289.00    2.00049   1.03829   -2.000
 4290.00    1.73626   1.03093   -2.000
 4291.00    1.47515   1.02257   -2.000
 4292.00    1.21982   1.01193   -2.000
 4293.00    1.23678   1.00048   -2.000
 4294.00    1.69535   0.98875   -2.000
 4295.00    1.86206   0.97642   -2.000
 4296.00    1.61354   0.96534   -2.000
 4297.00    1.40072   0.95496   -2.000
 4298.00    1.23258   0.94716    0.012
 4299.00    0.96049   0.94228    0.012
 4300.00    0.57373   0.93996    0.012
 4301.00    0.50988   0.94013    0.012
 4302.00    0.76018   0.94370    0.012
 4303.00    1.09084   0.94977    0.012
 4304.00    1.49043   0.95831    0.012
 4305.00    1.41273   0.97013    0.012
 4306.00    0.97434   0.98380    0.011
 4307.00    0.72294   1.00063    0.012
 4308.00    0.59569   1.01902    0.012
 4309.00    0.60892   1.03843    0.012
 4310.00    0.70385   1.05731    0.011
 4311.00    0.98226   1.07450    0.011
 4312.00    1.35365   1.08967    0.012
 4313.00    1.55812   1.10107    0.012
 4314.00    1.68934   1.10979    0.012
 4315.00    1.76396   1.11296    0.012
 4316.00    1.81726   1.11241    0.012
 4317.00    1.35962   1.10759    0.011
 4318.00    0.73862   1.10122    0.011
 4319.00    0.86608   1.09267    0.011
 4320.00    1.19358   1.08509    0.012
 4321.00    1.47914   1.07773    0.012
 4322.00    1.75552   1.07141    0.012
 4323.00    1.46680   1.06656    0.012
 4324.00    1.07979   1.06253    0.012
 4325.00    1.17391   1.05943    0.012
 4326.00    1.33166   1.05457    0.012
 4327.00    1.43708   1.04682    0.012
 4328.00    1.53761   1.03523    0.012
 4329.00    1.70330   1.01989    0.012
 4330.00    1.87273   1.00157    0.000
 4331.00    1.47567   0.98025    0.000
 4332.00    1.07100   0.95777    0.000
 4333.00    1.30603   0.93598    0.000
 4334.00    1.54407   0.91664    0.000
 4335.00    1.85474   0.90150    0.000
 4336.00    2.10796   0.89237    0.000
 4337.00    1.61336   0.89074    0.000
 4338.00    1.15995   0.89557    0.000
 4339.00    1.06631   0.90702    0.000
 4340.00    0.95436   0.92379    0.000
 4341.00    0.72414   0.94333    0.000
 4342.00    0.62549   0.96380    0.000
 4343.00    1.19069   0.98435    0.000
 4344.00    1.59649   1.00380    0.000
 4345.00    1.35174   1.02104    0.000
 4346.00    1.24202   1.03668    0.000
 4347.00    1.58914   1.05058    0.000
 4348.00    1.65602   1.06327    0.000
 4349.00    0.92323   1.07500    0.000
 4350.00    0.51975   1.08701    0.000
 4351.00    0.91908   1.09973    0.012
 4352.00    1.30218   1.11280    0.012
 4353.00    1.65111   1.12535    0.012
 4354.00    1.90303   1.13796    0.012
 4355.00    1.97760   1.14960    0.012
 4356.00    1.94898   1.16027    0.012
 4357.00    1.75549   1.16914    0.012
 4358.00    1.50857   1.17671    0.011
 4359.00    1.18675   1.18202    0.011
 4360.00    1.06962   1.18507    0.011
 4361.00    1.20505   1.18550    0.011
 4362.00    1.34500   1.18388    0.011
 4363.00    1.48987   1.18037    0.012
 4364.00    1.53535   1.17518    0.012
 4365.00    1.48547   1.16918    0.012
 4366.00    1.28682   1.16261    0.012
 4367.00    0.96232   1.15671    0.011
 4368.00    1.03959   1.15076    0.011
 4369.00    1.41612   1.14561    0.011
 4370.00    1.68936   1.14050    0.012
 4371.00    1.89503   1.13578    0.012
 4372.00    1.97618   1.13063    0.012
 4373.00    1.98602   1.12529    0.012
 4374.00    1.64554   1.11922    0.012
 4375.00    1.13032   1.11218    0.011
 4376.00    1.44494   1.10402    0.011
 4377.00    2.11765   1.09526    0.012
 4378.00    1.78977   1.08679    0.012
 4379.00    1.09165   1.07922    0.011
 4380.00    0.78953   1.07378    0.011
 4381.00    0.61159   1.07066    0.011
 4382.00    0.76118   1.07086    0.011
 4383.00    0.99645   1.07388    0.011
 4384.00    0.90696   1.07930    0.011
 4385.00    0.74811   1.08610    0.011
 4386.00    1.00890   1.09361    0.011
 4387.00    1.34064   1.10138    0.011
 4388.00    1.44958   1.10884    0.011
 4389.00    1.53007   1.11545    0.011
 4390.00    1.09932   1.12084    0.011
 4391.00    0.62296   1.12496    0.011
 4392.00    0.82260   1.12751    0.011
 4393.00    1.05825   1.12905    0.011
 4394.00    1.38412   1.12891    0.011
 4395.00    1.70834   1.12807    0.011
 4396.00    1.75529   1.12579    0.011
 4397.00    1.79258   1.12344    0.011
 4398.00    1.61728   1.12123    0.011
 4399.00    1.40723   1.11952    0.011
 4400.00    0.76788   1.11863    0.011
 4401.00    0.22427   1.11875    0.011
 4402.00    0.48608   1.12040    0.011
 4403.00    0.72642   1.12294    0.011
 4404.00    0.83226   1.12660    0.011
 4405.00    0.99381   1.13055    0.011
 4406.00    1.42940   1.13478    0.011
 4407.00    1.85326   1.13844    0.011
 4408.00    2.23032   1.14182    0.011
 4409.00    2.37094   1.14431    0.011
 4410.00    1.72744   1.14625    0.011
 4411.00    1.24472   1.14763    0.011
 4412.00    1.21248   1.14939    0.011
 4413.00    1.36360   1.15129    0.011
 4414.00    1.95419   1.15357    0.011
 4415.00    2.23070   1.15627    0.011
 4416.00    1.85714   1.15881    0.011
 4417.00    1.68331   1.16099    0.011
 4418.00    1.86899   1.16266    0.011
 4419.00    1.89984   1.16365    0.011
 4420.00    1.68696   1.16431    0.011
 4421.00    1.45396   1.16396    0.010
 4422.00    1.19318   1.16304    0.010
 4423.00    1.09502   1.16145    0.010
 4424.00    1.19464   1.15946    0.011
 4425.00    1.21211   1.15741    0.011
 4426.00    1.14150   1.15498    0.011
 4427.00    1.07611   1.15310    0.011
 4428.00    1.01566   1.15181    0.011
 4429.00    1.16145   1.15099    0.011
 4430.00    1.47924   1.15082    0.011
 4431.00    1.50061   1.15132    0.011
 4432.00    1.30438   1.15254    0.011
 4433.00    1.26231   1.15446    0.011
 4434.00    1.31965   1.15619    0.011
 4435.00    1.25065   1.15792    0.011
 4436.00    1.11040   1.15920    0.011
 4437.00    0.99028   1.16028    0.011
 4438.00    0.88006   1.16129    0.011
 4439.00    1.12491   1.16239    0.011
 4440.00    1.52043   1.16376    0.011
 4441.00    1.55847   1.16503    0.011
 4442.00    1.46659   1.16589    0.011
 4443.00    1.30956   1.16549    0.011
 4444.00    1.13248   1.16415    0.011
 4445.00    1.24187   1.16123    0.011
 4446.00    1.42459   1.15665    0.011
 4447.00    1.68905   1.15037    0.011
 4448.00    1.97055   1.14313    0.011
 4449.00    1.69790   1.13458    0.011
 4450.00    1.33421   1.12615    0.011
 4451.00    1.25784   1.11766    0.011
 4452.00    1.21688   1.11071    0.011
 4453.00    1.62798   1.10489    0.011
 4454.00    2.07752   1.10101    0.010
 4455.00    1.81725   1.09881    0.011
 4456.00    1.52195   1.09856    0.011
 4457.00    1.60931   1.10016    0.010
 4458.00    1.70320   1.10305    0.010
 4459.00    1.82440   1.10736    0.010
 4460.00    1.92216   1.11251    0.010
 4461.00    1.54511   1.11825    0.000
 4462.00    1.20913   1.12481    0.000
 4463.00    1.35581   1.13156    0.000
 4464.00    1.48756   1.13930    0.000
 4465.00    1.49830   1.14701    0.000
 4466.00    1.42259   1.15546    0.000
 4467.00    0.82081   1.16350    0.000
 4468.00    0.38169   1.17141    0.000
 4469.00    0.72290   1.17813    0.000
 4470.00    1.04315   1.18365    0.000
 4471.00    1.28151   1.18760    0.000
 4472.00    1.42668   1.18968    0.000
 4473.00    1.26886   1.19008    0.000
 4474.00    1.15521   1.18885    0.000
 4475.00    1.16314   1.18691    0.000
 4476.00    1.12167   1.18448    0.000
 4477.00    0.96381   1.18250    0.000
 4478.00    0.92036   1.18069    0.000
 4479.00    1.10991   1.17951    0.000
 4480.00    1.28136   1.17863    0.000
 4481.00    1.42072   1.17812    0.000
 4482.00    1.53599   1.17753    0.010
 4483.00    1.61391   1.17702    0.010
 4484.00    1.68310   1.17631    0.010
 4485.00    1.74039   1.17576    0.010
 4486.00    1.56744   1.17504    0.010
 4487.00    1.11843   1.17497    0.010
 4488.00    0.97212   1.17528    0.010
 4489.00    1.14582   1.17681    0.010
 4490.00    1.40288   1.17936    0.010
 4491.00    1.73767   1.18323    0.010
 4492.00    1.65450   1.18834    0.010
 4493.00    1.22774   1.19441    0.010
 4494.00    0.96577   1.20166    0.010
 4495.00    0.82305   1.20947    0.010
 4496.00    1.18303   1.21770    0.010
 4497.00    1.86235   1.22570    0.010
 4498.00    2.03494   1.23329    0.010
 4499.00    1.92606   1.24001    0.010
 4500.00    1.71209   1.24552    0.010
 4501.00    1.44734   1.24966    0.010
 4502.00    1.34353   1.25210    0.010
 4503.00    1.30687   1.25297    0.010
 4504.00    1.26047   1.25211    0.010
 4505.00    1.21061   1.24989    0.010
 4506.00    1.14966   1.24628    0.010
 4507.00    1.08536   1.24183    0.010
 4508.00    1.16152   1.23643    0.010
 4509.00    1.27286   1.23085    0.010
 4510.00    1.58006   1.22467    0.010
 4511.00    1.92706   1.21874    0.010
 4512.00    1.68877   1.21233    0.010
 4513.00    1.35711   1.20621    0.010
 4514.00    1.29344   1.19944    0.010
 4515.00    1.26162   1.19258    0.010
 4516.00    1.58273   1.18496    0.010
 4517.00    1.93239   1.17671    0.010
 4518.00    1.76087   1.16795    0.010
 4519.00    1.56565   1.15834    0.010
 4520.00    1.12196   1.14898    0.010
 4521.00    0.69476   1.13912    0.010
 4522.00    1.26421   1.13061    0.010
 4523.00    1.79613   1.12240    0.010
 4524.00    1.62372   1.11654    0.010
 4525.00    1.47582   1.11188    0.010
 4526.00    1.60242   1.11001    0.010
 4527.00    1.72096   1.10994    0.010
 4528.00    1.77631   1.11238    0.010
 4529.00    1.73005   1.11663    0.010
 4530.00    1.08303   1.12246    0.010
 4531.00    0.60689   1.12949    0.010
 4532.00    0.93060   1.13679    0.010
 4533.00    1.19609   1.14425    0.010
 4534.00    1.23906   1.15077    0.010
 4535.00    1.24598   1.15637    0.010
 4536.00    1.13793   1.16031    0.010
 4537.00    1.15127   1.16262    0.010
 4538.00    1.49263   1.16325    0.010
 4539.00    1.68447   1.16216    0.010
 4540.00    1.52983   1.15988    0.010
 4541.00    1.46540   1.15640    0.010
 4542.00    1.58177   1.15248    0.010
 4543.00    1.57192   1.14831    0.010
 4544.00    1.34169   1.14439    0.010
 4545.00    1.21090   1.14130    0.010
 4546.00    1.23209   1.13896    0.010
 4547.00    1.38895   1.13832    0.010
 4548.00    1.72795   1.13862    0.010
 4549.00    1.81212   1.14096    0.010
 4550.00    1.59507   1.14407    0.000
 4551.00    1.46017   1.14887    0.000
 4552.00    1.41091   1.15394    0.000
 4553.00    1.47454   1.15981    0.000
 4554.00    1.64194   1.16534    0.000
 4555.00    1.73504   1.17069    0.000
 4556.00    1.76791   1.17529    0.000
 4557.00    1.74821   1.17915    0.000
 4558.00    1.69101   1.18224    0.000
 4559.00    1.46753   1.18461    0.000
 4560.00    1.14000   1.18646    0.000
 4561.00    0.80647   1.18790    0.000
 4562.00    0.46966   1.18908    0.000
 4563.00    0.81016   1.19008    0.000
 4564.00    1.47265   1.19083    0.000
 4565.00    1.66292   1.19138    0.000
 4566.00    1.65951   1.19147    0.000
 4567.00    1.36993   1.19113    0.000
 4568.00    0.98008   1.19003    0.000
 4569.00    0.92515   1.18826    0.000
 4570.00    0.96921   1.18556    0.000
 4571.00    1.09939   1.18207    0.000
 4572.00    1.25066   1.17777    0.000
 4573.00    0.98540   1.17288    0.000
 4574.00    0.63759   1.16767    0.000
 4575.00    0.73288   1.16246    0.000
 4576.00    0.89675   1.15761    0.000
 4577.00    0.74037   1.15352    0.000
 4578.00    0.54734   1.15027    0.000
 4579.00    0.76034   1.14834    0.000
 4580.00    1.00454   1.14724    0.000
 4581.00    1.02439   1.14750    0.000
 4582.00    1.03491   1.14810    0.000
 4583.00    1.24042   1.14961    0.000
 4584.00    1.44213   1.15085    0.000
 4585.00    1.40782   1.15242    0.000
 4586.00    1.37688   1.15337    0.000
 4587.00    1.40507   1.15431    0.000
 4588.00    1.41514   1.15466    0.000
 4589.00    1.23149   1.15501    0.000
 4590.00    1.06397   1.15509    0.000
 4591.00    1.01847   1.15537    0.000
 4592.00    0.96135   1.15573    0.000
 4593.00    0.83747   1.15653    0.000
 4594.00    0.72572   1.15771    0.000
 4595.00    0.66943   1.15945    0.000
 4596.00    0.61896   1.16184    0.000
 4597.00    0.59025   1.16471    0.000
 4598.00    0.63705   1.16845    0.000
 4599.00    0.92004   1.17241    0.000
 4600.00    1.06746   1.17720    0.000
 4601.00    0.85499   1.18178    0.000
 4602.00    0.74601   1.18682    0.000
 4603.00    0.87281   1.19120    0.000
 4604.00    1.00248   1.19545    0.000
 4605.00    1.13779   1.19874    0.000
 4606.00    1.21919   1.20139    0.000
 4607.00    1.20787   1.20313    0.000
 4608.00    1.19354   1.20402    0.000
 4609.00    1.17467   1.20443    0.000
 4610.00    1.25262   1.20407    0.000
 4611.00    1.45869   1.20381    0.000
 4612.00    1.67107   1.20301    0.000
 4613.00    1.89081   1.20273    0.000
 4614.00    1.79789   1.20210    0.000
 4615.00    1.38365   1.20207    0.000
 4616.00    1.16087   1.20172    0.000
 4617.00    1.11167   1.20174    0.000
 4618.00    1.12750   1.20137    0.000
 4619.00    1.19529   1.20099    0.000
 4620.00    1.33665   1.20014    0.000
 4621.00    1.52973   1.19901    0.000
 4622.00    1.46363   1.19740    0.000
 4623.00    1.23774   1.19539    0.000
 4624.00    0.99269   1.19297    0.000
 4625.00    0.73733   1.19016    0.000
 4626.00    0.72378   1.18709    0.000
 4627.00    0.82334   1.18372    0.000
 4628.00    1.00312   1.18025    0.000
 4629.00    1.21525   1.17663    0.000
 4630.00    1.33412   1.17303    0.000
 4631.00    1.42092   1.16945    0.000
 4632.00    1.40503   1.16593    0.000
 4633.00    1.35940   1.16256    0.000
 4634.00    1.26147   1.15916    0.000
 4635.00    1.15101   1.15596    0.000
 4636.00    1.12285   1.15257    0.000
 4637.00    1.11058   1.14941    0.000
 4638.00    0.97239   1.14602    0.000
 4639.00    0.81531   1.14305    0.000
 4640.00    1.07264   1.14007    0.000
 4641.00    1.37559   1.13783    0.000
 4642.00    1.44929   1.13598    0.000
 4643.00    1.50631   1.13519    0.000
 4644.00    1.36077   1.13505    0.000
 4645.00    1.20756   1.13609    0.000
 4646.00    1.22785   1.13774    0.000
 4647.00    1.25226   1.14035    0.000
 4648.00    1.39655   1.14326    0.000
 4649.00    1.52400   1.14663    0.000
 4650.00    1.37623   1.14983    0.000
 4651.00    1.21618   1.15281    0.000
 4652.00    0.93034   1.15516    0.000
 4653.00    0.70535   1.15647    0.000
 4654.00    0.92495   1.15674    0.000
 4655.00    1.07308   1.15532    0.000
 4656.00    0.82167   1.15266    0.000
 4657.00    0.63633   1.14824    0.000
 4658.00    0.74581   1.14285    0.000
 4659.00    0.83290   1.13647    0.000
 4660.00    0.83795   1.13002    0.000
 4661.00    0.91195   1.12386    0.000
 4662.00    1.19751   1.11872    0.000
 4663.00    1.33424   1.11510    0.000
 4664.00    1.08287   1.11315    0.000
 4665.00    0.94996   1.11317    0.000
 4666.00    1.08255   1.11472    0.000
 4667.00    1.19207   1.11777    0.000
 4668.00    1.25676   1.12157    0.000
 4669.00    1.26359   1.12585    0.000
 4670.00    1.17241   1.12995    0.000
 4671.00    1.15283   1.13359    0.000
 4672.00    1.23951   1.13656    0.000
 4673.00    1.36560   1.13873    0.000
 4674.00    1.54308   1.14021    0.000
 4675.00    1.53954   1.14109    0.000
 4676.00    1.32802   1.14161    0.000
 4677.00    1.11762   1.14189    0.000
 4678.00    0.90837   1.14218    0.000
 4679.00    0.86923   1.14251    0.000
 4680.00    0.98211   1.14298    0.000
 4681.00    1.08687   1.14345    0.000
 4682.00    1.18522   1.14403    0.000
 4683.00    1.23413   1.14442    0.000
 4684.00    1.24880   1.14489    0.000
 4685.00    1.15502   1.14493    0.000
 4686.00    0.99538   1.14490    0.000
 4687.00    1.06675   1.14427    0.000
 4688.00    1.26061   1.14334    0.000
 4689.00    1.37260   1.14165    0.000
 4690.00    1.44692   1.13946    0.000
 4691.00    1.54042   1.13653    0.000
 4692.00    1.64153   1.13302    0.000
 4693.00    1.49671   1.12897    0.000
 4694.00    1.26887   1.12460    0.000
 4695.00    1.08345   1.12002    0.000
 4696.00    0.91007   1.11570    0.000
 4697.00    1.02176   1.11159    0.000
 4698.00    1.20020   1.10834    0.000
 4699.00    1.25638   1.10557    0.000
 4700.00    1.28956   1.10410    0.000
 4701.00    1.42262   1.10326    0.000
 4702.00    1.57019   1.10377    0.000
 4703.00    1.30177   1.10505    0.000
 4704.00    0.98937   1.10749    0.000
 4705.00    0.89677   1.11073    0.000
 4706.00    0.81927   1.11468    0.000
 4707.00    0.88843   1.11943    0.000
 4708.00    0.96258   1.12455    0.000
 4709.00    1.22236   1.13031    0.000
 4710.00    1.46826   1.13597    0.000
 4711.00    1.25285   1.14187    0.000
 4712.00    1.05811   1.14733    0.000
 4713.00    1.18036   1.15248    0.000
 4714.00    1.29197   1.15668    0.000
 4715.00    1.29928   1.15993    0.000
 4716.00    1.27470   1.16178    0.000
 4717.00    1.02463   1.16223    0.000
 4718.00    0.86440   1.16123    0.000
 4719.00    1.19294   1.15879    0.000
 4720.00    1.44558   1.15522    0.000
 4721.00    1.36745   1.15060    0.000
 4722.00    1.21019   1.14556    0.000
 4723.00    0.76906   1.14026    0.000
 4724.00    0.55142   1.13546    0.000
 4725.00    1.00660   1.13119    0.000
 4726.00    1.29996   1.12805    0.000
 4727.00    1.17867   1.12599    0.000
 4728.00    1.05600   1.12515    0.000
 4729.00    0.93027   1.12548    0.000
 4730.00    0.94597   1.12671    0.000
 4731.00    1.23207   1.12890    0.000
 4732.00    1.39738   1.13156    0.000
 4733.00    1.36118   1.13474    0.000
 4734.00    1.31792   1.13801    0.000
 4735.00    1.26430   1.14132    0.000
 4736.00    1.34284   1.14449    0.000
 4737.00    1.59129   1.14739    0.000
 4738.00    1.50964   1.15001    0.000
 4739.00    1.05406   1.15207    0.000
 4740.00    0.80453   1.15383    0.000
 4741.00    0.76084   1.15482    0.000
 4742.00    0.91988   1.15527    0.000
 4743.00    1.25753   1.15491    0.000
 4744.00    1.32567   1.15390    0.000
 4745.00    1.18459   1.15217    0.000
 4746.00    1.17786   1.14977    0.000
 4747.00    1.26286   1.14685    0.000
 4748.00    1.22700   1.14332    0.000
 4749.00    1.11885   1.13964    0.000
 4750.00    1.05638   1.13537    0.000
 4751.00    1.01775   1.13121    0.000
 4752.00    0.94100   1.12659    0.000
 4753.00    0.84701   1.12217    0.000
 4754.00    0.97579   1.11745    0.000
 4755.00    1.19133   1.11309    0.000
 4756.00    1.36140   1.10876    0.000
 4757.00    1.51640   1.10504    0.000
 4758.00    1.35686   1.10181    0.000
 4759.00    1.10988   1.09958    0.000
 4760.00    1.05129   1.09823    0.000
 4761.00    1.03580   1.09818    0.009
 4762.00    1.16582   1.09920    0.009
 4763.00    1.32249   1.10143    0.009
 4764.00    1.24418   1.10457    0.009
 4765.00    1.13278   1.10852    0.009
 4766.00    1.31565   1.11306    0.009
 4767.00    1.52838   1.11760    0.009
 4768.00    1.31800   1.12214    0.009
 4769.00    1.08027   1.12609    0.010
 4770.00    1.12159   1.12947    0.009
 4771.00    1.17106   1.13181    0.009
 4772.00    1.07814   1.13324    0.009
 4773.00    0.99904   1.13354    0.009
 4774.00    1.32087   1.13286    0.009
 4775.00    1.60649   1.13146    0.009
 4776.00    1.36884   1.12937    0.009
 4777.00    1.15980   1.12690    0.009
 4778.00    1.21977   1.12417    0.009
 4779.00    1.28078   1.12171    0.009
 4780.00    1.34897   1.11965    0.009
 4781.00    1.37415   1.11824    0.009
 4782.00    1.17152   1.11765    0.009
 4783.00    0.99817   1.11805    0.009
 4784.00    0.94955   1.11933    0.009
 4785.00    0.93730   1.12129    0.009
 4786.00    1.05287   1.12393    0.009
 4787.00    1.18236   1.12693    0.009
 4788.00    1.35296   1.12982    0.009
 4789.00    1.44932   1.13254    0.009
 4790.00    1.35876   1.13479    0.009
 4791.00    1.25153   1.13643    0.009
 4792.00    1.10812   1.13710    0.009
 4793.00    1.06991   1.13737    0.009
 4794.00    1.22969   1.13657    0.009
 4795.00    1.40313   1.13549    0.009
 4796.00    1.59902   1.13380    0.009
 4797.00    1.57583   1.13191    0.009
 4798.00    1.23695   1.12991    0.009
 4799.00    0.99451   1.12787    0.009
 4800.00    0.87431   1.12630    0.009
 4801.00    1.06396   1.12477    0.009
 4802.00    1.59969   1.12414    0.009
 4803.00    1.76167   1.12364    0.009
 4804.00    1.55550   1.12409    0.009
 4805.00    1.39695   1.12463    0.009
 4806.00    1.27978   1.12585    0.009
 4807.00    1.28186   1.12719    0.009
 4808.00    1.37521   1.12898    0.009
 4809.00    1.34686   1.13071    0.009
 4810.00    1.23663   1.13216    0.009
 4811.00    1.21990   1.13323    0.009
 4812.00    1.25826   1.13365    0.009
 4813.00    1.08694   1.13326    0.009
 4814.00    0.80786   1.13204    0.009
 4815.00    0.79637   1.13005    0.009
 4816.00    0.90402   1.12738    0.009
 4817.00    1.14324   1.12414    0.009
 4818.00    1.43280   1.12062    0.009
 4819.00    1.44833   1.11696    0.009
 4820.00    1.37476   1.11342    0.009
 4821.00    1.42690   1.11005    0.009
 4822.00    1.51327   1.10711    0.009
 4823.00    1.23663   1.10443    0.009
 4824.00    0.87887   1.10221    0.009
 4825.00    0.76068   1.10011    0.009
 4826.00    0.68520   1.09833    0.009
 4827.00    0.94640   1.09691    0.009
 4828.00    1.25348   1.09534    0.009
 4829.00    1.29880   1.09358    0.009
 4830.00    1.31870   1.09155    0.009
 4831.00    0.97735   1.08950    0.009
 4832.00    0.61410   1.08709    0.009
 4833.00    0.70357   1.08468    0.009
 4834.00    0.80465   1.08169    0.009
 4835.00    0.83538   1.07896    0.009
 4836.00    0.87378   1.07582    0.009
 4837.00    1.11280   1.07246    0.009
 4838.00    1.32260   1.06866    0.009
 4839.00    1.13362   1.06444    0.008
 4840.00    0.97205   1.05965    0.008
 4841.00    1.05814   1.05391    0.008
 4842.00    1.11651   1.04737    0.008
 4843.00    0.99089   1.03957    0.008
 4844.00    0.90769   1.03043    0.008
 4845.00    1.04341   1.01937    0.008
 4846.00    1.13263   1.00667    0.009
 4847.00    1.02826   0.99239    0.008
 4848.00    0.99719   0.97649    0.000
 4849.00    1.21851   0.95923    0.000
 4850.00    1.33966   0.94129    0.000
 4851.00    1.17033   0.92316    0.000
 4852.00    1.05614   0.90588    0.000
 4853.00    1.07842   0.88974    0.000
 4854.00    1.16150   0.87584    0.000
 4855.00    1.37430   0.86471    0.000
 4856.00    1.34977   0.85718    0.000
 4857.00    0.88543   0.85319    0.000
 4858.00    0.61577   0.85325    0.000
 4859.00    0.66124   0.85713    0.000
 4860.00    0.74652   0.86394    0.000
 4861.00    0.88832   0.87330    0.000
 4862.00    1.02732   0.88428    0.000
 4863.00    1.16282   0.89676    0.000
 4864.00    1.25746   0.90982    0.000
 4865.00    1.30711   0.92329    0.000
 4866.00    1.29644   0.93602    0.000
 4867.00    1.22719   0.94798    0.000
 4868.00    1.09938   0.95939    0.000
 4869.00    0.92140   0.96992    0.000
 4870.00    0.96560   0.97982    0.000
 4871.00    1.17739   0.98884    0.000
 4872.00    1.32875   0.99689    0.000
 4873.00    1.44006   1.00401    0.000
 4874.00    1.32310   1.00989    0.000
 4875.00    1.07365   1.01517    0.009
 4876.00    1.11667   1.01862    0.009
 4877.00    1.30763   1.02111    0.009
 4878.00    1.20093   1.02206    0.008
 4879.00    0.96388   1.02308    0.008
 4880.00    0.81607   1.02337    0.008
 4881.00    0.70181   1.02410    0.009
 4882.00    0.88301   1.02512    0.009
 4883.00    1.15843   1.02692    0.009
 4884.00    1.07035   1.02981    0.009
 4885.00    0.88537   1.03404    0.009
 4886.00    0.78850   1.03949    0.009
 4887.00    0.71085   1.04546    0.009
 4888.00    0.67693   1.05287    0.009
 4889.00    0.65059   1.05999    0.009
 4890.00    0.91747   1.06750    0.009
 4891.00    1.22296   1.07393    0.009
 4892.00    1.26962   1.08002    0.009
 4893.00    1.29223   1.08485    0.009
 4894.00    1.45378   1.08860    0.009
 4895.00    1.62322   1.09142    0.009
 4896.00    1.38979   1.09242    0.009
 4897.00    1.14882   1.09247    0.009
 4898.00    1.08717   1.09150    0.009
 4899.00    1.03199   1.08995    0.009
 4900.00    1.13036   1.08789    0.009
 4901.00    1.21814   1.08554    0.009
 4902.00    1.16909   1.08298    0.009
 4903.00    1.11722   1.08020    0.009
 4904.00    1.04081   1.07734    0.009
 4905.00    0.99535   1.07378    0.009
 4906.00    1.14901   1.06999    0.009
 4907.00    1.29356   1.06572    0.009
 4908.00    1.39228   1.06095    0.009
 4909.00    1.43840   1.05583    0.009
 4910.00    1.27043   1.05013    0.009
 4911.00    1.14219   1.04468    0.009
 4912.00    1.14805   1.03910    0.009
 4913.00    1.17285   1.03432    0.009
 4914.00    1.25157   1.03017    0.009
 4915.00    1.35095   1.02752    0.009
 4916.00    1.50058   1.02595    0.009
 4917.00    1.49043   1.02610    0.009
 4918.00    1.14487   1.02797    0.009
 4919.00    0.88626   1.03109    0.009
 4920.00    0.78630   1.03555    0.009
 4921.00    0.86183   1.04067    0.009
 4922.00    1.21723   1.04637    0.009
 4923.00    1.35700   1.05155    0.009
 4924.00    1.19500   1.05640    0.009
 4925.00    1.13914   1.05973    0.009
 4926.00    1.21400   1.06168    0.009
 4927.00    1.31646   1.06232    0.009
 4928.00    1.44890   1.06218    0.009
 4929.00    1.46457   1.06142    0.009
 4930.00    1.36843   1.06035    0.009
 4931.00    1.20030   1.05936    0.009
 4932.00    0.97137   1.05898    0.009
 4933.00    0.80953   1.05926    0.008
 4934.00    0.69757   1.06062    0.008
 4935.00    0.77960   1.06297    0.008
 4936.00    0.98834   1.06646    0.008
 4937.00    0.99306   1.07082    0.008
 4938.00    0.88116   1.07549    0.008
 4939.00    1.04356   1.07995    0.008
 4940.00    1.34253   1.08435    0.000
 4941.00    1.33790   1.08818    0.000
 4942.00    1.20254   1.09098    0.000
 4943.00    1.17872   1.09290    0.000
 4944.00    1.19609   1.09301    0.000
 4945.00    1.22743   1.09201    0.000
 4946.00    1.26314   1.08884    0.000
 4947.00    1.12328   1.08549    0.000
 4948.00    0.93763   1.08162    0.000
 4949.00    1.02818   1.07749    0.000
 4950.00    1.17755   1.07317    0.000
 4951.00    1.41657   1.06868    0.000
 4952.00    1.67071   1.06524    0.000
 4953.00    1.23309   1.06188    0.000
 4954.00    0.70749   1.05962    0.000
 4955.00    0.95480   1.05764    0.000
 4956.00    1.27068   1.05693    0.000
 4957.00    1.29847   1.05632    0.000
 4958.00    1.31105   1.05640    0.000
 4959.00    1.19052   1.05689    0.000
 4960.00    1.07106   1.05746    0.000
 4961.00    1.23527   1.05877    0.000
 4962.00    1.38472   1.05931    0.000
 4963.00    1.21333   1.06005    0.000
 4964.00    1.05354   1.06020    0.000
 4965.00    1.03609   1.06045    0.000
 4966.00    1.04469   1.06017    0.000
 4967.00    1.27136   1.05935    0.000
 4968.00    1.45550   1.05783    0.000
 4969.00    1.37403   1.05559    0.000
 4970.00    1.34667   1.05234    0.000
 4971.00    1.58467   1.04756    0.000
 4972.00    1.73210   1.04224    0.000
 4973.00    1.51894   1.03594    0.000
 4974.00    1.34068   1.02959    0.000
 4975.00    1.27784   1.02321    0.000
 4976.00    1.23566   1.01747    0.000
 4977.00    1.25125   1.01253    0.000
 4978.00    1.29690   1.00859    0.000
 4979.00    1.41440   1.00610    0.000
 4980.00    1.47298   1.00477    0.000
 4981.00    1.40985   1.00515    0.000
 4982.00    1.30095   1.00629    0.000
 4983.00    1.10982   1.00854    0.000
 4984.00    0.89356   1.01138    0.000
 4985.00    0.63785   1.01423    0.000
 4986.00    0.55065   1.01730    0.000
 4987.00    0.69590   1.01955    0.000
 4988.00    0.78461   1.02086    0.000
 4989.00    0.80468   1.02092    0.000
 4990.00    0.95932   1.01997    0.000
 4991.00    1.25799   1.01777    0.000
 4992.00    1.35258   1.01498    0.000
 4993.00    1.25448   1.01148    0.000
 4994.00    1.34815   1.00709    0.000
 4995.00    1.60146   1.00256    0.000
 4996.00    1.55423   0.99747    0.000
 4997.00    1.28677   0.99262    0.000
 4998.00    1.16900   0.98817    0.000
 4999.00    1.14756   0.98393    0.000
 5000.00    1.08544   0.98011    0.000
 5001.00    1.00043   0.97628    0.000
 5002.00    0.99211   0.97306    0.000
 5003.00    1.02137   0.96978    0.000
 5004.00    0.92877   0.96715    0.000
 5005.00    0.78458   0.96437    0.000
 5006.00    0.76464   0.96196    0.000
 5007.00    0.78977   0.95979    0.000
 5008.00    0.91454   0.95784    0.000
 5009.00    1.06987   0.95635    0.000
 5010.00    1.19283   0.95544    0.000
 5011.00    1.30753   0.95531    0.000
 5012.00    1.23231   0.95543    0.000
 5013.00    1.11764   0.95657    0.000
 5014.00    1.17593   0.95855    0.000
 5015.00    1.26253   0.96191    0.000
 5016.00    1.08151   0.96548    0.000
 5017.00    0.86765   0.96999    0.000
 5018.00    0.99408   0.97413    0.000
 5019.00    1.14928   0.97889    0.000
 5020.00    0.98795   0.98381    0.000
 5021.00    0.81116   0.98837    0.000
 5022.00    1.17526   0.99271    0.000
 5023.00    1.53815   0.99626    0.000
 5024.00    1.31789   0.99939    0.000
 5025.00    1.10110   1.00097    0.000
 5026.00    0.95413   1.00179    0.000
 5027.00    0.81451   1.00080    0.000
 5028.00    0.76078   0.99965    0.000
 5029.00    0.73684   0.99741    0.008
 5030.00    0.95336   0.99392    0.008
 5031.00    1.14513   0.99037    0.008
 5032.00    1.18680   0.98611    0.008
 5033.00    1.22616   0.98314    0.008
 5034.00    1.25446   0.98095    0.008
 5035.00    1.24739   0.97937    0.008
 5036.00    1.10261   0.97864    0.008
 5037.00    0.98010   0.97920    0.008
 5038.00    0.92983   0.98052    0.008
 5039.00    0.87611   0.98215    0.008
 5040.00    0.81291   0.98466    0.008
 5041.00    0.82079   0.98737    0.008
 5042.00    0.99580   0.99079    0.008
 5043.00    1.02999   0.99438    0.008
 5044.00    0.77791   0.99829    0.008
 5045.00    0.70370   1.00229    0.008
 5046.00    0.94422   1.00589    0.008
 5047.00    1.09516   1.00907    0.008
 5048.00    1.10743   1.01229    0.008
 5049.00    1.12284   1.01565    0.008
 5050.00    1.14250   1.01876    0.008
 5051.00    1.02007   1.02185    0.008
 5052.00    0.72758   1.02466    0.008
 5053.00    0.73775   1.02686    0.008
 5054.00    1.06731   1.02799    0.008
 5055.00    1.26099   1.02760    0.008
 5056.00    1.32816   1.02605    0.008
 5057.00    1.33529   1.02440    0.008
 5058.00    1.29313   1.02153    0.008
 5059.00    1.35259   1.01797    0.008
 5060.00    1.48544   1.01393    0.008
 5061.00    1.29952   1.01026    0.008
 5062.00    0.91147   1.00598    0.008
 5063.00    0.83074   1.00125    0.008
 5064.00    0.92038   0.99733    0.008
 5065.00    0.88622   0.99329    0.008
 5066.00    0.79236   0.98970    0.008
 5067.00    0.73301   0.98619    0.008
 5068.00    0.68801   0.98309    0.008
 5069.00    0.83636   0.98009    0.008
 5070.00    1.05355   0.97603    0.008
 5071.00    1.09816   0.97275    0.008
 5072.00    1.09086   0.96975    0.008
 5073.00    1.05543   0.96771    0.008
 5074.00    1.01297   0.96590    0.008
 5075.00    1.09759   0.96496    0.008
 5076.00    1.20795   0.96547    0.008
 5077.00    1.02470   0.96641    0.008
 5078.00    0.79478   0.96846    0.008
 5079.00    0.89736   0.97075    0.008
 5080.00    1.03927   0.97427    0.008
 5081.00    0.97690   0.97795    0.008
 5082.00    0.89811   0.98208    0.008
 5083.00    0.95225   0.98618    0.008
 5084.00    1.01237   0.98987    0.008
 5085.00    0.84630   0.99280    0.008
 5086.00    0.68738   0.99457    0.008
 5087.00    1.01855   0.99533    0.008
 5088.00    1.32038   0.99479    0.008
 5089.00    1.07648   0.99341    0.008
 5090.00    0.85160   0.99088    0.008
 5091.00    0.83863   0.98853    0.008
 5092.00    0.83882   0.98585    0.008
 5093.00    0.94155   0.98332    0.008
 5094.00    1.04658   0.98064    0.008
 5095.00    1.16519   0.97810    0.008
 5096.00    1.25258   0.97575    0.008
 5097.00    1.19428   0.97378    0.008
 5098.00    1.12787   0.97212    0.008
 5099.00    1.03056   0.97103    0.008
 5100.00    0.96384   0.97094    0.008
 5101.00    0.99441   0.97090    0.008
 5102.00    1.02116   0.97212    0.008
 5103.00    1.03760   0.97324    0.008
 5104.00    0.99852   0.97481    0.008
 5105.00    0.83108   0.97673    0.008
 5106.00    0.78789   0.97860    0.008
 5107.00    0.99327   0.98071    0.008
 5108.00    1.12308   0.98272    0.008
 5109.00    1.12124   0.98464    0.008
 5110.00    1.11705   0.98573    0.008
 5111.00    1.10929   0.98629    0.008
 5112.00    1.07495   0.98575    0.008
 5113.00    1.00500   0.98410    0.008
 5114.00    1.06140   0.98129    0.008
 5115.00    1.26689   0.97772    0.008
 5116.00    1.31579   0.97335    0.008
 5117.00    1.20175   0.96888    0.008
 5118.00    1.12577   0.96432    0.008
 5119.00    1.08472   0.95988    0.008
 5120.00    1.11122   0.95577    0.008
 5121.00    1.19234   0.95202    0.008
 5122.00    1.25002   0.94950    0.008
 5123.00    1.29099   0.94729    0.008
 5124.00    1.23682   0.94643    0.008
 5125.00    1.12321   0.94593    0.008
 5126.00    1.00063   0.94626    0.008
 5127.00    0.87316   0.94648    0.008
 5128.00    0.70976   0.94685    0.008
 5129.00    0.52931   0.94714    0.007
 5130.00    0.57069   0.94606    0.007
 5131.00    0.70285   0.94615    0.008
 5132.00    0.82763   0.94504    0.008
 5133.00    0.94984   0.94392    0.007
 5134.00    1.04028   0.94295    0.008
 5135.00    1.12135   0.94115    0.008
 5136.00    0.98613   0.93962    0.008
 5137.00    0.79807   0.93800    0.008
 5138.00    1.01755   0.93675    0.008
 5139.00    1.31753   0.93501    0.008
 5140.00    1.31891   0.93437    0.008
 5141.00    1.27424   0.93425    0.008
 5142.00    1.12294   0.93400    0.008
 5143.00    0.95949   0.93437    0.008
 5144.00    1.04574   0.93488    0.008
 5145.00    1.15105   0.93563    0.008
 5146.00    1.15374   0.93689    0.008
 5147.00    1.15221   0.93826    0.008
 5148.00    1.01213   0.94004    0.008
 5149.00    0.87673   0.94184    0.008
 5150.00    0.98624   0.94300    0.008
 5151.00    1.10284   0.94320    0.008
 5152.00    1.34232   0.94217    0.008
 5153.00    1.53527   0.93994    0.008
 5154.00    1.23326   0.93645    0.008
 5155.00    0.98446   0.93089    0.008
 5156.00    1.13610   0.92359    0.008
 5157.00    1.23202   0.91492    0.008
 5158.00    1.00877   0.90433    0.008
 5159.00    0.81901   0.89287    0.008
 5160.00    0.78184   0.88071    0.008
 5161.00    0.77522   0.87004    0.008
 5162.00    0.88262   0.86045    0.008
 5163.00    0.96553   0.85269    0.008
 5164.00    0.97204   0.84640    0.008
 5165.00    0.97462   0.84096    0.008
 5166.00    0.96680   0.83896    0.008
 5167.00    0.99605   0.83964    0.008
 5168.00    1.10959   0.84256    0.008
 5169.00    1.06758   0.84657    0.008
 5170.00    0.71927   0.85154    0.008
 5171.00    0.68375   0.85688    0.008
 5172.00    1.18501   0.86085    0.008
 5173.00    1.34497   0.86471    0.008
 5174.00    0.99197   0.86780    0.008
 5175.00    0.88123   0.86998    0.008
 5176.00    1.09047   0.87081    0.008
 5177.00    1.24149   0.87143    0.008
 5178.00    1.32478   0.87412    0.008
 5179.00    1.11224   0.87561    0.008
 5180.00    0.59621   0.87767    0.008
 5181.00    0.42991   0.87917    0.007
 5182.00    0.58009   0.88098    0.007
 5183.00    0.68783   0.88421    0.007
 5184.00    0.76173   0.88642    0.008
 5185.00    0.69707   0.88988    0.008
 5186.00    0.53518   0.89388    0.008
 5187.00    0.71154   0.89887    0.008
 5188.00    1.09604   0.90193    0.008
 5189.00    1.10068   0.90466    0.007
 5190.00    0.90115   0.90791    0.000
 5191.00    0.78553   0.90949    0.000
 5192.00    0.70907   0.91118    0.000
 5193.00    0.82865   0.91215    0.000
 5194.00    1.02709   0.91279    0.000
 5195.00    0.99379   0.91205    0.000
 5196.00    0.88094   0.91130    0.000
 5197.00    0.92195   0.90964    0.000
 5198.00    1.00741   0.90703    0.000
 5199.00    0.97656   0.90529    0.000
 5200.00    0.91792   0.90445    0.000
 5201.00    0.83922   0.90288    0.000
 5202.00    0.75664   0.90249    0.000
 5203.00    0.85436   0.90406    0.000
 5204.00    0.97904   0.90583    0.000
 5205.00    0.86913   0.90928    0.000
 5206.00    0.73352   0.91301    0.000
 5207.00    0.75383   0.91783    0.000
 5208.00    0.78540   0.92150    0.000
 5209.00    0.83667   0.92576    0.000
 5210.00    0.88867   0.93045    0.000
 5211.00    0.94996   0.93430    0.008
 5212.00    1.00672   0.93814    0.008
 5213.00    0.89708   0.93986    0.008
 5214.00    0.79972   0.94117    0.008
 5215.00    0.90171   0.94080    0.008
 5216.00    0.99456   0.93929    0.008
 5217.00    0.99445   0.93709    0.008
 5218.00    0.96194   0.93390    0.008
 5219.00    0.69358   0.93063    0.008
 5220.00    0.46762   0.92683    0.008
 5221.00    0.47778   0.92589    0.008
 5222.00    0.52590   0.92559    0.008
 5223.00    0.74285   0.92457    0.008
 5224.00    0.91649   0.92538    0.008
 5225.00    0.93190   0.92577    0.008
 5226.00    0.92197   0.92678    0.008
 5227.00    0.83448   0.92966    0.008
 5228.00    0.80970   0.93376    0.008
 5229.00    0.94812   0.93932    0.008
 5230.00    1.03945   0.94438    0.008
 5231.00    1.02547   0.94951    0.008
 5232.00    0.97589   0.95372    0.008
 5233.00    0.85733   0.95666    0.008
 5234.00    0.77996   0.96055    0.008
 5235.00    0.77224   0.96294    0.008
 5236.00    0.81671   0.96483    0.008
 5237.00    0.93849   0.96658    0.008
 5238.00    0.96850   0.96726    0.008
 5239.00    0.87902   0.96649    0.008
 5240.00    0.82432   0.96413    0.008
 5241.00    0.80951   0.96248    0.008
 5242.00    0.83675   0.96077    0.008
 5243.00    0.90650   0.95807    0.008
 5244.00    0.92157   0.95639    0.008
 5245.00    0.88787   0.95500    0.007
 5246.00    0.99123   0.95323    0.007
 5247.00    1.20236   0.95118    0.007
 5248.00    1.11916   0.94844    0.007
 5249.00    0.83246   0.94685    0.007
 5250.00    0.74760   0.94452    0.007
 5251.00    0.78511   0.94164    0.007
 5252.00    0.88803   0.93789    0.007
 5253.00    1.02556   0.93276    0.007
 5254.00    0.87765   0.92659    0.007
 5255.00    0.59865   0.91781    0.007
 5256.00    0.60479   0.90922    0.007
 5257.00    0.72367   0.90079    0.007
 5258.00    0.86625   0.89239    0.007
 5259.00    1.01681   0.88418    0.007
 5260.00    1.09830   0.87761    0.007
 5261.00    1.16023   0.87195    0.008
 5262.00    0.90917   0.86589    0.008
 5263.00    0.58506   0.86285    0.008
 5264.00    0.66025   0.86321    0.008
 5265.00    0.81032   0.86569    0.008
 5266.00    0.96565   0.86915    0.008
 5267.00    1.12174   0.87478    0.008
 5268.00    1.27188   0.88075    0.008
 5269.00    1.42139   0.88681    0.008
 5270.00    1.24555   0.89495    0.008
 5271.00    1.04753   0.90376    0.008
 5272.00    0.74942   0.91264    0.008
 5273.00    0.44795   0.92040    0.008
 5274.00    0.78202   0.92760    0.008
 5275.00    1.10835   0.93409    0.008
 5276.00    1.16483   0.93997    0.008
 5277.00    1.21048   0.94618    0.008
 5278.00    1.09135   0.95276    0.008
 5279.00    0.96963   0.95868    0.008
 5280.00    0.82266   0.96384    0.008
 5281.00    0.69484   0.96793    0.008
 5282.00    0.70186   0.97116    0.008
 5283.00    0.70992   0.97381    0.008
 5284.00    0.72355   0.97537    0.008
 5285.00    0.75709   0.97690    0.008
 5286.00    0.87713   0.97707    0.008
 5287.00    0.94671   0.97637    0.008
 5288.00    0.83576   0.97468    0.008
 5289.00    0.80220   0.97199    0.008
 5290.00    1.00106   0.96906    0.008
 5291.00    1.13575   0.96602    0.008
 5292.00    1.10641   0.96432    0.008
 5293.00    1.03123   0.96301    0.008
 5294.00    0.85524   0.96227    0.008
 5295.00    0.74270   0.96254    0.007
 5296.00    0.75125   0.96334    0.008
 5297.00    0.82813   0.96526    0.008
 5298.00    1.01879   0.96766    0.008
 5299.00    1.08322   0.97081    0.008
 5300.00    0.96341   0.97396    0.008
 5301.00    0.93802   0.97670    0.008
 5302.00    1.03379   0.97931    0.008
 5303.00    1.08766   0.98145    0.007
 5304.00    1.09415   0.98306    0.007
 5305.00    1.09299   0.98379    0.007
 5306.00    1.08421   0.98353    0.007
 5307.00    0.98584   0.98237    0.007
 5308.00    0.80867   0.98061    0.007
 5309.00    0.72271   0.97767    0.007
 5310.00    0.70743   0.97429    0.007
 5311.00    0.88840   0.97073    0.007
 5312.00    1.20308   0.96621    0.007
 5313.00    1.25300   0.96156    0.007
 5314.00    1.14482   0.95597    0.007
 5315.00    1.02324   0.95034    0.007
 5316.00    0.89467   0.94396    0.007
 5317.00    0.81973   0.93760    0.007
 5318.00    0.76901   0.93276    0.007
 5319.00    0.75812   0.92769    0.007
 5320.00    0.76272   0.92321    0.007
 5321.00    0.88917   0.91830    0.007
 5322.00    1.05591   0.91555    0.007
 5323.00    1.01591   0.91402    0.007
 5324.00    0.91859   0.91379    0.007
 5325.00    0.84280   0.91545    0.007
 5326.00    0.77192   0.91695    0.007
 5327.00    0.84143   0.91931    0.007
 5328.00    0.93658   0.92088    0.007
 5329.00    0.90676   0.92393    0.007
 5330.00    0.85941   0.92779    0.007
 5331.00    0.76283   0.93083    0.007
 5332.00    0.66127   0.93360    0.007
 5333.00    0.68311   0.93491    0.007
 5334.00    0.71287   0.93641    0.007
 5335.00    0.76617   0.93813    0.007
 5336.00    0.81976   0.93944    0.007
 5337.00    0.70366   0.94169    0.007
 5338.00    0.60343   0.94335    0.007
 5339.00    0.95662   0.94505    0.007
 5340.00    1.27676   0.94716    0.007
 5341.00    1.12264   0.94909    0.007
 5342.00    0.97650   0.95267    0.007
 5343.00    0.90499   0.95624    0.007
 5344.00    0.83961   0.96019    0.007
 5345.00    0.81606   0.96442    0.007
 5346.00    0.79886   0.96819    0.007
 5347.00    0.81515   0.97252    0.007
 5348.00    0.78325   0.97591    0.007
 5349.00    0.54672   0.97888    0.007
 5350.00    0.38184   0.98142    0.007
 5351.00    0.46815   0.98294    0.007
 5352.00    0.59881   0.98354    0.007
 5353.00    0.86020   0.98252    0.007
 5354.00    1.03014   0.98095    0.007
 5355.00    0.97033   0.97792    0.007
 5356.00    0.95811   0.97406    0.007
 5357.00    1.04891   0.96936    0.007
 5358.00    1.09117   0.96388    0.007
 5359.00    1.04225   0.95891    0.007
 5360.00    1.03119   0.95359    0.007
 5361.00    1.08222   0.94972    0.007
 5362.00    1.07202   0.94566    0.007
 5363.00    0.97372   0.94228    0.007
 5364.00    0.92536   0.93983    0.007
 5365.00    0.94017   0.93797    0.007
 5366.00    0.89443   0.93847    0.007
 5367.00    0.78119   0.93965    0.007
 5368.00    0.78467   0.94217   -2.000
 5369.00    0.90293   0.94433   -2.000
 5370.00    1.01073   0.94637   -2.000
 5371.00    1.10944   0.94857   -2.000
 5372.00    1.18407   0.95093   -2.000
 5373.00    1.24030   0.95391   -2.000
 5374.00    1.03139   0.95584   -2.000
 5375.00    0.64444   0.95709   -2.000
 5376.00    0.55509   0.95726   -2.000
 5377.00    0.64078   0.95687   -2.000
 5378.00    0.77656   0.95600   -2.000
 5379.00    0.93802   0.95482   -2.000
 5380.00    1.01087   0.95329   -2.000
 5381.00    1.04436   0.95089   -2.000
 5382.00    1.05809   0.94787   -2.000
 5383.00    1.06428   0.94459    0.007
 5384.00    1.01940   0.94065    0.007
 5385.00    0.95795   0.93632    0.007
 5386.00    0.93707   0.93268    0.007
 5387.00    0.92720   0.92883    0.007
 5388.00    1.03381   0.92501    0.007
 5389.00    1.16636   0.92073    0.007
 5390.00    0.93291   0.91682    0.007
 5391.00    0.63445   0.91320    0.007
 5392.00    0.76550   0.90889    0.007
 5393.00    0.95482   0.90587    0.007
 5394.00    0.97123   0.90349    0.007
 5395.00    0.97093   0.90155    0.007
 5396.00    1.05985   0.89929    0.007
 5397.00    1.15415   0.89669    0.007
 5398.00    0.90595   0.89477    0.007
 5399.00    0.65009   0.89371    0.007
 5400.00    0.60531   0.89376    0.007
 5401.00    0.56581   0.89460    0.007
 5402.00    0.66271   0.89636    0.007
 5403.00    0.76343   0.89803    0.007
 5404.00    0.91599   0.90023    0.007
 5405.00    1.03592   0.90316    0.007
 5406.00    0.86224   0.90733    0.007
 5407.00    0.70356   0.91218    0.007
 5408.00    0.64394   0.91644    0.007
 5409.00    0.61909   0.92035    0.007
 5410.00    0.77314   0.92395    0.007
 5411.00    0.87742   0.92750    0.007
 5412.00    0.77511   0.93021    0.007
 5413.00    0.69260   0.93230    0.007
 5414.00    0.67813   0.93383    0.007
 5415.00    0.67847   0.93480    0.007
 5416.00    0.72165   0.93478    0.007
 5417.00    0.76711   0.93347    0.007
 5418.00    0.81820   0.93213    0.007
 5419.00    0.85857   0.93052    0.007
 5420.00    0.87611   0.92893    0.007
 5421.00    0.84751   0.92758    0.007
 5422.00    0.73358   0.92541    0.006
 5423.00    0.65190   0.92329    0.006
 5424.00    0.62236   0.92070    0.007
 5425.00    0.63533   0.91931    0.007
 5426.00    0.70856   0.92069    0.007
 5427.00    0.75304   0.92089    0.007
 5428.00    0.76167   0.92131    0.007
 5429.00    0.78480   0.92170    0.007
 5430.00    0.82387   0.92289    0.007
 5431.00    0.73555   0.92636    0.007
 5432.00    0.52373   0.92872    0.007
 5433.00    0.39741   0.93144    0.007
 5434.00    0.34420   0.93279    0.007
 5435.00    0.49758   0.93353    0.007
 5436.00    0.80651   0.93492    0.007
 5437.00    0.88084   0.93526    0.007
 5438.00    0.79995   0.93592    0.007
 5439.00    0.68763   0.93482    0.007
 5440.00    0.55709   0.93294    0.007
 5441.00    0.60591   0.93098    0.007
 5442.00    0.74528   0.92866    0.007
 5443.00    0.89177   0.92761    0.007
 5444.00    1.04137   0.92626    0.007
 5445.00    1.06867   0.92462    0.007
 5446.00    1.05012   0.92292    0.007
 5447.00    0.83606   0.92162    0.007
 5448.00    0.55979   0.92099    0.007
 5449.00    0.57849   0.92042    0.007
 5450.00    0.67560   0.91918    0.007
 5451.00    0.69553   0.91849    0.007
 5452.00    0.69867   0.91954    0.007
 5453.00    0.83049   0.91978    0.007
 5454.00    0.98453   0.91980    0.007
 5455.00    0.98033   0.91935    0.007
 5456.00    0.95538   0.91897    0.007
 5457.00    0.79836   0.91948    0.006
 5458.00    0.62913   0.91898    0.006
 5459.00    0.84848   0.91909    0.006
 5460.00    1.08967   0.91908    0.007
 5461.00    0.96915   0.91763    0.007
 5462.00    0.84209   0.91647    0.007
 5463.00    0.87425   0.91490    0.007
 5464.00    0.90531   0.91287    0.007
 5465.00    0.91039   0.91092    0.006
 5466.00    0.91335   0.90831    0.006
 5467.00    0.88907   0.90645    0.006
 5468.00    0.86086   0.90430    0.006
 5469.00    0.79860   0.90172    0.006
 5470.00    0.75318   0.90018    0.006
 5471.00    0.81569   0.89766    0.006
 5472.00    0.86214   0.89665    0.006
 5473.00    0.82810   0.89764    0.006
 5474.00    0.81975   0.89862    0.006
 5475.00    0.91571   0.89961    0.006
 5476.00    0.99614   0.89932    0.006
 5477.00    1.02431   0.90067    0.006
 5478.00    1.01662   0.90357   -2.000
 5479.00    0.90709   0.90645   -2.000
 5480.00    0.83081   0.90882   -2.000
 5481.00    0.83522   0.90999   -2.000
 5482.00    0.82559   0.91120   -2.000
 5483.00    0.78654   0.91243   -2.000
 5484.00    0.68283   0.91423   -2.000
 5485.00    0.46138   0.91531   -2.000
 5486.00    0.51590   0.91581   -2.000
 5487.00    1.00969   0.91600   -2.000
 5488.00    1.03599   0.91526   -2.000
 5489.00    0.40919   0.91510   -2.000
 5490.00    0.02324   0.91473   -2.000
 5491.00   -0.06663   0.91385   -2.000
 5492.00    0.14043   0.91229   -2.000
 5493.00    0.66926   0.91094   -2.000
 5494.00    0.93275   0.91024   -2.000
 5495.00    0.94259   0.90884   -2.000
 5496.00    0.91199   0.90642   -2.000
 5497.00    0.84731   0.90422   -2.000
 5498.00    0.85045   0.90346   -2.000
 5499.00    0.90392   0.90263   -2.000
 5500.00    0.90409   0.90141   -2.000
 5501.00    0.86952   0.89941   -2.000
 5502.00    0.85096   0.89811    0.007
 5503.00    0.84155   0.89880    0.007
 5504.00    0.80478   0.89886    0.007
 5505.00    0.75441   0.89916    0.007
 5506.00    0.68219   0.89976    0.006
 5507.00    0.60058   0.90003    0.006
 5508.00    0.61407   0.90183    0.006
 5509.00    0.66260   0.90369    0.006
 5510.00    0.77803   0.90540    0.006
 5511.00    0.91433   0.90729    0.006
 5512.00    0.90550   0.90837    0.006
 5513.00    0.85891   0.91008    0.006
 5514.00    0.76448   0.91149    0.006
 5515.00    0.65989   0.91179    0.006
 5516.00    0.66783   0.91188    0.006
 5517.00    0.69466   0.91135    0.006
 5518.00    0.72887   0.91069    0.006
 5519.00    0.76402   0.91023    0.006
 5520.00    0.78915   0.90913    0.006
 5521.00    0.81340   0.90785    0.006
 5522.00    0.83025   0.90639    0.006
 5523.00    0.84672   0.90468    0.006
 5524.00    0.82253   0.90465    0.006
 5525.00    0.79749   0.90509    0.006
 5526.00    0.76651   0.90548    0.006
 5527.00    0.72836   0.90579    0.006
 5528.00    0.53608   0.90587    0.006
 5529.00    0.36401   0.90721    0.006
 5530.00    0.43845   0.90848    0.006
 5531.00    0.50339   0.91057    0.006
 5532.00    0.48927   0.91253    0.006
 5533.00    0.49337   0.91335    0.006
 5534.00    0.61082   0.91502    0.006
 5535.00    0.72691   0.91664    0.007
 5536.00    0.83628   0.91838    0.006
 5537.00    0.91508   0.91985    0.007
 5538.00    0.87246   0.92049    0.016
 5539.00    0.84440   0.92164   -1.000
 5540.00    0.86437   0.92286   -1.000
 5541.00    0.90236   0.92349   -1.000
 5542.00    0.99062   0.92406   -1.000
 5543.00    1.08833   0.92458   -1.000
 5544.00    1.20858   0.92465   -1.000
 5545.00    1.29900   0.92459    0.048
 5546.00    1.32791   0.92430    0.012
 5547.00    1.27151   0.92359    0.008
 5548.00    1.06215   0.92255    0.008
 5549.00    0.95766   0.92121    0.008
 5550.00    1.01766   0.91979    0.007
 5551.00    1.07337   0.91846    0.006
 5552.00    1.12318   0.91647    0.006
 5553.00    1.06493   0.91401    0.006
 5554.00    0.87574   0.91222    0.006
 5555.00    0.79554   0.90996    0.006
 5556.00    0.83179   0.90786    0.006
 5557.00    0.79842   0.90556    0.006
 5558.00    0.69944   0.90301    0.006
 5559.00    0.63226   0.90164    0.006
 5560.00    0.59149   0.89972    0.006
 5561.00    0.63734   0.89838    0.006
 5562.00    0.74654   0.89705    0.006
 5563.00    0.80879   0.89567    0.006
 5564.00    0.84088   0.89554    0.006
 5565.00    0.86960   0.89511    0.006
 5566.00    0.89643   0.89539    0.006
 5567.00    0.94633   0.89518    0.006
 5568.00    1.00751   0.89457    0.006
 5569.00    0.99695   0.89553    0.006
 5570.00    0.95608   0.89590    0.006
 5571.00    0.87920   0.89523    0.006
 5572.00    0.78929   0.89457    0.006
 5573.00    0.80139   0.89354    0.006
 5574.00    0.84472   0.89239    0.006
 5575.00    0.82023   0.89101    0.006
 5576.00    0.77848   0.88810    0.006
 5577.00    0.82103   0.88466    0.006
 5578.00    0.88103   0.88200    0.006
 5579.00    1.00235   0.87880    0.006
 5580.00    1.13368   0.87613    0.006
 5581.00    1.08621   0.87315    0.006
 5582.00    1.01690   0.86946    0.006
 5583.00    0.85385   0.86730    0.006
 5584.00    0.68292   0.86516    0.006
 5585.00    0.78201   0.86451    0.006
 5586.00    0.89415   0.86500    0.006
 5587.00    0.97544   0.86426    0.006
 5588.00    1.05295   0.86396    0.006
 5589.00    0.93432   0.86436    0.006
 5590.00    0.81542   0.86611    0.006
 5591.00    0.69125   0.86880    0.006
 5592.00    0.57677   0.87019    0.006
 5593.00    0.57485   0.87102    0.006
 5594.00    0.56986   0.87357    0.006
 5595.00    0.54015   0.87669    0.006
 5596.00    0.53924   0.87974    0.006
 5597.00    0.71230   0.88239    0.006
 5598.00    0.87822   0.88441    0.006
 5599.00    1.01011   0.88777    0.006
 5600.00    1.08447   0.89052    0.006
 5601.00    0.93540   0.89299    0.006
 5602.00    0.82869   0.89525    0.006
 5603.00    0.85902   0.89635    0.006
 5604.00    0.91826   0.89706    0.006
 5605.00    1.05667   0.89594    0.006
 5606.00    1.11892   0.89565    0.006
 5607.00    1.00245   0.89588    0.006
 5608.00    0.90307   0.89456    0.006
 5609.00    0.83839   0.89215    0.006
 5610.00    0.83725   0.88847    0.006
 5611.00    0.94830   0.88699    0.006
 5612.00    0.97775   0.88691    0.006
 5613.00    0.88114   0.88560    0.006
 5614.00    0.78143   0.88343    0.006
 5615.00    0.67753   0.88143    0.006
 5616.00    0.64530   0.88176    0.006
 5617.00    0.69871   0.88290    0.006
 5618.00    0.73283   0.88321    0.006
 5619.00    0.74663   0.88311    0.006
 5620.00    0.79037   0.88342    0.006
 5621.00    0.86192   0.88498    0.006
 5622.00    0.89369   0.88643    0.006
 5623.00    0.89286   0.88720    0.006
 5624.00    0.88264   0.88788    0.006
 5625.00    0.86564   0.88837    0.006
 5626.00    0.75980   0.88880    0.006
 5627.00    0.59772   0.88888    0.006
 5628.00    0.57517   0.88852    0.006
 5629.00    0.62982   0.88830    0.006
 5630.00    0.70069   0.88772    0.006
 5631.00    0.77936   0.88648    0.006
 5632.00    0.85556   0.88563    0.006
 5633.00    0.93074   0.88493    0.006
 5634.00    0.91886   0.88437    0.006
 5635.00    0.87605   0.88396    0.006
 5636.00    0.73528   0.88312    0.006
 5637.00    0.56511   0.88308    0.006
 5638.00    0.55300   0.88326    0.006
 5639.00    0.58027   0.88296    0.006
 5640.00    0.63152   0.88296    0.006
 5641.00    0.68761   0.88297    0.006
 5642.00    0.72878   0.88292    0.006
 5643.00    0.76759   0.88234    0.006
 5644.00    0.70716   0.88100    0.006
 5645.00    0.63504   0.87982    0.006
 5646.00    0.60586   0.87909    0.006
 5647.00    0.58010   0.87738    0.006
 5648.00    0.65506   0.87452    0.006
 5649.00    0.73449   0.87210    0.006
 5650.00    0.79330   0.87038    0.006
 5651.00    0.85043   0.86922    0.006
 5652.00    0.83742   0.86717    0.006
 5653.00    0.82794   0.86441    0.006
 5654.00    0.88345   0.86347    0.006
 5655.00    0.92837   0.86396    0.006
 5656.00    0.85599   0.86454    0.006
 5657.00    0.78331   0.86455    0.006
 5658.00    0.70840   0.86471    0.006
 5659.00    0.65114   0.86650    0.006
 5660.00    0.69742   0.86921    0.006
 5661.00    0.73537   0.87168    0.006
 5662.00    0.73451   0.87356    0.006
 5663.00    0.74120   0.87571    0.006
 5664.00    0.77659   0.87835    0.006
 5665.00    0.78995   0.88084    0.006
 5666.00    0.73346   0.88312    0.006
 5667.00    0.68168   0.88470    0.006
 5668.00    0.64257   0.88602    0.006
 5669.00    0.62297   0.88703    0.006
 5670.00    0.64841   0.88744    0.006
 5671.00    0.70123   0.88770    0.006
 5672.00    0.80873   0.88708    0.006
 5673.00    0.88883   0.88610    0.006
 5674.00    0.92129   0.88498    0.006
 5675.00    0.92264   0.88378    0.006
 5676.00    0.87665   0.88262    0.006
 5677.00    0.79414   0.88082    0.006
 5678.00    0.66278   0.87916    0.006
 5679.00    0.57437   0.87817    0.006
 5680.00    0.53655   0.87775    0.006
 5681.00    0.63408   0.87738    0.006
 5682.00    0.87217   0.87689    0.006
 5683.00    0.99073   0.87649    0.006
 5684.00    0.99977   0.87681    0.006
 5685.00    0.97033   0.87754    0.006
 5686.00    0.90982   0.87774    0.006
 5687.00    0.86956   0.87797    0.006
 5688.00    0.84368   0.87741    0.006
 5689.00    0.82167   0.87709    0.006
 5690.00    0.80206   0.87666    0.006
 5691.00    0.79459   0.87510    0.006
 5692.00    0.79374   0.87380    0.006
 5693.00    0.74787   0.87135    0.006
 5694.00    0.68068   0.86916    0.006
 5695.00    0.66217   0.86711    0.006
 5696.00    0.66355   0.86371    0.006
 5697.00    0.66451   0.86134    0.006
 5698.00    0.66533   0.85865    0.006
 5699.00    0.71282   0.85622    0.006
 5700.00    0.77403   0.85502    0.006
 5701.00    0.83779   0.85280    0.006
 5702.00    0.90216   0.85186    0.006
 5703.00    0.87127   0.85213    0.006
 5704.00    0.82162   0.85221    0.006
 5705.00    0.77742   0.85402    0.006
 5706.00    0.73406   0.85568    0.006
 5707.00    0.63625   0.85766    0.006
 5708.00    0.53227   0.86134    0.006
 5709.00    0.47853   0.86456    0.006
 5710.00    0.42861   0.86828    0.006
 5711.00    0.62080   0.87226    0.006
 5712.00    0.82283   0.87545    0.006
 5713.00    0.80895   0.87917    0.006
 5714.00    0.79087   0.88258    0.006
 5715.00    0.66860   0.88531    0.006
 5716.00    0.55832   0.88775    0.006
 5717.00    0.65417   0.88939    0.006
 5718.00    0.74446   0.89074    0.006
 5719.00    0.77591   0.89199    0.006
 5720.00    0.80042   0.89286    0.006
 5721.00    0.77282   0.89294    0.006
 5722.00    0.75025   0.89267    0.006
 5723.00    0.75641   0.89267    0.006
 5724.00    0.77097   0.89267    0.006
 5725.00    0.82375   0.89286    0.006
 5726.00    0.86432   0.89224    0.006
 5727.00    0.85949   0.89155    0.006
 5728.00    0.86518   0.89167    0.006
 5729.00    0.90360   0.89161    0.006
 5730.00    0.93209   0.89173    0.006
 5731.00    0.93432   0.89133    0.006
 5732.00    0.91698   0.89073    0.006
 5733.00    0.85521   0.89069    0.006
 5734.00    0.81148   0.89034    0.006
 5735.00    0.80319   0.88993    0.006
 5736.00    0.77042   0.88952    0.006
 5737.00    0.69574   0.88862    0.006
 5738.00    0.67842   0.88763    0.006
 5739.00    0.74718   0.88667    0.006
 5740.00    0.81350   0.88571    0.000
 5741.00    0.87662   0.88498    0.000
 5742.00    0.85313   0.88376    0.000
 5743.00    0.72907   0.88205    0.000
 5744.00    0.67408   0.88076    0.000
 5745.00    0.68984   0.87998    0.000
 5746.00    0.75117   0.87937    0.000
 5747.00    0.85366   0.87835    0.000
 5748.00    0.85340   0.87707    0.000
 5749.00    0.77133   0.87619    0.000
 5750.00    0.79307   0.87618    0.000
 5751.00    0.88752   0.87645    0.000
 5752.00    0.90532   0.87612    0.000
 5753.00    0.87605   0.87581    0.000
 5754.00    0.82336   0.87596    0.000
 5755.00    0.75810   0.87657    0.000
 5756.00    0.75025   0.87756    0.000
 5757.00    0.76914   0.87791    0.000
 5758.00    0.77191   0.87814    0.000
 5759.00    0.76821   0.87896    0.000
 5760.00    0.75962   0.87974    0.000
 5761.00    0.74937   0.88030    0.000
 5762.00    0.79298   0.88028    0.000
 5763.00    0.85211   0.88009    0.000
 5764.00    0.83890   0.87996    0.000
 5765.00    0.80846   0.87957    0.000
 5766.00    0.81088   0.87855    0.000
 5767.00    0.81960   0.87668    0.000
 5768.00    0.80628   0.87500    0.000
 5769.00    0.78966   0.87313    0.000
 5770.00    0.81456   0.87075    0.000
 5771.00    0.84399   0.86829    0.000
 5772.00    0.90019   0.86514    0.000
 5773.00    0.95830   0.86257    0.000
 5774.00    0.90581   0.86056    0.000
 5775.00    0.84924   0.85789    0.000
 5776.00    0.85909   0.85591    0.000
 5777.00    0.87038   0.85425    0.000
 5778.00    0.92269   0.85319    0.000
 5779.00    0.96666   0.85343    0.000
 5780.00    0.87639   0.85283    0.000
 5781.00    0.78986   0.85318    0.000
 5782.00    0.74119   0.85473    0.000
 5783.00    0.70488   0.85597    0.000
 5784.00    0.75813   0.85835    0.000
 5785.00    0.80944   0.85986    0.000
 5786.00    0.84998   0.86166    0.000
 5787.00    0.87835   0.86470    0.000
 5788.00    0.85270   0.86659    0.000
 5789.00    0.79412   0.86899    0.000
 5790.00    0.61557   0.87092    0.000
 5791.00    0.47428   0.87232   -2.000
 5792.00    0.44675   0.87447   -2.000
 5793.00    0.46589   0.87554   -2.000
 5794.00    0.60621   0.87684   -2.000
 5795.00    0.70383   0.87808   -2.000
 5796.00    0.70614   0.87834   -2.000
 5797.00    0.72213   0.87907   -2.000
 5798.00    0.76457   0.87921   -2.000
 5799.00    0.77878   0.87935   -2.000
 5800.00    0.74538   0.87990   -2.000
 5801.00    0.71421   0.87957   -2.000
 5802.00    0.68634   0.87959   -2.000
 5803.00    0.69118   0.87948   -2.000
 5804.00    0.73854   0.87921   -2.000
 5805.00    0.75404   0.87961   -2.000
 5806.00    0.73308   0.87956   -2.000
 5807.00    0.76540   0.87972   -2.000
 5808.00    0.85152   0.88000   -2.000
 5809.00    0.85622   0.88018   -2.000
 5810.00    0.78840   0.88090   -2.000
 5811.00    0.72201   0.88133    0.000
 5812.00    0.65675   0.88200    0.000
 5813.00    0.62376   0.88288    0.000
 5814.00    0.61306   0.88353    0.000
 5815.00    0.63983   0.88436    0.000
 5816.00    0.68927   0.88493    0.000
 5817.00    0.78365   0.88564    0.000
 5818.00    0.90178   0.88641    0.000
 5819.00    0.99177   0.88688    0.000
 5820.00    1.06886   0.88726    0.000
 5821.00    1.05469   0.88734    0.000
 5822.00    1.00452   0.88743    0.000
 5823.00    0.98082   0.88757    0.000
 5824.00    0.96601   0.88753    0.000
 5825.00    1.00468   0.88725    0.000
 5826.00    1.05844   0.88685    0.000
 5827.00    1.03159   0.88651    0.000
 5828.00    0.98597   0.88629    0.000
 5829.00    0.85390   0.88593    0.000
 5830.00    0.70568   0.88526    0.000
 5831.00    0.66440   0.88479    0.000
 5832.00    0.63855   0.88436    0.000
 5833.00    0.62577   0.88370    0.000
 5834.00    0.61436   0.88279    0.000
 5835.00    0.64207   0.88163    0.000
 5836.00    0.67242   0.88068    0.000
 5837.00    0.84285   0.87950    0.000
 5838.00    1.01790   0.87778    0.000
 5839.00    0.85712   0.87555    0.000
 5840.00    0.69765   0.87311    0.000
 5841.00    0.58621   0.87102    0.000
 5842.00    0.48822   0.86872    0.000
 5843.00    0.59328   0.86588    0.000
 5844.00    0.69524   0.86245    0.000
 5845.00    0.76711   0.85922    0.000
 5846.00    0.82490   0.85693    0.000
 5847.00    0.78406   0.85456    0.000
 5848.00    0.75170   0.85203    0.000
 5849.00    0.76521   0.84924    0.000
 5850.00    0.77601   0.84737    0.000
 5851.00    0.77510   0.84686    0.000
 5852.00    0.76689   0.84588    0.000
 5853.00    0.73259   0.84508    0.000
 5854.00    0.71199   0.84472    0.000
 5855.00    0.73240   0.84540    0.000
 5856.00    0.75956   0.84703    0.000
 5857.00    0.80393   0.84760    0.000
 5858.00    0.81635   0.84833    0.000
 5859.00    0.75863   0.84977    0.000
 5860.00    0.70097   0.85150    0.000
 5861.00    0.64340   0.85332    0.000
 5862.00    0.61262   0.85402    0.000
 5863.00    0.62637   0.85468    0.000
 5864.00    0.65400   0.85563    0.000
 5865.00    0.70187   0.85618    0.000
 5866.00    0.72332   0.85624    0.000
 5867.00    0.71091   0.85527    0.000
 5868.00    0.73457   0.85411    0.000
 5869.00    0.79894   0.85292    0.000
 5870.00    0.82137   0.85081    0.000
 5871.00    0.80204   0.84767    0.000
 5872.00    0.78007   0.84377    0.000
 5873.00    0.75578   0.83969    0.000
 5874.00    0.73328   0.83514    0.000
 5875.00    0.71214   0.82960    0.000
 5876.00    0.73408   0.82219    0.000
 5877.00    0.78532   0.81416    0.000
 5878.00    0.82237   0.80769    0.000
 5879.00    0.85098   0.80032    0.000
 5880.00    0.81857   0.79213    0.000
 5881.00    0.75443   0.78364    0.000
 5882.00    0.75676   0.77392    0.000
 5883.00    0.78906   0.76771    0.000
 5884.00    0.80912   0.76298    0.000
 5885.00    0.82443   0.75710    0.000
 5886.00    0.81821   0.75420    0.000
 5887.00    0.80489   0.75112    0.000
 5888.00    0.87873   0.74954    0.000
 5889.00    0.97667   0.75230    0.000
 5890.00    0.99193   0.75407    0.000
 5891.00    0.98838   0.75777    0.000
 5892.00    0.88379   0.76398    0.000
 5893.00    0.76081   0.76934    0.000
 5894.00    0.67390   0.77643    0.000
 5895.00    0.59203   0.78300    0.000
 5896.00    0.59816   0.78893    0.000
 5897.00    0.61312   0.79688    0.000
 5898.00    0.60200   0.80393    0.000
 5899.00    0.58922   0.80976    0.000
 5900.00    0.62005   0.81476    0.000
 5901.00    0.65234   0.81848    0.006
 5902.00    0.74466   0.82258    0.006
 5903.00    0.83104   0.82621    0.006
 5904.00    0.75016   0.82881    0.006
 5905.00    0.67056   0.83038    0.006
 5906.00    0.60918   0.83113    0.006
 5907.00    0.56749   0.83265    0.006
 5908.00    0.70925   0.83348    0.006
 5909.00    0.82984   0.83390    0.006
 5910.00    0.80659   0.83455    0.006
 5911.00    0.78099   0.83448    0.006
 5912.00    0.74296   0.83546    0.006
 5913.00    0.71292   0.83598    0.006
 5914.00    0.71665   0.83549    0.006
 5915.00    0.71685   0.83641    0.006
 5916.00    0.70472   0.83676    0.006
 5917.00    0.68780   0.83690    0.006
 5918.00    0.65676   0.83764    0.006
 5919.00    0.61552   0.83734    0.005
 5920.00    0.54870   0.83766    0.006
 5921.00    0.49755   0.83777    0.006
 5922.00    0.48023   0.83691    0.005
 5923.00    0.49918   0.83756    0.005
 5924.00    0.58614   0.83789    0.005
 5925.00    0.64621   0.83745    0.005
 5926.00    0.66229   0.83738    0.005
 5927.00    0.66711   0.83682    0.005
 5928.00    0.65576   0.83721    0.005
 5929.00    0.65386   0.83758    0.005
 5930.00    0.66389   0.83697    0.005
 5931.00    0.68067   0.83737    0.005
 5932.00    0.70495   0.83748    0.005
 5933.00    0.72655   0.83701    0.005
 5934.00    0.74553   0.83710    0.005
 5935.00    0.79121   0.83668    0.005
 5936.00    0.86002   0.83643    0.005
 5937.00    0.88446   0.83654    0.006
 5938.00    0.87507   0.83611    0.006
 5939.00    0.83955   0.83571    0.006
 5940.00    0.78652   0.83486    0.006
 5941.00    0.76018   0.83382    0.006
 5942.00    0.74951   0.83399    0.006
 5943.00    0.67810   0.83409    0.006
 5944.00    0.57562   0.83312    0.006
 5945.00    0.51037   0.83230    0.006
 5946.00    0.46163   0.83256    0.006
 5947.00    0.50223   0.83309    0.005
 5948.00    0.57686   0.83296    0.005
 5949.00    0.66996   0.83264    0.005
 5950.00    0.76903   0.83320    0.006
 5951.00    0.81093   0.83454    0.006
 5952.00    0.83735   0.83528    0.005
 5953.00    0.85527   0.83563    0.005
 5954.00    0.87130   0.83669    0.005
 5955.00    0.98376   0.83789    0.005
 5956.00    1.11329   0.83907    0.005
 5957.00    1.06982   0.83967    0.005
 5958.00    1.00297   0.84008    0.005
 5959.00    0.86605   0.84131    0.005
 5960.00    0.72240   0.84196    0.005
 5961.00    0.66916   0.84213    0.005
 5962.00    0.62132   0.84228    0.005
 5963.00    0.62160   0.84202    0.005
 5964.00    0.62342   0.84193    0.005
 5965.00    0.67292   0.84140    0.005
 5966.00    0.72177   0.84053    0.005
 5967.00    0.75390   0.83964    0.005
 5968.00    0.78107   0.83813    0.006
 5969.00    0.74149   0.83699    0.006
 5970.00    0.70533   0.83574    0.005
 5971.00    0.69978   0.83406    0.006
 5972.00    0.69448   0.83305    0.006
 5973.00    0.69089   0.83162    0.005
 5974.00    0.68556   0.83045    0.005
 5975.00    0.67125   0.82929    0.006
 5976.00    0.66315   0.82734    0.006
 5977.00    0.68078   0.82708    0.006
 5978.00    0.70101   0.82707    0.006
 5979.00    0.73013   0.82621    0.006
 5980.00    0.75426   0.82615    0.006
 5981.00    0.76400   0.82589    0.005
 5982.00    0.78346   0.82625    0.005
 5983.00    0.82687   0.82643    0.005
 5984.00    0.84272   0.82585    0.005
 5985.00    0.80002   0.82683    0.005
 5986.00    0.77541   0.82739    0.005
 5987.00    0.78421   0.82715    0.005
 5988.00    0.78541   0.82734    0.005
 5989.00    0.77434   0.82667    0.005
 5990.00    0.74349   0.82666    0.005
 5991.00    0.68468   0.82656    0.005
 5992.00    0.68113   0.82526    0.005
 5993.00    0.74639   0.82531    0.005
 5994.00    0.80766   0.82447    0.005
 5995.00    0.86456   0.82274    0.005
 5996.00    0.86137   0.82248    0.005
 5997.00    0.80005   0.82104    0.005
 5998.00    0.74161   0.82005    0.005
 5999.00    0.68564   0.81962    0.005
 6000.00    0.59862   0.81727    0.005
 6001.00    0.48827   0.81691    0.005
 6002.00    0.50023   0.81692    0.005
 6003.00    0.59297   0.81534    0.005
 6004.00    0.67700   0.81489    0.006
 6005.00    0.75598   0.81360    0.006
 6006.00    0.77867   0.81303    0.006
 6007.00    0.77300   0.81373    0.006
 6008.00    0.76755   0.81211    0.006
 6009.00    0.76219   0.81159    0.006
 6010.00    0.74020   0.81243    0.006
 6011.00    0.71198   0.81185    0.005
 6012.00    0.70906   0.81190    0.005
 6013.00    0.71417   0.81178    0.006
 6014.00    0.74932   0.81214    0.005
 6015.00    0.79244   0.81374    0.005
 6016.00    0.82358   0.81383    0.005
 6017.00    0.85213   0.81482    0.005
 6018.00    0.85895   0.81673    0.005
 6019.00    0.86203   0.81760    0.005
 6020.00    0.83483   0.81941    0.005
 6021.00    0.80367   0.82111    0.005
 6022.00    0.83715   0.82284    0.005
 6023.00    0.87657   0.82490    0.005
 6024.00    0.94322   0.82615    0.005
 6025.00    1.01140   0.82804    0.005
 6026.00    0.90191   0.82973    0.005
 6027.00    0.78891   0.83081    0.005
 6028.00    0.71311   0.83211    0.005
 6029.00    0.64238   0.83312    0.005
 6030.00    0.68953   0.83419    0.005
 6031.00    0.73603   0.83469    0.005
 6032.00    0.77426   0.83510    0.005
 6033.00    0.80424   0.83580    0.005
 6034.00    0.76323   0.83581    0.006
 6035.00    0.72926   0.83621    0.006
 6036.00    0.74028   0.83649    0.005
 6037.00    0.73628   0.83619    0.005
 6038.00    0.65731   0.83636    0.005
 6039.00    0.58803   0.83621    0.005
 6040.00    0.55794   0.83591    0.005
 6041.00    0.54525   0.83573    0.005
 6042.00    0.59096   0.83510    0.005
 6043.00    0.62655   0.83479    0.005
 6044.00    0.63348   0.83436    0.005
 6045.00    0.64897   0.83322    0.005
 6046.00    0.68519   0.83242    0.005
 6047.00    0.71076   0.83178    0.005
 6048.00    0.71409   0.83079    0.005
 6049.00    0.70515   0.82970    0.005
 6050.00    0.67393   0.82881    0.005
 6051.00    0.66041   0.82823    0.005
 6052.00    0.67502   0.82750    0.005
 6053.00    0.71950   0.82673    0.005
 6054.00    0.80563   0.82588    0.005
 6055.00    0.84470   0.82564    0.005
 6056.00    0.82604   0.82594    0.005
 6057.00    0.78538   0.82519    0.005
 6058.00    0.72092   0.82534    0.005
 6059.00    0.71224   0.82625    0.005
 6060.00    0.75679   0.82631    0.005
 6061.00    0.77429   0.82704    0.005
 6062.00    0.76904   0.82703    0.005
 6063.00    0.73709   0.82719    0.005
 6064.00    0.68537   0.82853    0.005
 6065.00    0.62864   0.82813    0.005
 6066.00    0.56865   0.82793    0.005
 6067.00    0.55073   0.82819    0.005
 6068.00    0.55676   0.82735    0.005
 6069.00    0.57332   0.82706    0.005
 6070.00    0.59510   0.82574    0.005
 6071.00    0.64280   0.82396    0.005
 6072.00    0.70162   0.82357    0.005
 6073.00    0.65022   0.82202    0.005
 6074.00    0.55832   0.81998    0.005
 6075.00    0.57493   0.81877    0.005
 6076.00    0.62533   0.81727    0.005
 6077.00    0.72875   0.81625    0.005
 6078.00    0.84594   0.81504    0.005
 6079.00    0.87512   0.81338    0.005
 6080.00    0.88567   0.81317    0.005
 6081.00    0.85710   0.81283    0.005
 6082.00    0.82197   0.81146    0.005
 6083.00    0.79456   0.81109    0.005
 6084.00    0.76812   0.81124    0.005
 6085.00    0.78776   0.81091    0.005
 6086.00    0.81145   0.81037    0.005
 6087.00    0.71262   0.81004    0.005
 6088.00    0.60744   0.80998    0.005
 6089.00    0.54940   0.80969    0.005
 6090.00    0.49357   0.80930    0.005
 6091.00    0.53645   0.80824    0.005
 6092.00    0.57732   0.80769    0.005
 6093.00    0.57552   0.80820    0.005
 6094.00    0.57690   0.80686    0.005
 6095.00    0.61664   0.80600    0.005
 6096.00    0.65630   0.80665    0.005
 6097.00    0.69531   0.80592    0.005
 6098.00    0.72676   0.80632    0.005
 6099.00    0.71142   0.80635    0.005
 6100.00    0.69690   0.80524    0.005
 6101.00    0.68638   0.80695    0.005
 6102.00    0.67784   0.80742    0.005
 6103.00    0.67720   0.80647    0.005
 6104.00    0.67809   0.80787    0.005
 6105.00    0.68402   0.80787    0.005
 6106.00    0.68321   0.80766    0.005
 6107.00    0.66366   0.80843    0.005
 6108.00    0.65521   0.80685    0.005
 6109.00    0.67321   0.80643    0.005
 6110.00    0.69146   0.80670    0.005
 6111.00    0.71022   0.80432    0.005
 6112.00    0.71599   0.80369    0.005
 6113.00    0.69851   0.80330    0.005
 6114.00    0.68386   0.80096    0.005
 6115.00    0.67363   0.80060    0.005
 6116.00    0.67710   0.79967    0.005
 6117.00    0.69940   0.79779    0.005
 6118.00    0.70838   0.79745    0.005
 6119.00    0.70125   0.79612    0.005
 6120.00    0.68824   0.79518    0.005
 6121.00    0.66896   0.79517    0.005
 6122.00    0.62538   0.79363    0.005
 6123.00    0.55896   0.79261    0.005
 6124.00    0.53258   0.79252    0.005
 6125.00    0.53940   0.79100    0.005
 6126.00    0.57407   0.78894    0.005
 6127.00    0.62906   0.78845    0.005
 6128.00    0.69080   0.78792    0.005
 6129.00    0.75688   0.78642    0.005
 6130.00    0.80934   0.78545    0.005
 6131.00    0.85415   0.78482    0.005
 6132.00    0.89316   0.78505    0.005
 6133.00    0.92933   0.78496    0.005
 6134.00    0.96126   0.78389    0.005
 6135.00    0.99139   0.78489    0.005
 6136.00    0.96003   0.78626    0.005
 6137.00    0.90648   0.78630    0.005
 6138.00    0.81043   0.78684    0.005
 6139.00    0.70140   0.78774    0.005
 6140.00    0.60502   0.78891    0.005
 6141.00    0.51186   0.78928    0.005
 6142.00    0.44622   0.78882    0.005
 6143.00    0.38626   0.78880    0.005
 6144.00    0.41364   0.78830    0.005
 6145.00    0.45521   0.78739    0.005
 6146.00    0.55105   0.78583    0.005
 6147.00    0.65349   0.78356    0.005
 6148.00    0.65674   0.78199    0.005
 6149.00    0.65172   0.77963    0.005
 6150.00    0.57948   0.77598    0.005
 6151.00    0.50402   0.77280    0.005
 6152.00    0.49359   0.76985    0.005
 6153.00    0.48575   0.76724    0.005
 6154.00    0.57267   0.76436    0.005
 6155.00    0.65922   0.76073    0.005
 6156.00    0.73841   0.75909    0.005
 6157.00    0.81333   0.75808    0.005
 6158.00    0.83897   0.75482    0.005
 6159.00    0.86016   0.75331    0.005
 6160.00    0.84572   0.75433    0.005
 6161.00    0.82794   0.75421    0.005
 6162.00    0.78996   0.75408    0.005
 6163.00    0.74835   0.75518    0.005
 6164.00    0.68943   0.75708    0.005
 6165.00    0.63117   0.75917    0.005
 6166.00    0.57546   0.75995    0.005
 6167.00    0.55056   0.76182    0.005
 6168.00    0.62511   0.76520    0.005
 6169.00    0.67853   0.76648    0.005
 6170.00    0.67421   0.76783    0.005
 6171.00    0.67138   0.77055    0.005
 6172.00    0.67202   0.77200    0.005
 6173.00    0.68617   0.77311    0.005
 6174.00    0.72767   0.77408    0.005
 6175.00    0.75927   0.77458    0.005
 6176.00    0.77343   0.77537    0.005
 6177.00    0.76406   0.77461    0.005
 6178.00    0.71840   0.77439    0.005
 6179.00    0.67955   0.77520    0.005
 6180.00    0.64991   0.77301    0.005
 6181.00    0.61647   0.77197    0.005
 6182.00    0.57850   0.77298    0.005
 6183.00    0.55734   0.77138    0.005
 6184.00    0.55383   0.77062    0.005
 6185.00    0.52766   0.77069    0.005
 6186.00    0.48045   0.77011    0.005
 6187.00    0.47370   0.77105    0.005
 6188.00    0.50004   0.77027    0.005
 6189.00    0.56398   0.76992    0.005
 6190.00    0.65498   0.77238    0.005
 6191.00    0.70069   0.77255    0.005
 6192.00    0.71778   0.77266    0.005
 6193.00    0.71905   0.77440    0.005
 6194.00    0.71157   0.77487    0.005
 6195.00    0.66319   0.77572    0.005
 6196.00    0.59515   0.77603   -2.000
 6197.00    0.59728   0.77574   -2.000
 6198.00    0.62850   0.77664   -2.000
 6199.00    0.60823   0.77599   -2.000
 6200.00    0.56970   0.77488   -2.000
 6201.00    0.51733   0.77477   -2.000
 6202.00    0.46081   0.77303   -2.000
 6203.00    0.47413   0.77152   -2.000
 6204.00    0.50480   0.77015   -2.000
 6205.00    0.58477   0.76749   -2.000
 6206.00    0.67467   0.76619   -2.000
 6207.00    0.66902   0.76432   -2.000
 6208.00    0.64829   0.76134    0.005
 6209.00    0.64211   0.76011    0.005
 6210.00    0.63762   0.75810    0.005
 6211.00    0.66943   0.75609    0.005
 6212.00    0.70412   0.75546    0.005
 6213.00    0.76848   0.75344    0.005
 6214.00    0.83415   0.75254    0.005
 6215.00    0.81126   0.75253    0.005
 6216.00    0.78732   0.75065    0.005
 6217.00    0.75980   0.75032    0.005
 6218.00    0.73502   0.75044    0.005
 6219.00    0.76045   0.74886    0.005
 6220.00    0.78498   0.74867    0.005
 6221.00    0.79947   0.74850    0.005
 6222.00    0.81281   0.74748    0.005
 6223.00    0.81723   0.74762    0.005
 6224.00    0.82200   0.74695    0.005
 6225.00    0.82883   0.74624    0.005
 6226.00    0.83265   0.74620    0.005
 6227.00    0.82242   0.74503    0.005
 6228.00    0.81617   0.74444    0.005
 6229.00    0.82494   0.74411    0.005
 6230.00    0.81548   0.74328    0.005
 6231.00    0.74832   0.74301    0.005
 6232.00    0.68392   0.74199    0.005
 6233.00    0.62690   0.74135    0.005
 6234.00    0.60188   0.74092    0.005
 6235.00    0.65049   0.73949    0.005
 6236.00    0.70361   0.73908    0.005
 6237.00    0.76573   0.73815    0.005
 6238.00    0.78266   0.73694    0.005
 6239.00    0.72118   0.73691    0.005
 6240.00    0.66478   0.73544    0.005
 6241.00    0.61612   0.73441    0.005
 6242.00    0.56906   0.73462    0.005
 6243.00    0.52416   0.73320    0.005
 6244.00    0.49314   0.73237    0.005
 6245.00    0.47845   0.73265    0.005
 6246.00    0.49640   0.73200    0.005
 6247.00    0.54822   0.73136    0.005
 6248.00    0.58134   0.73165    0.005
 6249.00    0.59736   0.73201    0.005
 6250.00    0.60444   0.73194    0.005
 6251.00    0.60431   0.73252    0.005
 6252.00    0.61400   0.73382    0.005
 6253.00    0.63064   0.73473    0.005
 6254.00    0.65913   0.73596    0.005
 6255.00    0.69499   0.73747    0.005
 6256.00    0.71867   0.73906    0.005
 6257.00    0.73573   0.74134    0.005
 6258.00    0.71223   0.74282    0.005
 6259.00    0.66957   0.74420    0.006
 6260.00    0.71005   0.74659    0.006
 6261.00    0.78440   0.74816    0.006
 6262.00    0.95023   0.74901    0.007
 6263.00    1.14789   0.75042    0.007
 6264.00    1.17009   0.75201    0.007
 6265.00    1.14081   0.75267    0.007
 6266.00    0.93430   0.75288    0.006
 6267.00    0.68475   0.75399    0.006
 6268.00    0.63020   0.75454    0.005
 6269.00    0.61393   0.75441    0.005
 6270.00    0.64105   0.75528    0.005
 6271.00    0.67481   0.75528    0.005
 6272.00    0.70306   0.75527    0.005
 6273.00    0.73069   0.75619    0.005
 6274.00    0.80051   0.75582    0.005
 6275.00    0.87351   0.75621    0.005
 6276.00    0.81846   0.75698    0.005
 6277.00    0.75826   0.75639    0.005
 6278.00    0.67323   0.75712    0.005
 6279.00    0.58983   0.75746    0.005
 6280.00    0.57992   0.75703    0.000
 6281.00    0.57287   0.75780    0.000
 6282.00    0.61443   0.75727    0.000
 6283.00    0.65465   0.75670    0.000
 6284.00    0.68080   0.75687    0.000
 6285.00    0.69221   0.75584    0.000
 6286.00    0.59367   0.75528    0.000
 6287.00    0.50014   0.75437    0.000
 6288.00    0.43512   0.75288    0.000
 6289.00    0.39877   0.75250    0.000
 6290.00    0.49221   0.75136    0.000
 6291.00    0.58899   0.74999    0.000
 6292.00    0.69817   0.74970    0.000
 6293.00    0.77122   0.74892    0.000
 6294.00    0.73213   0.74809    0.000
 6295.00    0.69124   0.74785    0.000
 6296.00    0.64559   0.74769    0.000
 6297.00    0.59894   0.74757    0.000
 6298.00    0.55001   0.74729    0.000
 6299.00    0.52871   0.74742    0.000
 6300.00    0.56157   0.74762    0.000
 6301.00    0.61270   0.74737    0.000
 6302.00    0.69505   0.74755    0.000
 6303.00    0.72377   0.74745    0.000
 6304.00    0.67216   0.74687    0.000
 6305.00    0.60829   0.74692    0.000
 6306.00    0.52831   0.74657    0.000
 6307.00    0.52321   0.74599    0.000
 6308.00    0.60492   0.74579    0.000
 6309.00    0.63403   0.74512    0.000
 6310.00    0.60937   0.74525    0.000
 6311.00    0.57841   0.74552    0.000
 6312.00    0.54177   0.74474    0.000
 6313.00    0.51283   0.74533    0.000
 6314.00    0.49000   0.74656    0.000
 6315.00    0.48464   0.74631    0.000
 6316.00    0.49150   0.74680    0.000
 6317.00    0.54346   0.74853    0.000
 6318.00    0.62308   0.74909    0.000
 6319.00    0.66884   0.74933    0.000
 6320.00    0.69647   0.75068    0.000
 6321.00    0.68949   0.75106    0.005
 6322.00    0.66644   0.75089    0.005
 6323.00    0.64335   0.75175    0.005
 6324.00    0.62026   0.75141    0.005
 6325.00    0.56185   0.75082    0.005
 6326.00    0.49138   0.75120    0.005
 6327.00    0.44991   0.75018    0.005
 6328.00    0.41678   0.74944    0.005
 6329.00    0.44917   0.74926    0.005
 6330.00    0.49711   0.74796    0.005
 6331.00    0.56221   0.74777    0.005
 6332.00    0.63059   0.74731    0.005
 6333.00    0.61254   0.74574    0.005
 6334.00    0.58167   0.74623    0.005
 6335.00    0.55623   0.74631    0.005
 6336.00    0.53139   0.74508    0.005
 6337.00    0.53294   0.74562    0.005
 6338.00    0.53637   0.74572    0.005
 6339.00    0.56379   0.74529    0.005
 6340.00    0.59207   0.74557    0.005
 6341.00    0.56065   0.74473    0.005
 6342.00    0.53008   0.74480    0.005
 6343.00    0.53764   0.74511    0.005
 6344.00    0.54616   0.74346    0.005
 6345.00    0.56985   0.74306    0.005
 6346.00    0.59224   0.74300    0.005
 6347.00    0.60158   0.74125    0.005
 6348.00    0.61325   0.74022    0.005
 6349.00    0.64171   0.73935    0.012
 6350.00    0.67116   0.73797   -1.000
 6351.00    0.70610   0.73701   -1.000
 6352.00    0.73604   0.73561  973.215
 6353.00    0.74385   0.73475   -1.000
 6354.00    0.74757   0.73478   -1.000
 6355.00    0.73644   0.73389   -1.000
 6356.00    0.71908   0.73349   -1.000
 6357.00    0.68277   0.73444   -1.000
 6358.00    0.64400   0.73486   -1.000
 6359.00    0.59889   0.73534   -1.000
 6360.00    0.55630   0.73676    0.034
 6361.00    0.51934   0.73805    0.008
 6362.00    0.48700   0.73948    0.005
 6363.00    0.46356   0.74111    0.005
 6364.00    0.45289   0.74240    0.005
 6365.00    0.46370   0.74409    0.005
 6366.00    0.48256   0.74564    0.005
 6367.00    0.51331   0.74646    0.005
 6368.00    0.53833   0.74760    0.005
 6369.00    0.55592   0.74876    0.005
 6370.00    0.57453   0.74932    0.005
 6371.00    0.59431   0.74992    0.005
 6372.00    0.59555   0.75019    0.005
 6373.00    0.57811   0.75030    0.005
 6374.00    0.56047   0.75072    0.005
 6375.00    0.54266   0.75031    0.005
 6376.00    0.53951   0.74977    0.005
 6377.00    0.54784   0.74999    0.005
 6378.00    0.57725   0.74946    0.005
 6379.00    0.62118   0.74858    0.005
 6380.00    0.62679   0.74854    0.005
 6381.00    0.60927   0.74800    0.005
 6382.00    0.60476   0.74678    0.005
 6383.00    0.60711   0.74630    0.005
 6384.00    0.64410   0.74594    0.005
 6385.00    0.69693   0.74486    0.005
 6386.00    0.67871   0.74421    0.005
 6387.00    0.63252   0.74373    0.005
 6388.00    0.59730   0.74281    0.005
 6389.00    0.56576   0.74269    0.005
 6390.00    0.55771   0.74199    0.005
 6391.00    0.55628   0.74069    0.005
 6392.00    0.53248   0.74171    0.005
 6393.00    0.50348   0.74175    0.005
 6394.00    0.48964   0.73989    0.005
 6395.00    0.47862   0.74122    0.005
 6396.00    0.46977   0.74168    0.005
 6397.00    0.46123   0.73940    0.005
 6398.00    0.52383   0.74066    0.005
 6399.00    0.59385   0.74148    0.005
 6400.00    0.70935   0.73981    0.005
 6401.00    0.82791   0.74057    0.005
 6402.00    0.79409   0.74047    0.005
 6403.00    0.75530   0.73961    0.005
 6404.00    0.66903   0.74024    0.005
 6405.00    0.58383   0.73909    0.005
 6406.00    0.53185   0.73899    0.005
 6407.00    0.48211   0.74018    0.005
 6408.00    0.46599   0.73866    0.005
 6409.00    0.45106   0.73852    0.005
 6410.00    0.44769   0.73989    0.005
 6411.00    0.43996   0.73906    0.005
 6412.00    0.40177   0.73908    0.005
 6413.00    0.37395   0.74010    0.005
 6414.00    0.40203   0.73987    0.005
 6415.00    0.42749   0.74017    0.005
 6416.00    0.44161   0.74081    0.005
 6417.00    0.45392   0.74104    0.005
 6418.00    0.45977   0.74112    0.005
 6419.00    0.46146   0.74129    0.005
 6420.00    0.45072   0.74225    0.005
 6421.00    0.44392   0.74220    0.005
 6422.00    0.44714   0.74154    0.005
 6423.00    0.44414   0.74249    0.005
 6424.00    0.42752   0.74238    0.005
 6425.00    0.42680   0.74161    0.005
 6426.00    0.45633   0.74250    0.005
 6427.00    0.48430   0.74205    0.005
 6428.00    0.50970   0.74142    0.005
 6429.00    0.56154   0.74227    0.005
 6430.00    0.65181   0.74188    0.005
 6431.00    0.70286   0.74211    0.005
 6432.00    0.70375   0.74256    0.005
 6433.00    0.68731   0.74171    0.005
 6434.00    0.65134   0.74261    0.005
 6435.00    0.61628   0.74261    0.005
 6436.00    0.58211   0.74109    0.005
 6437.00    0.57310   0.74196    0.005
 6438.00    0.58614   0.74194    0.005
 6439.00    0.58648   0.74061    0.005
 6440.00    0.57701   0.74064    0.005
 6441.00    0.58198   0.73980    0.005
 6442.00    0.59675   0.73899    0.005
 6443.00    0.62513   0.73843    0.005
 6444.00    0.66161   0.73714    0.005
 6445.00    0.66685   0.73708    0.005
 6446.00    0.65589   0.73623    0.005
 6447.00    0.65372   0.73456    0.005
 6448.00    0.65551   0.73517    0.005
 6449.00    0.62674   0.73519    0.005
 6450.00    0.58616   0.73397    0.005
 6451.00    0.58184   0.73447    0.005
 6452.00    0.58945   0.73490    0.005
 6453.00    0.60891   0.73390    0.005
 6454.00    0.63164   0.73423    0.005
 6455.00    0.60002   0.73555    0.005
 6456.00    0.55606   0.73497    0.005
 6457.00    0.53946   0.73487    0.005
 6458.00    0.52781   0.73652    0.005
 6459.00    0.53643   0.73592    0.005
 6460.00    0.54787   0.73526    0.005
 6461.00    0.54696   0.73714    0.005
 6462.00    0.54481   0.73717    0.005
 6463.00    0.48807   0.73631    0.005
 6464.00    0.42788   0.73752    0.005
 6465.00    0.39267   0.73752    0.005
 6466.00    0.35847   0.73644    0.005
 6467.00    0.41144   0.73706    0.005
 6468.00    0.46372   0.73681    0.005
 6469.00    0.49668   0.73542    0.005
 6470.00    0.53009   0.73546    0.005
 6471.00    0.56970   0.73510    0.005
 6472.00    0.60877   0.73337    0.005
 6473.00    0.64277   0.73230    0.005
 6474.00    0.67941   0.73161    0.005
 6475.00    0.73390   0.72984    0.005
 6476.00    0.77366   0.72768    0.005
 6477.00    0.73616   0.72620    0.005
 6478.00    0.70399   0.72426    0.005
 6479.00    0.69428   0.72115    0.005
 6480.00    0.68463   0.71876    0.005
 6481.00    0.67519   0.71673    0.005
 6482.00    0.66545   0.71333    0.005
 6483.00    0.65483   0.71059    0.005
 6484.00    0.64465   0.70837    0.005
 6485.00    0.63557   0.70493    0.005
 6486.00    0.61045   0.70294    0.005
 6487.00    0.55076   0.70133    0.005
 6488.00    0.50616   0.69854    0.005
 6489.00    0.48980   0.69819    0.005
 6490.00    0.49002   0.69806    0.005
 6491.00    0.51731   0.69671    0.005
 6492.00    0.53334   0.69809    0.005
 6493.00    0.53321   0.69947    0.005
 6494.00    0.52160   0.70028    0.005
 6495.00    0.49552   0.70328    0.005
 6496.00    0.46515   0.70527    0.005
 6497.00    0.43002   0.70717    0.005
 6498.00    0.45106   0.71047    0.005
 6499.00    0.52713   0.71247    0.005
 6500.00    0.59001   0.71444    0.005
 6501.00    0.64149   0.71696    0.005
 6502.00    0.62535   0.71835    0.005
 6503.00    0.55773   0.71966    0.005
 6504.00    0.52412   0.72106    0.005
 6505.00    0.51326   0.72178    0.005
 6506.00    0.52994   0.72213    0.005
 6507.00    0.56277   0.72255    0.005
 6508.00    0.53315   0.72306    0.005
 6509.00    0.47163   0.72281    0.005
 6510.00    0.42690   0.72251    0.005
 6511.00    0.38959   0.72303    0.005
 6512.00    0.45678   0.72266    0.005
 6513.00    0.56367   0.72208    0.005
 6514.00    0.64205   0.72262    0.005
 6515.00    0.71122   0.72245    0.005
 6516.00    0.71447   0.72202    0.005
 6517.00    0.69992   0.72239    0.005
 6518.00    0.66768   0.72233    0.005
 6519.00    0.63152   0.72220    0.005
 6520.00    0.60545   0.72214    0.005
 6521.00    0.58116   0.72190    0.005
 6522.00    0.56807   0.72195    0.005
 6523.00    0.55648   0.72166    0.005
 6524.00    0.53931   0.72118    0.005
 6525.00    0.52160   0.72098    0.005
 6526.00    0.49591   0.72055    0.005
 6527.00    0.46976   0.72002    0.005
 6528.00    0.44988   0.71929    0.000
 6529.00    0.43034   0.71846    0.000
 6530.00    0.43693   0.71768    0.000
 6531.00    0.44409   0.71629    0.000
 6532.00    0.46571   0.71500    0.000
 6533.00    0.49252   0.71381    0.000
 6534.00    0.58879   0.71158    0.000
 6535.00    0.67609   0.70955    0.000
 6536.00    0.68352   0.70757    0.000
 6537.00    0.67978   0.70444    0.000
 6538.00    0.60284   0.70171    0.000
 6539.00    0.53555   0.69865    0.000
 6540.00    0.51755   0.69434    0.000
 6541.00    0.50651   0.69076    0.000
 6542.00    0.52417   0.68657    0.000
 6543.00    0.53859   0.68118    0.000
 6544.00    0.54190   0.67645    0.000
 6545.00    0.54065   0.67097    0.000
 6546.00    0.52624   0.66503    0.000
 6547.00    0.52169   0.65927    0.000
 6548.00    0.54141   0.65260    0.000
 6549.00    0.57500   0.64680    0.000
 6550.00    0.63803   0.64077    0.000
 6551.00    0.68116   0.63400    0.000
 6552.00    0.68762   0.62992    0.000
 6553.00    0.68618   0.62487    0.000
 6554.00    0.67202   0.61931    0.000
 6555.00    0.65270   0.61873    0.000
 6556.00    0.62608   0.61620    0.000
 6557.00    0.56150   0.61264    0.000
 6558.00    0.44975   0.61616    0.000
 6559.00    0.42156   0.61754    0.000
 6560.00    0.48486   0.61652    0.000
 6561.00    0.65677   0.62287    0.000
 6562.00    0.93360   0.62814    0.000
 6563.00    1.14209   0.62992    0.000
 6564.00    1.29237   0.63676    0.000
 6565.00    1.30982   0.64322    0.000
 6566.00    1.22761   0.64655    0.000
 6567.00    1.06704   0.65291    0.000
 6568.00    0.85481   0.65899    0.000
 6569.00    0.70992   0.66254    0.000
 6570.00    0.60390   0.66781    0.000
 6571.00    0.58232   0.67256    0.000
 6572.00    0.60321   0.67534    0.000
 6573.00    0.58688   0.67934    0.000
 6574.00    0.55435   0.68257    0.000
 6575.00    0.55805   0.68422    0.000
 6576.00    0.57527   0.68695    0.000
 6577.00    0.56106   0.68877    0.000
 6578.00    0.53691   0.68934    0.000
 6579.00    0.48738   0.69109    0.000
 6580.00    0.43115   0.69186    0.000
 6581.00    0.46359   0.69163    0.000
 6582.00    0.51521   0.69279    0.000
 6583.00    0.61820   0.69298    0.000
 6584.00    0.73001   0.69220    0.000
 6585.00    0.78379   0.69316    0.000
 6586.00    0.83004   0.69334    0.000
 6587.00    0.82442   0.69226    0.000
 6588.00    0.81406   0.69318    0.000
 6589.00    0.77436   0.69377    0.000
 6590.00    0.73304   0.69287    0.000
 6591.00    0.68495   0.69374    0.000
 6592.00    0.63689   0.69458    0.000
 6593.00    0.60554   0.69414    0.000
 6594.00    0.57228   0.69493    0.000
 6595.00    0.49492   0.69567    0.000
 6596.00    0.42278   0.69553    0.000
 6597.00    0.41680   0.69618    0.000
 6598.00    0.41437   0.69680    0.000
 6599.00    0.44241   0.69691    0.000
 6600.00    0.46238   0.69737    0.000
 6601.00    0.43101   0.69791    0.000
 6602.00    0.39367   0.69830    0.000
 6603.00    0.32656   0.69866    0.000
 6604.00    0.27112   0.69918    0.000
 6605.00    0.26280   0.69985    0.000
 6606.00    0.26646   0.70030    0.000
 6607.00    0.31020   0.70066    0.000
 6608.00    0.34697   0.70122    0.000
 6609.00    0.36401   0.70172    0.005
 6610.00    0.41085   0.70188    0.005
 6611.00    0.52973   0.70209    0.005
 6612.00    0.61880   0.70221    0.005
 6613.00    0.64565   0.70201    0.005
 6614.00    0.65236   0.70195    0.005
 6615.00    0.62251   0.70152    0.005
 6616.00    0.59565   0.70076    0.005
 6617.00    0.57354   0.70055    0.005
 6618.00    0.54171   0.69966    0.005
 6619.00    0.49635   0.69835    0.005
 6620.00    0.47936   0.69818    0.005
 6621.00    0.49711   0.69718    0.005
 6622.00    0.51076   0.69561    0.005
 6623.00    0.51998   0.69556    0.005
 6624.00    0.50923   0.69472    0.005
 6625.00    0.47945   0.69319    0.005
 6626.00    0.44729   0.69339    0.005
 6627.00    0.41312   0.69287    0.005
 6628.00    0.42714   0.69147    0.005
 6629.00    0.47678   0.69197    0.005
 6630.00    0.55369   0.69202    0.005
 6631.00    0.64831   0.69084    0.005
 6632.00    0.68407   0.69142    0.005
 6633.00    0.68640   0.69187    0.005
 6634.00    0.65382   0.69087    0.005
 6635.00    0.60397   0.69137    0.005
 6636.00    0.57620   0.69213    0.005
 6637.00    0.55788   0.69132    0.005
 6638.00    0.53716   0.69144    0.005
 6639.00    0.51558   0.69220    0.005
 6640.00    0.45693   0.69185    0.005
 6641.00    0.38677   0.69166    0.005
 6642.00    0.40370   0.69193    0.005
 6643.00    0.44316   0.69187    0.005
 6644.00    0.54479   0.69154    0.005
 6645.00    0.65954   0.69119    0.005
 6646.00    0.68975   0.69116    0.005
 6647.00    0.70586   0.69073    0.005
 6648.00    0.70227   0.68983    0.005
 6649.00    0.69620   0.68972    0.005
 6650.00    0.69004   0.68928    0.005
 6651.00    0.68388   0.68793    0.005
 6652.00    0.65414   0.68772    0.005
 6653.00    0.62318   0.68747    0.005
 6654.00    0.57147   0.68591    0.005
 6655.00    0.51971   0.68567    0.005
 6656.00    0.49038   0.68574    0.005
 6657.00    0.46300   0.68421    0.005
 6658.00    0.47643   0.68406    0.005
 6659.00    0.48956   0.68445    0.005
 6660.00    0.49899   0.68323    0.005
 6661.00    0.50828   0.68328    0.005
 6662.00    0.51645   0.68363    0.005
 6663.00    0.52151   0.68259    0.005
 6664.00    0.50744   0.68294    0.005
 6665.00    0.49439   0.68314    0.005
 6666.00    0.48634   0.68201    0.005
 6667.00    0.48067   0.68258    0.005
 6668.00    0.48438   0.68268    0.005
 6669.00    0.49634   0.68137    0.005
 6670.00    0.53539   0.68216    0.005
 6671.00    0.55903   0.68235    0.005
 6672.00    0.53990   0.68097    0.005
 6673.00    0.51509   0.68181    0.005
 6674.00    0.47678   0.68238    0.005
 6675.00    0.43369   0.68137    0.005
 6676.00    0.38081   0.68206    0.005
 6677.00    0.36662   0.68271    0.005
 6678.00    0.42154   0.68211    0.005
 6679.00    0.48718   0.68262    0.005
 6680.00    0.56956   0.68314    0.005
 6681.00    0.61302   0.68273    0.005
 6682.00    0.60310   0.68301    0.005
 6683.00    0.56544   0.68322    0.005
 6684.00    0.49429   0.68273    0.005
 6685.00    0.43567   0.68283    0.005
 6686.00    0.39038   0.68271    0.005
 6687.00    0.39163   0.68197    0.005
 6688.00    0.43656   0.68197    0.005
 6689.00    0.45223   0.68163    0.005
 6690.00    0.44367   0.68072    0.005
 6691.00    0.42035   0.68071    0.005
 6692.00    0.38627   0.68021    0.005
 6693.00    0.35074   0.67929    0.005
 6694.00    0.31428   0.67928    0.005
 6695.00    0.32568   0.67858    0.005
 6696.00    0.36386   0.67767    0.000
 6697.00    0.42603   0.67767    0.000
 6698.00    0.49987   0.67676    0.000
 6699.00    0.55244   0.67576    0.000
 6700.00    0.59607   0.67568    0.000
 6701.00    0.58825   0.67460    0.000
 6702.00    0.56190   0.67346    0.000
 6703.00    0.57910   0.67323    0.000
 6704.00    0.60956   0.67216    0.000
 6705.00    0.64326   0.67095    0.000
 6706.00    0.67778   0.67059    0.000
 6707.00    0.63460   0.66984    0.000
 6708.00    0.57542   0.66875    0.000
 6709.00    0.55645   0.66840    0.000
 6710.00    0.54398   0.66821    0.000
 6711.00    0.59519   0.66758    0.000
 6712.00    0.65411   0.66745    0.000
 6713.00    0.62672   0.66769    0.000
 6714.00    0.59217   0.66753    0.000
 6715.00    0.57888   0.66778    0.000
 6716.00    0.56659   0.66836    0.000
 6717.00    0.60345   0.66846    0.000
 6718.00    0.64017   0.66892    0.000
 6719.00    0.63034   0.66964    0.000
 6720.00    0.61936   0.66979    0.000
 6721.00    0.58590   0.67021    0.000
 6722.00    0.55859   0.67076    0.000
 6723.00    0.60191   0.67078    0.000
 6724.00    0.63746   0.67093    0.000
 6725.00    0.61123   0.67113    0.000
 6726.00    0.58243   0.67092    0.000
 6727.00    0.53820   0.67072    0.000
 6728.00    0.49230   0.67048    0.000
 6729.00    0.43845   0.67008    0.000
 6730.00    0.39918   0.66960    0.000
 6731.00    0.41624   0.66894    0.000
 6732.00    0.44737   0.66844    0.000
 6733.00    0.52380   0.66791    0.000
 6734.00    0.58077   0.66699    0.000
 6735.00    0.58464   0.66640    0.000
 6736.00    0.58438   0.66609    0.000
 6737.00    0.57445   0.66517    0.000
 6738.00    0.56150   0.66452    0.000
 6739.00    0.54241   0.66463    0.000
 6740.00    0.53550   0.66400    0.000
 6741.00    0.55001   0.66335    0.000
 6742.00    0.53221   0.66394    0.000
 6743.00    0.46469   0.66378    0.000
 6744.00    0.42805   0.66323    0.000
 6745.00    0.43316   0.66422    0.000
 6746.00    0.45017   0.66450    0.000
 6747.00    0.48134   0.66410    0.000
 6748.00    0.50073   0.66529    0.000
 6749.00    0.50777   0.66582    0.000
 6750.00    0.49898   0.66549    0.000
 6751.00    0.47553   0.66665    0.000
 6752.00    0.47797   0.66713    0.000
 6753.00    0.50154   0.66677    0.005
 6754.00    0.47606   0.66774    0.006
 6755.00    0.41532   0.66800    0.006
 6756.00    0.33183   0.66750    0.006
 6757.00    0.23399   0.66824    0.006
 6758.00    0.17770   0.66829    0.006
 6759.00    0.14429   0.66768    0.006
 6760.00    0.19074   0.66826    0.006
 6761.00    0.27545   0.66827    0.006
 6762.00    0.36834   0.66765    0.006
 6763.00    0.46462   0.66812    0.006
 6764.00    0.48923   0.66827    0.006
 6765.00    0.48848   0.66768    0.006
 6766.00    0.45470   0.66797    0.006
 6767.00    0.41106   0.66828    0.006
 6768.00    0.44974   0.66769    0.006
 6769.00    0.50881   0.66766    0.006
 6770.00    0.51137   0.66801    0.006
 6771.00    0.50259   0.66733    0.006
 6772.00    0.47841   0.66686    0.006
 6773.00    0.45181   0.66715    0.005
 6774.00    0.43364   0.66636    0.005
 6775.00    0.41644   0.66551    0.005
 6776.00    0.43514   0.66572    0.005
 6777.00    0.45667   0.66495    0.005
 6778.00    0.55452   0.66389    0.005
 6779.00    0.65569   0.66411    0.005
 6780.00    0.52973   0.66354    0.005
 6781.00    0.40352   0.66250    0.005
 6782.00    0.37675   0.66280    0.005
 6783.00    0.35397   0.66253    0.005
 6784.00    0.40338   0.66169    0.005
 6785.00    0.44551   0.66204    0.005
 6786.00    0.40802   0.66203    0.005
 6787.00    0.36697   0.66149    0.005
 6788.00    0.29858   0.66180    0.005
 6789.00    0.25274   0.66189    0.005
 6790.00    0.33837   0.66168    0.006
 6791.00    0.41435   0.66188    0.006
 6792.00    0.44570   0.66186    0.006
 6793.00    0.48146   0.66194    0.005
 6794.00    0.53383   0.66200    0.006
 6795.00    0.56535   0.66175    0.006
 6796.00    0.53099   0.66205    0.005
 6797.00    0.47604   0.66199    0.005
 6798.00    0.36593   0.66149    0.005
 6799.00    0.30903   0.66191    0.005
 6800.00    0.37441   0.66178    0.005
 6801.00    0.42821   0.66116    0.005
 6802.00    0.45902   0.66160    0.005
 6803.00    0.45273   0.66146    0.005
 6804.00    0.38216   0.66089    0.005
 6805.00    0.34146   0.66131    0.005
 6806.00    0.34605   0.66121    0.005
 6807.00    0.36686   0.66083    0.005
 6808.00    0.40929   0.66121    0.005
 6809.00    0.41514   0.66115    0.005
 6810.00    0.37807   0.66097    0.005
 6811.00    0.36031   0.66131    0.005
 6812.00    0.36254   0.66128    0.006
 6813.00    0.40409   0.66121    0.006
 6814.00    0.48153   0.66147    0.006
 6815.00    0.53752   0.66140    0.006
 6816.00    0.57623   0.66128    0.006
 6817.00    0.57353   0.66141    0.005
 6818.00    0.54152   0.66123    0.005
 6819.00    0.52878   0.66096    0.005
 6820.00    0.52801   0.66089    0.005
 6821.00    0.54169   0.66052    0.005
 6822.00    0.56320   0.66003    0.005
 6823.00    0.52045   0.65971    0.005
 6824.00    0.44740   0.65911    0.005
 6825.00    0.48537   0.65843    0.005
 6826.00    0.56850   0.65789    0.005
 6827.00    0.65839   0.65709    0.005
 6828.00    0.75064   0.65631    0.005
 6829.00    0.73984   0.65565    0.005
 6830.00    0.69891   0.65479    0.005
 6831.00    0.63756   0.65406    0.005
 6832.00    0.57128   0.65348    0.006
 6833.00    0.52029   0.65273    0.005
 6834.00    0.47229   0.65216    0.005
 6835.00    0.49419   0.65184    0.005
 6836.00    0.52674   0.65133    0.005
 6837.00    0.59569   0.65093    0.006
 6838.00    0.66873   0.65092    0.006
 6839.00    0.63504   0.65064    0.006
 6840.00    0.59338   0.65025    0.006
 6841.00    0.39868   0.65048    0.006
 6842.00    0.19791   0.65032    0.005
 6843.00    0.19128   0.64971    0.005
 6844.00    0.19090   0.65003    0.005
 6845.00    0.38589   0.64991    0.005
 6846.00    0.56869   0.64896    0.005
 6847.00    0.54546   0.64925    0.005
 6848.00    0.52804   0.64921    0.005
 6849.00    0.57140   0.64799    0.005
 6850.00    0.60603   0.64817    0.005
 6851.00    0.57570   0.64833    0.005
 6852.00    0.54213   0.64708    0.005
 6853.00    0.49021   0.64711    0.005
 6854.00    0.44173   0.64752    0.005
 6855.00    0.40880   0.64651    0.005
 6856.00    0.37549   0.64640    0.005
 6857.00    0.34080   0.64695    0.005
 6858.00    0.34148   0.64635    0.005
 6859.00    0.45173   0.64615    0.005
 6860.00    0.53841   0.64668    0.005
 6861.00    0.56309   0.64649    0.005
 6862.00    0.56513   0.64630    0.005
 6863.00    0.51602   0.64670    0.005
 6864.00    0.51007   0.64679    0.005
 6865.00    0.58859   0.64672    0.005
 6866.00    0.66507   0.64701    0.005
 6867.00    0.73805   0.64719    0.005
 6868.00    0.76088   0.64730    0.005
 6869.00    0.70878   0.64762    0.005
 6870.00    0.60899   0.64779    0.005
 6871.00    0.44653   0.64798    0.005
 6872.00    0.38041   0.64850    0.005
 6873.00    0.42576   0.64867    0.005
 6874.00    0.49014   0.64883    0.005
 6875.00    0.57393   0.64963    0.005
 6876.00    0.64720   0.64992    0.005
 6877.00    0.71099   0.64992    0.005
 6878.00    0.68763   0.65093    0.005
 6879.00    0.59513   0.65147    0.005
 6880.00    0.54702   0.65130    0.005
 6881.00    0.52988   0.65231    0.005
 6882.00    0.47976   0.65311    0.005
 6883.00    0.40945   0.65282    0.005
 6884.00    0.40148   0.65361    0.005
 6885.00    0.42683   0.65453    0.005
 6886.00    0.43396   0.65425    0.005
 6887.00    0.43263   0.65470    0.005
 6888.00    0.33615   0.65555    0.005
 6889.00    0.20163   0.65537    0.005
 6890.00    0.19195   0.65548    0.005
 6891.00    0.22480   0.65613    0.005
 6892.00    0.35664   0.65606    0.005
 6893.00    0.51687   0.65593    0.005
 6894.00    0.54761   0.65632    0.005
 6895.00    0.54769   0.65631    0.005
 6896.00    0.49830   0.65598    0.005
 6897.00    0.43948   0.65614    0.005
 6898.00    0.52677   0.65609    0.005
 6899.00    0.63565   0.65555    0.005
 6900.00    0.65475   0.65556    0.005
 6901.00    0.66417   0.65542    0.005
 6902.00    0.71358   0.65463    0.005
 6903.00    0.76581   0.65457    0.005
 6904.00    0.69355   0.65438    0.005
 6905.00    0.61681   0.65336    0.005
 6906.00    0.49980   0.65331    0.005
 6907.00    0.38750   0.65318    0.005
 6908.00    0.44308   0.65204    0.005
 6909.00    0.49603   0.65202    0.005
 6910.00    0.50728   0.65204    0.005
 6911.00    0.51243   0.65095    0.005
 6912.00    0.45656   0.65096    0.005
 6913.00    0.40543   0.65113    0.005
 6914.00    0.38849   0.65022    0.005
 6915.00    0.38182   0.65023    0.005
 6916.00    0.43177   0.65052    0.005
 6917.00    0.46534   0.64983    0.005
 6918.00    0.42664   0.64981    0.005
 6919.00    0.39149   0.65019    0.005
 6920.00    0.36923   0.64973    0.005
 6921.00    0.37159   0.64965    0.005
 6922.00    0.44874   0.65006    0.005
 6923.00    0.51292   0.64980    0.005
 6924.00    0.54356   0.64962    0.005
 6925.00    0.56433   0.65004    0.005
 6926.00    0.56316   0.64993    0.005
 6927.00    0.52199   0.64959    0.005
 6928.00    0.40374   0.64998    0.005
 6929.00    0.32190   0.64993    0.005
 6930.00    0.30127   0.64940    0.005
 6931.00    0.32488   0.64972    0.005
 6932.00    0.41363   0.64969    0.005
 6933.00    0.45882   0.64896    0.005
 6934.00    0.44761   0.64922    0.005
 6935.00    0.46225   0.64920    0.005
 6936.00    0.50638   0.64831    0.005
 6937.00    0.55055   0.64857    0.005
 6938.00    0.59477   0.64864    0.005
 6939.00    0.54886   0.64767    0.005
 6940.00    0.42298   0.64799    0.005
 6941.00    0.32583   0.64825    0.005
 6942.00    0.25114   0.64734    0.005
 6943.00    0.30426   0.64773    0.005
 6944.00    0.44527   0.64822    0.005
 6945.00    0.44957   0.64750    0.005
 6946.00    0.37147   0.64795    0.005
 6947.00    0.34732   0.64861    0.005
 6948.00    0.35156   0.64815    0.005
 6949.00    0.34105   0.64862    0.005
 6950.00    0.32381   0.64930    0.005
 6951.00    0.31466   0.64906    0.005
 6952.00    0.30867   0.64950    0.005
 6953.00    0.31471   0.65002    0.005
 6954.00    0.32476   0.64984    0.005
 6955.00    0.37621   0.65020    0.005
 6956.00    0.43930   0.65038    0.005
 6957.00    0.46972   0.65004    0.005
 6958.00    0.49258   0.65025    0.005
 6959.00    0.46630   0.65001    0.005
 6960.00    0.43088   0.64933    0.005
 6961.00    0.43557   0.64935    0.005
 6962.00    0.44598   0.64877    0.005
 6963.00    0.52955   0.64767    0.005
 6964.00    0.62070   0.64755    0.005
 6965.00    0.56998   0.64686    0.005
 6966.00    0.50981   0.64549    0.005
 6967.00    0.50029   0.64531    0.005
 6968.00    0.49239   0.64487    0.005
 6969.00    0.43812   0.64355    0.005
 6970.00    0.38522   0.64342    0.005
 6971.00    0.37405   0.64353    0.005
 6972.00    0.36708   0.64260    0.005
 6973.00    0.42254   0.64259    0.005
 6974.00    0.48049   0.64327    0.005
 6975.00    0.56243   0.64294    0.005
 6976.00    0.64497   0.64303    0.006
 6977.00    0.73168   0.64403    0.006
 6978.00    0.77803   0.64420    0.006
 6979.00    0.60774   0.64430    0.005
 6980.00    0.46607   0.64523    0.005
 6981.00    0.44768   0.64560    0.005
 6982.00    0.41780   0.64560    0.005
 6983.00    0.34715   0.64617    0.005
 6984.00    0.31477   0.64641    0.005
 6985.00    0.39653   0.64620    0.005
 6986.00    0.48278   0.64633    0.005
 6987.00    0.58048   0.64628    0.005
 6988.00    0.64406   0.64581    0.005
 6989.00    0.63307   0.64559    0.005
 6990.00    0.59605   0.64530    0.005
 6991.00    0.50966   0.64462    0.005
 6992.00    0.46278   0.64418    0.005
 6993.00    0.48132   0.64380    0.005
 6994.00    0.46322   0.64300    0.006
 6995.00    0.39193   0.64248    0.006
 6996.00    0.39306   0.64217    0.005
 6997.00    0.48663   0.64141    0.005
 6998.00    0.51767   0.64083    0.005
 6999.00    0.47838   0.64067    0.005
 7000.00    0.47086   0.64005    0.005
 7001.00    0.49484   0.63942    0.005
 7002.00    0.49329   0.63938    0.005
 7003.00    0.46942   0.63897    0.005
 7004.00    0.45119   0.63827    0.005
 7005.00    0.43732   0.63829    0.005
 7006.00    0.49111   0.63816    0.005
 7007.00    0.59076   0.63742    0.005
 7008.00    0.63423   0.63745    0.005
 7009.00    0.64435   0.63765    0.005
 7010.00    0.59987   0.63698    0.005
 7011.00    0.52712   0.63698    0.006
 7012.00    0.47334   0.63751    0.006
 7013.00    0.42807   0.63706    0.006
 7014.00    0.43063   0.63706    0.006
 7015.00    0.45165   0.63784    0.006
 7016.00    0.46163   0.63767    0.006
 7017.00    0.46799   0.63773    0.006
 7018.00    0.48324   0.63868    0.006
 7019.00    0.50095   0.63877    0.006
 7020.00    0.48206   0.63894    0.006
 7021.00    0.45490   0.64002    0.006
 7022.00    0.54467   0.64030    0.006
 7023.00    0.65556   0.64052    0.006
 7024.00    0.57508   0.64177    0.005
 7025.00    0.46809   0.64226    0.005
 7026.00    0.54110   0.64241    0.005
 7027.00    0.63199   0.64378    0.005
 7028.00    0.59786   0.64452    0.005
 7029.00    0.55589   0.64450    0.005
 7030.00    0.57567   0.64582    0.006
 7031.00    0.59672   0.64682    0.006
 7032.00    0.48928   0.64660    0.006
 7033.00    0.38840   0.64759    0.006
 7034.00    0.46777   0.64865    0.006
 7035.00    0.53190   0.64817    0.006
 7036.00    0.38217   0.64853    0.006
 7037.00    0.24057   0.64927    0.006
 7038.00    0.17386   0.64849    0.006
 7039.00    0.13421   0.64809    0.006
 7040.00    0.27689   0.64812    0.006
 7041.00    0.41637   0.64695    0.006
 7042.00    0.53914   0.64590    0.006
 7043.00    0.64855   0.64514    0.006
 7044.00    0.70173   0.64350    0.006
 7045.00    0.71050   0.64207    0.005
 7046.00    0.56476   0.64075    0.005
 7047.00    0.47313   0.63880    0.005
 7048.00    0.53987   0.63730    0.005
 7049.00    0.58547   0.63585    0.006
 7050.00    0.57834   0.63379   -2.000
 7051.00    0.55610   0.63244   -2.000
 7052.00    0.50137   0.63132   -2.000
 7053.00    0.44624   0.62951   -2.000
 7054.00    0.39036   0.62839   -2.000
 7055.00    0.38201   0.62783   -2.000
 7056.00    0.45116   0.62650   -2.000
 7057.00    0.54025   0.62559   -2.000
 7058.00    0.65784   0.62558   -2.000
 7059.00    0.68884   0.62482   -2.000
 7060.00    0.61088   0.62407   -2.000
 7061.00    0.57522   0.62444   -2.000
 7062.00    0.58648   0.62415   -2.000
 7063.00    0.59880   0.62343   -2.000
 7064.00    0.61214   0.62389   -2.000
 7065.00    0.66025   0.62375   -2.000
 7066.00    0.73835   0.62290   -2.000
 7067.00    0.70355   0.62314   -2.000
 7068.00    0.58296   0.62283   -2.000
 7069.00    0.54295   0.62169   -2.000
 7070.00    0.55674   0.62147   -2.000
 7071.00    0.59085   0.62072   -2.000
 7072.00    0.63684   0.61916   -2.000
 7073.00    0.59795   0.61841   -2.000
 7074.00    0.51578   0.61723   -2.000
 7075.00    0.66003   0.61526   -2.000
 7076.00    0.90425   0.61409   -2.000
 7077.00    0.78492   0.61277   -2.000
 7078.00    0.52772   0.61060   -2.000
 7079.00    0.50861   0.60924   -2.000
 7080.00    0.56617   0.60813   -2.000
 7081.00    0.48604   0.60612   -2.000
 7082.00    0.36882   0.60487   -2.000
 7083.00    0.44441   0.60432   -2.000
 7084.00    0.56255   0.60277   -2.000
 7085.00    0.52762   0.60182   -2.000
 7086.00    0.46577   0.60190   -2.000
 7087.00    0.49544   0.60100   -2.000
 7088.00    0.53737   0.60039   -2.000
 7089.00    0.59421   0.60093   -2.000
 7090.00    0.65248   0.60066   -2.000
 7091.00    0.45933   0.60035   -2.000
 7092.00    0.25144   0.60100   -2.000
 7093.00    0.40882   0.60118   -2.000
 7094.00    0.57328   0.60106   -2.000
 7095.00    0.47400   0.60151   -2.000
 7096.00    0.37437   0.60186   -2.000
 7097.00    0.26608   0.60182   -2.000
 7098.00    0.17571   0.60194   -2.000
 7099.00    0.32324   0.60226   -2.000
 7100.00    0.45845   0.60221   -2.000
 7101.00    0.48436   0.60206   -2.000
 7102.00    0.50803   0.60223   -2.000
 7103.00    0.51694   0.60212   -2.000
 7104.00    0.53460   0.60185   -2.000
 7105.00    0.59677   0.60184   -2.000
 7106.00    0.62072   0.60164   -2.000
 7107.00    0.48740   0.60135   -2.000
 7108.00    0.40233   0.60122   -2.000
 7109.00    0.48173   0.60090   -2.000
 7110.00    0.54147   0.60058   -2.000
 7111.00    0.54471   0.60036   -2.000
 7112.00    0.50945   0.59996   -2.000
 7113.00    0.37977   0.59957   -2.000
 7114.00    0.30745   0.59926   -2.000
 7115.00    0.35654   0.59888   -2.000
 7116.00    0.40818   0.59843   -2.000
 7117.00    0.46453   0.59802   -2.000
 7118.00    0.49667   0.59779   -2.000
 7119.00    0.48992   0.59741   -2.000
 7120.00    0.55495   0.59692   -2.000
 7121.00    0.72116   0.59688   -2.000
 7122.00    0.80172   0.59677   -2.000
 7123.00    0.77604   0.59632   -2.000
 7124.00    0.81058   0.59641   -2.000
 7125.00    0.91096   0.59668   -2.000
 7126.00    0.95079   0.59634   -2.000
 7127.00    0.93222   0.59645   -2.000
 7128.00    0.78883   0.59710   -2.000
 7129.00    0.53928   0.59683   -2.000
 7130.00    0.45257   0.59676   -2.000
 7131.00    0.48780   0.59770   -2.000
 7132.00    0.56605   0.59755   -2.000
 7133.00    0.67260   0.59718   -2.000
 7134.00    0.58720   0.59822   -2.000
 7135.00    0.39122   0.59820   -2.000
 7136.00    0.35178   0.59752   -2.000
 7137.00    0.39089   0.59858   -2.000
 7138.00    0.44175   0.59883   -2.000
 7139.00    0.49770   0.59786   -2.000
 7140.00    0.53064   0.59885   -2.000
 7141.00    0.55500   0.59950   -2.000
 7142.00    0.53221   0.59836   -2.000
 7143.00    0.49453   0.59916   -2.000
 7144.00    0.42319   0.60028   -2.000
 7145.00    0.34297   0.59914   -2.000
 7146.00    0.39413   0.59952   -2.000
 7147.00    0.47360   0.60089   -2.000
 7148.00    0.55148   0.60002   -2.000
 7149.00    0.62909   0.59995   -2.000
 7150.00    0.51496   0.60124   -2.000
 7151.00    0.37601   0.60069   -2.000
 7152.00    0.41373   0.60022   -2.000
 7153.00    0.46749   0.60122   -2.000
 7154.00    0.43819   0.60114   -2.000
 7155.00    0.40435   0.60048   -2.000
 7156.00    0.52732   0.60108   -2.000
 7157.00    0.65190   0.60130   -2.000
 7158.00    0.62316   0.60072   -2.000
 7159.00    0.60833   0.60107   -2.000
 7160.00    0.90915   0.60141   -2.000
 7161.00    1.16316   0.60101   -2.000
 7162.00    0.82770   0.60121   -2.000
 7163.00    0.51016   0.60149   -2.000
 7164.00    0.34549   0.60117   -2.000
 7165.00    0.18898   0.60119   -2.000
 7166.00    0.08415   0.60134   -2.000
 7167.00    0.06047   0.60097   -2.000
 7168.00    0.43965   0.60062   -2.000
 7169.00    0.75010   0.60057   -2.000
 7170.00    0.78395   0.60014   -2.000
 7171.00    0.74653   0.59943   -2.000
 7172.00    0.47101   0.59914   -2.000
 7173.00    0.27331   0.59864   -2.000
 7174.00    0.29511   0.59765   -2.000
 7175.00    0.35102   0.59723   -2.000
 7176.00    0.48921   0.59691   -2.000
 7177.00    0.57511   0.59588   -2.000
 7178.00    0.55213   0.59522   -2.000
 7179.00    0.55842   0.59523   -2.000
 7180.00    0.61768   0.59456   -2.000
 7181.00    0.63944   0.59370   -2.000
 7182.00    0.60182   0.59403   -2.000
 7183.00    0.54756   0.59393   -2.000
 7184.00    0.47020   0.59294   -2.000
 7185.00    0.44558   0.59336   -2.000
 7186.00    0.48545   0.59387   -2.000
 7187.00    0.53407   0.59298   -2.000
 7188.00    0.59211   0.59325   -2.000
 7189.00    0.54556   0.59415   -2.000
 7190.00    0.39955   0.59341   -2.000
 7191.00    0.38140   0.59320   -2.000
 7192.00    0.47043   0.59425   -2.000
 7193.00    0.43983   0.59395   -2.000
 7194.00    0.32092   0.59340   -2.000
 7195.00    0.45509   0.59442   -2.000
 7196.00    0.75333   0.59446   -2.000
 7197.00    0.80910   0.59357   -2.000
 7198.00    0.72732   0.59435   -2.000
 7199.00    0.94802   0.59485   -2.000
 7200.00    1.31810   0.59401   -2.000
 7201.00    1.08734   0.59445   -2.000
 7202.00    0.60000   0.59538   -2.000
 7203.00    0.46258   0.59494   -2.000
 7204.00    0.45319   0.59503   -2.000
 7205.00    0.43937   0.59616   -2.000
 7206.00    0.42418   0.59624   -2.000
 7207.00    0.39064   0.59613   -2.000
 7208.00    0.35236   0.59743   -2.000
 7209.00    0.35013   0.59805   -2.000
 7210.00    0.35548   0.59776   -2.000
 7211.00    0.52663   0.59898   -2.000
 7212.00    0.72531   0.60007   -2.000
 7213.00    0.64595   0.59991   -2.000
 7214.00    0.53184   0.60094   -2.000
 7215.00    0.43572   0.60230   -2.000
 7216.00    0.34115   0.60234   -2.000
 7217.00    0.38696   0.60299   -2.000
 7218.00    0.43990   0.60446   -2.000
