###################################################################
## OUTPUT of StarlightChains_v04.for    [Cid@UFSC - 01/Apr/2007] ##
###################################################################

## Some input info
KUG0210-078._38_25.txt                   [arq_obs]
Base.CB07.vall.4m                        [arq_base]
Masks.EmLines.NEW.gm                     [arq_masks]
StCv04.C11.config                        [arq_config]
   66                                    [N_base]
    0                                    [N_YAV_components = # of components with extra extinction!]
    0                                    [i_FitPowerLaw (1/0 = Yes/No)]
-9.99                                    [alpha_PowerLaw]
CCM                                      [red_law_option]
 1.458241                                [q_norm = A(l_norm)/A(V)]

## (Re)Sampling Parameters
 3741.00                                 [l_ini (A)]
 7218.00                                 [l_fin (A)]
    1.00                                 [dl    (A)]     (OBS: dl_cushion =    50.00 A)

## Normalization info
 4020.00                                 [l_norm (A) - for base]
 4010.00                                 [llow_norm (A) - window for f_obs]
 4060.00                                 [lupp_norm (A) - window for f_obs]
3.943114E-18                             [fobs_norm (in input units)]

## S/N
 3691.00                                 [llow_SN (A) - window for S/N]
 7268.00                                 [lupp_SN (A) - window for S/N]
   3.697                                 [S/N in S/N window]
   1.803                                 [S/N in norm. window]
   0.010                                 [S/N_err in S/N window]
   0.005                                 [S/N_err in norm. window]
  1.0000                                 [fscale_chi2]

## etc...
    -2007650                             [idum_orig]
  2351                                   [NOl_eff]
  2212                                   [Nl_eff]
   139    NSIGMA                         [Ntot_cliped & clip_method]
  5183220                                [Nglobal_steps]
   7                                     [N_chains]
   7                                     [NEX0s_base = N_base in EX0s-fits]
 0   0   1      139   2.0   2.061E+03    [Clip-Bug, RC-Crash & Burn-In warning-flags, n_censored_weights, wei_nsig_threshold & wei_limit]
    43     42.960     42.266      0.694  [idt_all, wdt_TotTime, wdt_UsrTime & wdt_SysTime (sec)]

## Synthesis Results - Best model ##

 1.68290E-05                             [chi2/Nl_eff]
    29.37811                             [adev (%)]

   129.99998                             [sum-of-x (%)]
 9.29082E-16                             [Flux_tot (units of input spectrum!)]
 3.62381E-14                             [Mini_tot (???)]
 3.61118E-14                             [Mcor_tot (???)]

 -66.54                                  [v0_min  (km/s)]
   0.00                                  [vd_min  (km/s)]
 3.8716                                  [AV_min  (mag)]
 0.0000                                  [YAV_min (mag)]

# j     x_j(%)      Mini_j(%)     Mcor_j(%)     age_j(yr)     Z_j      (L/M)_j    YAV?  Mstars   component_j        a/Fe...       SSP_chi2r SSP_adev(%)   SSP_AV   SSP_x(%)
  1      0.0000     0.0000E+00    0.0000E+00    1.000000E+06  0.00400  1.094E-02    0   1.0000   age020_m42            0.0000     1.2201E-05    29.6785   3.1131   185.4917
  2      0.0000     0.0000E+00    0.0000E+00    3.160000E+06  0.00400  4.007E-02    0   0.9999   age045_m42            0.0000     1.2403E-05    30.2606   2.4606   191.8018
  3      0.0000     0.0000E+00    0.0000E+00    5.010000E+06  0.00400  2.539E-02    0   0.9488   age055_m42            0.0000     1.2200E-05    29.9709   2.7457   190.0618
  4      0.0000     0.0000E+00    0.0000E+00    6.610000E+06  0.00400  2.620E-02    0   0.9220   age061_m42            0.0000     1.2392E-05    30.3725   2.3925   191.7865
  5      0.0000     0.0000E+00    0.0000E+00    1.000000E+07  0.00400  1.322E-02    0   0.8862   age070_m42            0.0000     1.2746E-05    31.4240   2.1226   195.2018
  6      0.0000     0.0000E+00    0.0000E+00    1.445000E+07  0.00400  7.883E-03    0   0.8571   age078_m42            0.0000     1.2579E-05    30.9934   2.4250   192.3009
  7      0.0000     0.0000E+00    0.0000E+00    2.512000E+07  0.00400  5.251E-03    0   0.8174   age090_m42            0.0000     1.2822E-05    31.6806   2.0015   195.6110
  8      0.0000     0.0000E+00    0.0000E+00    4.000000E+07  0.00400  3.649E-03    0   0.7851   age104_m42            0.0000     1.2818E-05    31.6519   1.7850   196.2074
  9      0.0000     0.0000E+00    0.0000E+00    5.500000E+07  0.00400  3.098E-03    0   0.7629   age110_m42            0.0000     1.2705E-05    31.2650   1.9431   195.6051
 10      0.0000     0.0000E+00    0.0000E+00    1.015200E+08  0.00400  2.228E-03    0   0.7207   age116_m42            0.0000     1.2663E-05    31.1118   1.9719   195.1807
 11      0.0000     0.0000E+00    0.0000E+00    2.861200E+08  0.00400  1.093E-03    0   0.6648   age125_m42            0.0000     1.2998E-05    31.9555   1.4259   198.4505
 12      0.0000     0.0000E+00    0.0000E+00    5.088000E+08  0.00400  6.597E-04    0   0.6365   age130_m42            0.0000     1.2794E-05    31.4814   1.4242   199.3322
 13      0.0000     0.0000E+00    0.0000E+00    1.434000E+09  0.00400  2.132E-04    0   0.5798   age139_m42            0.0000     1.2456E-05    31.0043   0.4850   200.8291
 14      0.0000     0.0000E+00    0.0000E+00    4.250000E+09  0.00400  5.895E-05    0   0.5377   age158_m42            0.0000     1.1805E-05    29.7571   0.0200   195.1208
 15      0.0000     0.0000E+00    0.0000E+00    7.500000E+09  0.00400  3.510E-05    0   0.5212   age171_m42            0.0000     1.1677E-05    29.3724  -0.1696   193.7584
 16      0.0000     0.0000E+00    0.0000E+00    1.300000E+10  0.00400  2.005E-05    0   0.5034   age193_m42            0.0000     1.1644E-05    29.1579  -0.3346   192.5126
 17      0.0000     0.0000E+00    0.0000E+00    1.800000E+10  0.00400  1.525E-05    0   0.4967   age213_m42            0.0000     1.1615E-05    29.1671  -0.3611   192.0066
 18      0.0000     0.0000E+00    0.0000E+00    1.000000E+06  0.00800  1.238E-02    0   1.0000   age020_m52            0.0000     1.2192E-05    29.6492   3.1065   186.0627
 19      0.0000     0.0000E+00    0.0000E+00    3.160000E+06  0.00800  3.074E-02    0   0.9966   age045_m52            0.0000     1.2120E-05    29.5857   3.0339   187.4574
 20      0.0000     0.0000E+00    0.0000E+00    5.010000E+06  0.00800  2.668E-02    0   0.9443   age055_m52            0.0000     1.2158E-05    29.8147   2.8174   189.3129
 21      0.0000     0.0000E+00    0.0000E+00    6.610000E+06  0.00800  2.136E-02    0   0.9177   age061_m52            0.0000     1.2576E-05    31.0836   1.6247   197.4469
 22      0.0000     0.0000E+00    0.0000E+00    1.000000E+07  0.00800  1.215E-02    0   0.8827   age070_m52            0.0000     1.2804E-05    31.5377   2.2861   195.9857
 23      0.0000     0.0000E+00    0.0000E+00    1.445000E+07  0.00800  8.717E-03    0   0.8552   age078_m52            0.0000     1.2630E-05    31.0613   2.3976   194.3201
 24      0.0000     0.0000E+00    0.0000E+00    2.512000E+07  0.00800  5.592E-03    0   0.8162   age090_m52            0.0000     1.2876E-05    31.7369   2.0673   197.6008
 25      0.0000     0.0000E+00    0.0000E+00    4.000000E+07  0.00800  3.896E-03    0   0.7841   age104_m52            0.0000     1.2825E-05    31.6459   1.9911   197.9526
 26      0.1291     1.1851E+00    8.5934E-01    1.015200E+08  0.00800  2.148E-03    0   0.7226   age116_m52            0.0000     1.2692E-05    31.2937   1.9408   196.5528
 27      0.0000     0.0000E+00    0.0000E+00    2.861200E+08  0.00800  9.925E-04    0   0.6683   age125_m52            0.0000     1.2862E-05    31.4974   1.4945   200.7145
 28      0.0000     0.0000E+00    0.0000E+00    9.047900E+08  0.00800  3.141E-04    0   0.6138   age135_m52            0.0000     1.2453E-05    30.7540   0.7252   206.1442
 29      0.0000     0.0000E+00    0.0000E+00    1.434000E+09  0.00800  1.719E-04    0   0.5853   age139_m52            0.0000     1.2123E-05    30.3716   0.1312   203.0789
 30      0.0000     0.0000E+00    0.0000E+00    2.500000E+09  0.00800  7.872E-05    0   0.5600   age150_m52            0.0000     1.1604E-05    29.2707  -0.1474   198.7683
 31      0.0000     0.0000E+00    0.0000E+00    4.250000E+09  0.00800  4.336E-05    0   0.5426   age158_m52            0.0000     1.1554E-05    29.1704  -0.1671   197.2550
 32      0.0000     0.0000E+00    0.0000E+00    6.250000E+09  0.00800  3.159E-05    0   0.5319   age166_m52            0.0000     1.1449E-05    28.8081  -0.3614   196.5285
 33      0.0000     0.0000E+00    0.0000E+00    1.300000E+10  0.00800  1.361E-05    0   0.5073   age193_m52            0.0000     1.1300E-05    28.2741  -0.8240   194.6458
 34      0.0000     0.0000E+00    0.0000E+00    1.800000E+10  0.00800  9.886E-06    0   0.4990   age213_m52            0.0000     1.1198E-05    27.8956  -0.9350   193.7529
 35      0.0000     0.0000E+00    0.0000E+00    1.000000E+06  0.02000  1.544E-02    0   1.0000   age020_m62            0.0000     1.2198E-05    29.6149   3.0989   186.7758
 36      0.0000     0.0000E+00    0.0000E+00    3.160000E+06  0.02000  3.762E-02    0   0.9858   age045_m62            0.0000     1.2103E-05    29.4794   3.0385   188.4524
 37      0.0000     0.0000E+00    0.0000E+00    5.010000E+06  0.02000  3.296E-02    0   0.9342   age055_m62            0.0000     1.2246E-05    29.9321   2.7214   191.1447
 38      0.0000     0.0000E+00    0.0000E+00    8.710000E+06  0.02000  1.154E-02    0   0.8861   age067_m62            0.0000     1.3781E-05    33.7891   1.7229   203.1011
 39      0.0000     0.0000E+00    0.0000E+00    1.445000E+07  0.02000  7.663E-03    0   0.8472   age078_m62            0.0000     1.3114E-05    32.2473   1.9380   199.8293
 40      0.0000     0.0000E+00    0.0000E+00    2.512000E+07  0.02000  4.532E-03    0   0.8099   age090_m62            0.0000     1.3172E-05    32.4738   1.9326   198.9160
 41      0.0000     0.0000E+00    0.0000E+00    5.500000E+07  0.02000  2.733E-03    0   0.7595   age110_m62            0.0000     1.2750E-05    31.5616   1.9682   197.0801
 42      0.0000     0.0000E+00    0.0000E+00    1.609000E+08  0.02000  1.369E-03    0   0.6985   age120_m62            0.0000     1.2811E-05    31.4869   1.8403   199.3199
 43      0.0000     0.0000E+00    0.0000E+00    2.861200E+08  0.02000  9.013E-04    0   0.6714   age125_m62            0.0000     1.2868E-05    31.4781   1.6151   202.7245
 44      0.0000     0.0000E+00    0.0000E+00    5.088000E+08  0.02000  5.028E-04    0   0.6449   age130_m62            0.0000     1.2621E-05    30.7491   1.2528   206.4021
 45      0.0000     0.0000E+00    0.0000E+00    9.047900E+08  0.02000  2.428E-04    0   0.6179   age135_m62            0.0000     1.1999E-05    29.9224   0.6628   205.4313
 46      0.0000     0.0000E+00    0.0000E+00    1.434000E+09  0.02000  1.263E-04    0   0.5908   age139_m62            0.0000     1.1635E-05    29.3919   0.2091   203.2723
 47      0.0000     0.0000E+00    0.0000E+00    2.500000E+09  0.02000  5.985E-05    0   0.5673   age150_m62            0.0000     1.1368E-05    28.7547  -0.1641   200.9979
 48      0.0000     0.0000E+00    0.0000E+00    4.250000E+09  0.02000  3.271E-05    0   0.5468   age158_m62            0.0000     1.1196E-05    28.1588  -0.4667   198.9776
 49      0.0000     0.0000E+00    0.0000E+00    1.000000E+10  0.02000  1.360E-05    0   0.5167   age181_m62            0.0000     1.0964E-05    27.5305  -0.8177   198.0971
 50      0.0000     0.0000E+00    0.0000E+00    1.800000E+10  0.02000  7.124E-06    0   0.5013   age213_m62            0.0000     1.0828E-05    27.1998  -1.0000   195.1283
 51    129.8709     9.8815E+01    9.9141E+01    1.000000E+06  0.05000  2.592E-02    0   0.9998   age020_m72            0.0000     1.2156E-05    29.6244   3.0817   187.6516
 52      0.0000     0.0000E+00    0.0000E+00    3.160000E+06  0.05000  4.845E-02    0   0.9577   age045_m72            0.0000     1.2072E-05    29.4684   2.9416   189.1718
 53      0.0000     0.0000E+00    0.0000E+00    5.010000E+06  0.05000  3.072E-02    0   0.9147   age055_m72            0.0000     1.2668E-05    31.1221   2.4812   195.2915
 54      0.0000     0.0000E+00    0.0000E+00    6.610000E+06  0.05000  1.455E-02    0   0.8877   age061_m72            0.0000     1.4854E-05    35.5028   1.7302   205.8656
 55      0.0000     0.0000E+00    0.0000E+00    1.000000E+07  0.05000  9.074E-03    0   0.8524   age070_m72            0.0000     1.2932E-05    31.5058   2.6415   195.1007
 56      0.0000     0.0000E+00    0.0000E+00    2.512000E+07  0.05000  4.250E-03    0   0.7902   age090_m72            0.0000     1.2923E-05    31.7151   2.3889   195.5859
 57      0.0000     0.0000E+00    0.0000E+00    4.000000E+07  0.05000  3.087E-03    0   0.7618   age104_m72            0.0000     1.3130E-05    32.2031   2.1797   197.2832
 58      0.0000     0.0000E+00    0.0000E+00    1.015200E+08  0.05000  1.700E-03    0   0.7096   age116_m72            0.0000     1.2999E-05    31.8284   1.9733   199.0572
 59      0.0000     0.0000E+00    0.0000E+00    2.861200E+08  0.05000  7.384E-04    0   0.6633   age125_m72            0.0000     1.2676E-05    31.0353   1.4891   204.8278
 60      0.0000     0.0000E+00    0.0000E+00    5.088000E+08  0.05000  3.819E-04    0   0.6372   age130_m72            0.0000     1.2100E-05    30.0290   1.0016   207.7898
 61      0.0000     0.0000E+00    0.0000E+00    9.047900E+08  0.05000  1.676E-04    0   0.6110   age135_m72            0.0000     1.1412E-05    28.7741   0.2962   204.8390
 62      0.0000     0.0000E+00    0.0000E+00    1.434000E+09  0.05000  8.837E-05    0   0.5874   age139_m72            0.0000     1.1341E-05    28.6558  -0.1641   203.6744
 63      0.0000     0.0000E+00    0.0000E+00    2.500000E+09  0.05000  4.233E-05    0   0.5598   age150_m72            0.0000     1.1117E-05    28.0608  -0.4738   201.1010
 64      0.0000     0.0000E+00    0.0000E+00    6.250000E+09  0.05000  1.435E-05    0   0.5249   age166_m72            0.0000     1.0911E-05    27.4238  -0.9254   198.0384
 65      0.0000     0.0000E+00    0.0000E+00    1.300000E+10  0.05000  6.513E-06    0   0.5036   age193_m72            0.0000     1.1103E-05    28.0893  -1.0000   188.7861
 66      0.0000     0.0000E+00    0.0000E+00    1.800000E+10  0.05000  4.527E-06    0   0.4945   age213_m72            0.0000     1.1540E-05    29.1563  -1.0000   179.5707


## Synthesis Results - Average & Chains ##

# j      x_j: min, <> & last-chain-values for 1 ...  7 chains
  1      0.0000      0.0060      0.0000      0.0272      0.0075      0.0106      0.0017      0.0037      0.0048
  2      0.0000      0.0063      0.0085      0.0087      0.0248      0.0340      0.0222      0.0103      0.0000
  3      0.0000      0.0057      0.0131      0.0000      0.0313      0.0109      0.0211      0.0000      0.0100
  4      0.0000      0.0045      0.0100      0.0042      0.0272      0.0000      0.0000      0.0131      0.0135
  5      0.0000      0.0052      0.0106      0.0374      0.0000      0.0140      0.0010      0.0000      0.0038
  6      0.0000      0.0062      0.0126      0.0078      0.0187      0.0231      0.0056      0.0043      0.0101
  7      0.0000      0.0057      0.0051      0.0144      0.0005      0.0049      0.0225      0.0000      0.0201
  8      0.0000      0.0055      0.0188      0.0000      0.0066      0.0003      0.0019      0.0000      0.0052
  9      0.0000      0.0052      0.0000      0.0131      0.0142      0.0437      0.0221      0.0000      0.0174
 10      0.0000      0.0061      0.0000      0.0119      0.0082      0.0098      0.0257      0.0001      0.0000
 11      0.0000      0.0078      0.0581      0.0136      0.0277      0.0000      0.0172      0.0089      0.0311
 12      0.0000      0.0066      0.0000      0.0020      0.0466      0.0483      0.0061      0.0074      0.0246
 13      0.0000      0.0043      0.0138      0.0067      0.0390      0.0361      0.0003      0.0182      0.0000
 14      0.0000      0.0041      0.0050      0.0000      0.0332      0.0017      0.0000      0.0069      0.0000
 15      0.0000      0.0050      0.0119      0.0162      0.0098      0.0221      0.0032      0.0024      0.0000
 16      0.0000      0.0051      0.0206      0.0015      0.0164      0.0246      0.0353      0.0091      0.0121
 17      0.0000      0.0049      0.0058      0.0282      0.0000      0.0455      0.0307      0.0095      0.0034
 18      0.0000      0.0086      0.0279      0.0108      0.0433      0.0138      0.0021      0.0372      0.0244
 19      0.0000      0.0046      0.0271      0.0091      0.0000      0.0067      0.0135      0.0000      0.0290
 20      0.0000      0.0056      0.0262      0.0079      0.0276      0.0219      0.0119      0.0101      0.0104
 21      0.0000      0.0079      0.0084      0.0546      0.0204      0.0056      0.0025      0.0000      0.0012
 22      0.0000      0.0039      0.0108      0.0000      0.0000      0.0000      0.0116      0.0255      0.0255
 23      0.0000      0.0036      0.0000      0.0022      0.0000      0.0221      0.0205      0.0144      0.0000
 24      0.0000      0.0068      0.0095      0.0370      0.0220      0.0104      0.0300      0.0000      0.0386
 25      0.0000      0.0044      0.0139      0.0145      0.0127      0.0028      0.0118      0.0116      0.0000
 26      0.1291      0.0054      0.0236      0.0430      0.0000      0.0000      0.0100      0.0000      0.0000
 27      0.0000      0.0062      0.0000      0.0000      0.0197      0.0000      0.0000      0.0183      0.0073
 28      0.0000      0.0043      0.0491      0.0130      0.0124      0.0000      0.0066      0.0340      0.0000
 29      0.0000      0.0046      0.0035      0.0309      0.0000      0.0110      0.0047      0.0150      0.0111
 30      0.0000      0.0051      0.0063      0.0051      0.0127      0.0000      0.0000      0.0104      0.0000
 31      0.0000      0.0059      0.0394      0.0949      0.0201      0.0004      0.0490      0.0046      0.0043
 32      0.0000      0.0049      0.0000      0.0152      0.0000      0.0240      0.0117      0.0000      0.0424
 33      0.0000      0.0044      0.0076      0.0127      0.0000      0.0166      0.0076      0.0157      0.0128
 34      0.0000      0.0061      0.0131      0.0061      0.0217      0.0524      0.0000      0.0074      0.0169
 35      0.0000      0.0043      0.0000      0.0019      0.0162      0.0065      0.0040      0.0086      0.0000
 36      0.0000      0.0072      0.0000      0.0000      0.0651      0.0000      0.0306      0.0074      0.0188
 37      0.0000      0.0056      0.0000      0.0133      0.0080      0.0000      0.0000      0.0102      0.0307
 38      0.0000      0.0057      0.0042      0.0136      0.0097      0.0013      0.0037      0.0379      0.0065
 39      0.0000      0.0051      0.0054      0.0072      0.0103      0.0072      0.0082      0.0370      0.0000
 40      0.0000      0.0069      0.0184      0.0000      0.0339      0.0000      0.0028      0.0000      0.0000
 41      0.0000      0.0081      0.0000      0.0212      0.0058      0.0015      0.0178      0.0054      0.0524
 42      0.0000      0.0052      0.0102      0.0254      0.0321      0.0216      0.0299      0.0000      0.0085
 43      0.0000      0.0057      0.0148      0.0109      0.0099      0.0098      0.0424      0.0036      0.0023
 44      0.0000      0.0070      0.0286      0.0274      0.0520      0.0091      0.0010      0.0283      0.0247
 45      0.0000      0.0081      0.0071      0.0264      0.0205      0.0111      0.0196      0.0058      0.0151
 46      0.0000      0.0063      0.0000      0.0086      0.0365      0.0046      0.0085      0.0079      0.0262
 47      0.0000      0.0068      0.0034      0.0161      0.0152      0.0273      0.0650      0.0221      0.0226
 48      0.0000      0.0067      0.0286      0.0243      0.0325      0.0272      0.0033      0.0043      0.0234
 49      0.0000      0.0041      0.0515      0.0000      0.0047      0.0201      0.0032      0.0149      0.0148
 50      0.0000      0.0075      0.0000      0.0485      0.0000      0.0000      0.0081      0.0148      0.0150
 51    129.8709    129.6216    129.1002    129.0559    128.9694    129.1979    129.1157    129.2804    129.1447
 52      0.0000      0.0051      0.0483      0.0192      0.0018      0.0000      0.0011      0.0236      0.0215
 53      0.0000      0.0039      0.0070      0.0000      0.0042      0.0029      0.0092      0.0000      0.0068
 54      0.0000      0.0050      0.0244      0.0149      0.0000      0.0000      0.0000      0.0032      0.0000
 55      0.0000      0.0061      0.0344      0.0091      0.0000      0.0070      0.0000      0.0051      0.0056
 56      0.0000      0.0062      0.0195      0.0054      0.0089      0.0271      0.0127      0.0111      0.0075
 57      0.0000      0.0065      0.0193      0.0096      0.0002      0.0037      0.0365      0.0315      0.0156
 58      0.0000      0.0047      0.0095      0.0152      0.0438      0.0000      0.0093      0.0163      0.0192
 59      0.0000      0.0066      0.0000      0.0000      0.0168      0.0000      0.0485      0.0105      0.0000
 60      0.0000      0.0055      0.0000      0.0000      0.0146      0.0156      0.0370      0.0061      0.0000
 61      0.0000      0.0072      0.0325      0.0112      0.0000      0.0083      0.0146      0.0108      0.0121
 62      0.0000      0.0077      0.0518      0.0275      0.0051      0.0000      0.0002      0.0188      0.0049
 63      0.0000      0.0058      0.0099      0.0035      0.0276      0.0020      0.0251      0.0257      0.0231
 64      0.0000      0.0052      0.0097      0.0216      0.0080      0.0065      0.0079      0.0184      0.0267
 65      0.0000      0.0078      0.0000      0.0056      0.0155      0.0233      0.0212      0.0132      0.0548
 66      0.0000      0.0053      0.0000      0.0000      0.0031      0.0300      0.0000      0.0189      0.0109

# j      m_j: min, <> & last-chain-values for 1 ...  7 chains
  1  0.0000E+00  6.4189E-03  0.0000E+00  1.7388E-02  6.2563E-03  5.2962E-03  1.2665E-03  2.5356E-03  2.6255E-03
  2  0.0000E+00  1.8354E-03  1.9205E-03  1.5205E-03  5.6309E-03  4.6426E-03  4.5951E-03  1.9445E-03  0.0000E+00
  3  0.0000E+00  2.4791E-03  4.4220E-03  0.0000E+00  1.0635E-02  2.2378E-03  6.5552E-03  0.0000E+00  2.2290E-03
  4  0.0000E+00  1.8331E-03  3.1702E-03  1.0260E-03  8.7168E-03  0.0000E+00  0.0000E+00  3.4879E-03  2.8292E-03
  5  0.0000E+00  4.0664E-03  6.4269E-03  1.7547E-02  0.0000E+00  5.1473E-03  5.6364E-04  0.0000E+00  1.5220E-03
  6  0.0000E+00  7.8916E-03  1.2338E-02  5.9094E-03  1.8502E-02  1.3765E-02  5.0648E-03  3.5750E-03  6.4936E-03
  7  0.0000E+00  1.0374E-02  7.1826E-03  1.5664E-02  7.6958E-04  4.1734E-03  2.9069E-02  0.0000E+00  1.8580E-02
  8  0.0000E+00  1.3674E-02  3.6338E-02  0.0000E+00  1.2837E-02  3.5739E-04  3.4685E-03  0.0000E+00  6.5860E-03
  9  0.0000E+00  1.5020E-02  0.0000E+00  2.2646E-02  3.1852E-02  5.8807E-02  4.5326E-02  0.0000E+00  2.5455E-02
 10  0.0000E+00  2.3055E-02  0.0000E+00  2.6852E-02  2.4128E-02  1.7384E-02  6.9076E-02  3.3182E-04  0.0000E+00
 11  0.0000E+00  5.4890E-02  3.1830E-01  5.7961E-02  1.5331E-01  0.0000E+00  8.7013E-02  4.0806E-02  1.1245E-01
 12  0.0000E+00  7.4573E-02  0.0000E+00  1.3257E-02  4.0972E-01  2.5514E-01  4.8598E-02  5.3878E-02  1.4073E-01
 13  0.0000E+00  1.3634E-01  3.3782E-01  1.2738E-01  9.6637E-01  5.3646E-01  5.6967E-03  3.7412E-01  0.0000E+00
 14  0.0000E+00  4.3202E-01  4.0955E-01  0.0000E+00  2.7592E+00  8.6318E-02  0.0000E+00  4.7423E-01  0.0000E+00
 15  0.0000E+00  8.6522E-01  1.5933E+00  1.6848E+00  1.3229E+00  1.7977E+00  3.9220E-01  2.7554E-01  0.0000E+00
 16  0.0000E+00  1.4959E+00  4.6529E+00  2.5505E-01  3.7539E+00  3.3768E+00  7.3632E+00  1.7323E+00  1.8001E+00
 17  0.0000E+00  1.8432E+00  1.7007E+00  6.4238E+00  0.0000E+00  8.0998E+00  8.2976E+00  2.3341E+00  6.5777E-01
 18  0.0000E+00  8.1117E-03  2.0311E-02  6.1039E-03  3.1859E-02  6.1027E-03  1.3961E-03  2.2779E-02  1.1718E-02
 19  0.0000E+00  1.7155E-03  7.9038E-03  2.0607E-03  0.0000E+00  1.1836E-03  3.6360E-03  0.0000E+00  5.5760E-03
 20  0.0000E+00  2.3173E-03  8.3647E-03  1.9466E-03  8.8834E-03  4.2355E-03  3.4904E-03  2.7173E-03  2.1924E-03
 21  0.0000E+00  3.9304E-03  3.2415E-03  1.6430E-02  7.9938E-03  1.3078E-03  8.8482E-04  0.0000E+00  2.9478E-04
 22  0.0000E+00  3.3336E-03  7.0510E-03  0.0000E+00  0.0000E+00  0.0000E+00  7.0279E-03  1.4016E-02  1.0989E-02
 23  0.0000E+00  4.1575E-03  0.0000E+00  1.5100E-03  0.0000E+00  1.1887E-02  1.6689E-02  1.0721E-02  0.0000E+00
 24  0.0000E+00  1.1595E-02  1.2532E-02  3.7791E-02  2.9258E-02  8.3194E-03  3.6387E-02  0.0000E+00  3.3412E-02
 25  0.0000E+00  1.0379E-02  2.5128E-02  2.0381E-02  2.3359E-02  3.0849E-03  1.9717E-02  1.7688E-02  0.0000E+00
 26  8.5934E-01  2.0943E-02  7.1521E-02  1.0127E-01  0.0000E+00  0.0000E+00  2.7853E-02  0.0000E+00  0.0000E+00
 27  0.0000E+00  4.8805E-02  0.0000E+00  0.0000E+00  1.2106E-01  0.0000E+00  0.0000E+00  9.3330E-02  2.9202E-02
 28  0.0000E+00  9.8611E-02  8.6455E-01  1.7835E-01  2.2118E-01  0.0000E+00  1.0751E-01  5.0280E-01  0.0000E+00
 29  0.0000E+00  1.8300E-01  1.0654E-01  7.3695E-01  0.0000E+00  2.0503E-01  1.3194E-01  3.8756E-01  2.2461E-01
 30  0.0000E+00  4.2399E-01  4.0109E-01  2.5597E-01  8.2167E-01  0.0000E+00  0.0000E+00  5.6315E-01  0.0000E+00
 31  0.0000E+00  8.6393E-01  4.4422E+00  8.3159E+00  2.2895E+00  2.8929E-02  5.0915E+00  4.3825E-01  3.1776E-01
 32  0.0000E+00  9.6434E-01  0.0000E+00  1.7950E+00  0.0000E+00  2.2125E+00  1.6364E+00  0.0000E+00  4.2352E+00
 33  0.0000E+00  1.9202E+00  2.5498E+00  3.3257E+00  0.0000E+00  3.3754E+00  2.3689E+00  4.4317E+00  2.8311E+00
 34  0.0000E+00  3.5508E+00  5.9681E+00  2.1493E+00  9.9954E+00  1.4478E+01  0.0000E+00  2.8469E+00  5.0592E+00
 35  0.0000E+00  3.2510E-03  0.0000E+00  8.4895E-04  9.5747E-03  2.3078E-03  2.1381E-03  4.2433E-03  0.0000E+00
 36  0.0000E+00  2.1891E-03  0.0000E+00  0.0000E+00  1.5536E-02  0.0000E+00  6.6577E-03  1.4692E-03  2.9234E-03
 37  0.0000E+00  1.8589E-03  0.0000E+00  2.6347E-03  2.0722E-03  0.0000E+00  0.0000E+00  2.1976E-03  5.1712E-03
 38  0.0000E+00  5.0449E-03  2.8734E-03  7.3236E-03  6.7511E-03  5.5296E-04  2.3563E-03  2.2040E-02  2.9592E-03
 39  0.0000E+00  6.5268E-03  5.4023E-03  5.5993E-03  1.0389E-02  4.3567E-03  7.5686E-03  3.1021E-02  0.0000E+00
 40  0.0000E+00  1.4253E-02  2.9659E-02  0.0000E+00  5.5238E-02  0.0000E+00  4.1634E-03  0.0000E+00  0.0000E+00
 41  0.0000E+00  2.6073E-02  0.0000E+00  4.1193E-02  1.4663E-02  2.2405E-03  4.1121E-02  1.1289E-02  8.6497E-02
 42  0.0000E+00  3.1035E-02  4.6813E-02  9.0814E-02  1.4917E-01  6.0199E-02  1.2658E-01  0.0000E+00  2.5791E-02
 43  0.0000E+00  4.9304E-02  9.8979E-02  5.6622E-02  6.7452E-02  4.0006E-02  2.6275E-01  2.0598E-02  1.0165E-02
 44  0.0000E+00  1.0472E-01  3.2974E-01  2.4623E-01  6.0770E-01  6.4024E-02  1.1057E-02  2.7505E-01  1.8824E-01
 45  0.0000E+00  2.3886E-01  1.6248E-01  4.6980E-01  4.7548E-01  1.5488E-01  4.1425E-01  1.1172E-01  2.2803E-01
 46  0.0000E+00  3.4200E-01  0.0000E+00  2.8194E-01  1.5564E+00  1.1789E-01  3.3230E-01  2.7856E-01  7.2642E-01
 47  0.0000E+00  7.4940E-01  2.9016E-01  1.0706E+00  1.3141E+00  1.4144E+00  5.1162E+00  1.5895E+00  1.2704E+00
 48  0.0000E+00  1.3019E+00  4.3073E+00  2.8376E+00  4.9414E+00  2.4898E+00  4.6506E-01  5.4315E-01  2.3245E+00
 49  0.0000E+00  1.7930E+00  1.7610E+01  0.0000E+00  1.6129E+00  4.1863E+00  1.0228E+00  4.2946E+00  3.3336E+00
 50  0.0000E+00  6.1525E+00  0.0000E+00  2.3882E+01  0.0000E+00  0.0000E+00  4.7491E+00  7.8879E+00  6.2618E+00
 51  9.9141E+01  5.8119E+01  4.4837E+01  3.4840E+01  4.5295E+01  2.7263E+01  4.1387E+01  3.7778E+01  2.9576E+01
 52  0.0000E+00  1.1619E-03  8.5914E-03  2.6527E-03  3.2949E-04  0.0000E+00  1.8649E-04  3.5342E-03  2.5181E-03
 53  0.0000E+00  1.3368E-03  1.8841E-03  0.0000E+00  1.1332E-03  4.7734E-04  2.2777E-03  0.0000E+00  1.1936E-03
 54  0.0000E+00  3.5689E-03  1.3382E-02  6.3623E-03  0.0000E+00  0.0000E+00  0.0000E+00  1.4589E-03  0.0000E+00
 55  0.0000E+00  6.7155E-03  2.9083E-02  5.9537E-03  0.0000E+00  3.6011E-03  0.0000E+00  3.6444E-03  3.1134E-03
 56  0.0000E+00  1.3350E-02  3.2669E-02  7.0293E-03  1.5050E-02  2.7611E-02  1.9561E-02  1.5637E-02  8.3105E-03
 57  0.0000E+00  1.8543E-02  4.2991E-02  1.6533E-02  4.9548E-04  5.0542E-03  7.4800E-02  5.8952E-02  2.2852E-02
 58  0.0000E+00  2.2825E-02  3.5578E-02  4.4445E-02  1.6639E-01  0.0000E+00  3.2241E-02  5.1616E-02  4.7534E-02
 59  0.0000E+00  6.9087E-02  0.0000E+00  0.0000E+00  1.3708E-01  0.0000E+00  3.6230E-01  7.1232E-02  0.0000E+00
 60  0.0000E+00  1.0664E-01  0.0000E+00  0.0000E+00  2.2131E-01  1.4274E-01  5.1255E-01  7.6995E-02  0.0000E+00
 61  0.0000E+00  3.0476E-01  1.0673E+00  2.8616E-01  0.0000E+00  1.6570E-01  4.4319E-01  2.9825E-01  2.6275E-01
 62  0.0000E+00  5.9245E-01  3.1019E+00  1.2799E+00  3.0646E-01  0.0000E+00  1.0807E-02  9.4595E-01  1.9202E-01
 63  0.0000E+00  8.9455E-01  1.1785E+00  3.2464E-01  3.3218E+00  1.4583E-01  2.7592E+00  2.5728E+00  1.8155E+00
 64  0.0000E+00  2.2120E+00  3.1910E+00  5.5226E+00  2.6521E+00  1.3078E+00  2.3970E+00  5.0967E+00  5.8069E+00
 65  0.0000E+00  6.9690E+00  4.3213E-03  3.0548E+00  1.0927E+01  9.8572E+00  1.3622E+01  7.7201E+00  2.5179E+01
 66  0.0000E+00  6.7339E+00  0.0000E+00  0.0000E+00  3.0818E+00  1.7944E+01  0.0000E+00  1.5604E+01  7.0770E+00

# AV, chi2 & Mass for <> & i_chain = 1 ...  7 solutions
AV       3.8716      3.6425      3.7446      3.7488      3.7446      3.7440      3.7444      3.7451      3.7428
chi2 1.6829E-05  1.7469E-05  1.7036E-05  1.7029E-05  1.7036E-05  1.7044E-05  1.7036E-05  1.7037E-05  1.7045E-05
Mass 3.6112E-14  4.5201E-14  6.6933E-14  8.6589E-14  6.6182E-14  1.1007E-13  7.2499E-14  7.9599E-14  1.0126E-13
 -66.54                                  [v0_min (km/s) before EX0s...]
   0.00                                  [vd_min (km/s) before EX0s...]


## Synthetic spectrum (Best Model) ##l_obs f_obs f_syn wei
 3478    [Nl_obs]
 3741.00    2.16522   1.19707    0.000
 3742.00    2.10966   1.19709    0.000
 3743.00    2.03656   1.18922    0.000
 3744.00    2.23776   1.17263    0.000
 3745.00    2.59878   1.15166   -1.000
 3746.00    2.48495   1.12592   -1.000
 3747.00    2.12997   1.08435   -1.000
 3748.00    1.92998   1.02570   -1.000
 3749.00    1.79814   0.98292   -1.000
 3750.00    2.14540   0.99624   -1.000
 3751.00    2.67354   1.05115   -1.000
 3752.00    2.63843   1.09259   -1.000
 3753.00    2.42280   1.09011   -1.000
 3754.00    2.87403   1.09271   -1.000
 3755.00    3.50395   1.12168   -1.000
 3756.00    2.49319   1.13293   -1.000
 3757.00    1.12233   1.14002   -1.000
 3758.00    0.96923   1.12531   -1.000
 3759.00    1.02872   1.10686   -1.000
 3760.00    1.94628   1.14075   -1.000
 3761.00    2.97783   1.17474   -1.000
 3762.00    2.96116   1.18638   -1.000
 3763.00    2.84600   1.19430   -1.000
 3764.00    1.87180   1.18933   -1.000
 3765.00    0.84804   1.16946   -1.000
 3766.00    0.58353   1.14126   -1.000
 3767.00    0.33859   1.10078   -1.000
 3768.00    0.28098   1.03467   -1.000
 3769.00    0.20890   0.95956   -1.000
 3770.00   -0.21483   0.93349    0.000
 3771.00   -0.47665   0.97861    0.000
 3772.00    1.38305   1.03482   -1.000
 3773.00    3.25039   1.07686   -1.000
 3774.00    5.18473   1.12967   -1.000
 3775.00    6.06955   1.17433   -1.000
 3776.00    0.14950   1.19463   -1.000
 3777.00   -4.21703   1.20636    0.000
 3778.00   -0.72070   1.21663    0.000
 3779.00    1.99577   1.22414   -1.000
 3780.00    1.52022   1.22950   -1.000
 3781.00    0.75917   1.23222   -1.000
 3782.00   -0.97019   1.23417    0.000
 3783.00   -1.88906   1.23573    0.000
 3784.00   -0.48985   1.23623    0.000
 3785.00    0.46920   1.23620   -1.000
 3786.00    0.35288   1.23543   -1.000
 3787.00    0.38630   1.23354   -1.000
 3788.00    0.73531   1.22779   -1.000
 3789.00    1.75452   1.20366   -1.000
 3790.00    4.00130   1.16545   -1.000
 3791.00    4.07768   1.15389   -1.000
 3792.00    0.67982   1.16109   -1.000
 3793.00   -0.81726   1.14571    0.000
 3794.00    0.35557   1.10240   -1.000
 3795.00    2.53664   1.03082   -1.000
 3796.00    5.96390   0.94287   -1.000
 3797.00    6.21807   0.89639   -1.000
 3798.00    3.01517   0.93794   -1.000
 3799.00    0.61481   1.02551   -1.000
 3800.00   -1.01433   1.10016    0.000
 3801.00   -1.70287   1.14841    0.000
 3802.00   -1.59436   1.17925    0.000
 3803.00   -0.63662   1.19954    0.000
 3804.00    0.95485   1.21089   -1.000
 3805.00    1.37604   1.21645   -1.000
 3806.00    1.03006   1.22325   -1.000
 3807.00   -0.04846   1.23352    0.000
 3808.00   -1.54735   1.23959    0.000
 3809.00   -3.03530   1.23898    0.000
 3810.00   -4.51779   1.23662    0.000
 3811.00   -5.87270   1.23651    0.000
 3812.00   -7.17244   1.23682    0.000
 3813.00   -3.19280   1.23783    0.000
 3814.00    2.74475   1.23999   -1.000
 3815.00    3.22513   1.23892   -1.000
 3816.00    1.99004   1.23343   -1.000
 3817.00   -0.05500   1.21137    0.000
 3818.00   -2.31249   1.16707    0.000
 3819.00   -0.59811   1.15168    0.000
 3820.00    1.96727   1.18852   -1.000
 3821.00    0.65885   1.22649   -1.000
 3822.00   -1.30700   1.24171    0.000
 3823.00   -1.11556   1.24404    0.000
 3824.00   -0.64729   1.24164    0.000
 3825.00   -0.74770   1.23798    0.000
 3826.00   -0.89915   1.23244    0.000
 3827.00    0.69399   1.22345   -1.000
 3828.00    2.38090   1.21003   -1.000
 3829.00    3.93587   1.19135   -1.000
 3830.00    5.45427   1.16481   -1.000
 3831.00    4.11070   1.12436   -1.000
 3832.00    2.80500   1.06126   -1.000
 3833.00    2.34046   0.96741   -1.000
 3834.00    1.77463   0.87988   -1.000
 3835.00   -0.05072   0.87736    0.000
 3836.00   -1.65580   0.95993    0.000
 3837.00   -1.39916   1.05255    0.000
 3838.00   -0.88155   1.12051    0.000
 3839.00    1.27783   1.16524   -1.000
 3840.00    2.95962   1.19399   -1.000
 3841.00    2.28488   1.21240   -1.000
 3842.00    1.89245   1.22446   -1.000
 3843.00    2.63016   1.23318   -1.000
 3844.00    3.14281   1.23969   -1.000
 3845.00    2.90718   1.24555   -1.000
 3846.00    2.90768   1.24994   -1.000
 3847.00    3.57125   1.25229    0.000
 3848.00    3.94840   1.25362    0.000
 3849.00    3.63760   1.25303    0.000
 3850.00    3.04210   1.25359    0.000
 3851.00    1.85615   1.25690    0.000
 3852.00    1.54666   1.25848    0.000
 3853.00    2.81801   1.25716    0.000
 3854.00    3.85538   1.25289    0.000
 3855.00    4.52375   1.24566    0.000
 3856.00    5.35342   1.24054    0.000
 3857.00    6.40642   1.24055    0.000
 3858.00    6.05458   1.24458    0.000
 3859.00    3.99100   1.24917    0.000
 3860.00    3.89635   1.25233    0.000
 3861.00    5.91669   1.25342    0.000
 3862.00    5.83276   1.25312    0.000
 3863.00    3.75503   1.25192    0.000
 3864.00    3.12364   1.25205    0.000
 3865.00    3.70050   1.25241    0.000
 3866.00    3.56930   1.24728    0.000
 3867.00    2.91732   1.24711    0.000
 3868.00    2.39305   1.25708    0.000
 3869.00    1.95128   1.26159    0.000
 3870.00    2.23963   1.25318    0.000
 3871.00    2.94060   1.24245    0.000
 3872.00    2.16888   1.24124    0.000
 3873.00    0.67275   1.24530    0.000
 3874.00    0.87238   1.24074    0.000
 3875.00    1.79309   1.23612    0.000
 3876.00    2.62376   1.24097    0.000
 3877.00    3.42164   1.24585    0.000
 3878.00    4.06020   1.24309    0.000
 3879.00    4.64965   1.23764    0.000
 3880.00    3.66963   1.22970    0.000
 3881.00    2.28669   1.21391   -1.000
 3882.00    2.08843   1.19092   -1.000
 3883.00    2.13784   1.16729   -1.000
 3884.00    2.68982   1.13616   -1.000
 3885.00    3.32466   1.08543   -1.000
 3886.00    2.48157   1.01065   -1.000
 3887.00    1.45544   0.90686   -1.000
 3888.00    1.38785   0.83679   -1.000
 3889.00    1.40230   0.87770   -1.000
 3890.00    1.71585   0.98587   -1.000
 3891.00    2.04432   1.07700   -1.000
 3892.00    2.46186   1.13789   -1.000
 3893.00    2.88942   1.17995   -1.000
 3894.00    3.87062   1.20650   -1.000
 3895.00    4.74251   1.22342   -1.000
 3896.00    3.37849   1.23502   -1.000
 3897.00    2.14752   1.24064   -1.000
 3898.00    2.48995   1.24391   -1.000
 3899.00    2.73251   1.24924   -1.000
 3900.00    2.16149   1.25608   -1.000
 3901.00    1.68150   1.25968   -1.000
 3902.00    1.75756   1.26044   -1.000
 3903.00    1.94303   1.26391   -1.000
 3904.00    2.65503   1.26785   -1.000
 3905.00    3.25382   1.26950   -1.000
 3906.00    3.40919   1.27042   -1.000
 3907.00    2.94236   1.27245   -1.000
 3908.00    0.44747   1.27466   -1.000
 3909.00   -1.72191   1.27532    0.000
 3910.00   -2.99367   1.27071    0.000
 3911.00   -4.17197   1.26610    0.000
 3912.00   -5.12954   1.26856    0.000
 3913.00   -6.25307   1.27364    0.000
 3914.00   -7.71532   1.27587    0.000
 3915.00   -8.67277   1.27608    0.000
 3916.00   -8.73364   1.27371    0.000
 3917.00   -8.32276   1.26513    0.000
 3918.00   -7.17886   1.25096    0.000
 3919.00   -6.58311   1.24075    0.000
 3920.00   -6.73527   1.23672    0.000
 3921.00   -6.70027   1.22841    0.000
 3922.00   -6.44045   1.21186    0.000
 3923.00   -5.75468   1.20752    0.000
 3924.00   -4.61781   1.22207    0.000
 3925.00   -4.53539   1.23639    0.000
 3926.00   -5.43801   1.24679    0.000
 3927.00   -5.22208   1.25710    0.000
 3928.00   -4.08495   1.26471    0.000
 3929.00   -3.38927   1.26954    0.000
 3930.00   -3.01361   1.26965    0.000
 3931.00   -2.88208   1.26633    0.000
 3932.00   -2.90590   1.25542    0.000
 3933.00   -2.96046   1.23631    0.000
 3934.00   -3.03213   1.23534    0.000
 3935.00   -2.47308   1.25632    0.000
 3936.00   -1.60873   1.27332    0.000
 3937.00   -0.63993   1.27654    0.000
 3938.00    0.37253   1.27711   -1.000
 3939.00   -1.20111   1.28076    0.000
 3940.00   -3.69982   1.28207    0.000
 3941.00   -2.98938   1.28095    0.000
 3942.00   -1.30896   1.27873    0.000
 3943.00   -0.54940   1.27155    0.000
 3944.00   -0.02113   1.26529    0.000
 3945.00    0.49446   1.26896   -1.000
 3946.00    1.00747   1.26996   -1.000
 3947.00    1.53436   1.26591   -1.000
 3948.00    2.06348   1.27016   -1.000
 3949.00    0.19777   1.27772   -1.000
 3950.00   -1.95387   1.28069    0.000
 3951.00   -1.01415   1.27972    0.000
 3952.00    0.17731   1.27461   -1.000
 3953.00    0.35775   1.26695   -1.000
 3954.00    0.49172   1.26511   -1.000
 3955.00    0.27919   1.26861   -1.000
 3956.00    0.03855   1.27029   -1.000
 3957.00   -1.44000   1.26877    0.000
 3958.00   -2.78679   1.26520    0.000
 3959.00   -1.63745   1.25026    0.000
 3960.00   -0.62692   1.21640    0.000
 3961.00   -1.18072   1.19742    0.000
 3962.00   -1.57422   1.20395    0.000
 3963.00   -0.70785   1.19379    0.000
 3964.00   -0.05823   1.16927    0.000
 3965.00   -0.69478   1.14599    0.000
 3966.00   -1.26964   1.09975    0.000
 3967.00   -1.55481   1.01315    0.000
 3968.00   -1.71879   0.89764    0.000
 3969.00   -1.41832   0.82584    0.000
 3970.00   -1.20425   0.87155    0.000
 3971.00   -1.26638   0.98810    0.000
 3972.00   -1.36766   1.08688    0.000
 3973.00   -1.57501   1.15051    0.000
 3974.00   -1.87456   1.19234    0.000
 3975.00   -2.38822   1.21841    0.000
 3976.00   -2.58266   1.23513    0.000
 3977.00   -2.13595   1.24792    0.000
 3978.00   -1.37339   1.25737    0.000
 3979.00   -0.05836   1.26434    0.000
 3980.00    0.91407   1.26933    0.000
 3981.00    1.36199   1.26985    0.015
 3982.00    1.43635   1.26982    0.011
 3983.00    1.00833   1.27532    0.011
 3984.00    0.60025   1.28156    0.010
 3985.00    0.21577   1.28568    0.010
 3986.00    0.35111   1.28824    0.010
 3987.00    1.02925   1.29022    0.010
 3988.00    1.11550   1.29213    0.010
 3989.00    0.65658   1.29276    0.010
 3990.00    0.48595   1.29280    0.010
 3991.00    0.54937   1.29407    0.010
 3992.00    0.37491   1.29466    0.010
 3993.00    0.03048   1.29038    0.010
 3994.00    0.19688   1.28590    0.010
 3995.00    0.68356   1.28926    0.010
 3996.00    0.84122   1.29145    0.010
 3997.00    0.81858   1.28513    0.010
 3998.00    1.16235   1.28385    0.010
 3999.00    1.68065   1.29204    0.010
 4000.00    1.44098   1.29698    0.010
 4001.00    0.88977   1.29222    0.010
 4002.00    0.83365   1.28061    0.010
 4003.00    0.95140   1.27569    0.010
 4004.00    0.16028   1.28175    0.010
 4005.00   -0.90013   1.28910    0.000
 4006.00   -0.13770   1.29121    0.000
 4007.00    1.07253   1.28563    0.010
 4008.00    0.44055   1.27695    0.010
 4009.00   -0.55770   1.27812    0.000
 4010.00   -0.63886   1.28807    0.000
 4011.00   -0.57751   1.29588    0.000
 4012.00   -0.32680   1.30021    0.000
 4013.00   -0.05432   1.30196    0.000
 4014.00    0.21702   1.30211    0.010
 4015.00    0.48826   1.30209    0.010
 4016.00    1.00024   1.30251    0.010
 4017.00    1.52235   1.30254    0.010
 4018.00    2.24659   1.30253    0.010
 4019.00    2.93685   1.30027    0.010
 4020.00    2.05717   1.29504    0.010
 4021.00    1.22921   1.28454    0.010
 4022.00    1.31301   1.26398    0.010
 4023.00    1.34623   1.21841    0.010
 4024.00    0.83528   1.13925    0.010
 4025.00    0.37378   1.08557    0.010
 4026.00    0.28768   1.12872    0.010
 4027.00    0.30751   1.21393    0.010
 4028.00    0.93830   1.26625    0.010
 4029.00    1.34275   1.28895    0.010
 4030.00    0.70991   1.29825    0.010
 4031.00    0.30414   1.30134    0.009
 4032.00    0.75010   1.30113    0.009
 4033.00    1.08784   1.30151    0.009
 4034.00    1.08627   1.30337    0.009
 4035.00    1.06652   1.30813    0.009
 4036.00    0.99837   1.31232    0.009
 4037.00    0.90832   1.31318    0.009
 4038.00    0.76824   1.31321    0.009
 4039.00    0.71678   1.31226    0.009
 4040.00    0.84050   1.30982    0.009
 4041.00    1.08610   1.30953    0.009
 4042.00    1.54167   1.30996    0.009
 4043.00    1.51079   1.30904    0.010
 4044.00    0.74609   1.30980    0.009
 4045.00    0.32647   1.31404    0.009
 4046.00    0.36427   1.31683    0.009
 4047.00    0.83408   1.31756    0.009
 4048.00    1.80824   1.31806    0.009
 4049.00    2.14710   1.31949    0.009
 4050.00    1.83186   1.32056    0.009
 4051.00    1.86316   1.31970    0.009
 4052.00    2.20913   1.31769    0.009
 4053.00    1.84061   1.31417    0.009
 4054.00    0.90023   1.30720    0.009
 4055.00    1.03039   1.30267    0.009
 4056.00    1.91435   1.30879    0.009
 4057.00    1.86660   1.31607    0.009
 4058.00    1.24332   1.31772    0.009
 4059.00    1.00000   1.31308    0.009
 4060.00    0.96170   1.31111    0.009
 4061.00    1.07025   1.31421    0.009
 4062.00    1.24761   1.31831    0.009
 4063.00    2.10704   1.32201    0.009
 4064.00    3.24203   1.32379    0.009
 4065.00    2.80682   1.31773    0.009
 4066.00    1.83020   1.27930    0.010
 4067.00    2.28977   1.21539    0.010
 4068.00    3.16639   1.17241    0.010
 4069.00    3.23654   1.17835    0.010
 4070.00    3.11300   1.22675    0.009
 4071.00    1.77897   1.27350    0.009
 4072.00    0.21040   1.29473    0.009
 4073.00    0.02449   1.29936    0.009
 4074.00    0.04693   1.28801    0.009
 4075.00    1.09169   1.28280    0.009
 4076.00    2.24952   1.29972    0.009
 4077.00    2.66338   1.31409    0.009
 4078.00    3.02276   1.31636    0.009
 4079.00    2.62823   1.31352    0.009
 4080.00    2.20485   1.30977    0.009
 4081.00    2.51295   1.31325    0.009
 4082.00    2.81293   1.31701    0.009
 4083.00    2.65422   1.31289    0.009
 4084.00    2.52580   1.31090    0.009
 4085.00    2.89663   1.31166    0.009
 4086.00    3.24153   1.29696    0.009
 4087.00    3.31954   1.23978    0.009
 4088.00    3.33809   1.19893    0.009
 4089.00    2.92022   1.23857    0.009
 4090.00    2.49987   1.28876    0.009
 4091.00    2.06564   1.29827    0.009
 4092.00    1.72630   1.29123    0.000
 4093.00    1.81158   1.28042    0.000
 4094.00    1.92430   1.26088    0.000
 4095.00    2.13776   1.21306    0.000
 4096.00    2.20344   1.13940    0.000
 4097.00    1.81464   1.09926    0.000
 4098.00    1.64519   1.07108    0.000
 4099.00    2.04902   0.98859    0.000
 4100.00    2.32969   0.87784    0.000
 4101.00    2.33377   0.83400    0.000
 4102.00    2.43999   0.90356    0.000
 4103.00    2.74499   1.03168    0.000
 4104.00    2.85949   1.14307    0.000
 4105.00    2.65075   1.21121    0.000
 4106.00    2.44126   1.24915    0.000
 4107.00    2.23064   1.27195    0.000
 4108.00    1.85322   1.28697    0.000
 4109.00    1.25788   1.29578    0.000
 4110.00    0.97829   1.30255    0.000
 4111.00    1.06215   1.31021    0.000
 4112.00    0.65854   1.31747    0.000
 4113.00   -0.23990   1.31652    0.000
 4114.00   -0.11554   1.28357    0.000
 4115.00    0.92454   1.24805    0.039
 4116.00    1.77727   1.26999   -1.000
 4117.00    2.48217   1.30870   -1.000
 4118.00    2.57669   1.31153   -1.000
 4119.00    2.24764   1.29387   -1.000
 4120.00    2.14447   1.28333   -1.000
 4121.00    2.17875   1.29997   -1.000
 4122.00    2.18890   1.32844   -1.000
 4123.00    2.18624   1.34435   -1.000
 4124.00    2.22270   1.34867    0.025
 4125.00    2.27721   1.34838    0.010
 4126.00    2.80183   1.34356    0.009
 4127.00    3.51312   1.33783    0.009
 4128.00    2.65219   1.33937    0.009
 4129.00    1.25916   1.34054    0.009
 4130.00    1.72095   1.33846    0.009
 4131.00    2.71048   1.33925    0.009
 4132.00    3.10998   1.34402    0.009
 4133.00    3.37096   1.35071    0.009
 4134.00    2.64586   1.35598    0.009
 4135.00    1.73465   1.35794    0.009
 4136.00    1.99374   1.35750    0.009
 4137.00    2.42372   1.35634    0.009
 4138.00    2.26505   1.35513    0.009
 4139.00    2.04383   1.35498    0.008
 4140.00    1.21536   1.35331    0.008
 4141.00    0.34489   1.34454    0.008
 4142.00    0.21013   1.32713    0.008
 4143.00    0.10075   1.31808    0.008
 4144.00    0.34931   1.33072    0.008
 4145.00    0.60708   1.34736    0.008
 4146.00    1.14558   1.35616    0.008
 4147.00    1.64064   1.36050    0.009
 4148.00    1.46406   1.35967    0.008
 4149.00    1.40944   1.35735    0.008
 4150.00    2.55708   1.35656    0.008
 4151.00    3.45865   1.35103    0.008
 4152.00    2.61320   1.34561    0.008
 4153.00    1.71710   1.35269    0.008
 4154.00    0.54447   1.35867    0.008
 4155.00   -0.24989   1.35416    0.000
 4156.00    0.60918   1.35420    0.008
 4157.00    1.41389   1.36290    0.008
 4158.00    2.02308   1.37011    0.008
 4159.00    2.56783   1.37113    0.008
 4160.00    2.91812   1.36836    0.008
 4161.00    2.88409   1.35818    0.008
 4162.00    1.86309   1.35014    0.008
 4163.00    1.09704   1.35660    0.008
 4164.00    0.89413   1.36702    0.008
 4165.00    0.75089   1.37161    0.008
 4166.00    0.72192   1.37128    0.008
 4167.00    1.02121   1.36616    0.008
 4168.00    1.86912   1.36291    0.008
 4169.00    2.28983   1.36592    0.008
 4170.00    2.08475   1.36886    0.008
 4171.00    1.91358   1.36785    0.008
 4172.00    1.78611   1.36988    0.008
 4173.00    1.78235   1.37277    0.008
 4174.00    1.91900   1.37404    0.008
 4175.00    1.67493   1.37405    0.008
 4176.00    1.04984   1.37563    0.008
 4177.00    0.70745   1.37678    0.008
 4178.00    0.61459   1.37734    0.008
 4179.00    0.91688   1.37901    0.008
 4180.00    1.52648   1.38132    0.008
 4181.00    1.92658   1.38196    0.008
 4182.00    2.18340   1.38079    0.008
 4183.00    2.38510   1.37608    0.008
 4184.00    2.55376   1.36655    0.008
 4185.00    2.32795   1.34983    0.008
 4186.00    1.89581   1.34333    0.008
 4187.00    1.36504   1.35818    0.008
 4188.00    0.78953   1.36666    0.008
 4189.00    0.62687   1.36711    0.008
 4190.00    0.62532   1.37615    0.008
 4191.00    1.49399   1.38304    0.008
 4192.00    2.65169   1.38342    0.008
 4193.00    2.59448   1.38102    0.008
 4194.00    2.19865   1.37208    0.008
 4195.00    2.57065   1.36091    0.008
 4196.00    3.11880   1.34844    0.008
 4197.00    2.59969   1.31386    0.008
 4198.00    1.88444   1.25555    0.008
 4199.00    1.82095   1.23032    0.008
 4200.00    1.84962   1.27034    0.008
 4201.00    1.71752   1.32784    0.008
 4202.00    1.56902   1.36192    0.008
 4203.00    1.87817   1.37857    0.008
 4204.00    2.21714   1.38592    0.008
 4205.00    1.73995   1.39095    0.008
 4206.00    1.23758   1.39352    0.008
 4207.00    0.66927   1.39534    0.008
 4208.00    0.14887   1.39652    0.008
 4209.00    1.03643   1.39707    0.008
 4210.00    1.88513   1.38638    0.008
 4211.00    2.16823   1.36719    0.008
 4212.00    2.45871   1.36930    0.008
 4213.00    2.81892   1.38953    0.008
 4214.00    3.04765   1.39849    0.008
 4215.00    2.37249   1.39947    0.008
 4216.00    1.80254   1.40179    0.008
 4217.00    1.79176   1.40364    0.008
 4218.00    1.82701   1.40663    0.008
 4219.00    2.05886   1.40911    0.007
 4220.00    2.31977   1.40796    0.007
 4221.00    2.68311   1.40535    0.008
 4222.00    2.89161   1.40564    0.008
 4223.00    2.64156   1.40734    0.008
 4224.00    2.41247   1.40791    0.008
 4225.00    2.23625   1.40658    0.008
 4226.00    2.20054   1.40575    0.008
 4227.00    2.47014   1.40742    0.008
 4228.00    2.52728   1.41048    0.007
 4229.00    2.18377   1.41239    0.007
 4230.00    2.00225   1.41359    0.007
 4231.00    2.08740   1.41351    0.007
 4232.00    2.06428   1.41212    0.007
 4233.00    1.88486   1.41129    0.007
 4234.00    1.71779   1.41112    0.007
 4235.00    1.56639   1.40914    0.007
 4236.00    1.44785   1.40826    0.007
 4237.00    1.36606   1.41114    0.007
 4238.00    1.45696   1.41364    0.007
 4239.00    1.71827   1.41427    0.007
 4240.00    2.07001   1.41170    0.007
 4241.00    2.50046   1.41015    0.007
 4242.00    2.47899   1.41425    0.007
 4243.00    2.11105   1.41934    0.007
 4244.00    1.83241   1.41949    0.007
 4245.00    1.61395   1.41682    0.007
 4246.00    1.24999   1.41525    0.007
 4247.00    0.80011   1.41750    0.008
 4248.00    0.84612   1.42062    0.008
 4249.00    1.14745   1.42251    0.008
 4250.00    1.81443   1.42372    0.008
 4251.00    2.64454   1.42428    0.008
 4252.00    2.62984   1.42227    0.008
 4253.00    2.29123   1.42450    0.008
 4254.00    2.55780   1.42700    0.008
 4255.00    3.02160   1.42511    0.008
 4256.00    3.02702   1.42357    0.008
 4257.00    2.90732   1.42394    0.008
 4258.00    2.67681   1.42569    0.008
 4259.00    2.42148   1.42687    0.008
 4260.00    2.68896   1.42741    0.008
 4261.00    3.04994   1.42856    0.008
 4262.00    2.41263   1.42976    0.008
 4263.00    1.63873   1.43094    0.008
 4264.00    1.82620   1.42827    0.008
 4265.00    2.10758   1.41317    0.008
 4266.00    2.14609   1.39669    0.007
 4267.00    2.16975   1.40459    0.007
 4268.00    2.51022   1.42421    0.007
 4269.00    2.85593   1.43283    0.007
 4270.00    2.55531   1.43433    0.007
 4271.00    2.27110   1.43549    0.007
 4272.00    2.42098   1.43473    0.007
 4273.00    2.51594   1.43321    0.007
 4274.00    1.85593   1.42579    0.007
 4275.00    1.22780   1.41870    0.007
 4276.00    0.88928   1.41880    0.007
 4277.00    0.67983   1.42645    0.007
 4278.00    1.33011   1.43581    0.007
 4279.00    1.83680   1.44067    0.007
 4280.00    1.60011   1.44070    0.007
 4281.00    1.51723   1.43588    0.007
 4282.00    2.07647   1.43147   -2.000
 4283.00    2.78122   1.42973   -2.000
 4284.00    3.98829   1.43142   -2.000
 4285.00    4.61206   1.43724   -2.000
 4286.00    3.54037   1.44262   -2.000
 4287.00    2.49611   1.44200   -2.000
 4288.00    1.51986   1.43906   -2.000
 4289.00    0.95196   1.43801   -2.000
 4290.00    1.25700   1.44043   -2.000
 4291.00    1.64061   1.44571   -2.000
 4292.00    2.17008   1.44910   -2.000
 4293.00    2.69755   1.44502   -2.000
 4294.00    3.22175   1.44256   -2.000
 4295.00    2.97955   1.44693   -2.000
 4296.00    1.64703   1.45365   -2.000
 4297.00    1.33790   1.45643   -2.000
 4298.00    2.30961   1.45495    0.007
 4299.00    2.77758   1.45329    0.007
 4300.00    2.68990   1.45367    0.007
 4301.00    2.48419   1.45211    0.007
 4302.00    2.16363   1.44501    0.007
 4303.00    1.69115   1.44242    0.007
 4304.00    1.08832   1.44889    0.007
 4305.00    1.01528   1.45441    0.007
 4306.00    1.34261   1.45371    0.007
 4307.00    1.30200   1.45341    0.007
 4308.00    1.01705   1.45384    0.007
 4309.00    1.33546   1.45638    0.007
 4310.00    2.00475   1.45833    0.007
 4311.00    2.49352   1.45611    0.007
 4312.00    2.89080   1.44678    0.007
 4313.00    3.09385   1.44194    0.007
 4314.00    3.21165   1.44632    0.007
 4315.00    2.73334   1.44836    0.007
 4316.00    2.03046   1.44542    0.007
 4317.00    2.22191   1.44571    0.007
 4318.00    2.69928   1.44613    0.007
 4319.00    2.60593   1.44725    0.007
 4320.00    2.36006   1.45328    0.007
 4321.00    2.63502   1.45955    0.007
 4322.00    3.02396   1.46232    0.007
 4323.00    2.85268   1.45792    0.007
 4324.00    2.58394   1.44827    0.007
 4325.00    1.84252   1.44264    0.007
 4326.00    1.03859   1.43721    0.007
 4327.00    1.39781   1.43035    0.007
 4328.00    1.86573   1.43328    0.007
 4329.00    2.07427   1.43871    0.007
 4330.00    2.26798   1.43220    0.000
 4331.00    1.82696   1.41879    0.000
 4332.00    1.38297   1.40580    0.000
 4333.00    2.29476   1.39349    0.000
 4334.00    3.15247   1.37261    0.000
 4335.00    2.71159   1.33276    0.000
 4336.00    2.32338   1.26340    0.000
 4337.00    2.62067   1.15982    0.000
 4338.00    2.90159   1.03168    0.000
 4339.00    3.03944   0.92822    0.000
 4340.00    3.05016   0.94214    0.000
 4341.00    2.23978   1.07672    0.000
 4342.00    1.73853   1.21753    0.000
 4343.00    2.79692   1.29950    0.000
 4344.00    3.64263   1.34248    0.000
 4345.00    3.62029   1.37401    0.000
 4346.00    3.45896   1.39944    0.000
 4347.00    2.82743   1.41452    0.000
 4348.00    2.38257   1.42197    0.000
 4349.00    2.47036   1.42842    0.000
 4350.00    2.56594   1.43701    0.000
 4351.00    2.68055   1.44865    0.007
 4352.00    2.78536   1.46045    0.009
 4353.00    2.86958   1.46863    0.022
 4354.00    2.96637   1.47520   -1.000
 4355.00    3.08614   1.47584   -1.000
 4356.00    3.16004   1.47626   -1.000
 4357.00    3.16063   1.48184   -1.000
 4358.00    3.11351   1.48760   -1.000
 4359.00    2.99949   1.48895   -1.000
 4360.00    3.15492   1.48867    0.031
 4361.00    3.64279   1.48982    0.010
 4362.00    3.77552   1.49399    0.007
 4363.00    3.52204   1.49603    0.007
 4364.00    2.89757   1.49427    0.007
 4365.00    1.91721   1.48863    0.007
 4366.00    1.96912   1.48433    0.007
 4367.00    2.89419   1.48757    0.007
 4368.00    2.78508   1.49483    0.007
 4369.00    1.90566   1.49847    0.007
 4370.00    1.65523   1.49823    0.007
 4371.00    1.81636   1.49636    0.007
 4372.00    2.11059   1.49820    0.007
 4373.00    2.48105   1.50013    0.007
 4374.00    2.54844   1.49980    0.007
 4375.00    2.46464   1.50020    0.007
 4376.00    2.41879   1.50445    0.007
 4377.00    2.38932   1.49889    0.007
 4378.00    2.10700   1.48613    0.007
 4379.00    1.73111   1.49071    0.007
 4380.00    1.84828   1.50577    0.007
 4381.00    2.12008   1.50808    0.007
 4382.00    2.10525   1.50540    0.007
 4383.00    2.01543   1.50412    0.007
 4384.00    2.23206   1.50293    0.007
 4385.00    2.51416   1.49559    0.007
 4386.00    2.44962   1.47180    0.007
 4387.00    2.32646   1.45368    0.007
 4388.00    2.40425   1.46826    0.007
 4389.00    2.50770   1.49852    0.007
 4390.00    2.90980   1.52144    0.007
 4391.00    3.33854   1.53255    0.007
 4392.00    2.90046   1.53012    0.007
 4393.00    2.41621   1.52106    0.007
 4394.00    2.41829   1.51494    0.007
 4395.00    2.43349   1.51439    0.006
 4396.00    2.74130   1.52184    0.007
 4397.00    2.99234   1.52870    0.007
 4398.00    1.99548   1.52844    0.006
 4399.00    1.05819   1.52642    0.006
 4400.00    0.85688   1.52753    0.006
 4401.00    0.73312   1.52954    0.006
 4402.00    1.26181   1.52681    0.007
 4403.00    1.73943   1.52391    0.007
 4404.00    1.89695   1.52737    0.007
 4405.00    2.03394   1.53102    0.007
 4406.00    2.06987   1.53388    0.007
 4407.00    2.10431   1.53988    0.007
 4408.00    2.13274   1.54439    0.007
 4409.00    2.07650   1.54169    0.006
 4410.00    1.73944   1.53320    0.007
 4411.00    1.45829   1.53659    0.007
 4412.00    1.33378   1.54025    0.006
 4413.00    1.37927   1.52858    0.006
 4414.00    1.83219   1.51817    0.007
 4415.00    2.23002   1.51666    0.007
 4416.00    2.51382   1.52021    0.007
 4417.00    2.75345   1.52792    0.007
 4418.00    2.91359   1.53494    0.007
 4419.00    3.05458   1.54032    0.007
 4420.00    3.16545   1.54483    0.007
 4421.00    3.13105   1.54607    0.007
 4422.00    2.89592   1.54644    0.007
 4423.00    2.74558   1.54681    0.007
 4424.00    2.69836   1.54635    0.007
 4425.00    2.56054   1.54587    0.007
 4426.00    2.32556   1.54620    0.007
 4427.00    2.39492   1.55067    0.007
 4428.00    2.75212   1.55439    0.007
 4429.00    2.59752   1.55067    0.007
 4430.00    2.01614   1.54598    0.007
 4431.00    1.62999   1.54459    0.007
 4432.00    1.38718   1.54407    0.007
 4433.00    1.54039   1.54685    0.007
 4434.00    1.94892   1.54887    0.007
 4435.00    2.47387   1.54674    0.007
 4436.00    3.06448   1.54205    0.007
 4437.00    2.77121   1.54566    0.007
 4438.00    2.04402   1.54940    0.007
 4439.00    2.41842   1.53972    0.007
 4440.00    3.26025   1.52643    0.007
 4441.00    3.22676   1.52985    0.007
 4442.00    2.87516   1.54615    0.007
 4443.00    2.64988   1.55683    0.007
 4444.00    2.46345   1.56155    0.007
 4445.00    2.41572   1.55858    0.007
 4446.00    2.40349   1.55292    0.007
 4447.00    2.27434   1.55231    0.007
 4448.00    2.12082   1.55855    0.007
 4449.00    2.35219   1.56488    0.007
 4450.00    2.64680   1.56271    0.007
 4451.00    2.89842   1.55789    0.007
 4452.00    3.14474   1.55984    0.007
 4453.00    3.02663   1.56699    0.007
 4454.00    2.87752   1.57078    0.007
 4455.00    2.61955   1.57286    0.007
 4456.00    2.35620   1.57579    0.007
 4457.00    2.56713   1.57614    0.007
 4458.00    2.77452   1.57472    0.007
 4459.00    2.28659   1.57415    0.007
 4460.00    1.81649   1.57357    0.007
 4461.00    1.70750   1.57212    0.000
 4462.00    1.62502   1.57242    0.000
 4463.00    1.85400   1.57447    0.000
 4464.00    2.10123   1.57478    0.000
 4465.00    2.49640   1.57158    0.000
 4466.00    2.78045   1.56659    0.000
 4467.00    2.38821   1.56067    0.000
 4468.00    2.13922   1.54683    0.000
 4469.00    2.57750   1.48376    0.000
 4470.00    2.93926   1.37878    0.000
 4471.00    3.00224   1.37361    0.000
 4472.00    2.90636   1.48120    0.000
 4473.00    2.29392   1.55722    0.000
 4474.00    1.88951   1.57574    0.000
 4475.00    2.05745   1.58144    0.000
 4476.00    2.18575   1.58443    0.000
 4477.00    2.22067   1.58473    0.000
 4478.00    2.23218   1.57696    0.000
 4479.00    2.19602   1.55215    0.000
 4480.00    2.25389   1.53609    0.000
 4481.00    2.47843   1.55408    0.000
 4482.00    2.62651   1.58403    0.007
 4483.00    2.65600   1.59437    0.007
 4484.00    2.75652   1.59650    0.007
 4485.00    2.95376   1.59949    0.007
 4486.00    3.12459   1.60066    0.007
 4487.00    3.26377   1.59911    0.007
 4488.00    3.10693   1.59663    0.007
 4489.00    2.63711   1.59687    0.007
 4490.00    2.40799   1.59895    0.007
 4491.00    2.40332   1.60014    0.007
 4492.00    2.49812   1.60223    0.007
 4493.00    2.67468   1.60429    0.007
 4494.00    2.27628   1.60455    0.007
 4495.00    1.46181   1.60572    0.007
 4496.00    1.66774   1.60598    0.007
 4497.00    2.52184   1.60716    0.007
 4498.00    2.89206   1.60926    0.007
 4499.00    2.99351   1.60674    0.007
 4500.00    2.96442   1.60419    0.007
 4501.00    2.87228   1.60259    0.007
 4502.00    2.83627   1.60654    0.007
 4503.00    2.82369   1.61235    0.007
 4504.00    3.04955   1.61352    0.007
 4505.00    3.36050   1.61189    0.006
 4506.00    3.35623   1.61303    0.006
 4507.00    3.25693   1.61324    0.006
 4508.00    3.14507   1.61067    0.006
 4509.00    3.03006   1.58948    0.006
 4510.00    3.23856   1.57198    0.006
 4511.00    3.51284   1.58336    0.006
 4512.00    2.75253   1.59656    0.006
 4513.00    1.82718   1.57428    0.006
 4514.00    1.58045   1.55666    0.006
 4515.00    1.41437   1.57465    0.006
 4516.00    1.51636   1.59547    0.006
 4517.00    1.64004   1.60131    0.006
 4518.00    2.42902   1.61186    0.006
 4519.00    3.24825   1.62147    0.007
 4520.00    3.11914   1.62449    0.006
 4521.00    2.97979   1.61992    0.006
 4522.00    2.91184   1.60875    0.006
 4523.00    2.85642   1.60521    0.006
 4524.00    3.03611   1.61582    0.006
 4525.00    3.18811   1.62454    0.006
 4526.00    3.02997   1.62754    0.006
 4527.00    2.89687   1.62102    0.006
 4528.00    2.95969   1.61170    0.006
 4529.00    3.02355   1.61287    0.006
 4530.00    3.09351   1.62071    0.006
 4531.00    3.12812   1.62850    0.006
 4532.00    2.99719   1.62574    0.006
 4533.00    2.78521   1.61536    0.006
 4534.00    2.26344   1.61461    0.006
 4535.00    2.07351   1.62149    0.006
 4536.00    2.94170   1.62064    0.006
 4537.00    3.61632   1.60716    0.006
 4538.00    3.76785   1.57602    0.006
 4539.00    3.67001   1.50531    0.006
 4540.00    2.99433   1.42247    0.006
 4541.00    2.63076   1.41818    0.006
 4542.00    2.89284   1.50070    0.006
 4543.00    3.04957   1.57141    0.006
 4544.00    3.02237   1.60546    0.006
 4545.00    2.93758   1.62501    0.006
 4546.00    2.76478   1.63483    0.006
 4547.00    2.52336   1.63592    0.006
 4548.00    2.18981   1.63602    0.006
 4549.00    1.99178   1.63809    0.006
 4550.00    1.95394   1.63818    0.000
 4551.00    2.13345   1.62759    0.000
 4552.00    2.53949   1.62486    0.000
 4553.00    2.88382   1.63382    0.000
 4554.00    3.17139   1.64277    0.000
 4555.00    3.22342   1.64781    0.000
 4556.00    3.08457   1.64894    0.000
 4557.00    2.78586   1.64814    0.000
 4558.00    2.37313   1.65127    0.000
 4559.00    2.51793   1.65634    0.000
 4560.00    3.01163   1.65845    0.000
 4561.00    2.92197   1.65857    0.000
 4562.00    2.51323   1.65866    0.000
 4563.00    2.58109   1.65780    0.000
 4564.00    2.87550   1.65988    0.000
 4565.00    2.71961   1.65890    0.000
 4566.00    2.37905   1.64890    0.000
 4567.00    2.22839   1.63104    0.000
 4568.00    2.14428   1.62139    0.000
 4569.00    2.52783   1.63566    0.000
 4570.00    3.04959   1.65763    0.000
 4571.00    2.86394   1.66367    0.000
 4572.00    2.50501   1.66376    0.000
 4573.00    2.55500   1.66086    0.000
 4574.00    2.68605   1.65902    0.000
 4575.00    2.91653   1.66418    0.000
 4576.00    3.16240   1.66928    0.000
 4577.00    3.01544   1.67038    0.000
 4578.00    2.82352   1.67047    0.000
 4579.00    2.88828   1.67157    0.000
 4580.00    2.97275   1.67366    0.000
 4581.00    2.67023   1.67371    0.000
 4582.00    2.35160   1.67175    0.000
 4583.00    2.56117   1.67187    0.000
 4584.00    2.77370   1.67501    0.000
 4585.00    2.91686   1.67599    0.000
 4586.00    3.03898   1.66894    0.000
 4587.00    2.79327   1.66606    0.000
 4588.00    2.57417   1.67108    0.000
 4589.00    2.63978   1.66590    0.000
 4590.00    2.72756   1.65691    0.000
 4591.00    2.98298   1.66226    0.000
 4592.00    3.19832   1.67565    0.000
 4593.00    3.18334   1.68271    0.000
 4594.00    3.10991   1.67651    0.000
 4595.00    2.76934   1.66947    0.000
 4596.00    2.55474   1.67278    0.000
 4597.00    2.81143   1.68315    0.000
 4598.00    2.91469   1.68830    0.000
 4599.00    2.53814   1.68818    0.000
 4600.00    2.27523   1.68097    0.000
 4601.00    2.31397   1.67804    0.000
 4602.00    2.41277   1.68334    0.000
 4603.00    2.64841   1.68960    0.000
 4604.00    2.72181   1.69267    0.000
 4605.00    2.47513   1.69061    0.000
 4606.00    2.44947   1.68959    0.000
 4607.00    2.80384   1.68834    0.000
 4608.00    2.92042   1.67651    0.000
 4609.00    2.67897   1.65590    0.000
 4610.00    2.74934   1.66057    0.000
 4611.00    3.23234   1.68464    0.000
 4612.00    3.17605   1.69605    0.000
 4613.00    2.49126   1.69614    0.000
 4614.00    2.14241   1.69931    0.000
 4615.00    2.13881   1.70137    0.000
 4616.00    2.17596   1.70015    0.000
 4617.00    2.25003   1.69270    0.000
 4618.00    2.57707   1.68752    0.000
 4619.00    3.10620   1.69080    0.000
 4620.00    3.27494   1.69718    0.000
 4621.00    3.19037   1.70151    0.000
 4622.00    3.01192   1.70682    0.000
 4623.00    2.77561   1.70996    0.000
 4624.00    2.65401   1.70994    0.000
 4625.00    2.59420   1.70997    0.000
 4626.00    2.77068   1.71206    0.000
 4627.00    3.05768   1.71185    0.000
 4628.00    3.05640   1.70470    0.000
 4629.00    2.93889   1.67644    0.000
 4630.00    2.57831   1.64926    0.000
 4631.00    2.13410   1.66272    0.000
 4632.00    2.11112   1.69259    0.000
 4633.00    2.21014   1.70429    0.000
 4634.00    2.35529   1.70873    0.000
 4635.00    2.51149   1.71719    0.000
 4636.00    2.80880   1.71691    0.000
 4637.00    3.13336   1.70918    0.000
 4638.00    2.98964   1.70157    0.000
 4639.00    2.77564   1.69806    0.000
 4640.00    2.63888   1.69054    0.000
 4641.00    2.51063   1.69202    0.000
 4642.00    3.20221   1.70841    0.000
 4643.00    3.95341   1.72198    0.000
 4644.00    3.45111   1.71146    0.000
 4645.00    2.90142   1.65027    0.000
 4646.00    2.85423   1.58589    0.000
 4647.00    2.80837   1.59609    0.000
 4648.00    2.71687   1.61853    0.000
 4649.00    2.65666   1.58684    0.000
 4650.00    3.10791   1.58087    0.000
 4651.00    3.52153   1.63675    0.000
 4652.00    3.55000   1.66856    0.000
 4653.00    3.53473   1.65587    0.000
 4654.00    3.19984   1.67128    0.000
 4655.00    2.92162   1.71613    0.000
 4656.00    2.96030   1.73329    0.000
 4657.00    2.91040   1.72988    0.000
 4658.00    2.46532   1.72766    0.000
 4659.00    2.10287   1.72856    0.000
 4660.00    2.04313   1.72606    0.000
 4661.00    2.05411   1.72033    0.000
 4662.00    2.28209   1.71643    0.000
 4663.00    2.49765   1.70252    0.000
 4664.00    2.68080   1.68490    0.000
 4665.00    2.75085   1.68652    0.000
 4666.00    2.56740   1.70657    0.000
 4667.00    2.41842   1.72218    0.000
 4668.00    2.33634   1.73373    0.000
 4669.00    2.30026   1.75277    0.000
 4670.00    2.34207   1.76427    0.000
 4671.00    2.53252   1.74980    0.000
 4672.00    2.94352   1.71958    0.000
 4673.00    3.10743   1.71219    0.000
 4674.00    2.94905   1.72562    0.000
 4675.00    2.78641   1.73443    0.000
 4676.00    2.61888   1.73781    0.000
 4677.00    2.70935   1.74329    0.000
 4678.00    3.06126   1.74644    0.000
 4679.00    2.96188   1.74618    0.000
 4680.00    2.45915   1.74338    0.000
 4681.00    2.26635   1.73228    0.000
 4682.00    2.31764   1.70639    0.000
 4683.00    2.56294   1.61548    0.000
 4684.00    2.94261   1.46947    0.000
 4685.00    2.87808   1.43384    0.000
 4686.00    2.54377   1.56146    0.000
 4687.00    2.50004   1.68716    0.000
 4688.00    2.61039   1.73122    0.000
 4689.00    2.79180   1.74578    0.000
 4690.00    3.00590   1.75025    0.000
 4691.00    3.14237   1.75478    0.000
 4692.00    3.24808   1.76026    0.000
 4693.00    3.07191   1.76124    0.000
 4694.00    2.80056   1.76217    0.000
 4695.00    2.44795   1.76202    0.000
 4696.00    2.07227   1.76253    0.000
 4697.00    2.47188   1.75289    0.000
 4698.00    3.05299   1.74492    0.000
 4699.00    2.79830   1.74973    0.000
 4700.00    2.38638   1.76093    0.000
 4701.00    2.22458   1.76291    0.000
 4702.00    2.09916   1.76132    0.000
 4703.00    2.19638   1.75623    0.000
 4704.00    2.31714   1.74939    0.000
 4705.00    2.31374   1.75438    0.000
 4706.00    2.30181   1.76920    0.000
 4707.00    2.36880   1.77443    0.000
 4708.00    2.43847   1.76956    0.000
 4709.00    2.33910   1.76818    0.000
 4710.00    2.24832   1.76619    0.000
 4711.00    2.44520   1.72737    0.000
 4712.00    2.63530   1.68893    0.000
 4713.00    2.72152   1.71047    0.000
 4714.00    2.77988   1.76028    0.000
 4715.00    2.56506   1.77400    0.000
 4716.00    2.40750   1.77749    0.000
 4717.00    2.65490   1.78322    0.000
 4718.00    2.93947   1.78757    0.000
 4719.00    3.42620   1.78731    0.000
 4720.00    3.67791   1.78709    0.000
 4721.00    2.90530   1.78802    0.000
 4722.00    2.43335   1.78896    0.000
 4723.00    3.04003   1.78990    0.000
 4724.00    3.40938   1.79079    0.000
 4725.00    3.06427   1.79043    0.000
 4726.00    2.72282   1.78900    0.000
 4727.00    2.39072   1.78997    0.000
 4728.00    2.17687   1.79200    0.000
 4729.00    2.22367   1.79182    0.000
 4730.00    2.31448   1.79390    0.000
 4731.00    2.48944   1.79490    0.000
 4732.00    2.57702   1.79701    0.000
 4733.00    2.51881   1.79775    0.000
 4734.00    2.50559   1.79516    0.000
 4735.00    2.55817   1.79612    0.000
 4736.00    2.57051   1.79826    0.000
 4737.00    2.53110   1.80030    0.000
 4738.00    2.40891   1.79998    0.000
 4739.00    2.19294   1.79971    0.000
 4740.00    2.26990   1.80068    0.000
 4741.00    2.63953   1.80284    0.000
 4742.00    2.92027   1.80493    0.000
 4743.00    3.12269   1.80578    0.000
 4744.00    3.32404   1.80549    0.000
 4745.00    3.52456   1.80646    0.000
 4746.00    3.45544   1.80849    0.000
 4747.00    3.20228   1.80820    0.000
 4748.00    3.18632   1.80903    0.000
 4749.00    3.31229   1.80861    0.000
 4750.00    2.89021   1.80712    0.000
 4751.00    2.18205   1.80807    0.000
 4752.00    2.14519   1.81020    0.000
 4753.00    2.41220   1.81228    0.000
 4754.00    2.77693   1.81309    0.000
 4755.00    3.17971   1.81284    0.000
 4756.00    3.12936   1.81493    0.000
 4757.00    2.92887   1.81582    0.000
 4758.00    2.69488   1.81671    0.000
 4759.00    2.45158   1.81752    0.000
 4760.00    2.30614   1.81718    0.000
 4761.00    2.18308   1.81796    0.006
 4762.00    2.37633   1.81754    0.006
 4763.00    2.62752   1.81728    0.006
 4764.00    2.47222   1.81935    0.006
 4765.00    2.25968   1.82029    0.006
 4766.00    2.21471   1.82238    0.006
 4767.00    2.18673   1.82326    0.006
 4768.00    2.44231   1.82414    0.006
 4769.00    2.71622   1.82501    0.006
 4770.00    2.91701   1.82578    0.006
 4771.00    3.11443   1.82541    0.006
 4772.00    2.73503   1.82621    0.006
 4773.00    2.37638   1.82594    0.006
 4774.00    2.61905   1.82802    0.006
 4775.00    2.85846   1.82887    0.006
 4776.00    3.05073   1.82964    0.006
 4777.00    3.19848   1.82919    0.006
 4778.00    2.92742   1.82872    0.006
 4779.00    2.68427   1.82841    0.005
 4780.00    2.63225   1.83048    0.005
 4781.00    2.64262   1.83124    0.005
 4782.00    2.98352   1.83083    0.005
 4783.00    3.21543   1.83110    0.005
 4784.00    2.98312   1.82285    0.005
 4785.00    2.73796   1.81660    0.005
 4786.00    2.44764   1.82290    0.005
 4787.00    2.28999   1.83252    0.005
 4788.00    2.52429   1.83589    0.005
 4789.00    2.64719   1.83795    0.005
 4790.00    2.48960   1.83870    0.005
 4791.00    2.38265   1.83829    0.005
 4792.00    2.38554   1.83912    0.005
 4793.00    2.54674   1.84004    0.005
 4794.00    3.00590   1.84219    0.006
 4795.00    3.28264   1.84424    0.006
 4796.00    3.25961   1.84487    0.006
 4797.00    3.09956   1.84301    0.006
 4798.00    2.74208   1.84131    0.005
 4799.00    2.52788   1.84220    0.005
 4800.00    2.49527   1.84418    0.005
 4801.00    2.46881   1.84366    0.006
 4802.00    2.44923   1.84339    0.006
 4803.00    2.52416   1.84676    0.006
 4804.00    2.69218   1.84879    0.005
 4805.00    2.74925   1.84967    0.005
 4806.00    2.70992   1.85164    0.006
 4807.00    2.77195   1.85091    0.005
 4808.00    2.91154   1.84775    0.005
 4809.00    2.99391   1.84630    0.005
 4810.00    3.03778   1.85076    0.005
 4811.00    2.92146   1.84992    0.005
 4812.00    2.71075   1.84565    0.005
 4813.00    2.67181   1.84670    0.005
 4814.00    2.72114   1.85145    0.005
 4815.00    2.56855   1.85485    0.005
 4816.00    2.32606   1.85680    0.005
 4817.00    2.34290   1.85584    0.005
 4818.00    2.45894   1.85009    0.005
 4819.00    2.69300   1.84878    0.005
 4820.00    2.96544   1.85617    0.006
 4821.00    2.97841   1.86063    0.005
 4822.00    2.92076   1.85998    0.005
 4823.00    2.90896   1.85945    0.005
 4824.00    2.90741   1.86023    0.005
 4825.00    2.85069   1.86102    0.005
 4826.00    2.78413   1.86129    0.005
 4827.00    2.40395   1.85544    0.005
 4828.00    1.98103   1.85391    0.005
 4829.00    2.14153   1.85889    0.005
 4830.00    2.35872   1.86485    0.005
 4831.00    2.33260   1.86676    0.005
 4832.00    2.29173   1.86623    0.005
 4833.00    2.38710   1.86678    0.005
 4834.00    2.48732   1.86494    0.005
 4835.00    2.80826   1.86566    0.005
 4836.00    3.10439   1.86629    0.006
 4837.00    2.75277   1.86562    0.005
 4838.00    2.40729   1.86492    0.005
 4839.00    2.14571   1.86423    0.005
 4840.00    1.95148   1.86366    0.005
 4841.00    2.36606   1.86427    0.005
 4842.00    2.72823   1.86346    0.005
 4843.00    2.74272   1.86135    0.005
 4844.00    2.70859   1.85925    0.005
 4845.00    2.42355   1.85713    0.006
 4846.00    2.19023   1.85465    0.006
 4847.00    2.17221   1.84836    0.006
 4848.00    2.18769   1.84336    0.000
 4849.00    2.31854   1.83817    0.000
 4850.00    2.45497   1.83010    0.000
 4851.00    2.60754   1.81939    0.000
 4852.00    2.75651   1.80809    0.000
 4853.00    2.89659   1.78943    0.000
 4854.00    2.89073   1.76077    0.000
 4855.00    2.57351   1.72076    0.000
 4856.00    2.27374   1.65198    0.000
 4857.00    2.00630   1.53583    0.000
 4858.00    2.16383   1.38922    0.000
 4859.00    3.00931   1.24338    0.000
 4860.00    3.12612   1.16121    0.000
 4861.00    2.20821   1.21399    0.000
 4862.00    1.68903   1.38916    0.000
 4863.00    1.66799   1.55908    0.000
 4864.00    1.83924   1.66284    0.000
 4865.00    2.22221   1.69794    0.000
 4866.00    2.44164   1.71881    0.000
 4867.00    2.50222   1.75931    0.000
 4868.00    2.55579   1.80928    0.000
 4869.00    2.60336   1.82917    0.000
 4870.00    2.71507   1.83833    0.000
 4871.00    2.87516   1.84584    0.000
 4872.00    2.54383   1.84965    0.000
 4873.00    1.88676   1.85635    0.000
 4874.00    1.71287   1.86571    0.000
 4875.00    1.81943   1.87459   -1.000
 4876.00    2.09555   1.87816   -1.000
 4877.00    2.45743   1.88173   -1.000
 4878.00    2.77205   1.88532   -1.000
 4879.00    3.06598   1.88878   -1.000
 4880.00    2.80562   1.89087   -1.000
 4881.00    2.33693   1.89259   -1.000
 4882.00    2.42705   1.89043   -1.000
 4883.00    2.69540   1.88984   -1.000
 4884.00    2.44616   1.89229    0.014
 4885.00    2.05896   1.89855    0.006
 4886.00    1.98751   1.90202    0.006
 4887.00    1.98495   1.90389    0.006
 4888.00    1.93533   1.90292    0.006
 4889.00    1.87754   1.90056    0.006
 4890.00    2.07361   1.89884    0.006
 4891.00    2.30311   1.90392    0.006
 4892.00    2.22986   1.90879    0.006
 4893.00    2.12848   1.91094    0.006
 4894.00    2.54615   1.91293    0.006
 4895.00    2.99325   1.91355    0.006
 4896.00    2.63415   1.91391    0.006
 4897.00    2.26351   1.91128    0.006
 4898.00    2.64112   1.90642    0.006
 4899.00    2.99271   1.90752    0.006
 4900.00    2.72685   1.91397    0.006
 4901.00    2.47391   1.91855    0.006
 4902.00    2.38809   1.91752    0.006
 4903.00    2.33263   1.91525    0.006
 4904.00    2.54112   1.91424    0.006
 4905.00    2.69563   1.91212    0.006
 4906.00    2.50276   1.91311    0.006
 4907.00    2.33596   1.91819    0.006
 4908.00    2.30021   1.92287    0.006
 4909.00    2.32263   1.92343    0.006
 4910.00    2.58181   1.92402    0.006
 4911.00    2.81624   1.92476    0.006
 4912.00    2.96713   1.92674    0.006
 4913.00    2.99715   1.92734    0.006
 4914.00    2.68303   1.92766    0.006
 4915.00    2.46356   1.92534    0.006
 4916.00    2.47437   1.92436    0.006
 4917.00    2.53306   1.92293    0.006
 4918.00    2.69224   1.91677    0.006
 4919.00    2.70044   1.90395    0.006
 4920.00    2.43314   1.88087    0.006
 4921.00    2.36803   1.86807    0.006
 4922.00    2.62534   1.87513    0.006
 4923.00    2.63076   1.88624    0.006
 4924.00    2.28365   1.89686    0.006
 4925.00    2.22967   1.91574    0.006
 4926.00    2.53670   1.93221    0.006
 4927.00    2.67876   1.93835    0.005
 4928.00    2.64173   1.93892    0.005
 4929.00    2.45828   1.93962    0.005
 4930.00    2.13463   1.94155    0.005
 4931.00    2.19484   1.94193    0.005
 4932.00    2.57916   1.94103    0.005
 4933.00    2.60737   1.94154    0.005
 4934.00    2.37081   1.94226    0.005
 4935.00    2.48793   1.94408    0.005
 4936.00    2.83604   1.94319    0.005
 4937.00    2.81179   1.94368    0.005
 4938.00    2.57466   1.94390    0.005
 4939.00    2.30024   1.94150    0.005
 4940.00    2.00726   1.94004    0.000
 4941.00    2.26363   1.93508    0.000
 4942.00    2.75657   1.93745    0.000
 4943.00    2.90929   1.94282    0.000
 4944.00    2.93639   1.94913    0.000
 4945.00    2.66703   1.95105    0.000
 4946.00    2.30493   1.95141    0.000
 4947.00    2.55707   1.95036    0.000
 4948.00    2.96947   1.94930    0.000
 4949.00    3.03889   1.94838    0.000
 4950.00    3.03528   1.94919    0.000
 4951.00    2.53920   1.95268    0.000
 4952.00    1.96014   1.95459    0.000
 4953.00    1.89410   1.95493    0.000
 4954.00    1.89331   1.95383    0.000
 4955.00    2.18907   1.95285    0.000
 4956.00    2.51113   1.95343    0.000
 4957.00    2.26797   1.95549    0.000
 4958.00    1.99499   1.95763    0.000
 4959.00    2.24760   1.95961    0.000
 4960.00    2.50682   1.96026    0.000
 4961.00    2.49632   1.96200    0.000
 4962.00    2.47945   1.96104    0.000
 4963.00    2.32397   1.96151    0.000
 4964.00    2.16688   1.96195    0.000
 4965.00    1.99002   1.96257    0.000
 4966.00    1.83850   1.96447    0.000
 4967.00    1.89907   1.96494    0.000
 4968.00    1.96681   1.96540    0.000
 4969.00    2.07925   1.96587    0.000
 4970.00    2.19229   1.96650    0.000
 4971.00    2.30830   1.96858    0.000
 4972.00    2.41895   1.97032    0.000
 4973.00    2.50823   1.96934    0.000
 4974.00    2.56910   1.96979    0.000
 4975.00    2.53594   1.97023    0.000
 4976.00    2.48299   1.97066    0.000
 4977.00    2.37475   1.97108    0.000
 4978.00    2.30854   1.97151    0.000
 4979.00    2.34282   1.97177    0.000
 4980.00    2.25510   1.96986    0.000
 4981.00    1.91537   1.96226    0.000
 4982.00    1.74130   1.95733    0.000
 4983.00    1.86490   1.96301    0.000
 4984.00    1.93800   1.97111    0.000
 4985.00    1.93175   1.97466    0.000
 4986.00    1.91277   1.97658    0.000
 4987.00    1.87622   1.97700    0.000
 4988.00    1.90116   1.97740    0.000
 4989.00    2.00074   1.97726    0.000
 4990.00    2.13481   1.97343    0.000
 4991.00    2.30578   1.97532    0.000
 4992.00    2.31500   1.97591    0.000
 4993.00    2.17149   1.97796    0.000
 4994.00    2.09430   1.98002    0.000
 4995.00    2.07231   1.98208    0.000
 4996.00    2.30815   1.98377    0.000
 4997.00    2.73294   1.98250    0.000
 4998.00    2.62448   1.98048    0.000
 4999.00    2.17286   1.97253    0.000
 5000.00    2.20280   1.96530    0.000
 5001.00    2.50384   1.96510    0.000
 5002.00    2.58145   1.97326    0.000
 5003.00    2.54960   1.97678    0.000
 5004.00    2.37499   1.97860    0.000
 5005.00    2.13994   1.97894    0.000
 5006.00    2.20926   1.97950    0.000
 5007.00    2.38894   1.98140    0.000
 5008.00    2.12515   1.98179    0.000
 5009.00    1.72533   1.98233    0.000
 5010.00    1.98905   1.98452    0.000
 5011.00    2.42219   1.98783    0.000
 5012.00    2.45643   1.98551    0.000
 5013.00    2.40779   1.95804    0.000
 5014.00    2.03668   1.90260    0.000
 5015.00    1.61278   1.89229    0.000
 5016.00    2.03067   1.93103    0.000
 5017.00    2.55188   1.96392    0.000
 5018.00    2.27841   1.97480    0.000
 5019.00    1.93777   1.98796    0.000
 5020.00    2.21449   1.99433    0.000
 5021.00    2.52137   1.99465    0.000
 5022.00    2.46075   1.99499    0.000
 5023.00    2.39540   1.99476    0.000
 5024.00    2.38887   1.98999    0.000
 5025.00    2.37579   1.98597    0.000
 5026.00    2.23158   1.98855    0.000
 5027.00    2.08498   1.99549    0.000
 5028.00    1.91063   2.00037    0.000
 5029.00    1.79347   2.00049    0.005
 5030.00    2.13804   1.99889    0.005
 5031.00    2.45842   1.99638    0.005
 5032.00    2.63215   1.99862    0.005
 5033.00    2.74799   2.00195    0.005
 5034.00    2.58694   2.00200    0.005
 5035.00    2.40738   2.00095    0.005
 5036.00    2.15569   2.00299    0.005
 5037.00    2.07273   2.00461    0.005
 5038.00    2.53707   2.00211    0.005
 5039.00    2.75549   1.99275    0.005
 5040.00    2.29887   1.99075    0.005
 5041.00    1.90229   1.99822    0.005
 5042.00    1.64691   2.00603    0.005
 5043.00    1.65486   2.00462    0.005
 5044.00    2.19809   2.00296    0.005
 5045.00    2.44773   1.99913    0.005
 5046.00    2.17792   1.99127    0.005
 5047.00    2.03010   1.98967    0.005
 5048.00    2.07112   2.00059    0.005
 5049.00    2.05945   2.01181    0.005
 5050.00    1.97613   2.01425    0.005
 5051.00    1.95530   2.01977    0.005
 5052.00    2.00925   2.02447    0.005
 5053.00    2.01431   2.02085    0.005
 5054.00    1.96776   2.00262    0.005
 5055.00    1.89132   1.99288    0.005
 5056.00    1.78706   2.00104    0.005
 5057.00    1.77548   2.01412    0.005
 5058.00    1.83996   2.01768    0.005
 5059.00    1.89935   2.01926    0.005
 5060.00    1.95505   2.01796    0.005
 5061.00    2.28406   2.01820    0.005
 5062.00    2.78634   2.01863    0.005
 5063.00    2.65906   2.02036    0.005
 5064.00    2.18277   2.02056    0.005
 5065.00    1.86083   2.02102    0.005
 5066.00    1.61330   2.02281    0.005
 5067.00    1.95797   2.02303    0.005
 5068.00    2.54917   2.02348    0.005
 5069.00    2.66141   2.02504    0.005
 5070.00    2.60310   2.02369    0.005
 5071.00    2.29543   2.02343    0.005
 5072.00    1.91277   2.02051    0.005
 5073.00    2.18206   2.02095    0.005
 5074.00    2.61419   2.02316    0.005
 5075.00    2.48466   2.02649    0.005
 5076.00    2.24132   2.02693    0.005
 5077.00    2.24158   2.02845    0.005
 5078.00    2.28056   2.02725    0.005
 5079.00    2.28109   2.02875    0.005
 5080.00    2.27707   2.02761    0.005
 5081.00    2.14562   2.02940    0.005
 5082.00    2.00394   2.02982    0.005
 5083.00    2.08115   2.03159    0.005
 5084.00    2.16822   2.03156    0.005
 5085.00    2.12087   2.03016    0.005
 5086.00    2.07639   2.03032    0.005
 5087.00    2.25357   2.03095    0.005
 5088.00    2.43266   2.03430    0.005
 5089.00    2.64742   2.03447    0.005
 5090.00    2.81129   2.03463    0.005
 5091.00    2.40833   2.03480    0.005
 5092.00    2.05674   2.03496    0.005
 5093.00    2.10537   2.03536    0.005
 5094.00    2.14080   2.03708    0.005
 5095.00    2.09850   2.03697    0.005
 5096.00    2.09941   2.03549    0.005
 5097.00    2.30195   2.03560    0.005
 5098.00    2.43151   2.03548    0.005
 5099.00    2.28290   2.03428    0.005
 5100.00    2.18023   2.03629    0.005
 5101.00    2.22368   2.03828    0.005
 5102.00    2.21717   2.04001    0.005
 5103.00    2.07593   2.04038    0.005
 5104.00    2.00173   2.04234    0.005
 5105.00    2.08255   2.04381    0.005
 5106.00    2.07233   2.04231    0.005
 5107.00    1.87999   2.04267    0.005
 5108.00    1.86340   2.04439    0.005
 5109.00    2.15307   2.04450    0.005
 5110.00    2.41535   2.04488    0.005
 5111.00    2.63586   2.04612    0.005
 5112.00    2.59930   2.04277    0.005
 5113.00    2.21827   2.04151    0.005
 5114.00    2.06118   2.04372    0.005
 5115.00    2.16836   2.04730    0.005
 5116.00    2.23772   2.04902    0.005
 5117.00    2.26771   2.04937    0.005
 5118.00    2.30637   2.05107    0.005
 5119.00    2.35298   2.05088    0.005
 5120.00    2.41573   2.04908    0.005
 5121.00    2.49154   2.04751    0.005
 5122.00    2.50441   2.04807    0.005
 5123.00    2.47249   2.05163    0.005
 5124.00    2.19311   2.05256    0.005
 5125.00    1.75915   2.04726    0.005
 5126.00    1.65060   2.04433    0.005
 5127.00    1.71968   2.04679    0.005
 5128.00    1.92409   2.05224    0.005
 5129.00    2.19271   2.05557    0.005
 5130.00    2.32097   2.05512    0.005
 5131.00    2.39178   2.05166    0.005
 5132.00    2.37317   2.05060    0.005
 5133.00    2.32329   2.05445    0.005
 5134.00    2.13413   2.05778    0.005
 5135.00    1.90392   2.05782    0.005
 5136.00    1.95477   2.05783    0.005
 5137.00    2.07429   2.05784    0.005
 5138.00    2.12361   2.05786    0.005
 5139.00    2.15906   2.05818    0.005
 5140.00    2.01070   2.05960    0.005
 5141.00    1.83400   2.05769    0.005
 5142.00    1.97690   2.05552    0.005
 5143.00    2.15620   2.05255    0.005
 5144.00    2.50980   2.05476    0.005
 5145.00    2.87670   2.05887    0.005
 5146.00    2.40446   2.06381    0.005
 5147.00    1.89768   2.06383    0.005
 5148.00    1.67701   2.06330    0.005
 5149.00    1.47495   2.06001    0.005
 5150.00    1.95724   2.06056    0.005
 5151.00    2.40966   2.06413    0.005
 5152.00    2.34451   2.06577    0.005
 5153.00    2.30168   2.06522    0.005
 5154.00    2.49640   2.06192    0.005
 5155.00    2.64566   2.06221    0.005
 5156.00    2.45273   2.06556    0.005
 5157.00    2.28462   2.07579    0.005
 5158.00    2.25861   2.07687    0.005
 5159.00    2.23844   2.07297    0.005
 5160.00    2.24485   2.06962    0.005
 5161.00    2.28319   2.06957    0.005
 5162.00    2.44066   2.06982    0.005
 5163.00    2.53395   2.07146    0.005
 5164.00    2.42704   2.07138    0.005
 5165.00    2.30619   2.07097    0.005
 5166.00    2.14841   2.06859    0.005
 5167.00    1.88105   2.06517    0.005
 5168.00    1.36448   2.06575    0.005
 5169.00    1.18083   2.06941    0.005
 5170.00    1.65273   2.07103    0.005
 5171.00    1.87738   2.07090    0.005
 5172.00    1.67769   2.07143    0.005
 5173.00    1.60812   2.07513    0.005
 5174.00    1.73410   2.07684    0.005
 5175.00    1.81451   2.07679    0.005
 5176.00    1.83474   2.07703    0.005
 5177.00    1.88402   2.07835    0.005
 5178.00    1.96711   2.07660    0.005
 5179.00    1.91149   2.07710    0.005
 5180.00    1.71356   2.08037    0.005
 5181.00    1.80456   2.07992    0.005
 5182.00    2.15700   2.07805    0.005
 5183.00    2.29209   2.07794    0.005
 5184.00    2.25386   2.07825    0.005
 5185.00    2.26695   2.08024    0.005
 5186.00    2.31604   2.08218    0.005
 5187.00    2.18403   2.08346    0.005
 5188.00    1.94056   2.08137    0.005
 5189.00    1.79125   2.07928    0.005
 5190.00    1.69254   2.07744    0.000
 5191.00    1.80770   2.07728    0.000
 5192.00    2.02269   2.07749    0.000
 5193.00    1.81748   2.07972    0.000
 5194.00    1.44324   2.08331    0.000
 5195.00    1.67667   2.08458    0.000
 5196.00    2.11866   2.08276    0.000
 5197.00    2.34095   2.08265    0.000
 5198.00    2.49977   2.08101    0.000
 5199.00    2.27564   2.07236    0.000
 5200.00    1.96005   2.07314    0.000
 5201.00    1.80670   2.07843    0.000
 5202.00    1.68458   2.07842    0.000
 5203.00    1.87315   2.06969    0.000
 5204.00    2.10816   2.07074    0.000
 5205.00    2.04106   2.07837    0.000
 5206.00    1.94086   2.08400    0.000
 5207.00    2.07333   2.08790    0.000
 5208.00    2.22260   2.09150    0.000
 5209.00    2.32333   2.09279    0.000
 5210.00    2.42225   2.08968    0.000
 5211.00    2.38881   2.08299    0.005
 5212.00    2.35443   2.08552    0.005
 5213.00    2.30809   2.09082    0.005
 5214.00    2.24931   2.09201    0.005
 5215.00    1.98898   2.09008    0.005
 5216.00    1.76891   2.09024    0.005
 5217.00    1.95859   2.09248    0.005
 5218.00    2.15137   2.09579    0.005
 5219.00    2.36670   2.09594    0.005
 5220.00    2.54568   2.09750    0.005
 5221.00    2.52220   2.09731    0.005
 5222.00    2.46621   2.09742    0.005
 5223.00    2.26558   2.09859    0.005
 5224.00    2.08359   2.09562    0.005
 5225.00    1.96967   2.08981    0.005
 5226.00    1.90774   2.08818    0.005
 5227.00    2.00493   2.09077    0.005
 5228.00    2.02630   2.09653    0.005
 5229.00    1.85039   2.10016    0.005
 5230.00    1.70263   2.10169    0.005
 5231.00    1.61782   2.10111    0.005
 5232.00    1.69298   2.09877    0.005
 5233.00    2.07824   2.09712    0.005
 5234.00    2.31134   2.09900    0.005
 5235.00    2.28725   2.10057    0.005
 5236.00    2.25614   2.10070    0.005
 5237.00    2.21464   2.10257    0.005
 5238.00    2.16874   2.10443    0.005
 5239.00    2.11711   2.10561    0.005
 5240.00    2.19022   2.10397    0.005
 5241.00    2.40640   2.10548    0.005
 5242.00    2.35808   2.10454    0.005
 5243.00    2.04219   2.10149    0.005
 5244.00    1.91255   2.10545    0.005
 5245.00    1.94906   2.10901    0.005
 5246.00    2.00074   2.10902    0.005
 5247.00    2.06436   2.10080    0.005
 5248.00    2.15723   2.09800    0.005
 5249.00    2.27034   2.10104    0.005
 5250.00    2.17607   2.10564    0.005
 5251.00    1.95609   2.10226    0.005
 5252.00    1.82551   2.09664    0.005
 5253.00    1.74224   2.09638    0.005
 5254.00    1.73924   2.10352    0.005
 5255.00    1.77309   2.10888    0.005
 5256.00    2.15584   2.10949    0.005
 5257.00    2.67652   2.10986    0.005
 5258.00    2.69284   2.10896    0.005
 5259.00    2.53926   2.10725    0.005
 5260.00    2.46874   2.10660    0.005
 5261.00    2.42172   2.10781    0.005
 5262.00    2.41646   2.10525    0.005
 5263.00    2.42095   2.10374    0.005
 5264.00    2.17857   2.10455    0.005
 5265.00    1.88991   2.10879    0.005
 5266.00    1.74197   2.11181    0.005
 5267.00    1.61442   2.11235    0.005
 5268.00    1.54206   2.10988    0.005
 5269.00    1.47550   2.10768    0.005
 5270.00    1.73143   2.09956    0.005
 5271.00    2.00935   2.09243    0.005
 5272.00    1.85813   2.09538    0.005
 5273.00    1.69251   2.10641    0.005
 5274.00    1.77801   2.11264    0.005
 5275.00    1.85999   2.11204    0.005
 5276.00    1.82028   2.11533    0.005
 5277.00    1.78597   2.11767    0.005
 5278.00    1.83380   2.11789    0.005
 5279.00    1.87222   2.11788    0.005
 5280.00    1.81881   2.11855    0.005
 5281.00    1.79996   2.11882    0.005
 5282.00    2.02453   2.11797    0.005
 5283.00    2.20063   2.11730    0.005
 5284.00    2.11384   2.11857    0.005
 5285.00    2.04010   2.12098    0.005
 5286.00    2.02312   2.12262    0.005
 5287.00    2.03323   2.12329    0.005
 5288.00    2.14029   2.12375    0.005
 5289.00    2.30574   2.12386    0.005
 5290.00    2.64650   2.12316    0.005
 5291.00    2.85020   2.12322    0.005
 5292.00    2.70349   2.12432    0.005
 5293.00    2.45857   2.12502    0.005
 5294.00    1.99760   2.12462    0.005
 5295.00    1.79997   2.12392    0.005
 5296.00    2.10481   2.12194    0.005
 5297.00    2.28215   2.12053    0.005
 5298.00    2.24722   2.12198    0.005
 5299.00    2.15810   2.12446    0.005
 5300.00    1.98993   2.12550    0.005
 5301.00    1.99333   2.12525    0.005
 5302.00    2.21691   2.12563    0.005
 5303.00    2.40238   2.12536    0.005
 5304.00    2.54474   2.12467    0.005
 5305.00    2.64430   2.12502    0.005
 5306.00    2.70116   2.12698    0.005
 5307.00    2.63983   2.12839    0.005
 5308.00    2.47453   2.12794    0.005
 5309.00    2.46998   2.12766    0.005
 5310.00    2.58999   2.12900    0.005
 5311.00    2.44462   2.12973    0.005
 5312.00    2.11842   2.12773    0.005
 5313.00    1.95783   2.12576    0.005
 5314.00    1.89613   2.12402    0.005
 5315.00    1.97163   2.12299    0.005
 5316.00    2.11859   2.12432    0.005
 5317.00    2.09891   2.12835    0.005
 5318.00    2.00395   2.12718    0.005
 5319.00    1.90974   2.11450    0.005
 5320.00    1.81583   2.11349    0.005
 5321.00    2.06870   2.12276    0.005
 5322.00    2.43621   2.13237    0.005
 5323.00    2.24728   2.13199    0.005
 5324.00    1.90406   2.13092    0.005
 5325.00    1.70828   2.12460    0.005
 5326.00    1.54613   2.12109    0.005
 5327.00    1.64082   2.12252    0.005
 5328.00    1.78239   2.12838    0.005
 5329.00    1.79396   2.13125    0.005
 5330.00    1.78730   2.13342    0.005
 5331.00    2.04689   2.13464    0.005
 5332.00    2.33334   2.13425    0.005
 5333.00    2.07195   2.13361    0.005
 5334.00    1.77542   2.13429    0.005
 5335.00    1.87360   2.13509    0.005
 5336.00    1.98412   2.13558    0.005
 5337.00    2.33134   2.13543    0.005
 5338.00    2.65449   2.13506    0.005
 5339.00    2.28951   2.13529    0.005
 5340.00    1.95300   2.13510    0.005
 5341.00    2.02500   2.13548    0.005
 5342.00    2.10941   2.13676    0.005
 5343.00    2.30994   2.13705    0.005
 5344.00    2.49541   2.13081    0.005
 5345.00    2.57821   2.12986    0.005
 5346.00    2.63284   2.13460    0.005
 5347.00    2.53873   2.14014    0.005
 5348.00    2.44122   2.14032    0.005
 5349.00    2.32925   2.14072    0.005
 5350.00    2.24627   2.14109    0.005
 5351.00    2.26492   2.14125    0.005
 5352.00    2.28972   2.14164    0.005
 5353.00    2.33264   2.14305    0.005
 5354.00    2.37396   2.14377    0.005
 5355.00    2.41126   2.14395    0.005
 5356.00    2.43056   2.14419    0.005
 5357.00    2.41093   2.14373    0.005
 5358.00    2.44966   2.14270    0.005
 5359.00    2.59805   2.14187    0.005
 5360.00    2.52111   2.14174    0.005
 5361.00    2.07463   2.14084    0.005
 5362.00    1.87179   2.14093    0.005
 5363.00    2.01935   2.14215    0.005
 5364.00    2.08051   2.14381    0.005
 5365.00    2.03235   2.14412    0.005
 5366.00    1.96265   2.14423    0.005
 5367.00    1.86892   2.14433    0.005
 5368.00    1.88053   2.14432   -2.000
 5369.00    1.99570   2.14399   -2.000
 5370.00    2.07099   2.14429   -2.000
 5371.00    2.11169   2.14565   -2.000
 5372.00    1.92173   2.14709   -2.000
 5373.00    1.55557   2.14757   -2.000
 5374.00    1.49403   2.14664   -2.000
 5375.00    1.63704   2.14652   -2.000
 5376.00    2.18445   2.14763   -2.000
 5377.00    2.96973   2.14894   -2.000
 5378.00    3.03524   2.14926   -2.000
 5379.00    2.73163   2.14871   -2.000
 5380.00    2.48381   2.14858   -2.000
 5381.00    2.26079   2.14874   -2.000
 5382.00    2.49893   2.14923   -2.000
 5383.00    2.91312   2.14969    0.005
 5384.00    2.80733   2.15055    0.005
 5385.00    2.53290   2.15053    0.005
 5386.00    2.45803   2.15020    0.005
 5387.00    2.43734   2.15044    0.005
 5388.00    2.40173   2.15125    0.005
 5389.00    2.36280   2.15115    0.005
 5390.00    2.23242   2.15063    0.005
 5391.00    2.08580   2.15073    0.005
 5392.00    2.17184   2.15102    0.005
 5393.00    2.28943   2.15116    0.005
 5394.00    2.10826   2.15059    0.005
 5395.00    1.89821   2.14949    0.005
 5396.00    1.90686   2.14907    0.005
 5397.00    1.92867   2.14977    0.005
 5398.00    1.78583   2.14961    0.005
 5399.00    1.64064   2.14707    0.005
 5400.00    1.81564   2.14340    0.005
 5401.00    1.99931   2.14276    0.005
 5402.00    2.40660   2.14371    0.005
 5403.00    2.77447   2.14196    0.005
 5404.00    2.60786   2.13704    0.005
 5405.00    2.41520   2.13136    0.005
 5406.00    1.98810   2.12167    0.005
 5407.00    1.66517   2.09610    0.005
 5408.00    2.03071   2.02984    0.005
 5409.00    2.28970   1.90753    0.005
 5410.00    2.00069   1.81335    0.005
 5411.00    1.77523   1.84265    0.005
 5412.00    1.81358   1.96271    0.005
 5413.00    1.82250   2.06360    0.005
 5414.00    1.73033   2.10756    0.005
 5415.00    1.76806   2.12939    0.005
 5416.00    2.18160   2.14071    0.005
 5417.00    2.46694   2.14650    0.005
 5418.00    2.43567   2.15000    0.005
 5419.00    2.35331   2.15206    0.005
 5420.00    2.16217   2.15365    0.005
 5421.00    2.13630   2.15466    0.005
 5422.00    2.41610   2.15471    0.005
 5423.00    2.44080   2.15422    0.005
 5424.00    2.05334   2.15441    0.005
 5425.00    1.91021   2.15613    0.005
 5426.00    2.11341   2.15640    0.005
 5427.00    2.24038   2.15477    0.005
 5428.00    2.27228   2.15366    0.005
 5429.00    2.22867   2.15616    0.005
 5430.00    2.10203   2.15733    0.005
 5431.00    2.07836   2.15573    0.005
 5432.00    2.15453   2.15601    0.005
 5433.00    2.29468   2.15798    0.005
 5434.00    2.48956   2.16037    0.005
 5435.00    2.42479   2.16022    0.005
 5436.00    2.16452   2.16139    0.005
 5437.00    2.07862   2.16242    0.005
 5438.00    2.10807   2.16337    0.005
 5439.00    2.13008   2.16327    0.005
 5440.00    2.14777   2.16302    0.005
 5441.00    2.16905   2.16290    0.005
 5442.00    2.19215   2.16264    0.005
 5443.00    2.26925   2.16245    0.005
 5444.00    2.36996   2.16183    0.005
 5445.00    2.40626   2.16141    0.005
 5446.00    2.41841   2.16215    0.005
 5447.00    2.30709   2.16402    0.005
 5448.00    2.15649   2.16502    0.005
 5449.00    2.19642   2.16422    0.005
 5450.00    2.28702   2.16303    0.005
 5451.00    2.52330   2.15992    0.005
 5452.00    2.79127   2.15577    0.005
 5453.00    2.57770   2.15576    0.005
 5454.00    2.28094   2.15863    0.005
 5455.00    2.05987   2.16266    0.005
 5456.00    1.84872   2.16380    0.005
 5457.00    2.17307   2.16619    0.005
 5458.00    2.54688   2.16714    0.005
 5459.00    2.49894   2.16701    0.005
 5460.00    2.42730   2.16594    0.005
 5461.00    2.36030   2.16543    0.005
 5462.00    2.29490   2.16625    0.005
 5463.00    2.38379   2.16633    0.005
 5464.00    2.46161   2.16381    0.005
 5465.00    2.27960   2.16062    0.005
 5466.00    2.12413   2.16187    0.005
 5467.00    2.30949   2.16609    0.005
 5468.00    2.44397   2.16875    0.005
 5469.00    2.13814   2.16889    0.005
 5470.00    1.86669   2.16932    0.004
 5471.00    1.81555   2.16684    0.004
 5472.00    1.79503   2.16402    0.004
 5473.00    1.92800   2.16499    0.005
 5474.00    2.06621   2.16758    0.005
 5475.00    2.22571   2.16778    0.005
 5476.00    2.36720   2.16711    0.005
 5477.00    2.44802   2.16813    0.005
 5478.00    2.41318   2.16893   -2.000
 5479.00    2.04981   2.17095   -2.000
 5480.00    1.88553   2.17234   -2.000
 5481.00    2.20452   2.17274   -2.000
 5482.00    2.26994   2.17237   -2.000
 5483.00    1.80416   2.17211   -2.000
 5484.00    1.63736   2.17185   -2.000
 5485.00    2.01504   2.17031   -2.000
 5486.00    1.72858   2.16951   -2.000
 5487.00    0.38497   2.16957   -2.000
 5488.00   -0.24649   2.17067   -2.000
 5489.00    0.11688   2.17223   -2.000
 5490.00    1.39614   2.17236   -2.000
 5491.00    3.80137   2.17173   -2.000
 5492.00    5.34820   2.17141   -2.000
 5493.00    5.96477   2.17144   -2.000
 5494.00    5.41337   2.17144   -2.000
 5495.00    3.74549   2.17197   -2.000
 5496.00    2.77046   2.17245   -2.000
 5497.00    2.37938   2.17351   -2.000
 5498.00    2.10991   2.17439   -2.000
 5499.00    1.93069   2.17489   -2.000
 5500.00    1.87887   2.17403   -2.000
 5501.00    1.91009   2.17308   -2.000
 5502.00    1.93012   2.17350   -1.000
 5503.00    1.94378   2.17445   -1.000
 5504.00    1.98419   2.17311   -1.000
 5505.00    2.03789   2.16879   -1.000
 5506.00    2.10832   2.15396   -1.000
 5507.00    2.18596   2.14818   -1.000
 5508.00    2.03788   2.15287    0.012
 5509.00    1.80666   2.16634    0.005
 5510.00    1.73560   2.17408    0.004
 5511.00    1.71452   2.17521    0.004
 5512.00    2.01181   2.17650    0.004
 5513.00    2.39194   2.17761    0.004
 5514.00    2.17102   2.17842    0.004
 5515.00    1.82250   2.17828    0.004
 5516.00    1.90796   2.17833    0.004
 5517.00    2.06628   2.17833    0.004
 5518.00    2.05240   2.17817    0.004
 5519.00    2.01672   2.17838    0.004
 5520.00    2.06909   2.17906    0.004
 5521.00    2.12922   2.17918    0.004
 5522.00    2.00318   2.17862    0.004
 5523.00    1.86741   2.17762    0.004
 5524.00    1.93075   2.17596    0.004
 5525.00    1.99642   2.17525    0.004
 5526.00    1.95719   2.17581    0.004
 5527.00    1.92811   2.17653    0.004
 5528.00    2.11770   2.17710    0.004
 5529.00    2.28212   2.17776    0.004
 5530.00    2.13957   2.17858    0.004
 5531.00    2.02641   2.17944    0.004
 5532.00    2.15821   2.17988    0.004
 5533.00    2.27398   2.17840    0.004
 5534.00    2.29004   2.17745    0.004
 5535.00    2.32777   2.17749    0.004
 5536.00    2.47144   2.17924    0.004
 5537.00    2.51955   2.18064    0.004
 5538.00    2.18831   2.18193    0.004
 5539.00    1.97313   2.18209    0.004
 5540.00    2.14093   2.18200    0.004
 5541.00    2.25641   2.18219    0.005
 5542.00    2.22597   2.18135    0.004
 5543.00    2.21951   2.18071    0.004
 5544.00    2.27029   2.18088    0.004
 5545.00    2.33574   2.18173    0.004
 5546.00    2.43143   2.18255    0.004
 5547.00    2.44157   2.18261    0.004
 5548.00    2.29830   2.18305    0.004
 5549.00    2.23031   2.18391    0.004
 5550.00    2.28036   2.18396    0.004
 5551.00    2.39413   2.18364    0.004
 5552.00    2.59564   2.18406    0.004
 5553.00    2.58952   2.18396    0.004
 5554.00    2.33176   2.18305    0.004
 5555.00    2.19342   2.18300    0.004
 5556.00    2.18269   2.18377    0.004
 5557.00    2.19959   2.18428    0.004
 5558.00    2.24255   2.18397    0.004
 5559.00    2.30362   2.18390    0.004
 5560.00    2.37974   2.18434    0.004
 5561.00    2.36933   2.18374    0.004
 5562.00    2.29563   2.18282    0.004
 5563.00    2.22774   2.18131    0.004
 5564.00    2.16358   2.18150    0.004
 5565.00    2.06703   2.18277    0.004
 5566.00    1.95229   2.18443    0.004
 5567.00    1.93523   2.18458    0.004
 5568.00    1.96592   2.18463    0.004
 5569.00    2.13049   2.18506    0.004
 5570.00    2.35162   2.18508    0.004
 5571.00    2.44575   2.18432    0.004
 5572.00    2.49393   2.18360    0.004
 5573.00    2.37414   2.18463    0.004
 5574.00    2.20294   2.18621    0.004
 5575.00    2.08536   2.18655    0.004
 5576.00    1.98144   2.18547    0.004
 5577.00    1.99211   2.18401    0.004
 5578.00    2.02651   2.18397    0.004
 5579.00    2.18716   2.18587    0.004
 5580.00    2.36841   2.18744    0.004
 5581.00    2.35450   2.18741    0.004
 5582.00    2.31675   2.18746    0.004
 5583.00    2.20425   2.18703    0.004
 5584.00    2.08547   2.18629    0.004
 5585.00    2.02526   2.18525    0.004
 5586.00    1.96787   2.18420    0.004
 5587.00    1.73151   2.18447    0.004
 5588.00    1.50366   2.18415    0.004
 5589.00    1.94053   2.15259    0.004
 5590.00    2.35047   2.05511    0.004
 5591.00    2.22557   1.99857    0.004
 5592.00    2.11352   2.04102    0.004
 5593.00    2.15060   2.14703    0.004
 5594.00    2.18307   2.18665    0.004
 5595.00    2.17844   2.18759    0.004
 5596.00    2.19158   2.18941    0.004
 5597.00    2.31207   2.18925    0.004
 5598.00    2.41221   2.18842    0.004
 5599.00    2.41533   2.18816    0.004
 5600.00    2.39443   2.18829    0.004
 5601.00    2.28024   2.18842    0.004
 5602.00    2.19846   2.18886    0.004
 5603.00    2.22152   2.18929    0.004
 5604.00    2.26467   2.18737    0.004
 5605.00    2.36282   2.18703    0.004
 5606.00    2.35367   2.18821    0.004
 5607.00    2.09272   2.19045    0.004
 5608.00    1.91797   2.19129    0.004
 5609.00    1.91808   2.19150    0.004
 5610.00    1.93782   2.19121    0.004
 5611.00    1.99224   2.19149    0.004
 5612.00    2.04088   2.19182    0.004
 5613.00    2.08057   2.19069    0.004
 5614.00    2.14854   2.18851    0.004
 5615.00    2.25489   2.18716    0.004
 5616.00    2.20774   2.18852    0.004
 5617.00    1.97719   2.19078    0.004
 5618.00    1.93329   2.19202    0.004
 5619.00    2.08602   2.19172    0.004
 5620.00    2.20537   2.19192    0.004
 5621.00    2.29369   2.19218    0.004
 5622.00    2.25564   2.19177    0.004
 5623.00    2.11405   2.19099    0.004
 5624.00    2.15018   2.19123    0.004
 5625.00    2.31444   2.19194    0.004
 5626.00    2.34981   2.19264    0.004
 5627.00    2.30363   2.19325    0.004
 5628.00    2.27120   2.19352    0.004
 5629.00    2.24639   2.19328    0.004
 5630.00    2.22487   2.19288    0.004
 5631.00    2.20494   2.19261    0.004
 5632.00    2.30917   2.19227    0.004
 5633.00    2.46499   2.19243    0.004
 5634.00    2.50363   2.19272    0.004
 5635.00    2.50065   2.19273    0.004
 5636.00    2.28958   2.19237    0.004
 5637.00    2.01609   2.19017    0.004
 5638.00    2.04869   2.18434    0.004
 5639.00    2.15753   2.18193    0.004
 5640.00    2.24428   2.18543    0.004
 5641.00    2.32656   2.19172    0.004
 5642.00    2.36205   2.19281    0.004
 5643.00    2.39014   2.19145    0.004
 5644.00    2.31947   2.18916    0.004
 5645.00    2.23717   2.18738    0.004
 5646.00    2.28411   2.18804    0.004
 5647.00    2.34138   2.18976    0.004
 5648.00    2.35727   2.19204    0.004
 5649.00    2.37131   2.19375    0.004
 5650.00    2.21677   2.19440    0.004
 5651.00    2.06531   2.19490    0.004
 5652.00    2.15706   2.19481    0.004
 5653.00    2.24416   2.19435    0.004
 5654.00    2.24549   2.19418    0.004
 5655.00    2.25651   2.19415    0.004
 5656.00    2.37484   2.19365    0.004
 5657.00    2.45136   2.19205    0.004
 5658.00    2.20349   2.19003    0.004
 5659.00    1.99603   2.19020    0.004
 5660.00    2.02580   2.18991    0.004
 5661.00    2.02482   2.18991    0.004
 5662.00    1.88072   2.18961    0.004
 5663.00    1.76855   2.19025    0.004
 5664.00    1.77775   2.18848    0.004
 5665.00    1.81167   2.18593    0.004
 5666.00    1.92401   2.18763    0.004
 5667.00    2.04588   2.19195    0.004
 5668.00    2.19341   2.19558    0.004
 5669.00    2.30702   2.19548    0.004
 5670.00    2.34235   2.19582    0.004
 5671.00    2.35713   2.19624    0.004
 5672.00    2.33089   2.19619    0.004
 5673.00    2.22993   2.19356    0.004
 5674.00    1.99904   2.19002    0.004
 5675.00    1.88705   2.18979    0.004
 5676.00    1.95609   2.19138    0.004
 5677.00    1.97170   2.18951    0.004
 5678.00    1.91583   2.18525    0.004
 5679.00    1.86527   2.18619    0.004
 5680.00    1.82094   2.19146    0.004
 5681.00    1.88293   2.19511    0.004
 5682.00    2.05535   2.19477    0.004
 5683.00    2.18342   2.19505    0.004
 5684.00    2.27085   2.19294    0.004
 5685.00    2.32597   2.19207    0.004
 5686.00    2.35500   2.19355    0.004
 5687.00    2.27453   2.19632    0.004
 5688.00    2.11627   2.19727    0.004
 5689.00    1.97793   2.19671    0.004
 5690.00    1.85203   2.19637    0.004
 5691.00    1.90396   2.19675    0.004
 5692.00    2.05279   2.19835    0.004
 5693.00    2.24748   2.20362    0.004
 5694.00    2.46388   2.20928    0.004
 5695.00    2.48123   2.20833    0.004
 5696.00    2.41728   2.20398    0.004
 5697.00    2.38453   2.19986    0.004
 5698.00    2.36267   2.20062    0.004
 5699.00    2.25423   2.19700    0.004
 5700.00    2.12032   2.19617    0.004
 5701.00    2.08761   2.19652    0.004
 5702.00    2.07956   2.19703    0.004
 5703.00    2.10842   2.19708    0.004
 5704.00    2.14454   2.19628    0.004
 5705.00    2.24943   2.19535    0.004
 5706.00    2.36488   2.19530    0.004
 5707.00    2.29750   2.19508    0.004
 5708.00    2.20940   2.19428    0.004
 5709.00    2.29335   2.19330    0.004
 5710.00    2.39035   2.19329    0.004
 5711.00    2.37100   2.19464    0.004
 5712.00    2.34692   2.19678    0.004
 5713.00    2.27845   2.19728    0.004
 5714.00    2.21425   2.19746    0.004
 5715.00    2.34067   2.19757    0.004
 5716.00    2.45476   2.19821    0.004
 5717.00    2.35712   2.19874    0.004
 5718.00    2.25631   2.19840    0.004
 5719.00    2.12197   2.19781    0.004
 5720.00    2.01389   2.19567    0.004
 5721.00    2.10255   2.19191    0.004
 5722.00    2.17898   2.19173    0.004
 5723.00    2.18554   2.19569    0.004
 5724.00    2.20343   2.19919    0.004
 5725.00    2.27273   2.19858    0.004
 5726.00    2.30952   2.19836    0.004
 5727.00    2.22531   2.19861    0.004
 5728.00    2.15282   2.19862    0.004
 5729.00    2.11686   2.19802    0.004
 5730.00    2.10378   2.19779    0.004
 5731.00    2.15118   2.19811    0.004
 5732.00    2.19234   2.19850    0.004
 5733.00    2.21934   2.19860    0.004
 5734.00    2.23921   2.19913    0.004
 5735.00    2.24506   2.19982    0.004
 5736.00    2.23800   2.19945    0.004
 5737.00    2.20882   2.19419    0.004
 5738.00    2.22763   2.18840    0.004
 5739.00    2.31843   2.18895    0.004
 5740.00    2.31604   2.19365    0.000
 5741.00    2.19079   2.19848    0.000
 5742.00    2.14075   2.19811    0.000
 5743.00    2.17807   2.19856    0.000
 5744.00    2.25975   2.19837    0.000
 5745.00    2.38684   2.19705    0.000
 5746.00    2.45727   2.19612    0.000
 5747.00    2.47652   2.19664    0.000
 5748.00    2.44576   2.19809    0.000
 5749.00    2.37519   2.19929    0.000
 5750.00    2.34364   2.19954    0.000
 5751.00    2.33942   2.19900    0.000
 5752.00    2.44501   2.19833    0.000
 5753.00    2.61805   2.19774    0.000
 5754.00    2.58687   2.19708    0.000
 5755.00    2.44613   2.19758    0.000
 5756.00    2.23643   2.19880    0.000
 5757.00    1.99460   2.19988    0.000
 5758.00    1.98660   2.19988    0.000
 5759.00    2.07245   2.19951    0.000
 5760.00    2.16400   2.19928    0.000
 5761.00    2.25751   2.19865    0.000
 5762.00    2.28601   2.19804    0.000
 5763.00    2.29577   2.19867    0.000
 5764.00    2.33273   2.19924    0.000
 5765.00    2.37616   2.19878    0.000
 5766.00    2.35867   2.19766    0.000
 5767.00    2.32949   2.19756    0.000
 5768.00    2.43665   2.19844    0.000
 5769.00    2.56412   2.19928    0.000
 5770.00    2.51938   2.19936    0.000
 5771.00    2.45587   2.19921    0.000
 5772.00    2.42859   2.19899    0.000
 5773.00    2.40391   2.19862    0.000
 5774.00    2.29974   2.19856    0.000
 5775.00    2.19265   2.19864    0.000
 5776.00    2.35372   2.19841    0.000
 5777.00    2.51182   2.19768    0.000
 5778.00    2.52337   2.19581    0.000
 5779.00    2.52807   2.19261    0.000
 5780.00    2.42242   2.18977    0.000
 5781.00    2.31068   2.18979    0.000
 5782.00    2.13728   2.19210    0.000
 5783.00    1.98871   2.19472    0.000
 5784.00    2.02006   2.19635    0.000
 5785.00    2.02655   2.19760    0.000
 5786.00    1.89499   2.19842    0.000
 5787.00    1.79072   2.19894    0.000
 5788.00    1.80751   2.19869    0.000
 5789.00    1.85354   2.19819    0.000
 5790.00    2.00612   2.19787    0.000
 5791.00    2.11753   2.19830   -2.000
 5792.00    2.10321   2.19923   -2.000
 5793.00    2.08708   2.19925   -2.000
 5794.00    2.06625   2.19822   -2.000
 5795.00    2.07966   2.19721   -2.000
 5796.00    2.16949   2.19583   -2.000
 5797.00    2.22904   2.19097   -2.000
 5798.00    2.23004   2.15210   -2.000
 5799.00    2.26807   2.05749   -2.000
 5800.00    2.36858   2.00382   -2.000
 5801.00    2.48658   2.04608   -2.000
 5802.00    2.63042   2.14508   -2.000
 5803.00    2.66117   2.19246   -2.000
 5804.00    2.54495   2.19669   -2.000
 5805.00    2.49564   2.19863   -2.000
 5806.00    2.52297   2.19831   -2.000
 5807.00    2.53431   2.19832   -2.000
 5808.00    2.52951   2.19163   -2.000
 5809.00    2.48103   2.14337   -2.000
 5810.00    2.39365   2.07109   -2.000
 5811.00    2.27953   2.05635    0.000
 5812.00    2.14443   2.10687    0.000
 5813.00    2.05987   2.18092    0.000
 5814.00    2.01017   2.19646    0.000
 5815.00    2.04951   2.19864    0.000
 5816.00    2.14271   2.19804    0.000
 5817.00    2.15855   2.19731    0.000
 5818.00    2.13353   2.19688    0.000
 5819.00    2.16068   2.19704    0.000
 5820.00    2.21173   2.19829    0.000
 5821.00    2.22929   2.19980    0.000
 5822.00    2.23365   2.20114    0.000
 5823.00    2.34432   2.20929    0.000
 5824.00    2.49073   2.23188    0.000
 5825.00    2.52716   2.24679    0.000
 5826.00    2.53254   2.23793    0.000
 5827.00    2.35250   2.21383    0.000
 5828.00    2.12929   2.20069    0.000
 5829.00    2.05884   2.19983    0.000
 5830.00    2.01693   2.20066    0.000
 5831.00    2.13006   2.20210    0.000
 5832.00    2.26555   2.20368    0.000
 5833.00    2.24667   2.20344    0.000
 5834.00    2.21163   2.20291    0.000
 5835.00    2.15582   2.20200    0.000
 5836.00    2.09860   2.20166    0.000
 5837.00    2.09072   2.20089    0.000
 5838.00    2.08447   2.20016    0.000
 5839.00    2.17969   2.20028    0.000
 5840.00    2.27565   2.19991    0.000
 5841.00    2.39291   2.20009    0.000
 5842.00    2.49718   2.20039    0.000
 5843.00    2.40520   2.20026    0.000
 5844.00    2.31370   2.19976    0.000
 5845.00    2.22698   2.19881    0.000
 5846.00    2.14883   2.19684    0.000
 5847.00    2.13077   2.19693    0.000
 5848.00    2.12538   2.19873    0.000
 5849.00    2.18843   2.19959    0.000
 5850.00    2.23948   2.19796    0.000
 5851.00    2.23850   2.19701    0.000
 5852.00    2.24043   2.19635    0.000
 5853.00    2.25274   2.19701    0.000
 5854.00    2.25632   2.19915    0.000
 5855.00    2.23372   2.20110    0.000
 5856.00    2.21294   2.20171    0.000
 5857.00    2.19682   2.20142    0.000
 5858.00    2.17817   2.20128    0.000
 5859.00    2.15396   2.20096    0.000
 5860.00    2.12002   2.20020    0.000
 5861.00    2.06754   2.20077    0.000
 5862.00    2.07057   2.20161    0.000
 5863.00    2.16582   2.20160    0.000
 5864.00    2.23445   2.20086    0.000
 5865.00    2.26430   2.20045    0.000
 5866.00    2.24628   2.19993    0.000
 5867.00    2.16694   2.19966    0.000
 5868.00    2.11553   2.19958    0.000
 5869.00    2.09564   2.20066    0.000
 5870.00    2.14672   2.20073    0.000
 5871.00    2.26845   2.19629    0.000
 5872.00    2.38494   2.14599    0.000
 5873.00    2.49683   1.96448    0.000
 5874.00    2.52093   1.79575    0.000
 5875.00    2.47712   1.80798    0.000
 5876.00    2.44191   1.97937    0.000
 5877.00    2.41257   2.15193    0.000
 5878.00    2.30396   2.18475    0.000
 5879.00    2.14811   2.19421    0.000
 5880.00    2.02543   2.19719    0.000
 5881.00    1.92000   2.19815    0.000
 5882.00    1.97210   2.19816    0.000
 5883.00    2.09523   2.19837    0.000
 5884.00    2.13964   2.19876    0.000
 5885.00    2.15354   2.19875    0.000
 5886.00    2.14955   2.19815    0.000
 5887.00    2.13966   2.19284    0.000
 5888.00    2.10690   2.18256    0.000
 5889.00    2.06783   2.17241    0.000
 5890.00    2.03409   2.17151    0.000
 5891.00    2.00155   2.18469    0.000
 5892.00    1.92087   2.19941    0.000
 5893.00    1.83144   2.20382    0.000
 5894.00    1.82581   2.19674    0.000
 5895.00    1.83188   2.18484    0.000
 5896.00    1.74937   2.17913    0.000
 5897.00    1.65797   2.18467    0.000
 5898.00    1.80331   2.19403    0.000
 5899.00    1.96372   2.19865    0.000
 5900.00    2.08302   2.19949    0.000
 5901.00    2.20085   2.19905    0.003
 5902.00    2.22676   2.19859    0.004
 5903.00    2.25077   2.19879    0.004
 5904.00    2.22136   2.19893    0.004
 5905.00    2.19419   2.19821    0.004
 5906.00    2.19899   2.19873    0.004
 5907.00    2.19794   2.20021    0.004
 5908.00    2.14236   2.20048    0.004
 5909.00    2.09111   2.19942    0.004
 5910.00    2.06925   2.19918    0.004
 5911.00    2.03974   2.19873    0.004
 5912.00    1.97002   2.19742    0.004
 5913.00    1.93057   2.19677    0.004
 5914.00    2.01929   2.19741    0.004
 5915.00    2.10614   2.19865    0.004
 5916.00    2.18648   2.19935    0.004
 5917.00    2.25798   2.19943    0.004
 5918.00    2.30348   2.19975    0.004
 5919.00    2.29663   2.20007    0.004
 5920.00    2.15852   2.20059    0.004
 5921.00    2.06993   2.20126    0.004
 5922.00    2.08830   2.20134    0.004
 5923.00    2.06603   2.20123    0.004
 5924.00    1.96755   2.20017    0.004
 5925.00    1.91939   2.19912    0.004
 5926.00    1.95362   2.19815    0.004
 5927.00    2.00715   2.19773    0.004
 5928.00    2.08838   2.19790    0.004
 5929.00    2.08168   2.19720    0.004
 5930.00    1.96392   2.19555    0.003
 5931.00    1.87654   2.19527    0.003
 5932.00    1.82295   2.19613    0.003
 5933.00    1.81571   2.19743    0.003
 5934.00    1.85396   2.19886    0.003
 5935.00    1.94457   2.20023    0.003
 5936.00    2.08051   2.20099    0.003
 5937.00    2.16800   2.20121    0.003
 5938.00    2.21856   2.19945    0.003
 5939.00    2.22551   2.19683    0.003
 5940.00    2.20324   2.19497    0.003
 5941.00    2.15509   2.19582    0.003
 5942.00    2.09174   2.19752    0.003
 5943.00    2.08665   2.19817    0.004
 5944.00    2.11137   2.19824    0.004
 5945.00    2.07601   2.19863    0.004
 5946.00    2.01403   2.19870    0.004
 5947.00    1.93805   2.19789    0.004
 5948.00    1.85674   2.19759    0.004
 5949.00    1.83045   2.19685    0.004
 5950.00    1.82195   2.19621    0.004
 5951.00    1.77543   2.19611    0.004
 5952.00    1.71862   2.19672    0.004
 5953.00    1.83924   2.19725    0.004
 5954.00    1.99928   2.19629    0.003
 5955.00    2.12451   2.19336    0.003
 5956.00    2.24359   2.19242    0.004
 5957.00    2.19072   2.19339    0.003
 5958.00    2.11462   2.19624    0.003
 5959.00    2.02153   2.19846    0.003
 5960.00    1.92681   2.19790    0.003
 5961.00    1.95801   2.19863    0.003
 5962.00    1.99672   2.19959    0.003
 5963.00    2.03936   2.20021    0.003
 5964.00    2.08175   2.20022    0.003
 5965.00    2.07197   2.20036    0.003
 5966.00    2.06587   2.20029    0.003
 5967.00    2.15344   2.19998    0.003
 5968.00    2.22815   2.19919    0.003
 5969.00    2.12960   2.19852    0.003
 5970.00    2.04234   2.19831    0.003
 5971.00    2.05614   2.19834    0.003
 5972.00    2.07196   2.19754    0.003
 5973.00    2.10107   2.19601    0.003
 5974.00    2.13127   2.19435    0.003
 5975.00    2.16708   2.19257    0.004
 5976.00    2.16833   2.18999    0.004
 5977.00    2.02648   2.18632    0.003
 5978.00    1.93030   2.18597    0.003
 5979.00    1.99058   2.18941    0.003
 5980.00    2.04784   2.19464    0.004
 5981.00    2.09640   2.19690    0.004
 5982.00    2.12226   2.19676    0.004
 5983.00    2.09221   2.19578    0.004
 5984.00    2.05412   2.19639    0.004
 5985.00    1.99893   2.19714    0.004
 5986.00    1.94499   2.19633    0.003
 5987.00    1.89337   2.19538    0.003
 5988.00    1.88408   2.19585    0.003
 5989.00    1.94304   2.19680    0.003
 5990.00    2.03079   2.19749    0.003
 5991.00    2.15926   2.19809    0.003
 5992.00    2.24894   2.19883    0.003
 5993.00    2.29033   2.19849    0.003
 5994.00    2.26873   2.19836    0.003
 5995.00    2.17802   2.19833    0.003
 5996.00    2.10591   2.19854    0.003
 5997.00    2.05181   2.19852    0.003
 5998.00    2.06196   2.19816    0.003
 5999.00    2.12695   2.19792    0.003
 6000.00    2.09868   2.19684    0.003
 6001.00    2.00032   2.19477    0.003
 6002.00    1.96592   2.19355    0.003
 6003.00    1.97375   2.19319    0.003
 6004.00    1.97483   2.19318    0.003
 6005.00    1.97202   2.19349    0.003
 6006.00    1.96492   2.19404    0.003
 6007.00    1.95566   2.19484    0.003
 6008.00    1.95503   2.19617    0.003
 6009.00    1.95816   2.19691    0.003
 6010.00    1.99927   2.19640    0.003
 6011.00    2.05458   2.19635    0.004
 6012.00    2.06677   2.19714    0.004
 6013.00    2.06527   2.19737    0.004
 6014.00    2.02195   2.19723    0.004
 6015.00    1.96754   2.19779    0.004
 6016.00    1.94984   2.19836    0.004
 6017.00    1.94011   2.19857    0.004
 6018.00    1.92982   2.19780    0.004
 6019.00    1.91943   2.19666    0.004
 6020.00    1.97399   2.19602    0.004
 6021.00    2.03704   2.19600    0.003
 6022.00    2.09657   2.19620    0.003
 6023.00    2.15578   2.19666    0.003
 6024.00    2.19305   2.19772    0.003
 6025.00    2.22910   2.19841    0.003
 6026.00    2.20699   2.19764    0.003
 6027.00    2.18398   2.19639    0.003
 6028.00    2.19788   2.19552    0.003
 6029.00    2.21337   2.19571    0.003
 6030.00    2.26598   2.19663    0.003
 6031.00    2.31197   2.19719    0.003
 6032.00    2.27343   2.19653    0.003
 6033.00    2.23651   2.19452    0.003
 6034.00    2.21347   2.19191    0.003
 6035.00    2.18026   2.18992    0.003
 6036.00    2.08204   2.18939    0.003
 6037.00    1.99717   2.19067    0.003
 6038.00    1.97903   2.19256    0.003
 6039.00    1.97221   2.19382    0.003
 6040.00    2.01125   2.19387    0.003
 6041.00    2.06857   2.19346    0.003
 6042.00    2.18729   2.19427    0.003
 6043.00    2.28520   2.19518    0.003
 6044.00    2.32413   2.19537    0.003
 6045.00    2.32049   2.19529    0.003
 6046.00    2.21372   2.19512    0.003
 6047.00    2.12325   2.19566    0.003
 6048.00    2.06685   2.19608    0.003
 6049.00    2.04719   2.19626    0.003
 6050.00    2.09429   2.19643    0.003
 6051.00    2.13920   2.19621    0.003
 6052.00    2.18063   2.19564    0.003
 6053.00    2.17159   2.19568    0.003
 6054.00    2.09217   2.19535    0.003
 6055.00    2.04046   2.19515    0.003
 6056.00    2.02274   2.19556    0.003
 6057.00    2.00547   2.19575    0.003
 6058.00    1.98867   2.19568    0.003
 6059.00    1.96194   2.19536    0.003
 6060.00    1.92571   2.19565    0.003
 6061.00    1.89381   2.19591    0.003
 6062.00    1.86555   2.19542    0.003
 6063.00    1.88779   2.19418    0.003
 6064.00    1.94744   2.19285    0.003
 6065.00    2.08847   2.19268    0.003
 6066.00    2.28245   2.19313    0.003
 6067.00    2.28750   2.19292    0.003
 6068.00    2.18497   2.19183    0.003
 6069.00    2.15680   2.19036    0.003
 6070.00    2.16550   2.18878    0.003
 6071.00    2.20690   2.18679    0.003
 6072.00    2.26232   2.18449    0.003
 6073.00    2.19799   2.18440    0.003
 6074.00    2.08965   2.18581    0.003
 6075.00    2.01179   2.18845    0.003
 6076.00    1.94342   2.19066    0.003
 6077.00    1.97363   2.19115    0.003
 6078.00    2.02944   2.19194    0.003
 6079.00    2.02853   2.19322    0.003
 6080.00    2.01561   2.19382    0.003
 6081.00    2.00497   2.19333    0.003
 6082.00    1.99471   2.19350    0.003
 6083.00    1.88903   2.19413    0.003
 6084.00    1.77133   2.19414    0.003
 6085.00    1.81261   2.19417    0.003
 6086.00    1.86784   2.19471    0.003
 6087.00    1.97227   2.19483    0.003
 6088.00    2.07925   2.19446    0.003
 6089.00    2.10097   2.19430    0.003
 6090.00    2.12074   2.19382    0.003
 6091.00    2.11156   2.19371    0.003
 6092.00    2.10159   2.19452    0.003
 6093.00    2.07453   2.19563    0.003
 6094.00    2.04418   2.19503    0.003
 6095.00    1.97390   2.19519    0.003
 6096.00    1.91748   2.19723    0.003
 6097.00    1.97604   2.19909    0.003
 6098.00    2.03143   2.19843    0.003
 6099.00    2.06722   2.19574    0.003
 6100.00    2.09260   2.19282    0.003
 6101.00    2.06722   2.19161    0.003
 6102.00    2.03896   2.19164    0.003
 6103.00    1.99929   2.19311    0.003
 6104.00    1.98051   2.19413    0.003
 6105.00    2.03052   2.19388    0.003
 6106.00    2.06200   2.19333    0.003
 6107.00    2.04192   2.19271    0.003
 6108.00    2.03637   2.19271    0.003
 6109.00    2.06543   2.19218    0.003
 6110.00    2.05915   2.19113    0.003
 6111.00    1.98016   2.18995    0.003
 6112.00    1.92650   2.18842    0.003
 6113.00    1.91821   2.18636    0.003
 6114.00    1.95637   2.18350    0.003
 6115.00    2.06726   2.18041    0.003
 6116.00    2.12571   2.17865    0.003
 6117.00    2.11209   2.17934    0.003
 6118.00    2.10199   2.18145    0.003
 6119.00    2.09615   2.18292    0.003
 6120.00    2.05129   2.18413    0.003
 6121.00    1.96480   2.18564    0.003
 6122.00    1.88314   2.18785    0.003
 6123.00    1.80602   2.18976    0.003
 6124.00    1.76813   2.19064    0.003
 6125.00    1.76278   2.19107    0.003
 6126.00    1.77479   2.19105    0.003
 6127.00    1.79949   2.19124    0.003
 6128.00    1.80444   2.19125    0.003
 6129.00    1.79674   2.19162    0.003
 6130.00    1.86579   2.19174    0.003
 6131.00    1.97788   2.19170    0.003
 6132.00    2.05705   2.19140    0.003
 6133.00    2.12016   2.19107    0.003
 6134.00    2.09656   2.19070    0.003
 6135.00    2.03640   2.19018    0.003
 6136.00    1.99192   2.18960    0.003
 6137.00    1.95309   2.18980    0.003
 6138.00    1.98462   2.19048    0.003
 6139.00    2.03761   2.19029    0.003
 6140.00    2.05509   2.18940    0.003
 6141.00    2.06355   2.18873    0.003
 6142.00    2.01888   2.18929    0.003
 6143.00    1.96323   2.19060    0.003
 6144.00    1.94875   2.19130    0.003
 6145.00    1.94097   2.19098    0.003
 6146.00    2.02719   2.19036    0.003
 6147.00    2.12484   2.18938    0.003
 6148.00    2.12129   2.18838    0.003
 6149.00    2.10929   2.18718    0.003
 6150.00    2.03505   2.18736    0.003
 6151.00    1.95782   2.18874    0.003
 6152.00    1.96682   2.18932    0.003
 6153.00    1.97892   2.18837    0.003
 6154.00    2.09790   2.18611    0.003
 6155.00    2.20704   2.18446    0.003
 6156.00    2.12261   2.18386    0.003
 6157.00    2.03497   2.18607    0.003
 6158.00    1.91035   2.18856    0.003
 6159.00    1.77956   2.18933    0.003
 6160.00    1.59943   2.18859    0.003
 6161.00    1.44522   2.18678    0.003
 6162.00    1.44709   2.18574    0.003
 6163.00    1.44920   2.18504    0.003
 6164.00    1.45243   2.18313    0.003
 6165.00    1.48148   2.18044    0.003
 6166.00    1.61053   2.17745    0.003
 6167.00    1.72983   2.17349    0.003
 6168.00    1.81762   2.16946    0.003
 6169.00    1.85433   2.16821    0.003
 6170.00    1.75148   2.16979    0.003
 6171.00    1.67833   2.17230    0.003
 6172.00    1.67472   2.17566    0.003
 6173.00    1.71334   2.17927    0.003
 6174.00    1.83741   2.18245    0.003
 6175.00    1.92309   2.18428    0.003
 6176.00    1.94110   2.18527    0.003
 6177.00    1.96858   2.18609    0.003
 6178.00    2.01067   2.18615    0.003
 6179.00    2.04273   2.18619    0.003
 6180.00    2.06123   2.18640    0.003
 6181.00    2.07534   2.18686    0.003
 6182.00    2.08424   2.18701    0.003
 6183.00    2.11526   2.18665    0.003
 6184.00    2.16951   2.18688    0.003
 6185.00    2.13295   2.18750    0.003
 6186.00    2.01214   2.18727    0.003
 6187.00    1.89640   2.18731    0.003
 6188.00    1.78479   2.18749    0.003
 6189.00    1.77876   2.18700    0.003
 6190.00    1.84871   2.18559    0.003
 6191.00    1.89455   2.18615    0.003
 6192.00    1.92517   2.18766    0.003
 6193.00    2.20515   2.18814    0.003
 6194.00    2.62283   2.18844    0.003
 6195.00    3.51806   2.18863    0.003
 6196.00    4.64261   2.18786   -2.000
 6197.00    4.80354   2.18506   -2.000
 6198.00    4.56500   2.18269   -2.000
 6199.00    3.27295   2.18261   -2.000
 6200.00    1.60747   2.18538   -2.000
 6201.00    0.61819   2.18685   -2.000
 6202.00   -0.16875   2.18573   -2.000
 6203.00    0.44340   2.18535   -2.000
 6204.00    1.40307   2.18528   -2.000
 6205.00    1.90719   2.18556   -2.000
 6206.00    2.31959   2.18589   -2.000
 6207.00    2.19719   2.18672   -2.000
 6208.00    1.99044   2.18739    0.003
 6209.00    1.91035   2.18765    0.003
 6210.00    1.84510   2.18736    0.003
 6211.00    1.84228   2.18624    0.003
 6212.00    1.84442   2.18520    0.003
 6213.00    1.78467   2.18535    0.003
 6214.00    1.72218   2.18562    0.003
 6215.00    1.75689   2.18597    0.003
 6216.00    1.79310   2.18667    0.003
 6217.00    1.85067   2.18632    0.003
 6218.00    1.90582   2.18499    0.003
 6219.00    1.91694   2.18433    0.003
 6220.00    1.92296   2.18411    0.003
 6221.00    1.87283   2.18399    0.003
 6222.00    1.83682   2.18375    0.003
 6223.00    1.90981   2.18344    0.003
 6224.00    1.98580   2.18249    0.003
 6225.00    2.07933   2.18159    0.003
 6226.00    2.15522   2.18072    0.003
 6227.00    2.14931   2.17923    0.003
 6228.00    2.12396   2.17733    0.003
 6229.00    2.02487   2.17316    0.003
 6230.00    1.93770   2.16717    0.003
 6231.00    1.88825   2.16256    0.003
 6232.00    1.86853   2.16130    0.003
 6233.00    1.92861   2.16351    0.003
 6234.00    1.96446   2.16800    0.003
 6235.00    1.94455   2.17278    0.003
 6236.00    1.90468   2.17460    0.003
 6237.00    1.82507   2.17445    0.003
 6238.00    1.75969   2.17578    0.003
 6239.00    1.71904   2.17848    0.003
 6240.00    1.69369   2.18033    0.003
 6241.00    1.69157   2.18067    0.003
 6242.00    1.69731   2.18086    0.003
 6243.00    1.71355   2.18209    0.003
 6244.00    1.72957   2.18252    0.003
 6245.00    1.74534   2.18168    0.003
 6246.00    1.75513   2.18166    0.003
 6247.00    1.75874   2.18293    0.003
 6248.00    1.74438   2.18386    0.003
 6249.00    1.71360   2.18409    0.003
 6250.00    1.68139   2.18356    0.003
 6251.00    1.64805   2.18257    0.003
 6252.00    1.65543   2.18244    0.003
 6253.00    1.69170   2.18301    0.003
 6254.00    1.73747   2.18335    0.003
 6255.00    1.78913   2.18306    0.003
 6256.00    1.88727   2.18318    0.003
 6257.00    2.01067   2.18356    0.003
 6258.00    2.20993   2.18399    0.003
 6259.00    2.44502   2.18427    0.003
 6260.00    2.36285   2.18459    0.004
 6261.00    2.15138   2.18542    0.004
 6262.00    1.79867   2.18561    0.004
 6263.00    1.39680   2.18473    0.004
 6264.00    1.25813   2.18383    0.004
 6265.00    1.19667   2.18331    0.004
 6266.00    1.51973   2.18363    0.004
 6267.00    1.93619   2.18410    0.004
 6268.00    2.05787   2.18389    0.003
 6269.00    2.12170   2.18295    0.003
 6270.00    2.02522   2.18224    0.003
 6271.00    1.90421   2.18322    0.003
 6272.00    1.92190   2.18396    0.003
 6273.00    1.95523   2.18392    0.003
 6274.00    2.01474   2.18372    0.003
 6275.00    2.07623   2.18360    0.003
 6276.00    2.07452   2.18331    0.003
 6277.00    2.07027   2.18167    0.003
 6278.00    1.89922   2.18033    0.003
 6279.00    1.73019   2.18060    0.003
 6280.00    1.69266   2.18107    0.000
 6281.00    1.65967   2.18072    0.000
 6282.00    1.70381   2.17952    0.000
 6283.00    1.74246   2.17729    0.000
 6284.00    1.72329   2.17462    0.000
 6285.00    1.70973   2.17414    0.000
 6286.00    1.73808   2.17672    0.000
 6287.00    1.75643   2.17923    0.000
 6288.00    1.71795   2.17978    0.000
 6289.00    1.68770   2.17962    0.000
 6290.00    1.69467   2.18047    0.000
 6291.00    1.73086   2.18177    0.000
 6292.00    1.87548   2.18156    0.000
 6293.00    1.99509   2.18033    0.000
 6294.00    2.03702   2.18051    0.000
 6295.00    2.04469   2.18118    0.000
 6296.00    1.96200   2.18094    0.000
 6297.00    1.90094   2.18048    0.000
 6298.00    1.88884   2.17968    0.000
 6299.00    1.89199   2.17849    0.000
 6300.00    1.92502   2.17771    0.000
 6301.00    1.95750   2.17756    0.000
 6302.00    1.98902   2.17694    0.000
 6303.00    2.00819   2.17443    0.000
 6304.00    2.00886   2.17172    0.000
 6305.00    1.96222   2.16936    0.000
 6306.00    1.85334   2.16624    0.000
 6307.00    1.78963   2.16114    0.000
 6308.00    1.77827   2.15455    0.000
 6309.00    1.75821   2.15016    0.000
 6310.00    1.72927   2.15006    0.000
 6311.00    1.73248   2.15375    0.000
 6312.00    1.76468   2.15906    0.000
 6313.00    1.79999   2.16410    0.000
 6314.00    1.83776   2.16846    0.000
 6315.00    1.84941   2.17200    0.000
 6316.00    1.84281   2.17456    0.000
 6317.00    1.80467   2.17514    0.000
 6318.00    1.74720   2.17620    0.000
 6319.00    1.71684   2.17797    0.000
 6320.00    1.70100   2.17851    0.000
 6321.00    1.72302   2.17817    0.003
 6322.00    1.76263   2.17914    0.003
 6323.00    1.80313   2.18063    0.003
 6324.00    1.84397   2.18038    0.003
 6325.00    1.87430   2.17986    0.003
 6326.00    1.90103   2.17969    0.003
 6327.00    1.93540   2.18005    0.003
 6328.00    1.97195   2.18022    0.003
 6329.00    1.98079   2.18012    0.003
 6330.00    1.98306   2.18021    0.003
 6331.00    1.97633   2.18006    0.003
 6332.00    1.96789   2.17875    0.003
 6333.00    1.94781   2.17723    0.003
 6334.00    1.92600   2.17691    0.003
 6335.00    1.92556   2.17732    0.003
 6336.00    1.92744   2.17762    0.003
 6337.00    1.96200   2.17843    0.003
 6338.00    1.99889   2.17852    0.003
 6339.00    1.90366   2.17775    0.003
 6340.00    1.80361   2.17741    0.003
 6341.00    1.73136   2.17746    0.003
 6342.00    1.66315   2.17759    0.003
 6343.00    1.73351   2.17551    0.003
 6344.00    1.80674   2.16612    0.003
 6345.00    1.92566   2.15490    0.003
 6346.00    2.03716   2.15364    0.003
 6347.00    2.07401   2.16119    0.003
 6348.00    2.10369   2.17201    0.003
 6349.00    2.08167   2.17571    0.003
 6350.00    2.04243   2.17545    0.003
 6351.00    1.90800   2.17622    0.003
 6352.00    1.78675   2.17679    0.003
 6353.00    1.72383   2.17673    0.003
 6354.00    1.69254   2.17617    0.003
 6355.00    1.77622   2.17600    0.003
 6356.00    1.83374   2.17632    0.003
 6357.00    1.81162   2.17697    0.003
 6358.00    1.79017   2.17726    0.003
 6359.00    1.77048   2.17664    0.003
 6360.00    1.78377   2.17634    0.003
 6361.00    1.87055   2.17595    0.003
 6362.00    1.94090   2.17603    0.003
 6363.00    1.97951   2.17619    0.003
 6364.00    1.95466   2.17628    0.003
 6365.00    1.82296   2.17663    0.003
 6366.00    1.73538   2.17624    0.003
 6367.00    1.71291   2.17481    0.003
 6368.00    1.74779   2.17022    0.003
 6369.00    1.85705   2.16302    0.003
 6370.00    1.95615   2.16066    0.003
 6371.00    2.04362   2.16440    0.003
 6372.00    2.05969   2.17249    0.003
 6373.00    2.00380   2.17694    0.003
 6374.00    1.98137   2.17648    0.003
 6375.00    1.98866   2.17661    0.003
 6376.00    2.00321   2.17611    0.003
 6377.00    2.02343   2.17470    0.003
 6378.00    2.00852   2.17297    0.003
 6379.00    1.96943   2.17188    0.003
 6380.00    1.97629   2.17168    0.003
 6381.00    2.01091   2.17256    0.003
 6382.00    2.02273   2.17365    0.003
 6383.00    2.02253   2.17414    0.003
 6384.00    2.03585   2.17528    0.003
 6385.00    2.05536   2.17620    0.003
 6386.00    2.04044   2.17608    0.003
 6387.00    2.01197   2.17631    0.003
 6388.00    1.95658   2.17688    0.003
 6389.00    1.89216   2.17681    0.003
 6390.00    1.87200   2.17602    0.003
 6391.00    1.86429   2.17493    0.003
 6392.00    1.97133   2.17404    0.003
 6393.00    2.10500   2.17386    0.003
 6394.00    2.11844   2.17404    0.003
 6395.00    2.10949   2.17375    0.003
 6396.00    1.94731   2.17278    0.003
 6397.00    1.76310   2.17143    0.003
 6398.00    1.82016   2.16993    0.003
 6399.00    1.90234   2.16661    0.003
 6400.00    2.07331   2.16195    0.003
 6401.00    2.25025   2.15782    0.003
 6402.00    2.27190   2.15250    0.003
 6403.00    2.28849   2.14463    0.003
 6404.00    2.25400   2.13696    0.003
 6405.00    2.22047   2.13439    0.003
 6406.00    2.21765   2.13864    0.003
 6407.00    2.21039   2.14755    0.003
 6408.00    2.13644   2.15685    0.003
 6409.00    2.05961   2.16273    0.003
 6410.00    1.95500   2.16551    0.003
 6411.00    1.86582   2.16825    0.003
 6412.00    1.88436   2.17090    0.003
 6413.00    1.90644   2.17207    0.003
 6414.00    1.94752   2.17191    0.003
 6415.00    1.98682   2.17175    0.003
 6416.00    2.01843   2.17197    0.003
 6417.00    2.04716   2.17270    0.003
 6418.00    2.06566   2.17303    0.003
 6419.00    2.06019   2.17283    0.003
 6420.00    1.98303   2.17287    0.003
 6421.00    1.91185   2.17361    0.003
 6422.00    1.85585   2.17467    0.003
 6423.00    1.82209   2.17523    0.003
 6424.00    1.83705   2.17551    0.003
 6425.00    1.86925   2.17542    0.003
 6426.00    1.93419   2.17539    0.003
 6427.00    1.97582   2.17553    0.003
 6428.00    1.97876   2.17485    0.003
 6429.00    1.92054   2.17455    0.003
 6430.00    1.77336   2.17463    0.003
 6431.00    1.70449   2.17449    0.003
 6432.00    1.73575   2.17436    0.003
 6433.00    1.81685   2.17461    0.003
 6434.00    1.95411   2.17497    0.003
 6435.00    2.01901   2.17440    0.003
 6436.00    2.01200   2.17287    0.003
 6437.00    1.99852   2.17158    0.003
 6438.00    1.97936   2.17178    0.003
 6439.00    1.95661   2.17278    0.003
 6440.00    1.93108   2.17286    0.003
 6441.00    1.93696   2.17210    0.003
 6442.00    1.96416   2.17218    0.003
 6443.00    1.93882   2.17160    0.003
 6444.00    1.88222   2.17109    0.003
 6445.00    1.89730   2.17176    0.003
 6446.00    1.94956   2.17274    0.003
 6447.00    1.99202   2.17222    0.003
 6448.00    2.03007   2.16989    0.003
 6449.00    1.99488   2.16877    0.003
 6450.00    1.93137   2.16937    0.003
 6451.00    1.95587   2.16871    0.003
 6452.00    2.00933   2.16688    0.003
 6453.00    2.03679   2.16466    0.003
 6454.00    2.05709   2.16342    0.003
 6455.00    1.98670   2.16459    0.003
 6456.00    1.89576   2.16744    0.003
 6457.00    1.92196   2.17564    0.003
 6458.00    1.96941   2.18420    0.003
 6459.00    2.00485   2.18409    0.003
 6460.00    2.03861   2.17695    0.003
 6461.00    1.97752   2.16831    0.003
 6462.00    1.90697   2.16645    0.003
 6463.00    1.79179   2.16916    0.003
 6464.00    1.67380   2.16724    0.003
 6465.00    1.69740   2.16361    0.003
 6466.00    1.72535   2.16296    0.003
 6467.00    1.83506   2.16597    0.003
 6468.00    1.94190   2.16992    0.003
 6469.00    1.96904   2.17121    0.003
 6470.00    1.99441   2.17145    0.003
 6471.00    1.99492   2.17193    0.003
 6472.00    1.99395   2.17227    0.003
 6473.00    1.97934   2.17185    0.003
 6474.00    1.96012   2.17136    0.003
 6475.00    1.90973   2.17014    0.003
 6476.00    1.86255   2.16781    0.003
 6477.00    1.83210   2.16675    0.003
 6478.00    1.80630   2.16700    0.003
 6479.00    1.80011   2.16681    0.003
 6480.00    1.77975   2.16607    0.003
 6481.00    1.70993   2.16597    0.003
 6482.00    1.64119   2.16713    0.003
 6483.00    1.57559   2.16863    0.003
 6484.00    1.57158   2.16923    0.003
 6485.00    1.72165   2.16943    0.003
 6486.00    1.86556   2.16996    0.003
 6487.00    1.99621   2.16979    0.003
 6488.00    2.05502   2.16907    0.003
 6489.00    1.97942   2.16813    0.003
 6490.00    1.90421   2.16715    0.003
 6491.00    1.82966   2.16641    0.003
 6492.00    1.80764   2.16541    0.003
 6493.00    1.86092   2.16457    0.003
 6494.00    1.87421   2.16452    0.003
 6495.00    1.83709   2.16374    0.003
 6496.00    1.80795   2.16271    0.003
 6497.00    1.78768   2.16405    0.003
 6498.00    1.76141   2.16650    0.003
 6499.00    1.72927   2.16806    0.003
 6500.00    1.73372   2.16840    0.003
 6501.00    1.76981   2.16818    0.003
 6502.00    1.80152   2.16669    0.003
 6503.00    1.82992   2.16360    0.003
 6504.00    1.85999   2.15945    0.003
 6505.00    1.89120   2.15524    0.003
 6506.00    1.91451   2.15493    0.003
 6507.00    1.93319   2.15775    0.003
 6508.00    1.84180   2.16149    0.003
 6509.00    1.69419   2.16434    0.003
 6510.00    1.62026   2.16506    0.003
 6511.00    1.57895   2.16556    0.003
 6512.00    1.61806   2.16514    0.003
 6513.00    1.68772   2.16284    0.003
 6514.00    1.76709   2.15941    0.003
 6515.00    1.84957   2.15776    0.003
 6516.00    1.85077   2.15820    0.003
 6517.00    1.83000   2.15827    0.003
 6518.00    1.85485   2.15779    0.003
 6519.00    1.88979   2.15672    0.003
 6520.00    1.94449   2.15434    0.003
 6521.00    2.00267   2.15016    0.003
 6522.00    2.01356   2.14282    0.003
 6523.00    2.01809   2.13196    0.003
 6524.00    2.00119   2.11887    0.003
 6525.00    1.98223   2.10970    0.003
 6526.00    1.90532   2.10982    0.003
 6527.00    1.82497   2.11864    0.003
 6528.00    1.87632   2.13049    0.000
 6529.00    1.93093   2.13963    0.000
 6530.00    1.97976   2.14479    0.000
 6531.00    2.02659   2.14836    0.000
 6532.00    2.02330   2.15131    0.000
 6533.00    2.01880   2.15305    0.000
 6534.00    1.99820   2.15360    0.000
 6535.00    1.97733   2.15310    0.000
 6536.00    1.95415   2.15232    0.000
 6537.00    1.93572   2.15156    0.000
 6538.00    1.94846   2.15060    0.000
 6539.00    1.96073   2.14913    0.000
 6540.00    1.97058   2.14825    0.000
 6541.00    1.97183   2.14733    0.000
 6542.00    1.93755   2.14419    0.000
 6543.00    1.88523   2.13887    0.000
 6544.00    1.77127   2.13330    0.000
 6545.00    1.68813   2.12974    0.000
 6546.00    1.69375   2.12835    0.000
 6547.00    1.75024   2.12679    0.000
 6548.00    1.93182   2.12175    0.000
 6549.00    2.08062   2.11506    0.000
 6550.00    2.15992   2.10680    0.000
 6551.00    2.17882   2.09578    0.000
 6552.00    2.08644   2.08144    0.000
 6553.00    2.03151   2.06105    0.000
 6554.00    2.03685   2.03197    0.000
 6555.00    2.01287   1.98834    0.000
 6556.00    1.94747   1.91547    0.000
 6557.00    1.85881   1.81134    0.000
 6558.00    1.74124   1.69256    0.000
 6559.00    1.76416   1.57166    0.000
 6560.00    1.94096   1.47119    0.000
 6561.00    2.13694   1.41777    0.000
 6562.00    2.35146   1.44580    0.000
 6563.00    2.48451   1.56378    0.000
 6564.00    2.54815   1.71960    0.000
 6565.00    2.53092   1.85687    0.000
 6566.00    2.45303   1.94830    0.000
 6567.00    2.29337   2.00320    0.000
 6568.00    2.07982   2.03899    0.000
 6569.00    1.98815   2.06349    0.000
 6570.00    1.96682   2.08119    0.000
 6571.00    1.92678   2.09506    0.000
 6572.00    1.87733   2.10646    0.000
 6573.00    1.82411   2.11519    0.000
 6574.00    1.76924   2.11895    0.000
 6575.00    1.81576   2.11642    0.000
 6576.00    1.90012   2.11393    0.000
 6577.00    1.92787   2.11759    0.000
 6578.00    1.93769   2.12723    0.000
 6579.00    1.97871   2.13616    0.000
 6580.00    2.02797   2.13464    0.000
 6581.00    2.13223   2.13048    0.000
 6582.00    2.24839   2.13306    0.000
 6583.00    2.33270   2.14091    0.000
 6584.00    2.41156   2.14913    0.000
 6585.00    2.35117   2.15142    0.000
 6586.00    2.27267   2.15236    0.000
 6587.00    2.20598   2.15334    0.000
 6588.00    2.14036   2.15404    0.000
 6589.00    2.04595   2.15426    0.000
 6590.00    1.94996   2.15389    0.000
 6591.00    1.95674   2.15396    0.000
 6592.00    1.96662   2.15462    0.000
 6593.00    2.06140   2.15606    0.000
 6594.00    2.14860   2.15762    0.000
 6595.00    2.06194   2.15740    0.000
 6596.00    1.97790   2.15629    0.000
 6597.00    1.92703   2.15639    0.000
 6598.00    1.87556   2.15782    0.000
 6599.00    1.81889   2.15909    0.000
 6600.00    1.78108   2.16049    0.000
 6601.00    1.86322   2.16175    0.000
 6602.00    1.93702   2.16144    0.000
 6603.00    1.96923   2.16107    0.000
 6604.00    2.00774   2.16123    0.000
 6605.00    2.07167   2.16141    0.000
 6606.00    2.11885   2.16134    0.000
 6607.00    2.10996   2.16052    0.000
 6608.00    2.06576   2.15919    0.000
 6609.00    1.92171   2.15908    0.003
 6610.00    1.81130   2.16031    0.003
 6611.00    1.78220   2.16102    0.003
 6612.00    1.78216   2.15999    0.003
 6613.00    1.84272   2.15788    0.003
 6614.00    1.89703   2.15748    0.003
 6615.00    1.94000   2.15939    0.003
 6616.00    1.98796   2.16139    0.003
 6617.00    2.04382   2.16186    0.003
 6618.00    2.05379   2.16177    0.003
 6619.00    1.99988   2.16195    0.003
 6620.00    1.94883   2.16165    0.003
 6621.00    1.90128   2.16126    0.003
 6622.00    1.84809   2.16139    0.003
 6623.00    1.78881   2.16177    0.003
 6624.00    1.73952   2.16150    0.003
 6625.00    1.69972   2.16064    0.003
 6626.00    1.70043   2.16008    0.003
 6627.00    1.73514   2.16018    0.003
 6628.00    1.79264   2.16113    0.003
 6629.00    1.86697   2.16132    0.003
 6630.00    1.91568   2.16120    0.003
 6631.00    1.94774   2.16110    0.003
 6632.00    1.92641   2.16120    0.003
 6633.00    1.87474   2.16141    0.003
 6634.00    1.84212   2.16183    0.003
 6635.00    1.81892   2.16305    0.003
 6636.00    1.76712   2.16353    0.003
 6637.00    1.70306   2.16317    0.003
 6638.00    1.73359   2.16257    0.003
 6639.00    1.79881   2.16220    0.003
 6640.00    1.83582   2.16237    0.003
 6641.00    1.86407   2.16250    0.003
 6642.00    1.94583   2.16237    0.003
 6643.00    2.04143   2.16227    0.003
 6644.00    2.03874   2.16246    0.003
 6645.00    2.01530   2.16313    0.003
 6646.00    2.02341   2.16358    0.003
 6647.00    2.03677   2.16322    0.003
 6648.00    1.98563   2.16313    0.003
 6649.00    1.92640   2.16328    0.003
 6650.00    1.83664   2.16318    0.003
 6651.00    1.74421   2.16257    0.003
 6652.00    1.76408   2.16194    0.003
 6653.00    1.78972   2.16183    0.003
 6654.00    1.95643   2.16174    0.003
 6655.00    2.12334   2.16211    0.003
 6656.00    2.12703   2.16280    0.003
 6657.00    2.12906   2.16296    0.003
 6658.00    2.09571   2.16286    0.003
 6659.00    2.05669   2.16223    0.003
 6660.00    1.94916   2.16107    0.003
 6661.00    1.84394   2.16013    0.003
 6662.00    1.75768   2.16048    0.003
 6663.00    1.68586   2.16093    0.003
 6664.00    1.70317   2.16009    0.003
 6665.00    1.72844   2.15892    0.003
 6666.00    1.79231   2.15878    0.003
 6667.00    1.84817   2.15971    0.003
 6668.00    1.87238   2.16117    0.003
 6669.00    1.86323   2.16113    0.003
 6670.00    1.74449   2.15969    0.003
 6671.00    1.66677   2.15854    0.003
 6672.00    1.70296   2.15686    0.003
 6673.00    1.75825   2.15516    0.003
 6674.00    1.85892   2.15069    0.003
 6675.00    1.94642   2.13962    0.003
 6676.00    2.00690   2.12497    0.003
 6677.00    2.06180   2.11367    0.003
 6678.00    2.10675   2.10803    0.003
 6679.00    2.12701   2.10227    0.003
 6680.00    2.10868   2.09350    0.003
 6681.00    2.07890   2.08771    0.003
 6682.00    2.03341   2.09104    0.003
 6683.00    2.00335   2.10441    0.003
 6684.00    1.99191   2.12292    0.003
 6685.00    2.01112   2.13816    0.003
 6686.00    2.06294   2.14704    0.003
 6687.00    2.04551   2.15221    0.003
 6688.00    1.96305   2.15553    0.003
 6689.00    1.84312   2.15779    0.003
 6690.00    1.69216   2.15899    0.003
 6691.00    1.68363   2.15913    0.003
 6692.00    1.77891   2.15899    0.003
 6693.00    1.85359   2.15963    0.003
 6694.00    1.91509   2.16053    0.003
 6695.00    1.91990   2.16117    0.003
 6696.00    1.89298   2.16158    0.000
 6697.00    1.84513   2.16121    0.000
 6698.00    1.78709   2.16004    0.000
 6699.00    1.81867   2.15936    0.000
 6700.00    1.88796   2.16026    0.000
 6701.00    1.92015   2.16196    0.000
 6702.00    1.93899   2.16262    0.000
 6703.00    1.89369   2.16221    0.000
 6704.00    1.82886   2.16208    0.000
 6705.00    1.81754   2.16222    0.000
 6706.00    1.81977   2.16235    0.000
 6707.00    1.87950   2.16273    0.000
 6708.00    1.95106   2.16285    0.000
 6709.00    1.88031   2.16243    0.000
 6710.00    1.78651   2.16203    0.000
 6711.00    1.70457   2.16188    0.000
 6712.00    1.62405   2.16199    0.000
 6713.00    1.73782   2.16157    0.000
 6714.00    1.86770   2.16059    0.000
 6715.00    2.05120   2.15934    0.000
 6716.00    2.23724   2.15862    0.000
 6717.00    2.22108   2.15956    0.000
 6718.00    2.19942   2.16081    0.000
 6719.00    2.02817   2.16095    0.000
 6720.00    1.86719   2.16026    0.000
 6721.00    1.90636   2.15957    0.000
 6722.00    1.94040   2.15995    0.000
 6723.00    1.91573   2.15955    0.000
 6724.00    1.88459   2.15564    0.000
 6725.00    1.80191   2.15062    0.000
 6726.00    1.73838   2.14908    0.000
 6727.00    1.78973   2.14709    0.000
 6728.00    1.84722   2.14128    0.000
 6729.00    1.93383   2.13677    0.000
 6730.00    2.02058   2.13790    0.000
 6731.00    2.10793   2.14658    0.000
 6732.00    2.18487   2.15749    0.000
 6733.00    2.22832   2.16198    0.000
 6734.00    2.23943   2.16182    0.000
 6735.00    2.16237   2.16193    0.000
 6736.00    2.09898   2.16228    0.000
 6737.00    2.06757   2.16237    0.000
 6738.00    2.03826   2.16139    0.000
 6739.00    2.01318   2.15800    0.000
 6740.00    1.95485   2.15214    0.000
 6741.00    1.83802   2.13657    0.000
 6742.00    1.75776   2.12027    0.000
 6743.00    1.73383   2.11870    0.000
 6744.00    1.69017   2.12935    0.000
 6745.00    1.61984   2.14847    0.000
 6746.00    1.60318   2.15976    0.000
 6747.00    1.65039   2.16066    0.000
 6748.00    1.68645   2.16156    0.000
 6749.00    1.71080   2.16194    0.000
 6750.00    1.73119   2.16151    0.000
 6751.00    1.74793   2.16080    0.000
 6752.00    1.70547   2.16062    0.000
 6753.00    1.61468   2.16128    0.004
 6754.00    1.61933   2.16112    0.004
 6755.00    1.69253   2.16012    0.004
 6756.00    1.71461   2.16023    0.004
 6757.00    1.70445   2.16089    0.004
 6758.00    1.75232   2.16017    0.004
 6759.00    1.83217   2.15642    0.004
 6760.00    2.00435   2.15266    0.004
 6761.00    2.22077   2.15219    0.004
 6762.00    2.31289   2.15504    0.004
 6763.00    2.35359   2.15924    0.004
 6764.00    2.31206   2.16096    0.004
 6765.00    2.24145   2.16073    0.004
 6766.00    2.23009   2.16053    0.004
 6767.00    2.23642   2.16035    0.004
 6768.00    2.25979   2.16046    0.004
 6769.00    2.28738   2.16109    0.004
 6770.00    2.23306   2.16144    0.004
 6771.00    2.16230   2.16127    0.004
 6772.00    2.09222   2.16083    0.004
 6773.00    2.02225   2.16066    0.004
 6774.00    1.96663   2.16103    0.004
 6775.00    1.91268   2.16167    0.004
 6776.00    1.97249   2.16119    0.004
 6777.00    2.04126   2.15822    0.004
 6778.00    1.86904   2.15472    0.004
 6779.00    1.68632   2.15397    0.004
 6780.00    1.74474   2.15514    0.004
 6781.00    1.80501   2.15517    0.004
 6782.00    1.83412   2.15410    0.004
 6783.00    1.86025   2.15362    0.004
 6784.00    1.83248   2.15455    0.004
 6785.00    1.81002   2.15602    0.004
 6786.00    1.84561   2.15695    0.004
 6787.00    1.86886   2.15788    0.004
 6788.00    1.79725   2.15850    0.004
 6789.00    1.74941   2.15801    0.004
 6790.00    1.84017   2.15754    0.004
 6791.00    1.92470   2.15846    0.004
 6792.00    1.98049   2.15990    0.004
 6793.00    2.01711   2.16080    0.004
 6794.00    1.98126   2.16115    0.004
 6795.00    1.92571   2.16095    0.004
 6796.00    1.80789   2.16076    0.004
 6797.00    1.75868   2.16055    0.004
 6798.00    1.89318   2.15949    0.004
 6799.00    1.96332   2.15874    0.004
 6800.00    1.88560   2.15938    0.004
 6801.00    1.81112   2.16114    0.004
 6802.00    1.74308   2.16230    0.004
 6803.00    1.70410   2.16150    0.004
 6804.00    1.71546   2.16103    0.004
 6805.00    1.80399   2.16165    0.004
 6806.00    2.00957   2.16172    0.004
 6807.00    2.14360   2.16151    0.004
 6808.00    2.18225   2.16157    0.004
 6809.00    2.14240   2.16105    0.004
 6810.00    2.01040   2.16028    0.004
 6811.00    1.90435   2.16007    0.004
 6812.00    1.82515   2.15955    0.004
 6813.00    1.76902   2.15904    0.004
 6814.00    1.73394   2.15910    0.004
 6815.00    1.75255   2.15976    0.004
 6816.00    1.81437   2.16039    0.004
 6817.00    1.85186   2.16044    0.004
 6818.00    1.87214   2.16048    0.004
 6819.00    1.88952   2.16054    0.004
 6820.00    1.90511   2.16061    0.004
 6821.00    1.87301   2.16068    0.004
 6822.00    1.81502   2.16075    0.004
 6823.00    1.65168   2.16110    0.004
 6824.00    1.43868   2.16201    0.004
 6825.00    1.59517   2.16231    0.004
 6826.00    1.90191   2.16117    0.004
 6827.00    1.87062   2.16008    0.004
 6828.00    1.72198   2.15988    0.004
 6829.00    1.69134   2.15996    0.004
 6830.00    1.69521   2.16002    0.004
 6831.00    1.78635   2.15947    0.004
 6832.00    1.89862   2.15926    0.004
 6833.00    1.82742   2.16018    0.004
 6834.00    1.72033   2.16079    0.004
 6835.00    1.69267   2.16024    0.004
 6836.00    1.67713   2.15972    0.004
 6837.00    1.70433   2.16004    0.004
 6838.00    1.73633   2.16033    0.004
 6839.00    1.70939   2.15946    0.004
 6840.00    1.67804   2.15865    0.004
 6841.00    1.71164   2.15870    0.004
 6842.00    1.74782   2.15937    0.004
 6843.00    1.81960   2.15941    0.004
 6844.00    1.89567   2.15803    0.004
 6845.00    2.13302   2.15665    0.004
 6846.00    2.33399   2.15703    0.004
 6847.00    1.92063   2.15939    0.004
 6848.00    1.54326   2.16171    0.004
 6849.00    1.54238   2.16228    0.004
 6850.00    1.55027   2.16265    0.004
 6851.00    1.62331   2.16354    0.004
 6852.00    1.70101   2.16354    0.004
 6853.00    1.80514   2.16296    0.004
 6854.00    1.85370   2.16301    0.004
 6855.00    1.65142   2.16364    0.004
 6856.00    1.49426   2.16306    0.004
 6857.00    1.50417   2.16167    0.004
 6858.00    1.53978   2.16176    0.004
 6859.00    1.65500   2.16323    0.004
 6860.00    1.72904   2.16407    0.004
 6861.00    1.69479   2.16443    0.004
 6862.00    1.64455   2.16540    0.004
 6863.00    1.55817   2.16479    0.004
 6864.00    1.51871   2.16401    0.004
 6865.00    1.57109   2.16460    0.004
 6866.00    1.61896   2.16427    0.004
 6867.00    1.65914   2.16312    0.004
 6868.00    1.68326   2.16353    0.004
 6869.00    1.68338   2.16593    0.004
 6870.00    1.68516   2.16764    0.004
 6871.00    1.68911   2.16794    0.004
 6872.00    1.67159   2.16644    0.004
 6873.00    1.62922   2.16387    0.004
 6874.00    1.57848   2.16279    0.004
 6875.00    1.51920   2.16284    0.004
 6876.00    1.57993   2.16288    0.004
 6877.00    1.74870   2.16199    0.004
 6878.00    1.79723   2.16056    0.004
 6879.00    1.75039   2.15939    0.004
 6880.00    1.65503   2.15820    0.004
 6881.00    1.52583   2.15672    0.004
 6882.00    1.62203   2.15499    0.004
 6883.00    1.85617   2.15327    0.004
 6884.00    1.88568   2.14967    0.004
 6885.00    1.80585   2.14221    0.004
 6886.00    1.73743   2.12848    0.004
 6887.00    1.67430   2.10678    0.004
 6888.00    1.61944   2.08458    0.004
 6889.00    1.56788   2.07353    0.004
 6890.00    1.65908   2.07964    0.004
 6891.00    1.79892   2.09934    0.004
 6892.00    1.66266   2.12038    0.004
 6893.00    1.44723   2.13554    0.004
 6894.00    1.47371   2.14543    0.004
 6895.00    1.55747   2.15248    0.004
 6896.00    1.73035   2.15774    0.004
 6897.00    1.92020   2.16032    0.004
 6898.00    1.81228   2.16120    0.004
 6899.00    1.66037   2.16116    0.004
 6900.00    1.76604   2.16154    0.004
 6901.00    1.89950   2.16276    0.004
 6902.00    1.75484   2.16269    0.004
 6903.00    1.59051   2.16118    0.004
 6904.00    1.57250   2.15972    0.004
 6905.00    1.55975   2.15886    0.004
 6906.00    1.69855   2.15955    0.004
 6907.00    1.83116   2.16071    0.004
 6908.00    1.73175   2.16066    0.004
 6909.00    1.65007   2.16101    0.004
 6910.00    1.84876   2.16219    0.004
 6911.00    2.00608   2.16337    0.004
 6912.00    1.74908   2.16422    0.004
 6913.00    1.50923   2.16448    0.004
 6914.00    1.39266   2.16417    0.004
 6915.00    1.33215   2.16359    0.004
 6916.00    1.58077   2.16301    0.004
 6917.00    1.78216   2.16339    0.004
 6918.00    1.77529   2.16396    0.004
 6919.00    1.76226   2.16365    0.004
 6920.00    1.72691   2.16338    0.004
 6921.00    1.66161   2.16400    0.004
 6922.00    1.50527   2.16484    0.004
 6923.00    1.44475   2.16571    0.004
 6924.00    1.63194   2.16593    0.004
 6925.00    1.75054   2.16567    0.004
 6926.00    1.71668   2.16473    0.004
 6927.00    1.67845   2.16390    0.004
 6928.00    1.63180   2.16422    0.004
 6929.00    1.62310   2.16448    0.004
 6930.00    1.67816   2.16447    0.004
 6931.00    1.61112   2.16346    0.004
 6932.00    1.36426   2.16261    0.004
 6933.00    1.27198   2.16262    0.004
 6934.00    1.37985   2.16230    0.004
 6935.00    1.46096   2.16267    0.004
 6936.00    1.51153   2.16320    0.004
 6937.00    1.53619   2.16352    0.004
 6938.00    1.53475   2.16411    0.004
 6939.00    1.60966   2.16406    0.004
 6940.00    1.75231   2.16343    0.004
 6941.00    1.85730   2.16344    0.004
 6942.00    1.93286   2.16368    0.004
 6943.00    1.88054   2.16330    0.004
 6944.00    1.74030   2.16332    0.004
 6945.00    1.78060   2.16395    0.004
 6946.00    1.92972   2.16457    0.004
 6947.00    1.96714   2.16550    0.004
 6948.00    1.94580   2.16604    0.004
 6949.00    1.77514   2.16567    0.004
 6950.00    1.53633   2.16502    0.004
 6951.00    1.43341   2.16471    0.004
 6952.00    1.38386   2.16469    0.004
 6953.00    1.57459   2.16533    0.004
 6954.00    1.84569   2.16622    0.004
 6955.00    1.83344   2.16683    0.004
 6956.00    1.74160   2.16742    0.004
 6957.00    1.67253   2.16734    0.004
 6958.00    1.60874   2.16671    0.004
 6959.00    1.46478   2.16640    0.004
 6960.00    1.30593   2.16671    0.004
 6961.00    1.26546   2.16663    0.004
 6962.00    1.24194   2.16600    0.004
 6963.00    1.50790   2.16603    0.004
 6964.00    1.80383   2.16660    0.004
 6965.00    1.61434   2.16685    0.004
 6966.00    1.39249   2.16650    0.004
 6967.00    1.50549   2.16621    0.004
 6968.00    1.62921   2.16617    0.004
 6969.00    1.61097   2.16679    0.004
 6970.00    1.58885   2.16731    0.004
 6971.00    1.44793   2.16764    0.004
 6972.00    1.31726   2.16755    0.004
 6973.00    1.33905   2.16687    0.004
 6974.00    1.38696   2.16619    0.004
 6975.00    1.68573   2.16583    0.004
 6976.00    1.92626   2.16573    0.004
 6977.00    1.76164   2.16598    0.004
 6978.00    1.57532   2.16693    0.004
 6979.00    1.27247   2.16719    0.004
 6980.00    1.07145   2.16659    0.004
 6981.00    1.30904   2.16664    0.004
 6982.00    1.48359   2.16723    0.004
 6983.00    1.43434   2.16712    0.004
 6984.00    1.44503   2.16645    0.004
 6985.00    1.63448   2.16681    0.004
 6986.00    1.76838   2.16731    0.004
 6987.00    1.76120   2.16724    0.004
 6988.00    1.74296   2.16719    0.004
 6989.00    1.70055   2.16717    0.004
 6990.00    1.72149   2.16681    0.004
 6991.00    1.86262   2.16649    0.004
 6992.00    1.85549   2.16608    0.004
 6993.00    1.60289   2.16609    0.004
 6994.00    1.46904   2.16633    0.004
 6995.00    1.50754   2.16630    0.004
 6996.00    1.61188   2.16590    0.004
 6997.00    1.80026   2.16518    0.004
 6998.00    1.80961   2.16515    0.004
 6999.00    1.61758   2.16607    0.004
 7000.00    1.60956   2.16696    0.004
 7001.00    1.78406   2.16721    0.004
 7002.00    1.80074   2.16713    0.004
 7003.00    1.67932   2.16739    0.004
 7004.00    1.57002   2.16761    0.004
 7005.00    1.47007   2.16826    0.004
 7006.00    1.53526   2.16914    0.004
 7007.00    1.71235   2.16903    0.004
 7008.00    1.70503   2.16870    0.004
 7009.00    1.58821   2.16864    0.004
 7010.00    1.45771   2.16857    0.004
 7011.00    1.32012   2.16817    0.004
 7012.00    1.36993   2.16819    0.004
 7013.00    1.50386   2.16873    0.004
 7014.00    1.61756   2.16850    0.004
 7015.00    1.72344   2.16812    0.004
 7016.00    1.56366   2.16848    0.004
 7017.00    1.31669   2.16913    0.004
 7018.00    1.28887   2.16939    0.004
 7019.00    1.32135   2.16863    0.004
 7020.00    1.35403   2.16799    0.004
 7021.00    1.38676   2.16788    0.004
 7022.00    1.62680   2.16776    0.004
 7023.00    1.90430   2.16804    0.004
 7024.00    1.70824   2.16865    0.004
 7025.00    1.44657   2.16853    0.004
 7026.00    1.66810   2.16853    0.004
 7027.00    1.93761   2.16909    0.004
 7028.00    1.92705   2.16967    0.004
 7029.00    1.89896   2.17060    0.004
 7030.00    1.72768   2.17109    0.004
 7031.00    1.55237   2.17101    0.004
 7032.00    1.38440   2.17129    0.004
 7033.00    1.22443   2.17185    0.004
 7034.00    1.28406   2.17208    0.004
 7035.00    1.35896   2.17164    0.004
 7036.00    1.64832   2.17123    0.004
 7037.00    1.89367   2.17185    0.004
 7038.00    1.73310   2.17346    0.004
 7039.00    1.58821   2.17502    0.004
 7040.00    1.54900   2.17519    0.004
 7041.00    1.50948   2.17376    0.004
 7042.00    1.46838   2.17210    0.004
 7043.00    1.48565   2.17107    0.004
 7044.00    1.74868   2.17107    0.004
 7045.00    1.90909   2.17129    0.004
 7046.00    1.71251   2.17088    0.004
 7047.00    1.54435   2.17053    0.004
 7048.00    1.45934   2.17044    0.004
 7049.00    1.45554   2.17033    0.004
 7050.00    1.65448   2.17019   -2.000
 7051.00    1.74589   2.17040   -2.000
 7052.00    1.60603   2.17020   -2.000
 7053.00    1.46544   2.17021   -2.000
 7054.00    1.32344   2.17080   -2.000
 7055.00    1.25934   2.17029   -2.000
 7056.00    1.32226   2.16965   -2.000
 7057.00    1.37723   2.16954   -2.000
 7058.00    1.42083   2.17015   -2.000
 7059.00    1.53400   2.17097   -2.000
 7060.00    1.73470   2.17081   -2.000
 7061.00    1.78126   2.17081   -2.000
 7062.00    1.65691   2.17028   -2.000
 7063.00    1.54976   2.16742   -2.000
 7064.00    1.45946   2.16266   -2.000
 7065.00    1.40167   2.15844   -2.000
 7066.00    1.37193   2.15802   -2.000
 7067.00    1.32249   2.16134   -2.000
 7068.00    1.25807   2.16583   -2.000
 7069.00    1.27631   2.16960   -2.000
 7070.00    1.34976   2.17167   -2.000
 7071.00    1.43440   2.17251   -2.000
 7072.00    1.52557   2.17307   -2.000
 7073.00    1.67346   2.17362   -2.000
 7074.00    1.85026   2.17342   -2.000
 7075.00    1.97090   2.17340   -2.000
 7076.00    2.06674   2.17358   -2.000
 7077.00    1.86929   2.17348   -2.000
 7078.00    1.56063   2.17339   -2.000
 7079.00    1.73025   2.17329   -2.000
 7080.00    2.05388   2.17355   -2.000
 7081.00    1.65429   2.17368   -2.000
 7082.00    1.05987   2.17351   -2.000
 7083.00    1.02451   2.17335   -2.000
 7084.00    1.11259   2.17362   -2.000
 7085.00    1.27159   2.17381   -2.000
 7086.00    1.44306   2.17406   -2.000
 7087.00    1.50789   2.17459   -2.000
 7088.00    1.55844   2.17438   -2.000
 7089.00    1.46593   2.17398   -2.000
 7090.00    1.35983   2.17388   -2.000
 7091.00    1.31993   2.17453   -2.000
 7092.00    1.28392   2.17535   -2.000
 7093.00    1.44679   2.17552   -2.000
 7094.00    1.61309   2.17540   -2.000
 7095.00    1.58015   2.17529   -2.000
 7096.00    1.54300   2.17594   -2.000
 7097.00    1.40106   2.17643   -2.000
 7098.00    1.26974   2.17599   -2.000
 7099.00    1.27948   2.17559   -2.000
 7100.00    1.30581   2.17546   -2.000
 7101.00    1.47927   2.17608   -2.000
 7102.00    1.64336   2.17730   -2.000
 7103.00    1.74624   2.17778   -2.000
 7104.00    1.76469   2.17767   -2.000
 7105.00    1.35307   2.17753   -2.000
 7106.00    0.99470   2.17816   -2.000
 7107.00    0.85550   2.17861   -2.000
 7108.00    0.80857   2.17809   -2.000
 7109.00    1.07619   2.17688   -2.000
 7110.00    1.36316   2.17578   -2.000
 7111.00    1.70576   2.17617   -2.000
 7112.00    1.81449   2.17741   -2.000
 7113.00    1.34939   2.17748   -2.000
 7114.00    1.08611   2.17669   -2.000
 7115.00    1.24990   2.17706   -2.000
 7116.00    1.41863   2.17789   -2.000
 7117.00    1.59648   2.17766   -2.000
 7118.00    1.65302   2.17763   -2.000
 7119.00    1.51465   2.17816   -2.000
 7120.00    1.67145   2.17829   -2.000
 7121.00    2.24433   2.17777   -2.000
 7122.00    2.45930   2.17739   -2.000
 7123.00    2.23031   2.17765   -2.000
 7124.00    1.83844   2.17777   -2.000
 7125.00    1.26848   2.17801   -2.000
 7126.00    0.97136   2.17896   -2.000
 7127.00    0.93734   2.17939   -2.000
 7128.00    0.85434   2.17883   -2.000
 7129.00    0.72970   2.17759   -2.000
 7130.00    0.91678   2.17768   -2.000
 7131.00    1.33730   2.17894   -2.000
 7132.00    1.12170   2.17980   -2.000
 7133.00    0.48755   2.18035   -2.000
 7134.00    0.91016   2.18050   -2.000
 7135.00    1.94147   2.18037   -2.000
 7136.00    2.12591   2.18062   -2.000
 7137.00    1.88539   2.18033   -2.000
 7138.00    1.52720   2.18029   -2.000
 7139.00    1.11791   2.18046   -2.000
 7140.00    1.00083   2.18033   -2.000
 7141.00    0.99260   2.18019   -2.000
 7142.00    1.26006   2.18004   -2.000
 7143.00    1.61459   2.17990   -2.000
 7144.00    1.44376   2.17975   -2.000
 7145.00    1.13438   2.17918   -2.000
 7146.00    1.16130   2.17828   -2.000
 7147.00    1.26072   2.17823   -2.000
 7148.00    1.21117   2.17880   -2.000
 7149.00    1.13616   2.17897   -2.000
 7150.00    1.19890   2.17885   -2.000
 7151.00    1.27948   2.17953   -2.000
 7152.00    1.38473   2.18035   -2.000
 7153.00    1.49222   2.18045   -2.000
 7154.00    1.55764   2.17988   -2.000
 7155.00    1.62077   2.17988   -2.000
 7156.00    2.29906   2.18083   -2.000
 7157.00    2.97854   2.18081   -2.000
 7158.00    2.59014   2.17993   -2.000
 7159.00    2.16572   2.18030   -2.000
 7160.00    0.92353   2.18113   -2.000
 7161.00   -0.22986   2.18085   -2.000
 7162.00   -0.26486   2.17994   -2.000
 7163.00   -0.18894   2.17943   -2.000
 7164.00    0.83318   2.17887   -2.000
 7165.00    1.87197   2.17930   -2.000
 7166.00    3.01632   2.18056   -2.000
 7167.00    3.71799   2.18096   -2.000
 7168.00    2.22160   2.18160   -2.000
 7169.00    0.95458   2.18200   -2.000
 7170.00    0.61076   2.18227   -2.000
 7171.00    0.51656   2.18281   -2.000
 7172.00    1.25633   2.18293   -2.000
 7173.00    1.81625   2.18233   -2.000
 7174.00    1.86879   2.18185   -2.000
 7175.00    1.81846   2.18168   -2.000
 7176.00    1.52000   2.18030   -2.000
 7177.00    1.26044   2.17888   -2.000
 7178.00    1.08187   2.17878   -2.000
 7179.00    1.03341   2.17965   -2.000
 7180.00    1.22054   2.18127   -2.000
 7181.00    1.37272   2.18283   -2.000
 7182.00    1.46958   2.18411   -2.000
 7183.00    1.64750   2.18535   -2.000
 7184.00    1.93805   2.18612   -2.000
 7185.00    1.92674   2.18533   -2.000
 7186.00    1.54632   2.18370   -2.000
 7187.00    1.14924   2.18377   -2.000
 7188.00    0.73419   2.18543   -2.000
 7189.00    0.56949   2.18698   -2.000
 7190.00    0.64285   2.18698   -2.000
 7191.00    0.98388   2.18609   -2.000
 7192.00    1.54932   2.18521   -2.000
 7193.00    0.65075   2.18602   -2.000
 7194.00   -1.32848   2.18752   -2.000
 7195.00   -0.96676   2.18746   -2.000
 7196.00    0.91261   2.18741   -2.000
 7197.00    1.59676   2.18794   -2.000
 7198.00    1.60289   2.18849   -2.000
 7199.00    0.89664   2.18817   -2.000
 7200.00   -0.16143   2.18683   -2.000
 7201.00    0.11292   2.18651   -2.000
 7202.00    0.95623   2.18791   -2.000
 7203.00    0.87175   2.18943   -2.000
 7204.00    0.44782   2.18852   -2.000
 7205.00    0.78010   2.18656   -2.000
 7206.00    1.34664   2.18618   -2.000
 7207.00    1.51100   2.18754   -2.000
 7208.00    1.57155   2.18909   -2.000
 7209.00    1.59247   2.19037   -2.000
 7210.00    1.60507   2.19077   -2.000
 7211.00    1.25313   2.18970   -2.000
 7212.00    0.84066   2.18806   -2.000
 7213.00    0.57985   2.18771   -2.000
 7214.00    0.33799   2.18780   -2.000
 7215.00    0.44506   2.18762   -2.000
 7216.00    0.58234   2.18789   -2.000
 7217.00    1.06277   2.18799   -2.000
 7218.00    1.56063   2.18736   -2.000
