###################################################################
## OUTPUT of StarlightChains_v04.for    [Cid@UFSC - 01/Apr/2007] ##
###################################################################

## Some input info
KUG0210-078._61_35.txt                   [arq_obs]
Base.CB07.vall.4m                        [arq_base]
Masks.EmLines.NEW.gm                     [arq_masks]
StCv04.C11.config                        [arq_config]
   66                                    [N_base]
    0                                    [N_YAV_components = # of components with extra extinction!]
    0                                    [i_FitPowerLaw (1/0 = Yes/No)]
-9.99                                    [alpha_PowerLaw]
CCM                                      [red_law_option]
 1.458241                                [q_norm = A(l_norm)/A(V)]

## (Re)Sampling Parameters
 3741.00                                 [l_ini (A)]
 7218.00                                 [l_fin (A)]
    1.00                                 [dl    (A)]     (OBS: dl_cushion =    50.00 A)

## Normalization info
 4020.00                                 [l_norm (A) - for base]
 4010.00                                 [llow_norm (A) - window for f_obs]
 4060.00                                 [lupp_norm (A) - window for f_obs]
9.857020E-18                             [fobs_norm (in input units)]

## S/N
 3691.00                                 [llow_SN (A) - window for S/N]
 7268.00                                 [lupp_SN (A) - window for S/N]
   1.749                                 [S/N in S/N window]
   3.056                                 [S/N in norm. window]
   0.007                                 [S/N_err in S/N window]
   0.012                                 [S/N_err in norm. window]
  1.0000                                 [fscale_chi2]

## etc...
    -2008037                             [idum_orig]
  2381                                   [NOl_eff]
  2335                                   [Nl_eff]
    46    NSIGMA                         [Ntot_cliped & clip_method]
  6602610                                [Nglobal_steps]
   7                                     [N_chains]
  43                                     [NEX0s_base = N_base in EX0s-fits]
 0   0   1       46   2.0   2.859E+03    [Clip-Bug, RC-Crash & Burn-In warning-flags, n_censored_weights, wei_nsig_threshold & wei_limit]
    69     68.959     68.389      0.570  [idt_all, wdt_TotTime, wdt_UsrTime & wdt_SysTime (sec)]

## Synthesis Results - Best model ##

 1.28154E-05                             [chi2/Nl_eff]
    49.16196                             [adev (%)]

   107.85497                             [sum-of-x (%)]
 2.77517E-18                             [Flux_tot (units of input spectrum!)]
 1.82910E-14                             [Mini_tot (???)]
 1.06102E-14                             [Mcor_tot (???)]

 206.44                                  [v0_min  (km/s)]
  91.90                                  [vd_min  (km/s)]
-1.0000                                  [AV_min  (mag)]
 0.0000                                  [YAV_min (mag)]

# j     x_j(%)      Mini_j(%)     Mcor_j(%)     age_j(yr)     Z_j      (L/M)_j    YAV?  Mstars   component_j        a/Fe...       SSP_chi2r SSP_adev(%)   SSP_AV   SSP_x(%)
  1      0.0006     8.1052E-06    1.3973E-05    1.000000E+06  0.00400  1.094E-02    0   1.0000   age020_m42            0.0000     1.9039E-05    59.0512   1.8942    86.4925
  2      0.6186     2.1717E-03    3.7435E-03    3.160000E+06  0.00400  4.007E-02    0   0.9999   age045_m42            0.0000     1.7218E-05    56.3834   1.1145    93.8881
  3      0.0000     7.8644E-08    1.2863E-07    5.010000E+06  0.00400  2.539E-02    0   0.9488   age055_m42            0.0000     1.8261E-05    57.9269   1.4744    90.5205
  4      0.0000     0.0000E+00    0.0000E+00    6.610000E+06  0.00400  2.620E-02    0   0.9220   age061_m42            0.0000     1.7410E-05    56.6642   1.0560    93.6278
  5      0.0745     7.9255E-04    1.2108E-03    1.000000E+07  0.00400  1.322E-02    0   0.8862   age070_m42            0.0000     1.8282E-05    59.6756   0.8497    93.5244
  6      0.0000     0.0000E+00    0.0000E+00    1.445000E+07  0.00400  7.883E-03    0   0.8571   age078_m42            0.0000     1.8720E-05    60.0590   1.1825    90.9554
  7      0.0000     0.0000E+00    0.0000E+00    2.512000E+07  0.00400  5.251E-03    0   0.8174   age090_m42            0.0000     1.8279E-05    59.9572   0.7272    93.8117
  8      0.0000     0.0000E+00    0.0000E+00    4.000000E+07  0.00400  3.649E-03    0   0.7851   age104_m42            0.0000     1.7795E-05    59.1480   0.4827    95.1279
  9      1.6932     7.6883E-02    1.0111E-01    5.500000E+07  0.00400  3.098E-03    0   0.7629   age110_m42            0.0000     1.7181E-05    57.3897   0.5951    96.3156
 10      0.0000     0.0000E+00    0.0000E+00    1.015200E+08  0.00400  2.228E-03    0   0.7207   age116_m42            0.0000     1.6792E-05    56.0189   0.5832    97.3494
 11      0.0000     0.0000E+00    0.0000E+00    2.861200E+08  0.00400  1.093E-03    0   0.6648   age125_m42            0.0000     1.6429E-05    55.5152  -0.0000   100.3631
 12      0.0000     0.0000E+00    0.0000E+00    5.088000E+08  0.00400  6.597E-04    0   0.6365   age130_m42            0.0000     1.5672E-05    53.8674  -0.0421   102.5086
 13      0.0161     1.0652E-02    1.0647E-02    1.434000E+09  0.00400  2.132E-04    0   0.5798   age139_m42            0.0000     1.4197E-05    53.5200  -1.0000   105.2331
 14      0.1474     3.5171E-01    3.2601E-01    4.250000E+09  0.00400  5.895E-05    0   0.5377   age158_m42            0.0000     1.4961E-05    67.3449  -1.0000    94.3691
 15      1.1643     4.6663E+00    4.1926E+00    7.500000E+09  0.00400  3.510E-05    0   0.5212   age171_m42            0.0000     1.5913E-05    73.2248  -1.0000    90.2849
 16      0.0000     0.0000E+00    0.0000E+00    1.300000E+10  0.00400  2.005E-05    0   0.5034   age193_m42            0.0000     1.7208E-05    78.3698  -1.0000    86.4815
 17      0.4274     3.9426E+00    3.3759E+00    1.800000E+10  0.00400  1.525E-05    0   0.4967   age213_m42            0.0000     1.7462E-05    79.2194  -1.0000    85.5625
 18      0.0182     2.0644E-04    3.5589E-04    1.000000E+06  0.00800  1.238E-02    0   1.0000   age020_m52            0.0000     1.9091E-05    58.9707   1.8878    86.6916
 19      0.0000     0.0000E+00    0.0000E+00    3.160000E+06  0.00800  3.074E-02    0   0.9966   age045_m52            0.0000     1.9067E-05    58.8375   1.8115    87.4530
 20      0.0000     0.0000E+00    0.0000E+00    5.010000E+06  0.00800  2.668E-02    0   0.9443   age055_m52            0.0000     1.8608E-05    58.3427   1.5662    89.4072
 21      0.0000     0.0000E+00    0.0000E+00    6.610000E+06  0.00800  2.136E-02    0   0.9177   age061_m52            0.0000     1.7872E-05    59.3882   0.3430    94.9729
 22      0.4959     5.7419E-03    8.7374E-03    1.000000E+07  0.00800  1.215E-02    0   0.8827   age070_m52            0.0000     1.8832E-05    60.8766   1.0532    92.5814
 23      0.0000     0.0000E+00    0.0000E+00    1.445000E+07  0.00800  8.717E-03    0   0.8552   age078_m52            0.0000     1.8586E-05    59.9957   1.1478    92.2443
 24      0.0000     0.0000E+00    0.0000E+00    2.512000E+07  0.00800  5.592E-03    0   0.8162   age090_m52            0.0000     1.8223E-05    60.0676   0.7933    94.8736
 25      0.0000     0.0000E+00    0.0000E+00    4.000000E+07  0.00800  3.896E-03    0   0.7841   age104_m52            0.0000     1.7597E-05    58.8488   0.6778    96.4072
 26      1.1964     7.8355E-02    9.7606E-02    1.015200E+08  0.00800  2.148E-03    0   0.7226   age116_m52            0.0000     1.6869E-05    56.7496   0.5691    97.5643
 27      0.3636     5.1534E-02    5.9371E-02    2.861200E+08  0.00800  9.925E-04    0   0.6683   age125_m52            0.0000     1.5636E-05    53.1952  -0.0000   103.7135
 28      0.0000     0.0000E+00    0.0000E+00    9.047900E+08  0.00800  3.141E-04    0   0.6138   age135_m52            0.0000     1.3348E-05    49.6324  -0.8788   111.1587
 29      0.0000     0.0000E+00    0.0000E+00    1.434000E+09  0.00800  1.719E-04    0   0.5853   age139_m52            0.0000     1.4201E-05    64.2954  -1.0000   101.0329
 30      0.0000     0.0000E+00    0.0000E+00    2.500000E+09  0.00800  7.872E-05    0   0.5600   age150_m52            0.0000     1.5462E-05    72.3415  -1.0000    93.4776
 31      0.0000     0.0000E+00    0.0000E+00    4.250000E+09  0.00800  4.336E-05    0   0.5426   age158_m52            0.0000     1.5584E-05    72.8181  -1.0000    92.3105
 32      2.1192     9.4372E+00    8.6533E+00    6.250000E+09  0.00800  3.159E-05    0   0.5319   age166_m52            0.0000     1.7087E-05    78.7910  -1.0000    88.1433
 33      0.0000     0.0000E+00    0.0000E+00    1.300000E+10  0.00800  1.361E-05    0   0.5073   age193_m52            0.0000     2.2715E-05    92.3772  -1.0000    76.6367
 34      0.0000     0.0000E+00    0.0000E+00    1.800000E+10  0.00800  9.886E-06    0   0.4990   age213_m52            0.0000     2.4420E-05    94.6478  -1.0000    73.6507
 35      0.0000     0.0000E+00    0.0000E+00    1.000000E+06  0.02000  1.544E-02    0   1.0000   age020_m62            0.0000     1.9195E-05    59.1674   1.8892    86.7944
 36      0.0000     0.0000E+00    0.0000E+00    3.160000E+06  0.02000  3.762E-02    0   0.9858   age045_m62            0.0000     1.9336E-05    59.1288   1.8316    87.4456
 37      0.0000     0.0000E+00    0.0000E+00    5.010000E+06  0.02000  3.296E-02    0   0.9342   age055_m62            0.0000     1.7985E-05    56.9944   1.4146    92.0621
 38      0.0000     0.0000E+00    0.0000E+00    8.710000E+06  0.02000  1.154E-02    0   0.8861   age067_m62            0.0000     2.1268E-05    67.4400   0.6448    91.2513
 39      0.0000     0.0000E+00    0.0000E+00    1.445000E+07  0.02000  7.663E-03    0   0.8472   age078_m62            0.0000     1.9180E-05    62.5964   0.7382    93.6465
 40      0.0000     0.0000E+00    0.0000E+00    2.512000E+07  0.02000  4.532E-03    0   0.8099   age090_m62            0.0000     1.9271E-05    62.8218   0.7394    93.0876
 41      0.0548     2.8184E-03    3.6901E-03    5.500000E+07  0.02000  2.733E-03    0   0.7595   age110_m62            0.0000     1.7863E-05    59.1158   0.6699    95.4011
 42      0.0000     0.0000E+00    0.0000E+00    1.609000E+08  0.02000  1.369E-03    0   0.6985   age120_m62            0.0000     1.6638E-05    55.8730   0.4372   100.1414
 43      0.0000     0.0000E+00    0.0000E+00    2.861200E+08  0.02000  9.013E-04    0   0.6714   age125_m62            0.0000     1.5701E-05    53.5592   0.1323   104.7368
 44     14.3808     4.0235E+00    4.4731E+00    5.088000E+08  0.02000  5.028E-04    0   0.6449   age130_m62            0.0000     1.3937E-05    49.5594  -0.3494   110.8620
 45     32.8778     1.9049E+01    2.0291E+01    9.047900E+08  0.02000  2.428E-04    0   0.6179   age135_m62            0.0000     1.2781E-05    48.2576  -0.9763   111.6530
 46      0.0914     1.0178E-01    1.0366E-01    1.434000E+09  0.02000  1.263E-04    0   0.5908   age139_m62            0.0000     1.3386E-05    61.0286  -1.0000   102.9689
 47      0.0000     0.0000E+00    0.0000E+00    2.500000E+09  0.02000  5.985E-05    0   0.5673   age150_m62            0.0000     1.5323E-05    72.3187  -1.0000    94.5312
 48      0.6817     2.9318E+00    2.7636E+00    4.250000E+09  0.02000  3.271E-05    0   0.5468   age158_m62            0.0000     1.8154E-05    81.0165  -1.0000    87.0440
 49      0.0000     0.0000E+00    0.0000E+00    1.000000E+10  0.02000  1.360E-05    0   0.5167   age181_m62            0.0000     2.2709E-05    90.3562  -1.0000    78.2899
 50      0.4237     8.3668E+00    7.2305E+00    1.800000E+10  0.02000  7.124E-06    0   0.5013   age213_m62            0.0000     2.6268E-05    95.1574  -1.0000    72.3530
 51      0.0000     0.0000E+00    0.0000E+00    1.000000E+06  0.05000  2.592E-02    0   0.9998   age020_m72            0.0000     1.9457E-05    59.5560   1.8869    86.6708
 52      0.0000     0.0000E+00    0.0000E+00    3.160000E+06  0.05000  4.845E-02    0   0.9577   age045_m72            0.0000     1.8822E-05    58.1635   1.6986    88.9600
 53      0.0000     0.0000E+00    0.0000E+00    5.010000E+06  0.05000  3.072E-02    0   0.9147   age055_m72            0.0000     1.9296E-05    61.3972   1.2949    90.7951
 54      0.0000     0.0000E+00    0.0000E+00    6.610000E+06  0.05000  1.455E-02    0   0.8877   age061_m72            0.0000     2.2342E-05    69.4513   0.7348    90.5390
 55      0.0000     0.0000E+00    0.0000E+00    1.000000E+07  0.05000  9.074E-03    0   0.8524   age070_m72            0.0000     1.9354E-05    61.3452   1.4744    90.4531
 56      0.0000     0.0000E+00    0.0000E+00    2.512000E+07  0.05000  4.250E-03    0   0.7902   age090_m72            0.0000     1.8639E-05    60.5198   1.1625    92.5791
 57      0.0000     0.0000E+00    0.0000E+00    4.000000E+07  0.05000  3.087E-03    0   0.7618   age104_m72            0.0000     1.8437E-05    60.4680   0.9350    94.1319
 58      0.0439     3.6332E-03    4.4444E-03    1.015200E+08  0.05000  1.700E-03    0   0.7096   age116_m72            0.0000     1.7085E-05    57.1884   0.6078    98.8548
 59      0.0000     0.0000E+00    0.0000E+00    2.861200E+08  0.05000  7.384E-04    0   0.6633   age125_m72            0.0000     1.4718E-05    51.4403  -0.0569   107.9995
 60      6.8887     2.5375E+00    2.7873E+00    5.088000E+08  0.05000  3.819E-04    0   0.6372   age130_m72            0.0000     1.3140E-05    48.5396  -0.6312   112.5544
 61     43.2841     3.6330E+01    3.8267E+01    9.047900E+08  0.05000  1.676E-04    0   0.6110   age135_m72            0.0000     1.2649E-05    57.7330  -1.0000   106.0527
 62      0.0000     0.0000E+00    0.0000E+00    1.434000E+09  0.05000  8.837E-05    0   0.5874   age139_m72            0.0000     1.5140E-05    72.3801  -1.0000    96.1273
 63      0.0000     0.0000E+00    0.0000E+00    2.500000E+09  0.05000  4.233E-05    0   0.5598   age150_m72            0.0000     1.8129E-05    80.7886  -1.0000    87.9115
 64      0.7804     7.6505E+00    6.9228E+00    6.250000E+09  0.05000  1.435E-05    0   0.5249   age166_m72            0.0000     2.4263E-05    92.8555  -1.0000    75.5434
 65      0.0000     0.0000E+00    0.0000E+00    1.300000E+10  0.05000  6.513E-06    0   0.5036   age193_m72            0.0000     2.9377E-05    98.8620  -1.0000    68.9138
 66      0.0122     3.7890E-01    3.2300E-01    1.800000E+10  0.05000  4.527E-06    0   0.4945   age213_m72            0.0000     3.2623E-05   101.8614  -1.0000    64.5402


## Synthesis Results - Average & Chains ##

# j      x_j: min, <> & last-chain-values for 1 ...  7 chains
  1      0.0006      0.7518      0.1510      1.8098      1.6660      2.6544      0.2569      0.8658      0.9854
  2      0.6186      0.7315      0.8153      1.0077      2.2882      0.0000      1.2155      5.1403      3.1376
  3      0.0000      0.7681      2.4813      0.0000      2.9362      0.0451      1.6966      1.0030      0.5661
  4      0.0000      0.7742      0.3369      1.5881      0.1484      3.2472      1.1877      0.0000      0.4541
  5      0.0745      0.6605      0.4664      0.0000      0.4418      1.0758      0.3858      2.0282      3.9624
  6      0.0000      0.9654      1.7225      0.0000      0.0000      0.0000      1.5958      0.0000      0.0000
  7      0.0000      0.8593      0.0000      0.5813      1.0980      0.5312      2.8449      2.5502      0.0000
  8      0.0000      0.7005      0.0000      0.5946      1.3168      1.2727      4.1810      0.9408      0.0000
  9      1.6932      0.9588      2.2234      0.0832      2.4069      0.0156      0.5105      2.0691      2.6695
 10      0.0000      1.0954      1.3846      1.0162      1.0349      0.8123      3.6210      0.0317      0.7271
 11      0.0000      0.7543      4.1154      0.3857      0.0000      1.9236      0.5472      0.0000      0.7642
 12      0.0000      0.8772      0.8846      0.8968      0.0000      1.0928      1.1555      0.0973      1.1237
 13      0.0161      0.4981      0.2036      0.0000      2.3270      0.5356      0.0000      1.1451      0.0000
 14      0.1474      0.9947      0.9156      0.6324      0.0000      1.5288      1.2796      3.0974      2.3503
 15      1.1643      0.7194      0.0741      0.7332      0.0000      3.1697      3.1864      3.1651      1.3718
 16      0.0000      0.9513      1.8513      1.3008      0.1564      0.7804      0.0000      1.2998      3.1513
 17      0.4274      0.7900      0.8364      0.0000      1.1367      2.1295      0.1004      0.6649      1.3075
 18      0.0182      0.5272      0.2265      0.4720      0.9598      0.6846      0.7422      1.9096      0.0000
 19      0.0000      0.8149      1.5396      0.2167      0.7326      0.5644      0.7059      0.0000      0.0174
 20      0.0000      1.0048      1.1177      0.3885      0.0995      0.6360      0.0000      0.0000      2.4517
 21      0.0000      0.7492      0.8202      1.2358      0.8373      0.0054      4.4118      0.5280      0.8736
 22      0.4959      0.8411      0.3097      1.0915      0.4096      1.8024      0.0000      1.4699      1.0701
 23      0.0000      1.0772      2.0363      2.1681      0.1950      1.5092      1.2958      1.0889      2.4442
 24      0.0000      0.5534      0.1121      1.0752      0.3441      0.6956      2.4934      0.0748      1.2495
 25      0.0000      0.6796      0.5024      0.1026      1.5749      2.1511      0.3571      0.0000      5.0125
 26      1.1964      0.6947      2.0620      1.0262      1.1194      2.3534      1.2153      0.5580      1.9307
 27      0.3636      0.7667      0.1445      1.6387      1.2858      2.8599      0.2526      1.7921      0.0000
 28      0.0000      0.6843      0.0000      1.9642      0.0827      0.5353      0.4533      0.0000      0.0000
 29      0.0000      0.8007      0.0000      0.1268      0.0000      2.4607      0.0000      0.4566      4.2525
 30      0.0000      0.6555      0.0000      0.0000      0.1962      0.7991      1.4824      0.3623      0.9940
 31      0.0000      0.8052      2.2574      1.2845      0.0000      0.0000      0.9362      0.2939      0.8187
 32      2.1192      0.9176      0.3996      0.6064      1.2780      1.6682      0.0000      2.6483      0.4081
 33      0.0000      1.1379      0.0000      1.3745      2.8699      1.1108      0.4513      1.6382      1.7764
 34      0.0000      0.8538      0.8485      1.4712      0.6859      4.2828      0.9585      0.0000      0.0000
 35      0.0000      0.8012      1.2083      2.6441      0.6198      1.1036      1.8490      0.0000      1.3987
 36      0.0000      0.9082      1.1412      1.0982      0.0000      0.0000      0.5911      0.2985      0.0000
 37      0.0000      0.7008      0.4036      1.3918      0.5588      0.4491      0.0000      0.0000      0.0000
 38      0.0000      0.7773      0.8728      1.0212      1.4992      2.5604      0.1112      0.8728      0.2078
 39      0.0000      0.9079      2.0199      0.7077      1.1714      0.5630      2.4142      0.0000      0.0000
 40      0.0000      1.1042      1.1683      0.4508      2.6921      0.8416      0.0000      0.0000      0.5054
 41      0.0548      0.8694      3.6209      1.1407      0.6795      0.2439      2.0327      1.6997      0.5941
 42      0.0000      0.6227      0.6150      0.0000      0.4419      0.6880      0.0000      0.0000      0.8330
 43      0.0000      0.6540      0.0000      1.1103      0.0000      2.4184      0.0000      1.8429      0.0000
 44     14.3808      1.1931      0.2404      0.7737      1.2264      1.0905      5.0089      2.7523      2.6983
 45     32.8778      1.2470      1.8207      0.0000      2.6689      4.3152      1.7612      5.2689      1.5462
 46      0.0914      1.1881      2.1195      5.0345      3.7546      0.8656      1.6817      2.1264      0.8721
 47      0.0000      0.9441      0.5951      2.7381      0.8595      2.6848      2.8969      0.5394      0.0000
 48      0.6817      0.7315      0.4836      0.0000      0.3741      0.3098      0.0000      3.5679      1.5923
 49      0.0000      0.8924      0.0000      0.0000      0.4462      2.0480      1.8136      0.5143      0.9732
 50      0.4237     26.6581     21.5219     24.9417     23.2006     12.8066      6.8530     16.2308     12.6511
 51      0.0000      0.6594      1.5824      2.1784      1.6569      0.4085      0.4451      0.1734      0.4999
 52      0.0000      0.6721      1.3996      0.1509      2.1761      0.3980      0.0000      0.8457      0.4781
 53      0.0000      1.0407      0.8499      0.6840      1.6238      0.0000      1.5721      0.0308      0.0000
 54      0.0000      0.9303      0.5670      0.6931      0.4971      0.8152      1.0398      1.3055      0.1281
 55      0.0000      0.9078      0.4495      1.0007      0.5979      0.7572      1.0777      2.8206      0.7246
 56      0.0000      0.7176      0.0000      0.6082      0.4182      1.1611      0.4409      1.3463      0.7958
 57      0.0000      0.8945      0.2042      1.5252      1.0184      0.0000      0.0000      0.0000      2.4154
 58      0.0439      1.0141      0.6953      2.2402      0.2948      0.0522      0.6784      1.9831      0.8220
 59      0.0000      0.6394      1.5742      1.4393      0.0000      0.2135      1.0876      0.6188      0.7036
 60      6.8887     15.9459     11.9509     13.4582     15.1183      9.7339      8.6430     12.6809      9.4831
 61     43.2841      3.1370      3.2260      3.5140      3.1720      3.3102      5.1522      2.5635      7.0170
 62      0.0000      0.6295      2.1336      0.7632      0.0000      1.9330      2.7232      0.3336      7.0089
 63      0.0000      0.6334      1.9715      0.7015      0.0000      1.8294      3.4156      0.5062      0.0000
 64      0.7804      1.0777      3.1439      0.0000      0.0000      0.3758      1.9686      4.0971      2.3640
 65      0.0000      1.1797      0.0000      0.0000      0.1067      0.0196      5.4491      0.4331      0.0000
 66      0.0122      5.4999      4.9783      2.8840      5.6464      1.9319      3.0534      1.5899      2.1741

# j      m_j: min, <> & last-chain-values for 1 ...  7 chains
  1  1.3973E-05  2.3529E-03  5.6463E-04  6.9388E-03  5.9277E-03  1.3630E-02  1.3983E-03  4.1584E-03  5.4475E-03
  2  3.7435E-03  6.2499E-04  8.3207E-04  1.0548E-03  2.2226E-03  0.0000E+00  1.8057E-03  6.7398E-03  4.7353E-03
  3  1.2863E-07  9.8283E-04  3.7921E-03  0.0000E+00  4.2710E-03  9.4623E-05  3.7744E-03  1.9693E-03  1.2794E-03
  4  0.0000E+00  9.3291E-04  4.8484E-04  2.3442E-03  2.0333E-04  6.4195E-03  2.4882E-03  0.0000E+00  9.6657E-04
  5  1.2108E-03  1.5160E-03  1.2786E-03  0.0000E+00  1.1529E-03  4.0514E-03  1.5395E-03  7.1440E-03  1.6064E-02
  6  0.0000E+00  3.5940E-03  7.6592E-03  0.0000E+00  0.0000E+00  0.0000E+00  1.0329E-02  0.0000E+00  0.0000E+00
  7  0.0000E+00  4.5804E-03  0.0000E+00  3.7957E-03  6.6528E-03  4.6453E-03  2.6365E-02  2.0859E-02  0.0000E+00
  8  0.0000E+00  5.1603E-03  0.0000E+00  5.3664E-03  1.1028E-02  1.5383E-02  5.3555E-02  1.0635E-02  0.0000E+00
  9  1.0111E-01  8.0844E-03  2.2392E-02  8.5973E-04  2.3071E-02  2.1512E-04  7.4839E-03  2.6772E-02  3.9759E-02
 10  0.0000E+00  1.2132E-02  1.8317E-02  1.3788E-02  1.3030E-02  1.4762E-02  6.9732E-02  5.3960E-04  1.4225E-02
 11  0.0000E+00  1.5709E-02  1.0237E-01  9.8404E-03  0.0000E+00  6.5728E-02  1.9814E-02  0.0000E+00  2.8114E-02
 12  0.0000E+00  2.8978E-02  3.4903E-02  3.6295E-02  0.0000E+00  5.9230E-02  6.6374E-02  4.9351E-03  6.5569E-02
 13  1.0647E-02  4.6382E-02  2.2650E-02  0.0000E+00  2.4633E-01  8.1824E-02  0.0000E+00  1.6363E-01  0.0000E+00
 14  3.2601E-01  3.1066E-01  3.4153E-01  2.4194E-01  0.0000E+00  7.8338E-01  6.9486E-01  1.4845E+00  1.2965E+00
 15  4.1926E+00  3.6576E-01  4.5027E-02  4.5667E-01  0.0000E+00  2.6441E+00  2.8168E+00  2.4695E+00  1.2320E+00
 16  0.0000E+00  8.1778E-01  1.9010E+00  1.3699E+00  1.5280E-01  1.1007E+00  0.0000E+00  1.7147E+00  4.7852E+00
 17  3.3759E+00  8.8103E-01  1.1141E+00  0.0000E+00  1.4411E+00  3.8964E+00  1.9476E-01  1.1379E+00  2.5755E+00
 18  3.5589E-04  1.4582E-03  7.4810E-04  1.5991E-03  3.0179E-03  3.1067E-03  3.5692E-03  8.1047E-03  0.0000E+00
 19  0.0000E+00  9.0464E-04  2.0413E-03  2.9463E-04  9.2447E-04  1.0279E-03  1.3624E-03  0.0000E+00  3.4198E-05
 20  0.0000E+00  1.2178E-03  1.6178E-03  5.7670E-04  1.3712E-04  1.2646E-03  0.0000E+00  0.0000E+00  5.2481E-03
 21  0.0000E+00  1.1021E-03  1.4411E-03  2.2269E-03  1.4002E-03  1.2936E-05  1.1284E-02  1.1920E-03  2.2701E-03
 22  8.7374E-03  2.0923E-03  9.2014E-04  3.3261E-03  1.1583E-03  7.3563E-03  0.0000E+00  5.6111E-03  4.7019E-03
 23  0.0000E+00  3.6185E-03  8.1700E-03  8.9217E-03  7.4458E-04  8.3180E-03  7.5682E-03  5.6132E-03  1.4503E-02
 24  0.0000E+00  2.7658E-03  6.6903E-04  6.5827E-03  1.9549E-03  5.7038E-03  2.1666E-02  5.7393E-04  1.1030E-02
 25  0.0000E+00  4.6833E-03  4.1353E-03  8.6604E-04  1.2338E-02  2.4321E-02  4.2790E-03  0.0000E+00  6.1012E-02
 26  9.7606E-02  8.0019E-03  2.8369E-02  1.4480E-02  1.4658E-02  4.4475E-02  2.4340E-02  9.8629E-03  3.9281E-02
 27  5.9371E-02  1.7678E-02  3.9781E-03  4.6281E-02  3.3701E-02  1.0818E-01  1.0126E-02  6.3404E-02  0.0000E+00
 28  0.0000E+00  4.5788E-02  0.0000E+00  1.6099E-01  6.2869E-03  5.8769E-02  5.2735E-02  0.0000E+00  0.0000E+00
 29  0.0000E+00  9.3355E-02  0.0000E+00  1.8115E-02  0.0000E+00  4.7067E-01  0.0000E+00  8.1682E-02  8.7570E-01
 30  0.0000E+00  1.5966E-01  0.0000E+00  0.0000E+00  5.4317E-02  3.1937E-01  6.2783E-01  1.3541E-01  4.2766E-01
 31  0.0000E+00  3.4502E-01  1.1553E+00  6.7422E-01  0.0000E+00  0.0000E+00  6.9743E-01  1.9323E-01  6.1961E-01
 32  8.6533E+00  5.2904E-01  2.7516E-01  4.2828E-01  8.3761E-01  1.5780E+00  0.0000E+00  2.3429E+00  4.1555E-01
 33  0.0000E+00  1.4523E+00  0.0000E+00  2.1489E+00  4.1639E+00  2.3259E+00  1.0014E+00  3.2085E+00  4.0045E+00
 34  0.0000E+00  1.4756E+00  1.7515E+00  3.1148E+00  1.3476E+00  1.2144E+01  2.8802E+00  0.0000E+00  0.0000E+00
 35  0.0000E+00  1.7768E-03  3.2006E-03  7.1830E-03  1.5626E-03  4.0153E-03  7.1295E-03  0.0000E+00  5.4788E-03
 36  0.0000E+00  8.1487E-04  1.2229E-03  1.2070E-03  0.0000E+00  0.0000E+00  9.2209E-04  4.1098E-04  0.0000E+00
 37  0.0000E+00  6.8016E-04  4.6780E-04  1.6546E-03  6.1656E-04  7.1510E-04  0.0000E+00  0.0000E+00  0.0000E+00
 38  0.0000E+00  2.0438E-03  2.7408E-03  3.2889E-03  4.4809E-03  1.1045E-02  5.0846E-04  3.5213E-03  9.6520E-04
 39  0.0000E+00  3.4369E-03  9.1328E-03  3.2816E-03  5.0409E-03  3.4968E-03  1.5890E-02  0.0000E+00  0.0000E+00
 40  0.0000E+00  6.7565E-03  8.5384E-03  3.3789E-03  1.8726E-02  8.4488E-03  0.0000E+00  0.0000E+00  5.4623E-03
 41  3.6901E-03  8.2729E-03  4.1152E-02  1.3296E-02  7.3503E-03  3.8071E-03  3.3630E-02  2.4819E-02  9.9860E-03
 42  0.0000E+00  1.0878E-02  1.2833E-02  0.0000E+00  8.7755E-03  1.9720E-02  0.0000E+00  0.0000E+00  2.5705E-02
 43  0.0000E+00  1.6680E-02  0.0000E+00  3.4691E-02  0.0000E+00  1.0121E-01  0.0000E+00  7.2134E-02  0.0000E+00
 44  4.4731E+00  5.2398E-02  1.2612E-02  4.1625E-02  6.1227E-02  7.8578E-02  3.8247E-01  1.8549E-01  2.0931E-01
 45  2.0291E+01  1.0866E-01  1.8950E-01  0.0000E+00  2.6438E-01  6.1693E-01  2.6684E-01  7.0455E-01  2.3798E-01
 46  1.0366E-01  1.9030E-01  4.0547E-01  9.8779E-01  6.8364E-01  2.2748E-01  4.6833E-01  5.2263E-01  2.4674E-01
 47  0.0000E+00  3.0642E-01  2.3067E-01  1.0886E+00  3.1713E-01  1.4296E+00  1.6347E+00  2.6865E-01  0.0000E+00
 48  2.7636E+00  4.1873E-01  3.3064E-01  0.0000E+00  2.4345E-01  2.9092E-01  0.0000E+00  3.1338E+00  1.6098E+00
 49  0.0000E+00  1.1609E+00  0.0000E+00  0.0000E+00  6.5983E-01  4.3711E+00  4.1020E+00  1.0267E+00  2.2361E+00
 50  7.2305E+00  6.4231E+01  6.1936E+01  7.3616E+01  6.3548E+01  5.0626E+01  2.8709E+01  6.0012E+01  5.3841E+01
 51  0.0000E+00  8.7089E-04  2.4962E-03  3.5243E-03  2.4877E-03  8.8515E-04  1.0221E-03  3.5140E-04  1.1663E-03
 52  0.0000E+00  4.5486E-04  1.1314E-03  1.2510E-04  1.6743E-03  4.4191E-04  0.0000E+00  8.7835E-04  5.7152E-04
 53  0.0000E+00  1.0610E-03  1.0349E-03  8.5422E-04  1.8820E-03  0.0000E+00  2.7868E-03  4.8115E-05  0.0000E+00
 54  0.0000E+00  1.9433E-03  1.4147E-03  1.7737E-03  1.1806E-03  2.7942E-03  3.7768E-03  4.1852E-03  4.7262E-04
 55  0.0000E+00  2.9198E-03  1.7269E-03  3.9431E-03  2.1864E-03  3.9962E-03  6.0269E-03  1.3922E-02  4.1167E-03
 56  0.0000E+00  4.5682E-03  0.0000E+00  4.7429E-03  3.0270E-03  1.2127E-02  4.8803E-03  1.3153E-02  8.9491E-03
 57  0.0000E+00  7.5585E-03  2.0607E-03  1.5788E-02  9.7829E-03  0.0000E+00  0.0000E+00  0.0000E+00  3.6049E-02
 58  4.4444E-03  1.4494E-02  1.1870E-02  3.9222E-02  4.7893E-03  1.2250E-03  1.6858E-02  4.3495E-02  2.0752E-02
 59  0.0000E+00  1.9667E-02  5.7832E-02  5.4231E-02  0.0000E+00  1.0773E-02  5.8162E-02  2.9208E-02  3.8227E-02
 60  2.7873E+00  9.1099E-01  8.1548E-01  9.4186E-01  9.8188E-01  9.1239E-01  8.5852E-01  1.1117E+00  9.5694E-01
 61  3.8267E+01  3.9158E-01  4.8098E-01  5.3732E-01  4.5012E-01  6.7793E-01  1.1182E+00  4.9105E-01  1.5471E+00
 62  0.0000E+00  1.4328E-01  5.8001E-01  2.1278E-01  0.0000E+00  7.2180E-01  1.0776E+00  1.1650E-01  2.8177E+00
 63  0.0000E+00  2.8682E-01  1.0663E+00  3.8913E-01  0.0000E+00  1.3591E+00  2.6891E+00  3.5172E-01  0.0000E+00
 64  6.9228E+00  1.3498E+00  4.7031E+00  0.0000E+00  0.0000E+00  7.7214E-01  4.2869E+00  7.8745E+00  5.2298E+00
 65  0.0000E+00  3.1234E+00  0.0000E+00  0.0000E+00  3.2117E-01  8.5087E-02  2.5084E+01  1.7594E+00  0.0000E+00
 66  3.2300E-01  2.0571E+01  2.2240E+01  1.3214E+01  2.4008E+01  1.1855E+01  1.9856E+01  9.1255E+00  1.4363E+01

# AV, chi2 & Mass for <> & i_chain = 1 ...  7 solutions
AV      -1.0000     -0.9883     -1.0000     -1.0000     -1.0000     -1.0000     -1.0000     -1.0000     -1.0000
chi2 1.2815E-05  1.5761E-05  1.5265E-05  1.5051E-05  1.5203E-05  1.4931E-05  1.5097E-05  1.4856E-05  1.4861E-05
Mass 1.0610E-14  7.6340E-14  6.2916E-14  6.1345E-14  6.6103E-14  4.5802E-14  4.3220E-14  4.8970E-14  4.2544E-14
 206.44                                  [v0_min (km/s) before EX0s...]
  91.90                                  [vd_min (km/s) before EX0s...]


## Synthetic spectrum (Best Model) ##l_obs f_obs f_syn wei
 3478    [Nl_obs]
 3741.00   -0.40141   0.56308    0.000
 3742.00   -0.03125   0.61963    0.000
 3743.00    0.26931   0.64998    0.000
 3744.00    0.50541   0.65020    0.000
 3745.00    0.70394   0.62947    0.025
 3746.00    0.81630   0.60085    0.025
 3747.00    0.88490   0.56961    0.025
 3748.00    0.39522   0.53343    0.024
 3749.00   -0.33995   0.49050    0.000
 3750.00   -0.53063   0.44243    0.000
 3751.00   -0.51575   0.39940    0.000
 3752.00    0.11132   0.38316    0.023
 3753.00    0.93459   0.40981    0.022
 3754.00    1.21265   0.47167    0.023
 3755.00    1.34461   0.54616    0.023
 3756.00    1.05813   0.61512    0.022
 3757.00    0.67982   0.66623    0.022
 3758.00    0.33079   0.68548    0.021
 3759.00   -0.01313   0.66599    0.000
 3760.00   -0.03126   0.62422    0.000
 3761.00   -0.00612   0.59232    0.000
 3762.00    0.17113   0.58859    0.021
 3763.00    0.36267   0.60561    0.021
 3764.00    0.10878   0.62688    0.021
 3765.00   -0.17081   0.64215    0.000
 3766.00   -0.10243   0.64782    0.000
 3767.00   -0.02235   0.64200    0.000
 3768.00    0.47615   0.62185    0.021
 3769.00    0.94927   0.58888    0.021
 3770.00    0.80609   0.55219    0.021
 3771.00    0.65569   0.51933    0.021
 3772.00    0.41092   0.49471    0.021
 3773.00    0.22485   0.48963    0.021
 3774.00    0.55420   0.51417    0.021
 3775.00    0.81693   0.55843    0.021
 3776.00    0.64770   0.60023    0.021
 3777.00    0.46609   0.63042    0.022
 3778.00    0.22189   0.65707    0.050
 3779.00    0.05905   0.68861   -1.000
 3780.00    0.22919   0.72449   -1.000
 3781.00    0.33145   0.76056   -1.000
 3782.00    0.20348   0.79283   -1.000
 3783.00    0.10057   0.81583   -1.000
 3784.00    0.06935   0.82689   -1.000
 3785.00    0.12327   0.83053   -1.000
 3786.00    0.38522   0.82898   -1.000
 3787.00    0.57209   0.81283   -1.000
 3788.00    0.60074   0.77476   -1.000
 3789.00    0.61138   0.72706   -1.000
 3790.00    0.58903   0.69023   -1.000
 3791.00    0.37609   0.67133    0.112
 3792.00   -0.14191   0.66528    0.000
 3793.00   -0.54753   0.66460    0.000
 3794.00   -0.79529   0.65864    0.000
 3795.00   -0.80094   0.63631    0.000
 3796.00   -0.50732   0.59666    0.000
 3797.00   -0.25162   0.54898    0.000
 3798.00   -0.03723   0.50120    0.000
 3799.00   -0.05749   0.45716    0.000
 3800.00   -0.30324   0.42750    0.000
 3801.00   -0.40918   0.43033    0.000
 3802.00   -0.39664   0.47253    0.000
 3803.00   -0.30633   0.53987    0.000
 3804.00   -0.15800   0.61129    0.000
 3805.00   -0.15422   0.67301    0.000
 3806.00   -0.24520   0.71644    0.000
 3807.00   -0.23775   0.73590    0.000
 3808.00   -0.17382   0.73546    0.000
 3809.00    0.04343   0.73232    0.022
 3810.00    0.33733   0.74585    0.022
 3811.00    0.37953   0.78022    0.022
 3812.00    0.31289   0.81942    0.022
 3813.00    0.19832   0.84035    0.022
 3814.00    0.06599   0.82901    0.022
 3815.00   -0.00555   0.78959    0.000
 3816.00   -0.05797   0.74338    0.000
 3817.00   -0.15369   0.71497    0.000
 3818.00   -0.26076   0.71587    0.000
 3819.00   -0.14381   0.73876    0.000
 3820.00    0.02114   0.76197    0.021
 3821.00   -0.03781   0.76425    0.000
 3822.00   -0.13475   0.74542    0.000
 3823.00   -0.13643   0.72732    0.000
 3824.00   -0.12588   0.72495    0.000
 3825.00    0.11297   0.72498    0.022
 3826.00    0.37231   0.70591    0.021
 3827.00    0.59412   0.66975    0.022
 3828.00    0.81391   0.63664    0.023
 3829.00    0.31695   0.61724    0.022
 3830.00   -0.18755   0.60662    0.000
 3831.00   -0.11520   0.59690    0.000
 3832.00   -0.04456   0.58230    0.000
 3833.00   -0.01171   0.55606    0.000
 3834.00    0.01020   0.51385    0.021
 3835.00   -0.10378   0.46182    0.000
 3836.00   -0.17333   0.41490    0.000
 3837.00    0.13269   0.38680    0.021
 3838.00    0.37269   0.38394    0.022
 3839.00    0.19741   0.40310    0.021
 3840.00    0.02398   0.43356    0.021
 3841.00   -0.14034   0.46673    0.000
 3842.00   -0.19629   0.50312    0.000
 3843.00    0.18152   0.54775    0.022
 3844.00    0.48953   0.60043    0.022
 3845.00    0.56544   0.65183    0.023
 3846.00    0.51648   0.69115    0.023
 3847.00    0.11687   0.71637    0.000
 3848.00   -0.08100   0.73458    0.000
 3849.00    0.20568   0.75278    0.000
 3850.00    0.37486   0.76871    0.000
 3851.00    0.30035   0.77526    0.000
 3852.00    0.18603   0.77612    0.000
 3853.00   -0.00011   0.78525    0.000
 3854.00   -0.07952   0.80602    0.000
 3855.00    0.00942   0.82489    0.000
 3856.00    0.04986   0.82950    0.000
 3857.00    0.02316   0.82083    0.000
 3858.00   -0.01771   0.80838    0.000
 3859.00   -0.07588   0.79946    0.000
 3860.00   -0.15524   0.79207    0.000
 3861.00   -0.25739   0.78322    0.000
 3862.00   -0.27392   0.78232    0.000
 3863.00   -0.20933   0.80096    0.000
 3864.00   -0.13561   0.83304    0.000
 3865.00   -0.05425   0.86033    0.000
 3866.00    0.08137   0.87226    0.000
 3867.00    0.25689   0.87104    0.000
 3868.00    0.27726   0.86502    0.000
 3869.00    0.19742   0.86265    0.000
 3870.00    0.24360   0.86634    0.000
 3871.00    0.36099   0.86883    0.000
 3872.00    0.39541   0.85846    0.000
 3873.00    0.38902   0.82977    0.000
 3874.00    0.25518   0.79152    0.000
 3875.00    0.06715   0.76488    0.000
 3876.00    0.25305   0.76630    0.000
 3877.00    0.57514   0.78806    0.000
 3878.00    0.48310   0.80269    0.000
 3879.00    0.26338   0.78969    0.000
 3880.00    0.19624   0.75595    0.000
 3881.00    0.16825   0.72813    0.020
 3882.00    0.27922   0.72130    0.020
 3883.00    0.41923   0.72185    0.020
 3884.00    0.71353   0.71049    0.021
 3885.00    1.03326   0.68672    0.023
 3886.00    0.76889   0.65703    0.023
 3887.00    0.43218   0.61785    0.022
 3888.00    0.17819   0.56545    0.022
 3889.00   -0.06872   0.50881    0.000
 3890.00   -0.00981   0.46284    0.000
 3891.00    0.06435   0.43991    0.023
 3892.00    0.33309   0.44960    0.022
 3893.00    0.59564   0.49208    0.022
 3894.00    0.25188   0.55111    0.021
 3895.00   -0.07513   0.60407    0.000
 3896.00   -0.05960   0.63934    0.000
 3897.00   -0.03820   0.66109    0.000
 3898.00    0.05251   0.67986    0.019
 3899.00    0.16843   0.70010    0.019
 3900.00    0.48982   0.71715    0.019
 3901.00    0.70645   0.72845    0.018
 3902.00    0.28325   0.74211    0.018
 3903.00   -0.07106   0.76545    0.000
 3904.00   -0.09390   0.79007    0.000
 3905.00   -0.08183   0.80072    0.000
 3906.00    0.06694   0.79476    0.017
 3907.00    0.18707   0.78197    0.017
 3908.00    0.21384   0.77478    0.017
 3909.00    0.26472   0.78547    0.017
 3910.00    0.38207   0.81807    0.018
 3911.00    0.43410   0.86095    0.018
 3912.00    0.33189   0.89728    0.019
 3913.00    0.32720   0.91843    0.019
 3914.00    0.52154   0.92302    0.019
 3915.00    0.65409   0.91289    0.020
 3916.00    0.67687   0.89537    0.020
 3917.00    0.62399   0.87993    0.020
 3918.00    0.45353   0.86861    0.020
 3919.00    0.33948   0.85733    0.020
 3920.00    0.30238   0.84427    0.020
 3921.00    0.31619   0.83074    0.020
 3922.00    0.39115   0.81925    0.020
 3923.00    0.58629   0.81394    0.020
 3924.00    0.90872   0.81765    0.021
 3925.00    0.92413   0.82730    0.021
 3926.00    0.65272   0.83395    0.021
 3927.00    0.56607   0.82744    0.021
 3928.00    0.63159   0.80280    0.021
 3929.00    0.87575   0.76255    0.021
 3930.00    1.24942   0.71144    0.021
 3931.00    1.12713   0.65201    0.021
 3932.00    0.68920   0.58523    0.021
 3933.00    0.51023   0.51186    0.021
 3934.00    0.47538   0.43533    0.021
 3935.00    0.41471   0.36737    0.021
 3936.00    0.34155   0.32849    0.021
 3937.00    0.20496   0.33628    0.021
 3938.00    0.04186   0.39012    0.021
 3939.00    0.24302   0.47085    0.021
 3940.00    0.57447   0.55608    0.020
 3941.00    0.53371   0.63235    0.020
 3942.00    0.38044   0.69286    0.020
 3943.00    0.42341   0.73236    0.020
 3944.00    0.51568   0.75008    0.020
 3945.00    0.56094   0.75347    0.021
 3946.00    0.59663   0.75612    0.021
 3947.00    0.41681   0.77070    0.021
 3948.00    0.20250   0.79689    0.021
 3949.00    0.21684   0.81860    0.020
 3950.00    0.25849   0.82326    0.020
 3951.00    0.43733   0.81817    0.021
 3952.00    0.62734   0.81748    0.021
 3953.00    0.73156   0.82241    0.021
 3954.00    0.83183   0.82600    0.021
 3955.00    0.54956   0.82882    0.021
 3956.00    0.27160   0.83443    0.021
 3957.00    0.47373   0.83493    0.021
 3958.00    0.65804   0.81977    0.021
 3959.00    0.50477   0.79649    0.021
 3960.00    0.39953   0.78305    0.000
 3961.00    0.83563   0.78034    0.000
 3962.00    1.20191   0.76863    0.000
 3963.00    1.01941   0.73260    0.000
 3964.00    0.82414   0.67908    0.000
 3965.00    0.55313   0.62558    0.000
 3966.00    0.34463   0.57809    0.000
 3967.00    0.42961   0.52737    0.000
 3968.00    0.49056   0.46356    0.000
 3969.00    0.45938   0.38865    0.000
 3970.00    0.45651   0.31730    0.000
 3971.00    0.54413   0.26942    0.000
 3972.00    0.63324   0.25965    0.000
 3973.00    0.72643   0.28935    0.000
 3974.00    0.81906   0.34668    0.000
 3975.00    0.91038   0.41514    0.000
 3976.00    0.99440   0.48336    0.000
 3977.00    1.06374   0.54715    0.000
 3978.00    1.16201   0.60476    0.000
 3979.00    1.31087   0.65580    0.000
 3980.00    1.28418   0.70327    0.000
 3981.00    0.98874   0.74907    0.021
 3982.00    0.76086   0.78755    0.021
 3983.00    0.62384   0.80944    0.021
 3984.00    0.40799   0.81428    0.021
 3985.00    0.09881   0.81422    0.020
 3986.00    0.13457   0.82222    0.020
 3987.00    0.53054   0.83986    0.020
 3988.00    0.68064   0.86013    0.020
 3989.00    0.60428   0.87815    0.020
 3990.00    0.39917   0.89371    0.020
 3991.00    0.08953   0.90576    0.020
 3992.00    0.23344   0.91331    0.020
 3993.00    0.70141   0.92131    0.020
 3994.00    1.00075   0.93542    0.020
 3995.00    1.19437   0.95195    0.021
 3996.00    0.94313   0.95983    0.020
 3997.00    0.44810   0.95178    0.020
 3998.00    0.34022   0.93056    0.020
 3999.00    0.41677   0.90792    0.020
 4000.00    0.40518   0.89966    0.020
 4001.00    0.35737   0.91566    0.020
 4002.00    0.44293   0.94876    0.020
 4003.00    0.57533   0.97953    0.020
 4004.00    0.63361   0.99470    0.020
 4005.00    0.66993   0.99249    0.020
 4006.00    0.50627   0.97285    0.020
 4007.00    0.29348   0.93982    0.020
 4008.00    0.40043   0.91270    0.020
 4009.00    0.57096   0.91399    0.020
 4010.00    0.64522   0.94340    0.020
 4011.00    0.70452   0.97878    0.020
 4012.00    0.83793   1.00177    0.020
 4013.00    0.97986   1.01024    0.020
 4014.00    1.01786   1.01038    0.020
 4015.00    1.04782   1.00860    0.020
 4016.00    1.26773   1.00948    0.020
 4017.00    1.49564   1.01420    0.020
 4018.00    1.43151   1.01957    0.020
 4019.00    1.35971   1.02247    0.020
 4020.00    1.06849   1.02638    0.020
 4021.00    0.80492   1.03708    0.020
 4022.00    1.02884   1.05025    0.020
 4023.00    1.19909   1.05358    0.020
 4024.00    0.79175   1.04228    0.020
 4025.00    0.45783   1.02287    0.020
 4026.00    0.68120   1.00512    0.020
 4027.00    0.86486   0.99887    0.020
 4028.00    0.81949   1.01085    0.020
 4029.00    0.76452   1.03433    0.020
 4030.00    0.66554   1.04846    0.019
 4031.00    0.56985   1.03485    0.019
 4032.00    0.48649   0.99289    0.019
 4033.00    0.42585   0.94063    0.021
 4034.00    0.43643   0.90188    0.051
 4035.00    0.54185   0.88956   -1.000
 4036.00    0.89956   0.90223   -1.000
 4037.00    1.18034   0.93303   -1.000
 4038.00    1.28548   0.97500   -1.000
 4039.00    1.28520   1.01910   -1.000
 4040.00    1.07651   1.05293   -1.000
 4041.00    0.93622   1.06615   -1.000
 4042.00    0.91377   1.05897   -1.000
 4043.00    1.00330   1.04319   -1.000
 4044.00    1.26174   1.03026   -1.000
 4045.00    1.37219   1.01615    0.091
 4046.00    1.28648   0.98566    0.027
 4047.00    1.25107   0.93907    0.020
 4048.00    1.27440   0.90467    0.020
 4049.00    1.29075   0.91104    0.020
 4050.00    1.29992   0.95245    0.020
 4051.00    1.22815   0.99706    0.020
 4052.00    1.08286   1.02310    0.020
 4053.00    1.01175   1.02945    0.020
 4054.00    1.00000   1.02049    0.020
 4055.00    0.96275   0.99994    0.020
 4056.00    0.90755   0.97525    0.020
 4057.00    0.77381   0.95607    0.020
 4058.00    0.59156   0.94668    0.020
 4059.00    0.71892   0.94376    0.020
 4060.00    1.01334   0.94485    0.020
 4061.00    0.91813   0.95428    0.020
 4062.00    0.64029   0.97228    0.020
 4063.00    0.41517   0.98376    0.020
 4064.00    0.21133   0.97046    0.020
 4065.00    0.50161   0.93525    0.020
 4066.00    0.96226   0.90478    0.020
 4067.00    1.03033   0.90127    0.020
 4068.00    0.98440   0.91839    0.019
 4069.00    0.95167   0.93652    0.020
 4070.00    0.92210   0.95087    0.020
 4071.00    1.01183   0.96558    0.020
 4072.00    1.12467   0.97226    0.020
 4073.00    1.43310   0.95959    0.020
 4074.00    1.77099   0.93762    0.020
 4075.00    1.65826   0.92840    0.020
 4076.00    1.49567   0.93349    0.019
 4077.00    1.32631   0.92984    0.019
 4078.00    1.15645   0.89972    0.019
 4079.00    0.86155   0.85376    0.019
 4080.00    0.56186   0.82282    0.019
 4081.00    0.62178   0.83026    0.019
 4082.00    0.68871   0.87188    0.019
 4083.00    0.94478   0.92137    0.019
 4084.00    1.18718   0.95190    0.019
 4085.00    1.20437   0.95298    0.019
 4086.00    1.20641   0.93329    0.019
 4087.00    1.05259   0.91138    0.019
 4088.00    0.90581   0.90273    0.018
 4089.00    0.81074   0.91221    0.018
 4090.00    0.75471   0.93263    0.019
 4091.00    0.91759   0.94971    0.019
 4092.00    1.05058   0.95269    0.000
 4093.00    1.04978   0.94133    0.000
 4094.00    1.02696   0.92296    0.000
 4095.00    0.92331   0.90416    0.000
 4096.00    0.82985   0.88433    0.000
 4097.00    0.76779   0.85685    0.000
 4098.00    0.71136   0.81881    0.000
 4099.00    0.66968   0.77611    0.000
 4100.00    0.69694   0.73473    0.000
 4101.00    0.87902   0.69156    0.000
 4102.00    1.01274   0.63953    0.000
 4103.00    1.05234   0.58221    0.000
 4104.00    1.11599   0.54034    0.000
 4105.00    1.22047   0.53743    0.000
 4106.00    1.25811   0.57707    0.000
 4107.00    1.19642   0.64003    0.000
 4108.00    1.33685   0.70229    0.000
 4109.00    1.74141   0.74925    0.000
 4110.00    1.67146   0.77732    0.000
 4111.00    1.05533   0.79040    0.000
 4112.00    0.87948   0.79657    0.000
 4113.00    1.15056   0.80496    0.019
 4114.00    1.22042   0.82177    0.019
 4115.00    1.11011   0.84720    0.020
 4116.00    1.03969   0.87669    0.019
 4117.00    1.00076   0.90456    0.019
 4118.00    1.06595   0.92506    0.028
 4119.00    1.20340   0.93163    0.101
 4120.00    1.17774   0.92127   -1.000
 4121.00    1.05280   0.90210   -1.000
 4122.00    1.01387   0.88923   -1.000
 4123.00    1.02062   0.88870   -1.000
 4124.00    0.98046   0.89374   -1.000
 4125.00    0.91866   0.89911   -1.000
 4126.00    0.96047   0.90786   -1.000
 4127.00    1.04342   0.92042   -1.000
 4128.00    1.03660   0.92782   -1.000
 4129.00    0.99940   0.92148   -1.000
 4130.00    0.96702   0.90458    0.047
 4131.00    0.93601   0.88858    0.021
 4132.00    1.06277   0.87963    0.019
 4133.00    1.22658   0.87301    0.019
 4134.00    1.23425   0.86351    0.019
 4135.00    1.21245   0.85691    0.019
 4136.00    0.98217   0.86509    0.019
 4137.00    0.72145   0.89150    0.019
 4138.00    0.84921   0.92670    0.019
 4139.00    1.01826   0.95769    0.019
 4140.00    1.07884   0.97977    0.019
 4141.00    1.13193   0.99619    0.019
 4142.00    1.16803   1.00606    0.019
 4143.00    1.20354   0.99968    0.019
 4144.00    1.39766   0.96939    0.019
 4145.00    1.57969   0.92373    0.019
 4146.00    1.35222   0.88802    0.019
 4147.00    1.14282   0.88426    0.019
 4148.00    1.21298   0.90928    0.019
 4149.00    1.27406   0.93942    0.019
 4150.00    1.24569   0.95490    0.019
 4151.00    1.20480   0.95299    0.018
 4152.00    1.07502   0.94294    0.018
 4153.00    0.95969   0.93494    0.018
 4154.00    0.92322   0.93134    0.018
 4155.00    0.88542   0.92653    0.018
 4156.00    0.84176   0.91582    0.018
 4157.00    0.80119   0.90238    0.018
 4158.00    0.77178   0.89416    0.018
 4159.00    0.73984   0.89659    0.018
 4160.00    0.70030   0.90976    0.018
 4161.00    0.68850   0.92862    0.018
 4162.00    0.74793   0.94509    0.018
 4163.00    0.83911   0.95474    0.018
 4164.00    1.00039   0.96132    0.018
 4165.00    1.17837   0.97011    0.018
 4166.00    1.38833   0.97951    0.018
 4167.00    1.48654   0.98353    0.018
 4168.00    1.39797   0.97903    0.018
 4169.00    1.26507   0.96859    0.018
 4170.00    1.06724   0.95984    0.018
 4171.00    1.01049   0.95763    0.018
 4172.00    1.13545   0.95388    0.018
 4173.00    1.15331   0.93323    0.018
 4174.00    1.04963   0.89309    0.018
 4175.00    0.95783   0.85180    0.018
 4176.00    0.87792   0.83225    0.018
 4177.00    0.89566   0.83953    0.018
 4178.00    0.99960   0.85749    0.018
 4179.00    1.10831   0.86731    0.018
 4180.00    1.22073   0.86643    0.018
 4181.00    1.16466   0.86765    0.018
 4182.00    0.99336   0.88045    0.018
 4183.00    1.12316   0.89812    0.018
 4184.00    1.43345   0.90799    0.018
 4185.00    1.44093   0.90923    0.018
 4186.00    1.29002   0.91175    0.018
 4187.00    1.02682   0.91969    0.018
 4188.00    0.71269   0.92473    0.018
 4189.00    0.76775   0.91860    0.018
 4190.00    0.96686   0.90807    0.018
 4191.00    0.85257   0.90853    0.018
 4192.00    0.63419   0.92280    0.018
 4193.00    0.57489   0.93988    0.018
 4194.00    0.55993   0.95413    0.018
 4195.00    0.80598   0.96847    0.019
 4196.00    1.11191   0.97851    0.019
 4197.00    1.08192   0.97170    0.019
 4198.00    0.99019   0.94507    0.019
 4199.00    1.13499   0.91023    0.019
 4200.00    1.31323   0.88063    0.019
 4201.00    1.11478   0.86415    0.018
 4202.00    0.87792   0.86296    0.018
 4203.00    0.82500   0.87043    0.018
 4204.00    0.78407   0.87591    0.018
 4205.00    0.76914   0.87766    0.018
 4206.00    0.75547   0.88224    0.018
 4207.00    1.04321   0.89324    0.018
 4208.00    1.31329   0.90953    0.018
 4209.00    1.06445   0.92849    0.019
 4210.00    0.82432   0.94487    0.019
 4211.00    0.71090   0.95295    0.019
 4212.00    0.62482   0.95367    0.019
 4213.00    0.79729   0.95505    0.018
 4214.00    0.95129   0.96184    0.018
 4215.00    0.97841   0.96682    0.018
 4216.00    0.96997   0.95714    0.018
 4217.00    0.77254   0.93078    0.018
 4218.00    0.65006   0.90477    0.018
 4219.00    0.84767   0.90184    0.018
 4220.00    0.96610   0.92609    0.018
 4221.00    0.80552   0.95913    0.018
 4222.00    0.69729   0.98184    0.017
 4223.00    0.74410   0.98898    0.018
 4224.00    0.84675   0.98159    0.018
 4225.00    1.09034   0.95826    0.018
 4226.00    1.22780   0.91762    0.018
 4227.00    1.13463   0.86314    0.017
 4228.00    1.02024   0.80701    0.017
 4229.00    0.86583   0.77248    0.017
 4230.00    0.80893   0.78265    0.017
 4231.00    0.91257   0.83738    0.017
 4232.00    0.97451   0.90706    0.017
 4233.00    0.97626   0.95573    0.017
 4234.00    0.99749   0.96622    0.017
 4235.00    1.04345   0.94573    0.017
 4236.00    1.06196   0.91601    0.017
 4237.00    1.04976   0.89600    0.017
 4238.00    1.02367   0.88961    0.016
 4239.00    0.98386   0.89103    0.016
 4240.00    0.96556   0.89534    0.016
 4241.00    0.96597   0.90106    0.016
 4242.00    0.92779   0.91016    0.016
 4243.00    0.86003   0.92563    0.017
 4244.00    1.05469   0.94540    0.017
 4245.00    1.42620   0.96337    0.017
 4246.00    1.51851   0.97546    0.017
 4247.00    1.44596   0.97800    0.017
 4248.00    1.28490   0.96600    0.017
 4249.00    1.07825   0.94158    0.017
 4250.00    1.00650   0.91690    0.017
 4251.00    0.99495   0.90112    0.018
 4252.00    0.95116   0.89243    0.017
 4253.00    0.89501   0.88842    0.017
 4254.00    0.84091   0.89242    0.017
 4255.00    0.78748   0.90291    0.017
 4256.00    0.75529   0.91083    0.017
 4257.00    0.72889   0.91423    0.017
 4258.00    0.77040   0.92138    0.017
 4259.00    0.82713   0.93354    0.017
 4260.00    1.06671   0.93769    0.017
 4261.00    1.33900   0.92289    0.018
 4262.00    1.45512   0.89600    0.018
 4263.00    1.54988   0.87751    0.018
 4264.00    1.45554   0.88451    0.018
 4265.00    1.34273   0.91689    0.017
 4266.00    1.14472   0.95821    0.017
 4267.00    0.94151   0.99039    0.017
 4268.00    1.01496   1.00493    0.017
 4269.00    1.09585   1.00109    0.017
 4270.00    1.17278   0.98136    0.017
 4271.00    1.23944   0.95025    0.017
 4272.00    1.03442   0.91165    0.017
 4273.00    0.83731   0.86921    0.017
 4274.00    0.74889   0.83253    0.017
 4275.00    0.68356   0.81489    0.017
 4276.00    0.82806   0.81980    0.017
 4277.00    0.97900   0.83928    0.018
 4278.00    1.17284   0.86725    0.018
 4279.00    1.30311   0.90171    0.018
 4280.00    1.10422   0.93427    0.018
 4281.00    0.97488   0.95201    0.018
 4282.00    1.13586   0.95026   -2.000
 4283.00    1.24347   0.93596   -2.000
 4284.00    1.16680   0.91986   -2.000
 4285.00    1.09649   0.90881   -2.000
 4286.00    1.04467   0.90387   -2.000
 4287.00    1.03246   0.90209   -2.000
 4288.00    1.11846   0.89857   -2.000
 4289.00    1.35695   0.88850   -2.000
 4290.00    1.92144   0.86787   -2.000
 4291.00    2.07286   0.83617   -2.000
 4292.00    1.45736   0.80446   -2.000
 4293.00    1.06839   0.79365   -2.000
 4294.00    1.04683   0.81378   -2.000
 4295.00    0.89994   0.84866   -2.000
 4296.00    0.57476   0.87190   -2.000
 4297.00    0.43001   0.87413   -2.000
 4298.00    0.51107   0.86455    0.018
 4299.00    0.58222   0.85034    0.018
 4300.00    0.64245   0.82741    0.018
 4301.00    0.67476   0.79175    0.018
 4302.00    0.67992   0.75160    0.018
 4303.00    0.72021   0.72339    0.018
 4304.00    0.79064   0.71586    0.018
 4305.00    0.89863   0.72441    0.018
 4306.00    1.03500   0.74079    0.018
 4307.00    1.06601   0.75737    0.018
 4308.00    1.02707   0.76481    0.018
 4309.00    1.13630   0.75801    0.018
 4310.00    1.33169   0.74277    0.018
 4311.00    1.41547   0.73326    0.018
 4312.00    1.44269   0.74235    0.018
 4313.00    1.19354   0.76945    0.017
 4314.00    0.82313   0.79879    0.017
 4315.00    0.84252   0.81469    0.017
 4316.00    1.00873   0.81796    0.017
 4317.00    1.03116   0.82531    0.018
 4318.00    1.00760   0.85167    0.018
 4319.00    1.01100   0.89271    0.018
 4320.00    1.02161   0.92768    0.018
 4321.00    1.02689   0.94069    0.018
 4322.00    1.03100   0.93278    0.018
 4323.00    1.04276   0.91465    0.018
 4324.00    1.05583   0.89515    0.018
 4325.00    1.03074   0.87355    0.018
 4326.00    1.00061   0.84087    0.018
 4327.00    0.93392   0.79590    0.018
 4328.00    0.86381   0.75763    0.018
 4329.00    1.25975   0.75178    0.018
 4330.00    1.68234   0.78258    0.000
 4331.00    1.54433   0.82498    0.000
 4332.00    1.39246   0.84972    0.000
 4333.00    1.14609   0.85012    0.000
 4334.00    0.91502   0.84013    0.000
 4335.00    1.05124   0.83239    0.000
 4336.00    1.17061   0.82687    0.000
 4337.00    1.07068   0.81580    0.000
 4338.00    0.98560   0.78892    0.000
 4339.00    1.03041   0.73790    0.000
 4340.00    1.07428   0.66626    0.000
 4341.00    1.11201   0.59121    0.000
 4342.00    1.12843   0.53251    0.000
 4343.00    1.03725   0.50528    0.000
 4344.00    1.01712   0.51794    0.000
 4345.00    1.28699   0.56322    0.000
 4346.00    1.44807   0.62006    0.000
 4347.00    1.24108   0.67282    0.000
 4348.00    1.21099   0.71896    0.000
 4349.00    1.68569   0.75911    0.000
 4350.00    1.92153   0.79245    0.000
 4351.00    1.57498   0.81629    0.018
 4352.00    1.27369   0.82254    0.018
 4353.00    1.06761   0.80478    0.018
 4354.00    0.94362   0.77466    0.017
 4355.00    0.96972   0.75931    0.018
 4356.00    1.01334   0.77445    0.022
 4357.00    1.08494   0.81015    0.060
 4358.00    1.16376   0.84736   -1.000
 4359.00    1.25270   0.87395   -1.000
 4360.00    1.35675   0.88458   -1.000
 4361.00    1.47945   0.88173   -1.000
 4362.00    1.45784   0.87850   -1.000
 4363.00    1.27928   0.88785   -1.000
 4364.00    1.22343   0.90905    0.065
 4365.00    1.28529   0.93186    0.022
 4366.00    1.29725   0.94988    0.017
 4367.00    1.26702   0.96156    0.017
 4368.00    1.25413   0.96228    0.017
 4369.00    1.25416   0.94690    0.017
 4370.00    1.16870   0.92040    0.017
 4371.00    1.02728   0.89763    0.017
 4372.00    0.91844   0.88944    0.017
 4373.00    0.82825   0.89410    0.017
 4374.00    0.69277   0.90128    0.017
 4375.00    0.53470   0.89834    0.017
 4376.00    0.67832   0.87860    0.017
 4377.00    0.95212   0.85204    0.016
 4378.00    1.18377   0.84192    0.017
 4379.00    1.39982   0.86167    0.017
 4380.00    1.32843   0.89938    0.017
 4381.00    1.16690   0.93041    0.017
 4382.00    0.99374   0.94001    0.017
 4383.00    0.81754   0.92742    0.017
 4384.00    0.71352   0.89406    0.017
 4385.00    0.62492   0.84087    0.016
 4386.00    0.79198   0.78210    0.017
 4387.00    1.00228   0.74687    0.017
 4388.00    1.22896   0.75387    0.017
 4389.00    1.45773   0.79174    0.016
 4390.00    1.25734   0.83236    0.016
 4391.00    1.01865   0.85763    0.017
 4392.00    1.08540   0.86743    0.017
 4393.00    1.16841   0.87043    0.017
 4394.00    1.14382   0.87448    0.016
 4395.00    1.11656   0.87944    0.016
 4396.00    1.04269   0.87840    0.016
 4397.00    0.98045   0.87134    0.017
 4398.00    1.17372   0.87101    0.016
 4399.00    1.34908   0.88595    0.016
 4400.00    1.30338   0.90450    0.016
 4401.00    1.25107   0.90717    0.016
 4402.00    1.14314   0.89066    0.017
 4403.00    1.08224   0.87149    0.017
 4404.00    1.31601   0.86640    0.017
 4405.00    1.49294   0.87164    0.017
 4406.00    1.39031   0.86936    0.017
 4407.00    1.24514   0.85538    0.017
 4408.00    0.93017   0.84475    0.017
 4409.00    0.69847   0.84684    0.016
 4410.00    0.74294   0.85477    0.016
 4411.00    0.82845   0.86353    0.016
 4412.00    1.02894   0.87845    0.016
 4413.00    1.17373   0.90161    0.016
 4414.00    1.18501   0.92434    0.016
 4415.00    1.19823   0.93375    0.016
 4416.00    1.21547   0.92051    0.017
 4417.00    1.23058   0.88701    0.017
 4418.00    1.24188   0.85145    0.017
 4419.00    1.22203   0.83480    0.016
 4420.00    1.15317   0.84422    0.016
 4421.00    1.12088   0.87242    0.016
 4422.00    1.13915   0.90426    0.016
 4423.00    1.15053   0.92274    0.016
 4424.00    1.15353   0.92020    0.016
 4425.00    1.10198   0.90571    0.016
 4426.00    0.99193   0.89569    0.016
 4427.00    0.97091   0.89660    0.016
 4428.00    1.03411   0.90232    0.016
 4429.00    1.05405   0.90604    0.016
 4430.00    1.03791   0.90703    0.016
 4431.00    1.13801   0.90589    0.017
 4432.00    1.32343   0.90112    0.017
 4433.00    1.37391   0.89406    0.017
 4434.00    1.33739   0.88892    0.017
 4435.00    1.24856   0.88366    0.017
 4436.00    1.13023   0.87149    0.017
 4437.00    1.09954   0.85456    0.017
 4438.00    1.11189   0.84777    0.017
 4439.00    1.19148   0.86413    0.017
 4440.00    1.29959   0.89919    0.017
 4441.00    1.32132   0.93356    0.017
 4442.00    1.31166   0.94774    0.017
 4443.00    1.25049   0.93357    0.017
 4444.00    1.17348   0.89783    0.017
 4445.00    1.21494   0.85923    0.017
 4446.00    1.28673   0.83941    0.017
 4447.00    1.25226   0.84935    0.017
 4448.00    1.19566   0.87988    0.017
 4449.00    1.18437   0.91004    0.017
 4450.00    1.18052   0.92646    0.017
 4451.00    1.21993   0.92935    0.017
 4452.00    1.26467   0.92372    0.017
 4453.00    1.26064   0.91511    0.016
 4454.00    1.25247   0.90799    0.016
 4455.00    1.24880   0.89974    0.016
 4456.00    1.24536   0.88219    0.016
 4457.00    1.33442   0.85479    0.016
 4458.00    1.42015   0.83017    0.017
 4459.00    1.20469   0.82039    0.016
 4460.00    0.99596   0.82316    0.016
 4461.00    0.92348   0.82764    0.000
 4462.00    0.87098   0.82748    0.000
 4463.00    1.05331   0.82354    0.000
 4464.00    1.20709   0.82165    0.000
 4465.00    1.12931   0.82907    0.000
 4466.00    1.06920   0.84592    0.000
 4467.00    1.11658   0.86304    0.000
 4468.00    1.15741   0.87168    0.000
 4469.00    1.16685   0.87007    0.000
 4470.00    1.16788   0.86092    0.000
 4471.00    1.13608   0.84917    0.000
 4472.00    1.12622   0.84270    0.000
 4473.00    1.18765   0.84875    0.000
 4474.00    1.21637   0.86796    0.000
 4475.00    1.15510   0.89419    0.000
 4476.00    1.09955   0.91895    0.000
 4477.00    1.05746   0.93602    0.000
 4478.00    1.01503   0.94511    0.000
 4479.00    0.97190   0.95032    0.000
 4480.00    1.03914   0.95134    0.000
 4481.00    1.30203   0.93970    0.000
 4482.00    1.42278   0.90869    0.016
 4483.00    1.32311   0.86608    0.017
 4484.00    1.28607   0.83362    0.017
 4485.00    1.33433   0.83055    0.017
 4486.00    1.28384   0.85715    0.017
 4487.00    1.11495   0.89616    0.016
 4488.00    1.02717   0.92753    0.016
 4489.00    1.02512   0.93869    0.016
 4490.00    1.11258   0.92687    0.016
 4491.00    1.28349   0.89996    0.017
 4492.00    1.34495   0.87426    0.017
 4493.00    1.31644   0.86432    0.017
 4494.00    1.16047   0.87175    0.017
 4495.00    0.91228   0.88428    0.016
 4496.00    0.99298   0.88800    0.017
 4497.00    1.28262   0.88146    0.017
 4498.00    1.32811   0.87534    0.017
 4499.00    1.23800   0.87988    0.017
 4500.00    1.15319   0.89550    0.017
 4501.00    1.07093   0.91305    0.016
 4502.00    1.01400   0.92165    0.016
 4503.00    0.96762   0.91916    0.016
 4504.00    1.15878   0.91684    0.016
 4505.00    1.43471   0.92817    0.017
 4506.00    1.37636   0.95245    0.017
 4507.00    1.21723   0.97540    0.017
 4508.00    1.05798   0.98386    0.016
 4509.00    0.89871   0.97601    0.016
 4510.00    0.93691   0.96049    0.016
 4511.00    1.01526   0.94932    0.017
 4512.00    1.07698   0.94898    0.016
 4513.00    1.13605   0.95526    0.016
 4514.00    1.12316   0.95793    0.016
 4515.00    1.10171   0.95048    0.016
 4516.00    1.23057   0.93453    0.016
 4517.00    1.37160   0.91726    0.017
 4518.00    1.20939   0.90597    0.017
 4519.00    1.03339   0.90232    0.016
 4520.00    1.07092   0.90307    0.016
 4521.00    1.10614   0.90559    0.016
 4522.00    0.88984   0.90931    0.016
 4523.00    0.69340   0.91236    0.016
 4524.00    0.86954   0.91005    0.016
 4525.00    1.01887   0.90052    0.017
 4526.00    0.86778   0.88769    0.017
 4527.00    0.73121   0.87476    0.017
 4528.00    0.70830   0.86074    0.016
 4529.00    0.71096   0.84382    0.016
 4530.00    0.86479   0.82553    0.016
 4531.00    0.98374   0.81126    0.016
 4532.00    0.93941   0.80670    0.016
 4533.00    0.91435   0.81281    0.016
 4534.00    0.96291   0.82364    0.016
 4535.00    1.03227   0.82894    0.016
 4536.00    1.16792   0.82408    0.016
 4537.00    1.24402   0.81785    0.017
 4538.00    1.15920   0.82557    0.017
 4539.00    1.05456   0.85295    0.017
 4540.00    0.90397   0.88767    0.016
 4541.00    0.83311   0.91017    0.016
 4542.00    0.92210   0.91161    0.016
 4543.00    1.03242   0.89969    0.016
 4544.00    1.18000   0.88919    0.016
 4545.00    1.28279   0.88725    0.016
 4546.00    1.31714   0.88887    0.016
 4547.00    1.23213   0.88718    0.016
 4548.00    0.98689   0.88217    0.016
 4549.00    0.92254   0.87628    0.016
 4550.00    1.07201   0.86709    0.000
 4551.00    1.07462   0.85145    0.000
 4552.00    0.92415   0.83557    0.000
 4553.00    0.88966   0.83045    0.000
 4554.00    0.96180   0.83662    0.000
 4555.00    0.90692   0.84262    0.000
 4556.00    0.74911   0.83891    0.000
 4557.00    0.90007   0.82906    0.000
 4558.00    1.27124   0.82595    0.000
 4559.00    1.38059   0.83801    0.000
 4560.00    1.32610   0.86082    0.000
 4561.00    1.16039   0.88374    0.000
 4562.00    0.93387   0.90038    0.000
 4563.00    0.97453   0.90996    0.000
 4564.00    1.14222   0.91156    0.000
 4565.00    1.15274   0.90208    0.000
 4566.00    1.09880   0.88287    0.000
 4567.00    0.98404   0.86416    0.000
 4568.00    0.84797   0.85867    0.000
 4569.00    0.98676   0.87087    0.000
 4570.00    1.20680   0.89274    0.000
 4571.00    1.09231   0.91053    0.000
 4572.00    0.89587   0.91422    0.000
 4573.00    0.79117   0.90273    0.000
 4574.00    0.70465   0.88616    0.000
 4575.00    0.91381   0.87894    0.000
 4576.00    1.16875   0.88557    0.000
 4577.00    1.08957   0.89758    0.000
 4578.00    0.97217   0.90489    0.000
 4579.00    1.18460   0.90467    0.000
 4580.00    1.42236   0.89831    0.000
 4581.00    1.22824   0.88596    0.000
 4582.00    1.01614   0.86819    0.000
 4583.00    0.97459   0.84946    0.000
 4584.00    0.93763   0.83503    0.000
 4585.00    1.03427   0.82648    0.000
 4586.00    1.13138   0.82330    0.000
 4587.00    1.23670   0.82584    0.000
 4588.00    1.32107   0.83420    0.000
 4589.00    1.18142   0.84683    0.000
 4590.00    1.05676   0.86068    0.000
 4591.00    1.04538   0.87209    0.000
 4592.00    1.01822   0.87735    0.000
 4593.00    0.90027   0.87422    0.000
 4594.00    0.80543   0.86472    0.000
 4595.00    0.81615   0.85514    0.000
 4596.00    0.85596   0.85058    0.000
 4597.00    1.00459   0.85092    0.000
 4598.00    1.16851   0.85341    0.000
 4599.00    1.38022   0.85651    0.000
 4600.00    1.48316   0.86017    0.000
 4601.00    1.29739   0.86328    0.000
 4602.00    1.12326   0.86337    0.000
 4603.00    0.97566   0.86057    0.000
 4604.00    0.93862   0.85840    0.000
 4605.00    1.11969   0.85925    0.000
 4606.00    1.17501   0.86189    0.000
 4607.00    1.01410   0.86415    0.000
 4608.00    0.94450   0.86730    0.000
 4609.00    1.01241   0.87536    0.000
 4610.00    1.05048   0.89005    0.000
 4611.00    1.04908   0.90708    0.000
 4612.00    1.07016   0.91842    0.000
 4613.00    1.11743   0.91895    0.000
 4614.00    1.14083   0.91060    0.000
 4615.00    1.13970   0.89995    0.000
 4616.00    1.01275   0.89299    0.000
 4617.00    0.77174   0.89104    0.000
 4618.00    0.72405   0.89099    0.000
 4619.00    0.83080   0.88955    0.000
 4620.00    0.88089   0.88520    0.000
 4621.00    0.89115   0.87880    0.000
 4622.00    0.96303   0.87468    0.000
 4623.00    1.07290   0.87738    0.000
 4624.00    1.02929   0.88643    0.000
 4625.00    0.90303   0.89667    0.000
 4626.00    0.89308   0.90255    0.000
 4627.00    0.93755   0.90190    0.000
 4628.00    1.01806   0.89696    0.000
 4629.00    1.11309   0.89118    0.000
 4630.00    1.11718   0.88547    0.000
 4631.00    1.08998   0.87952    0.000
 4632.00    0.93741   0.87591    0.000
 4633.00    0.74852   0.87791    0.000
 4634.00    0.81790   0.88296    0.000
 4635.00    0.94914   0.88377    0.000
 4636.00    0.93120   0.87698    0.000
 4637.00    0.88445   0.86697    0.000
 4638.00    0.99413   0.85962    0.000
 4639.00    1.12730   0.85577    0.000
 4640.00    1.07127   0.85300    0.000
 4641.00    0.99441   0.85074    0.000
 4642.00    1.17195   0.85106    0.000
 4643.00    1.36799   0.85584    0.000
 4644.00    1.31017   0.86335    0.000
 4645.00    1.24276   0.86849    0.000
 4646.00    1.07390   0.86651    0.000
 4647.00    0.91196   0.85543    0.000
 4648.00    1.02582   0.83695    0.000
 4649.00    1.12974   0.81700    0.000
 4650.00    1.07108   0.80397    0.000
 4651.00    1.01430   0.80415    0.000
 4652.00    0.97676   0.81735    0.000
 4653.00    0.94119   0.83673    0.000
 4654.00    0.92000   0.85382    0.000
 4655.00    0.92745   0.86270    0.000
 4656.00    1.09497   0.86079    0.000
 4657.00    1.22087   0.85015    0.000
 4658.00    1.16103   0.83773    0.000
 4659.00    1.08893   0.83286    0.000
 4660.00    0.97193   0.84198    0.000
 4661.00    0.95164   0.86276    0.000
 4662.00    1.22801   0.88445    0.000
 4663.00    1.34850   0.89526    0.000
 4664.00    1.06250   0.89022    0.000
 4665.00    0.89682   0.87369    0.000
 4666.00    1.00083   0.85408    0.000
 4667.00    1.05219   0.83524    0.000
 4668.00    1.00129   0.81414    0.000
 4669.00    0.95124   0.78889    0.000
 4670.00    0.90265   0.76635    0.000
 4671.00    0.96212   0.75796    0.000
 4672.00    1.18196   0.76877    0.000
 4673.00    1.22638   0.79254    0.000
 4674.00    1.04201   0.81703    0.000
 4675.00    0.98817   0.83378    0.000
 4676.00    1.08431   0.84276    0.000
 4677.00    1.10823   0.84902    0.000
 4678.00    1.05896   0.85611    0.000
 4679.00    0.98084   0.86167    0.000
 4680.00    0.87693   0.86017    0.000
 4681.00    0.93386   0.85011    0.000
 4682.00    1.11746   0.83624    0.000
 4683.00    1.12921   0.82547    0.000
 4684.00    1.02194   0.82230    0.000
 4685.00    1.01479   0.82703    0.000
 4686.00    1.06845   0.83635    0.000
 4687.00    1.11106   0.84555    0.000
 4688.00    1.14780   0.85100    0.000
 4689.00    1.05874   0.85172    0.000
 4690.00    0.91179   0.84930    0.000
 4691.00    0.77134   0.84580    0.000
 4692.00    0.63347   0.84195    0.000
 4693.00    0.84105   0.83794    0.000
 4694.00    1.16527   0.83497    0.000
 4695.00    1.22492   0.83498    0.000
 4696.00    1.20950   0.83915    0.000
 4697.00    1.16922   0.84647    0.000
 4698.00    1.12311   0.85310    0.000
 4699.00    0.96506   0.85376    0.000
 4700.00    0.78595   0.84542    0.000
 4701.00    1.02006   0.83073    0.000
 4702.00    1.31427   0.81635    0.000
 4703.00    1.27112   0.80645    0.000
 4704.00    1.19231   0.79981    0.000
 4705.00    1.05751   0.79437    0.000
 4706.00    0.91886   0.79209    0.000
 4707.00    0.94220   0.79562    0.000
 4708.00    0.97105   0.80219    0.000
 4709.00    0.91064   0.80499    0.000
 4710.00    0.85530   0.80097    0.000
 4711.00    0.96969   0.79504    0.000
 4712.00    1.07071   0.79537    0.000
 4713.00    0.96657   0.80486    0.000
 4714.00    0.87313   0.81797    0.000
 4715.00    0.88466   0.82578    0.000
 4716.00    0.91059   0.82438    0.000
 4717.00    1.03842   0.81896    0.000
 4718.00    1.13224   0.81875    0.000
 4719.00    1.04107   0.82775    0.000
 4720.00    0.95814   0.84229    0.000
 4721.00    0.91105   0.85603    0.000
 4722.00    0.89611   0.86523    0.000
 4723.00    0.99649   0.86939    0.000
 4724.00    1.07314   0.86953    0.000
 4725.00    1.07836   0.86794    0.000
 4726.00    1.10734   0.86762    0.000
 4727.00    1.19721   0.86871    0.000
 4728.00    1.29983   0.86636    0.000
 4729.00    1.43057   0.85469    0.000
 4730.00    1.44087   0.83383    0.000
 4731.00    1.22091   0.81113    0.000
 4732.00    1.04969   0.79488    0.000
 4733.00    0.95976   0.78892    0.000
 4734.00    0.87389   0.79230    0.000
 4735.00    0.79393   0.80167    0.000
 4736.00    0.80830   0.81312    0.000
 4737.00    0.94393   0.82203    0.000
 4738.00    1.01142   0.82476    0.000
 4739.00    1.00171   0.82298    0.000
 4740.00    0.98069   0.82251    0.000
 4741.00    0.94835   0.82645    0.000
 4742.00    0.95471   0.83260    0.000
 4743.00    0.99515   0.83671    0.000
 4744.00    1.07129   0.83786    0.000
 4745.00    1.17514   0.83893    0.000
 4746.00    1.17728   0.84136    0.000
 4747.00    1.10999   0.84379    0.000
 4748.00    1.05657   0.84545    0.000
 4749.00    1.01145   0.84698    0.000
 4750.00    0.97356   0.84873    0.000
 4751.00    0.93942   0.85019    0.000
 4752.00    0.88784   0.85060    0.000
 4753.00    0.82836   0.84928    0.000
 4754.00    0.90246   0.84515    0.000
 4755.00    1.02858   0.83740    0.000
 4756.00    1.20323   0.82732    0.000
 4757.00    1.39396   0.81797    0.000
 4758.00    1.32801   0.81210    0.000
 4759.00    1.19070   0.81119    0.000
 4760.00    1.00865   0.81529    0.000
 4761.00    0.81637   0.82242    0.014
 4762.00    0.84132   0.82814    0.015
 4763.00    0.90605   0.82690    0.015
 4764.00    0.96383   0.81613    0.015
 4765.00    1.02063   0.79871    0.015
 4766.00    1.02012   0.78101    0.015
 4767.00    1.01380   0.76862    0.015
 4768.00    1.01085   0.76394    0.015
 4769.00    1.00811   0.76725    0.015
 4770.00    0.96813   0.77798    0.015
 4771.00    0.92717   0.79338    0.015
 4772.00    0.96173   0.80762    0.015
 4773.00    0.99526   0.81521    0.015
 4774.00    0.99879   0.81599    0.015
 4775.00    0.99330   0.81537    0.015
 4776.00    0.85753   0.81912    0.015
 4777.00    0.73897   0.82771    0.015
 4778.00    0.78226   0.83675    0.014
 4779.00    0.83123   0.84240    0.014
 4780.00    0.91907   0.84386    0.014
 4781.00    0.98542   0.84193    0.014
 4782.00    0.93798   0.83741    0.014
 4783.00    0.88433   0.83134    0.014
 4784.00    0.80422   0.82487    0.014
 4785.00    0.76546   0.81844    0.014
 4786.00    0.87201   0.81224    0.014
 4787.00    0.91944   0.80673    0.014
 4788.00    0.79217   0.80226    0.014
 4789.00    0.71468   0.79856    0.014
 4790.00    0.76253   0.79540    0.014
 4791.00    0.85032   0.79396    0.015
 4792.00    1.02472   0.79522    0.015
 4793.00    1.08685   0.79892    0.015
 4794.00    0.93764   0.80577    0.015
 4795.00    0.86095   0.81680    0.015
 4796.00    0.90342   0.83067    0.015
 4797.00    0.95152   0.84365    0.015
 4798.00    1.00772   0.85086    0.015
 4799.00    1.05548   0.84864    0.015
 4800.00    1.09251   0.83745    0.015
 4801.00    1.09223   0.82230    0.015
 4802.00    1.05027   0.81010    0.015
 4803.00    0.98884   0.80627    0.015
 4804.00    0.90823   0.81128    0.015
 4805.00    0.84029   0.81957    0.015
 4806.00    0.78336   0.82325    0.015
 4807.00    0.92792   0.81876    0.015
 4808.00    1.22666   0.80924    0.015
 4809.00    1.23710   0.80066    0.015
 4810.00    1.05360   0.79666    0.015
 4811.00    0.97236   0.79681    0.015
 4812.00    0.95138   0.79918    0.015
 4813.00    0.88068   0.80236    0.015
 4814.00    0.78443   0.80517    0.015
 4815.00    0.78661   0.80730    0.015
 4816.00    0.83263   0.80987    0.015
 4817.00    0.98758   0.81404    0.015
 4818.00    1.18421   0.81975    0.015
 4819.00    1.25970   0.82604    0.015
 4820.00    1.29581   0.83194    0.015
 4821.00    1.06970   0.83660    0.015
 4822.00    0.77220   0.83869    0.015
 4823.00    0.86914   0.83600    0.015
 4824.00    1.05422   0.82575    0.015
 4825.00    0.93129   0.80775    0.015
 4826.00    0.75345   0.78767    0.015
 4827.00    0.89184   0.77473    0.015
 4828.00    1.07331   0.77495    0.015
 4829.00    0.89827   0.78493    0.015
 4830.00    0.68861   0.79467    0.015
 4831.00    0.76284   0.79789    0.015
 4832.00    0.85428   0.79542    0.015
 4833.00    0.83079   0.79058    0.015
 4834.00    0.80486   0.78577    0.015
 4835.00    0.88933   0.78248    0.015
 4836.00    0.97138   0.78219    0.015
 4837.00    0.99028   0.78490    0.015
 4838.00    1.00929   0.78785    0.015
 4839.00    1.02974   0.78806    0.015
 4840.00    1.05057   0.78457    0.015
 4841.00    1.07485   0.77800    0.015
 4842.00    1.07518   0.76969    0.015
 4843.00    0.91664   0.76221    0.015
 4844.00    0.80184   0.75800    0.015
 4845.00    0.91270   0.75716    0.015
 4846.00    1.01913   0.75820    0.015
 4847.00    1.10708   0.76020    0.015
 4848.00    1.11285   0.76198    0.000
 4849.00    0.83558   0.75979    0.000
 4850.00    0.67931   0.75069    0.000
 4851.00    0.87394   0.73771    0.000
 4852.00    0.96153   0.72770    0.000
 4853.00    0.78423   0.72437    0.000
 4854.00    0.72877   0.72419    0.000
 4855.00    0.93327   0.71926    0.000
 4856.00    0.98229   0.70445    0.000
 4857.00    0.74320   0.68102    0.000
 4858.00    0.63215   0.65501    0.000
 4859.00    0.72838   0.63292    0.000
 4860.00    0.77237   0.61531    0.000
 4861.00    0.74220   0.59371    0.000
 4862.00    0.79201   0.55954    0.000
 4863.00    0.94174   0.51720    0.000
 4864.00    0.99963   0.48386    0.000
 4865.00    0.95642   0.47614    0.000
 4866.00    0.95402   0.49747    0.000
 4867.00    0.99128   0.53605    0.000
 4868.00    0.89105   0.57637    0.000
 4869.00    0.67306   0.61075    0.000
 4870.00    0.66196   0.63736    0.000
 4871.00    0.80692   0.65461    0.000
 4872.00    0.90630   0.66067    0.000
 4873.00    0.97547   0.65632    0.000
 4874.00    0.91085   0.64733    0.000
 4875.00    0.76859   0.64310    0.014
 4876.00    0.73449   0.65034    0.014
 4877.00    0.75510   0.66630    0.014
 4878.00    0.79010   0.68278    0.014
 4879.00    0.83140   0.69589    0.014
 4880.00    0.93940   0.70781    0.014
 4881.00    1.07246   0.72110    0.014
 4882.00    0.99557   0.73429    0.014
 4883.00    0.85171   0.74322    0.014
 4884.00    0.73566   0.74418    0.014
 4885.00    0.62703   0.73778    0.014
 4886.00    0.60667   0.72861    0.014
 4887.00    0.60557   0.71969    0.014
 4888.00    0.74446   0.71198    0.014
 4889.00    0.90762   0.70737    0.014
 4890.00    0.94128   0.70682    0.014
 4891.00    0.95788   0.70748    0.014
 4892.00    0.92201   0.70455    0.014
 4893.00    0.88126   0.69803    0.014
 4894.00    0.87327   0.69517    0.014
 4895.00    0.86714   0.70505    0.014
 4896.00    0.89906   0.73010    0.014
 4897.00    0.93252   0.76130    0.014
 4898.00    1.03967   0.78684    0.014
 4899.00    1.13890   0.80116    0.014
 4900.00    1.05023   0.80372    0.014
 4901.00    0.97710   0.79695    0.014
 4902.00    1.10495   0.78524    0.014
 4903.00    1.20508   0.77348    0.014
 4904.00    1.06416   0.76572    0.014
 4905.00    0.94225   0.76305    0.014
 4906.00    0.94262   0.76369    0.014
 4907.00    0.94923   0.76762    0.014
 4908.00    0.98717   0.77584    0.014
 4909.00    1.02165   0.78470    0.014
 4910.00    1.04207   0.78661    0.014
 4911.00    1.04376   0.77716    0.014
 4912.00    0.98223   0.75968    0.014
 4913.00    0.95369   0.74264    0.014
 4914.00    1.01909   0.73431    0.014
 4915.00    1.03268   0.73858    0.015
 4916.00    0.92020   0.75228    0.015
 4917.00    0.84189   0.76775    0.015
 4918.00    0.83527   0.77777    0.015
 4919.00    0.84541   0.77646    0.014
 4920.00    0.88611   0.75987    0.014
 4921.00    0.84293   0.73000    0.014
 4922.00    0.66597   0.69677    0.014
 4923.00    0.62274   0.67341    0.014
 4924.00    0.76666   0.66718    0.014
 4925.00    0.83173   0.67514    0.014
 4926.00    0.79968   0.68867    0.014
 4927.00    0.77278   0.70194    0.014
 4928.00    0.75148   0.71660    0.015
 4929.00    0.77880   0.73606    0.014
 4930.00    0.85270   0.75782    0.014
 4931.00    0.85270   0.77584    0.014
 4932.00    0.79031   0.78734    0.014
 4933.00    0.73037   0.79145    0.014
 4934.00    0.67226   0.78626    0.014
 4935.00    0.70273   0.77241    0.014
 4936.00    0.79105   0.75466    0.014
 4937.00    0.92054   0.73979    0.014
 4938.00    1.07356   0.73284    0.015
 4939.00    0.96837   0.73065    0.015
 4940.00    0.73463   0.72495    0.000
 4941.00    0.71511   0.71547    0.000
 4942.00    0.78784   0.71127    0.000
 4943.00    0.91415   0.72008    0.000
 4944.00    1.06023   0.74032    0.000
 4945.00    1.10695   0.76214    0.000
 4946.00    1.12259   0.77672    0.000
 4947.00    0.96249   0.78227    0.000
 4948.00    0.75654   0.78131    0.000
 4949.00    0.78468   0.77799    0.000
 4950.00    0.86266   0.77703    0.000
 4951.00    0.87885   0.78018    0.000
 4952.00    0.88463   0.78481    0.000
 4953.00    0.82923   0.78779    0.000
 4954.00    0.76605   0.78787    0.000
 4955.00    0.79367   0.78489    0.000
 4956.00    0.82934   0.77890    0.000
 4957.00    0.72478   0.76954    0.000
 4958.00    0.61282   0.75476    0.000
 4959.00    0.63341   0.73377    0.000
 4960.00    0.65740   0.71241    0.000
 4961.00    0.74879   0.70255    0.000
 4962.00    0.83667   0.71296    0.000
 4963.00    0.84829   0.73723    0.000
 4964.00    0.86249   0.75970    0.000
 4965.00    0.90826   0.77151    0.000
 4966.00    0.95502   0.77287    0.000
 4967.00    1.01004   0.76686    0.000
 4968.00    1.02293   0.75606    0.000
 4969.00    0.77284   0.74412    0.000
 4970.00    0.58740   0.73572    0.000
 4971.00    0.71897   0.73275    0.000
 4972.00    0.82009   0.73411    0.000
 4973.00    0.79994   0.73872    0.000
 4974.00    0.79647   0.74584    0.000
 4975.00    0.84813   0.75471    0.000
 4976.00    0.85585   0.76351    0.000
 4977.00    0.74075   0.76992    0.000
 4978.00    0.69108   0.77235    0.000
 4979.00    0.79788   0.76947    0.000
 4980.00    0.83012   0.76132    0.000
 4981.00    0.70835   0.74933    0.000
 4982.00    0.66682   0.73467    0.000
 4983.00    0.76944   0.71756    0.000
 4984.00    0.88104   0.69739    0.000
 4985.00    1.00678   0.67572    0.000
 4986.00    1.02091   0.65892    0.000
 4987.00    0.88111   0.65489    0.000
 4988.00    0.79016   0.66597    0.000
 4989.00    0.75852   0.68696    0.000
 4990.00    0.73990   0.70961    0.000
 4991.00    0.73521   0.72622    0.000
 4992.00    0.75325   0.73255    0.000
 4993.00    0.79275   0.73061    0.000
 4994.00    0.89151   0.72566    0.000
 4995.00    1.03960   0.72215    0.000
 4996.00    1.02180   0.72207    0.000
 4997.00    0.88242   0.72469    0.000
 4998.00    0.81780   0.72933    0.000
 4999.00    0.80129   0.73426    0.000
 5000.00    0.86025   0.73517    0.000
 5001.00    0.96172   0.72916    0.000
 5002.00    0.99280   0.71673    0.000
 5003.00    0.98941   0.70168    0.000
 5004.00    0.89336   0.68958    0.000
 5005.00    0.75808   0.68327    0.000
 5006.00    0.67720   0.68059    0.000
 5007.00    0.61604   0.67684    0.000
 5008.00    0.74160   0.66998    0.000
 5009.00    0.92443   0.66443    0.000
 5010.00    1.01084   0.66746    0.000
 5011.00    1.07263   0.68050    0.000
 5012.00    0.89973   0.69548    0.000
 5013.00    0.67808   0.70182    0.000
 5014.00    0.61588   0.69542    0.000
 5015.00    0.57978   0.67996    0.000
 5016.00    0.55311   0.66339    0.000
 5017.00    0.52759   0.65316    0.000
 5018.00    0.55257   0.65102    0.000
 5019.00    0.58181   0.65293    0.000
 5020.00    0.71995   0.65336    0.000
 5021.00    0.86341   0.65135    0.000
 5022.00    0.85749   0.65148    0.000
 5023.00    0.84581   0.65706    0.000
 5024.00    0.62340   0.66585    0.000
 5025.00    0.41947   0.67455    0.000
 5026.00    0.58602   0.68299    0.000
 5027.00    0.74059   0.69185    0.000
 5028.00    0.75525   0.69858    0.000
 5029.00    0.77722   0.70016    0.014
 5030.00    0.85821   0.69746    0.014
 5031.00    0.91200   0.69498    0.014
 5032.00    0.80092   0.69748    0.014
 5033.00    0.70129   0.70525    0.014
 5034.00    0.65648   0.71524    0.014
 5035.00    0.61789   0.72474    0.014
 5036.00    0.60359   0.73023    0.014
 5037.00    0.60679   0.72780    0.014
 5038.00    0.66673   0.71694    0.014
 5039.00    0.68852   0.70217    0.014
 5040.00    0.60559   0.68912    0.014
 5041.00    0.55128   0.67771    0.014
 5042.00    0.56424   0.66331    0.014
 5043.00    0.61871   0.64639    0.014
 5044.00    0.75757   0.63505    0.014
 5045.00    0.80749   0.63888    0.014
 5046.00    0.70009   0.66023    0.014
 5047.00    0.67108   0.69010    0.014
 5048.00    0.76343   0.71594    0.014
 5049.00    0.80300   0.72948    0.014
 5050.00    0.77083   0.72798    0.014
 5051.00    0.72499   0.71445    0.014
 5052.00    0.66278   0.69642    0.014
 5053.00    0.72065   0.68213    0.014
 5054.00    0.90525   0.67629    0.014
 5055.00    0.96446   0.67924    0.014
 5056.00    0.90695   0.68904    0.014
 5057.00    0.86107   0.70198    0.014
 5058.00    0.82472   0.71366    0.014
 5059.00    0.77294   0.72168    0.014
 5060.00    0.71002   0.72680    0.014
 5061.00    0.66319   0.73123    0.014
 5062.00    0.62658   0.73605    0.014
 5063.00    0.66218   0.74068    0.013
 5064.00    0.73782   0.74337    0.013
 5065.00    0.75353   0.74100    0.013
 5066.00    0.74036   0.73119    0.013
 5067.00    0.75208   0.71533    0.013
 5068.00    0.77416   0.69891    0.013
 5069.00    0.80000   0.68822    0.013
 5070.00    0.82718   0.68482    0.013
 5071.00    0.76422   0.68587    0.013
 5072.00    0.67416   0.68868    0.013
 5073.00    0.63040   0.69139    0.014
 5074.00    0.59821   0.69203    0.013
 5075.00    0.61861   0.68978    0.013
 5076.00    0.64967   0.68701    0.013
 5077.00    0.70125   0.68624    0.013
 5078.00    0.75609   0.68699    0.013
 5079.00    0.78624   0.68713    0.013
 5080.00    0.81347   0.68370    0.013
 5081.00    0.80979   0.67393    0.013
 5082.00    0.80364   0.65854    0.012
 5083.00    0.67128   0.64406    0.013
 5084.00    0.53325   0.63821    0.013
 5085.00    0.58032   0.64258    0.013
 5086.00    0.63008   0.65291    0.013
 5087.00    0.70422   0.66472    0.013
 5088.00    0.76421   0.67574    0.013
 5089.00    0.56102   0.68450    0.013
 5090.00    0.39453   0.69018    0.012
 5091.00    0.63675   0.69371    0.013
 5092.00    0.83908   0.69689    0.013
 5093.00    0.73072   0.70071    0.013
 5094.00    0.63566   0.70530    0.013
 5095.00    0.61899   0.71054    0.013
 5096.00    0.60653   0.71504    0.013
 5097.00    0.61376   0.71586    0.013
 5098.00    0.62293   0.71012    0.013
 5099.00    0.63950   0.69696    0.013
 5100.00    0.62359   0.67862    0.013
 5101.00    0.50436   0.66043    0.013
 5102.00    0.42939   0.64903    0.013
 5103.00    0.47374   0.64906    0.013
 5104.00    0.53442   0.65947    0.013
 5105.00    0.63285   0.67346    0.013
 5106.00    0.65614   0.68381    0.014
 5107.00    0.52912   0.68732    0.014
 5108.00    0.43243   0.68470    0.014
 5109.00    0.38857   0.67829    0.014
 5110.00    0.45351   0.67018    0.014
 5111.00    0.68438   0.66280    0.014
 5112.00    0.85403   0.65877    0.014
 5113.00    0.94164   0.65937    0.014
 5114.00    0.89453   0.66498    0.015
 5115.00    0.68846   0.67434    0.015
 5116.00    0.59055   0.68422    0.014
 5117.00    0.60521   0.69226    0.014
 5118.00    0.66597   0.69815    0.014
 5119.00    0.76907   0.70282    0.014
 5120.00    0.83251   0.70692    0.014
 5121.00    0.86388   0.70898    0.014
 5122.00    0.81465   0.70670    0.014
 5123.00    0.70803   0.69912    0.014
 5124.00    0.67036   0.68683    0.014
 5125.00    0.67574   0.67177    0.014
 5126.00    0.72110   0.65657    0.014
 5127.00    0.78828   0.64450    0.014
 5128.00    0.81959   0.63812    0.014
 5129.00    0.83387   0.63694    0.014
 5130.00    0.83080   0.63817    0.014
 5131.00    0.82064   0.63952    0.014
 5132.00    0.83133   0.64105    0.014
 5133.00    0.84931   0.64431    0.013
 5134.00    0.90474   0.64984    0.013
 5135.00    0.97121   0.65634    0.013
 5136.00    0.82457   0.66246    0.013
 5137.00    0.62587   0.66766    0.013
 5138.00    0.70398   0.67104    0.013
 5139.00    0.83678   0.66997    0.013
 5140.00    0.80259   0.66289    0.013
 5141.00    0.74266   0.65277    0.013
 5142.00    0.81861   0.64432    0.013
 5143.00    0.91003   0.64067    0.013
 5144.00    0.79336   0.64100    0.013
 5145.00    0.66082   0.64177    0.013
 5146.00    0.62244   0.64233    0.013
 5147.00    0.58792   0.64392    0.013
 5148.00    0.58516   0.64528    0.013
 5149.00    0.58487   0.64465    0.013
 5150.00    0.67769   0.64270    0.013
 5151.00    0.77018   0.64177    0.013
 5152.00    0.85719   0.64302    0.013
 5153.00    0.92453   0.64443    0.013
 5154.00    0.78261   0.64322    0.013
 5155.00    0.64814   0.63938    0.013
 5156.00    0.56969   0.63535    0.013
 5157.00    0.51786   0.63456    0.013
 5158.00    0.61847   0.63974    0.013
 5159.00    0.70170   0.65050    0.013
 5160.00    0.70578   0.66340    0.013
 5161.00    0.70231   0.67414    0.013
 5162.00    0.67066   0.67970    0.013
 5163.00    0.64352   0.67965    0.013
 5164.00    0.63042   0.67494    0.013
 5165.00    0.64835   0.66658    0.013
 5166.00    0.74843   0.65535    0.013
 5167.00    0.82539   0.63967    0.013
 5168.00    0.84976   0.61630    0.013
 5169.00    0.80421   0.58549    0.013
 5170.00    0.62096   0.55412    0.013
 5171.00    0.50151   0.53312    0.013
 5172.00    0.49157   0.52832    0.013
 5173.00    0.53809   0.53438    0.013
 5174.00    0.66946   0.54005    0.013
 5175.00    0.70847   0.54109    0.014
 5176.00    0.62549   0.54556    0.014
 5177.00    0.57721   0.56319    0.014
 5178.00    0.56929   0.59249    0.013
 5179.00    0.60337   0.62272    0.013
 5180.00    0.68053   0.64448    0.014
 5181.00    0.66133   0.65524    0.013
 5182.00    0.55493   0.65622    0.013
 5183.00    0.54608   0.64787    0.013
 5184.00    0.61502   0.62908    0.013
 5185.00    0.56343   0.60102    0.013
 5186.00    0.42727   0.57122    0.013
 5187.00    0.50893   0.55320    0.013
 5188.00    0.72462   0.55679    0.013
 5189.00    0.73411   0.57827    0.013
 5190.00    0.63276   0.60471    0.000
 5191.00    0.53150   0.62451    0.000
 5192.00    0.43027   0.63384    0.000
 5193.00    0.49098   0.63407    0.000
 5194.00    0.61682   0.62661    0.000
 5195.00    0.63974   0.61553    0.000
 5196.00    0.62735   0.60758    0.000
 5197.00    0.49100   0.60625    0.000
 5198.00    0.31885   0.60960    0.000
 5199.00    0.45821   0.61491    0.000
 5200.00    0.67196   0.62148    0.000
 5201.00    0.54017   0.62981    0.000
 5202.00    0.34187   0.63939    0.000
 5203.00    0.46680   0.64740    0.000
 5204.00    0.64005   0.65088    0.000
 5205.00    0.60680   0.64795    0.000
 5206.00    0.55095   0.63818    0.000
 5207.00    0.53586   0.62263    0.000
 5208.00    0.52373   0.60468    0.000
 5209.00    0.68012   0.58981    0.000
 5210.00    0.84281   0.58189    0.000
 5211.00    0.73041   0.58114    0.013
 5212.00    0.61942   0.58726    0.013
 5213.00    0.60630   0.59997    0.013
 5214.00    0.59356   0.61734    0.012
 5215.00    0.58676   0.63546    0.012
 5216.00    0.57809   0.64838    0.013
 5217.00    0.55034   0.65181    0.013
 5218.00    0.53417   0.64625    0.013
 5219.00    0.60229   0.63800    0.013
 5220.00    0.67642   0.63482    0.013
 5221.00    0.78406   0.64041    0.013
 5222.00    0.84969   0.65229    0.013
 5223.00    0.72847   0.66445    0.013
 5224.00    0.63912   0.67177    0.013
 5225.00    0.66622   0.67134    0.013
 5226.00    0.70605   0.66184    0.013
 5227.00    0.78483   0.64322    0.013
 5228.00    0.80891   0.61810    0.013
 5229.00    0.69064   0.59323    0.013
 5230.00    0.61639   0.57856    0.013
 5231.00    0.64059   0.58165    0.013
 5232.00    0.62670   0.59960    0.013
 5233.00    0.53897   0.62110    0.013
 5234.00    0.52602   0.63500    0.013
 5235.00    0.63947   0.63630    0.013
 5236.00    0.71119   0.62889    0.014
 5237.00    0.72110   0.62163    0.013
 5238.00    0.66532   0.62133    0.013
 5239.00    0.52400   0.62960    0.013
 5240.00    0.42840   0.64245    0.013
 5241.00    0.38521   0.65451    0.013
 5242.00    0.45266   0.66277    0.013
 5243.00    0.63201   0.66701    0.013
 5244.00    0.68975   0.66876    0.013
 5245.00    0.63900   0.66925    0.013
 5246.00    0.60573   0.66964    0.013
 5247.00    0.58619   0.67021    0.014
 5248.00    0.50074   0.66900    0.014
 5249.00    0.36971   0.66339    0.013
 5250.00    0.42652   0.65361    0.013
 5251.00    0.59721   0.64326    0.014
 5252.00    0.65060   0.63536    0.014
 5253.00    0.64192   0.63091    0.014
 5254.00    0.66868   0.63026    0.013
 5255.00    0.71172   0.63264    0.013
 5256.00    0.64381   0.63581    0.013
 5257.00    0.53205   0.63782    0.013
 5258.00    0.51070   0.63961    0.013
 5259.00    0.51980   0.64498    0.013
 5260.00    0.60580   0.65503    0.013
 5261.00    0.71356   0.66577    0.013
 5262.00    0.75081   0.67069    0.013
 5263.00    0.77160   0.66493    0.013
 5264.00    0.71302   0.64798    0.013
 5265.00    0.63956   0.62308    0.013
 5266.00    0.64540   0.59571    0.013
 5267.00    0.66273   0.57152    0.013
 5268.00    0.70049   0.55508    0.013
 5269.00    0.74040   0.54830    0.013
 5270.00    0.79626   0.54896    0.013
 5271.00    0.85322   0.55049    0.013
 5272.00    0.87703   0.54840    0.013
 5273.00    0.89972   0.54699    0.014
 5274.00    0.79332   0.55374    0.013
 5275.00    0.69250   0.56897    0.013
 5276.00    0.77504   0.58530    0.013
 5277.00    0.85495   0.59591    0.013
 5278.00    0.89477   0.60106    0.013
 5279.00    0.91947   0.60756    0.013
 5280.00    0.79660   0.62011    0.013
 5281.00    0.69449   0.63511    0.013
 5282.00    0.73859   0.64533    0.013
 5283.00    0.76792   0.64594    0.013
 5284.00    0.71711   0.63818    0.013
 5285.00    0.66342   0.62733    0.012
 5286.00    0.59718   0.61921    0.012
 5287.00    0.55757   0.61876    0.013
 5288.00    0.61324   0.62866    0.013
 5289.00    0.65331   0.64573    0.013
 5290.00    0.64655   0.66307    0.013
 5291.00    0.67340   0.67512    0.013
 5292.00    0.78618   0.68111    0.013
 5293.00    0.88275   0.68340    0.013
 5294.00    0.94365   0.68354    0.013
 5295.00    0.94259   0.68136    0.013
 5296.00    0.82331   0.67654    0.013
 5297.00    0.70220   0.66931    0.013
 5298.00    0.57806   0.65908    0.013
 5299.00    0.46399   0.64508    0.013
 5300.00    0.36463   0.62913    0.013
 5301.00    0.36858   0.61677    0.013
 5302.00    0.50512   0.61323    0.013
 5303.00    0.56753   0.61798    0.013
 5304.00    0.54612   0.62627    0.013
 5305.00    0.54457   0.63484    0.013
 5306.00    0.56281   0.64369    0.013
 5307.00    0.59910   0.65335    0.013
 5308.00    0.65126   0.66180    0.013
 5309.00    0.65336   0.66632    0.013
 5310.00    0.61665   0.66698    0.013
 5311.00    0.58016   0.66683    0.013
 5312.00    0.54380   0.66857    0.013
 5313.00    0.54314   0.67172    0.013
 5314.00    0.56379   0.67382    0.013
 5315.00    0.55818   0.67289    0.013
 5316.00    0.53888   0.66860    0.013
 5317.00    0.56128   0.66195    0.013
 5318.00    0.60250   0.65380    0.013
 5319.00    0.66561   0.64539    0.013
 5320.00    0.73722   0.63967    0.013
 5321.00    0.75477   0.63896    0.013
 5322.00    0.75445   0.64257    0.013
 5323.00    0.65476   0.64731    0.013
 5324.00    0.52751   0.64928    0.013
 5325.00    0.59670   0.64618    0.013
 5326.00    0.71069   0.63800    0.013
 5327.00    0.61683   0.62646    0.013
 5328.00    0.48503   0.61402    0.013
 5329.00    0.61264   0.60062    0.013
 5330.00    0.77663   0.58514    0.013
 5331.00    0.79360   0.57051    0.012
 5332.00    0.79573   0.56508    0.012
 5333.00    0.60481   0.57420    0.012
 5334.00    0.40151   0.59412    0.012
 5335.00    0.49031   0.61513    0.012
 5336.00    0.58738   0.62991    0.012
 5337.00    0.50939   0.63809    0.012
 5338.00    0.43636   0.64185    0.013
 5339.00    0.50495   0.64223    0.012
 5340.00    0.57074   0.63907    0.012
 5341.00    0.59619   0.63242    0.012
 5342.00    0.61436   0.62328    0.012
 5343.00    0.56430   0.61450    0.012
 5344.00    0.52035   0.61078    0.012
 5345.00    0.51810   0.61481    0.012
 5346.00    0.51564   0.62422    0.012
 5347.00    0.51216   0.63326    0.012
 5348.00    0.52002   0.63697    0.012
 5349.00    0.57608   0.63528    0.012
 5350.00    0.60119   0.63125    0.012
 5351.00    0.51784   0.62730    0.012
 5352.00    0.43034   0.62561    0.012
 5353.00    0.33061   0.62791    0.013
 5354.00    0.30312   0.63461    0.013
 5355.00    0.45713   0.64405    0.012
 5356.00    0.57454   0.65357    0.012
 5357.00    0.61271   0.66195    0.012
 5358.00    0.62420   0.66924    0.012
 5359.00    0.58554   0.67533    0.012
 5360.00    0.53610   0.67947    0.013
 5361.00    0.46894   0.68083    0.013
 5362.00    0.45333   0.67916    0.013
 5363.00    0.51184   0.67415    0.013
 5364.00    0.50966   0.66564    0.013
 5365.00    0.43069   0.65462    0.013
 5366.00    0.40370   0.64350    0.013
 5367.00    0.43464   0.63437    0.013
 5368.00    0.45266   0.62820   -2.000
 5369.00    0.45798   0.62461   -2.000
 5370.00    0.50130   0.62154   -2.000
 5371.00    0.57758   0.61670   -2.000
 5372.00    0.71928   0.60818   -2.000
 5373.00    0.91094   0.59726   -2.000
 5374.00    1.04620   0.58957   -2.000
 5375.00    1.14360   0.59138   -2.000
 5376.00    1.11826   0.60441   -2.000
 5377.00    1.02073   0.62356   -2.000
 5378.00    0.90603   0.64106   -2.000
 5379.00    0.78252   0.65159   -2.000
 5380.00    0.61728   0.65492   -2.000
 5381.00    0.43350   0.65360   -2.000
 5382.00    0.46501   0.64973   -2.000
 5383.00    0.57869   0.64434    0.012
 5384.00    0.56799   0.63843    0.012
 5385.00    0.51693   0.63342    0.012
 5386.00    0.58308   0.63108    0.012
 5387.00    0.68104   0.63260    0.012
 5388.00    0.71487   0.63708    0.012
 5389.00    0.73440   0.64186    0.012
 5390.00    0.59564   0.64403    0.011
 5391.00    0.42875   0.64195    0.011
 5392.00    0.40586   0.63613    0.011
 5393.00    0.40251   0.62857    0.012
 5394.00    0.40615   0.62136    0.012
 5395.00    0.41048   0.61592    0.011
 5396.00    0.46291   0.61237    0.011
 5397.00    0.51823   0.60946    0.011
 5398.00    0.51454   0.60538    0.012
 5399.00    0.50920   0.59922    0.012
 5400.00    0.48416   0.59313    0.012
 5401.00    0.46045   0.59126    0.012
 5402.00    0.47097   0.59526    0.012
 5403.00    0.48415   0.60263    0.012
 5404.00    0.53323   0.60855    0.012
 5405.00    0.56869   0.60893    0.012
 5406.00    0.48156   0.60202    0.012
 5407.00    0.42226   0.58921    0.012
 5408.00    0.54689   0.57548    0.012
 5409.00    0.62579   0.56720    0.012
 5410.00    0.46941   0.56746    0.012
 5411.00    0.35196   0.57339    0.012
 5412.00    0.39609   0.57983    0.012
 5413.00    0.44823   0.58483    0.012
 5414.00    0.52790   0.59057    0.012
 5415.00    0.57699   0.59880    0.012
 5416.00    0.53762   0.60792    0.012
 5417.00    0.50954   0.61503    0.012
 5418.00    0.50935   0.61965    0.012
 5419.00    0.50308   0.62374    0.012
 5420.00    0.48385   0.62803    0.012
 5421.00    0.48382   0.63093    0.012
 5422.00    0.51928   0.63071    0.012
 5423.00    0.50780   0.62769    0.012
 5424.00    0.42046   0.62371    0.012
 5425.00    0.39803   0.61989    0.012
 5426.00    0.46760   0.61581    0.012
 5427.00    0.54258   0.61216    0.012
 5428.00    0.62430   0.61145    0.012
 5429.00    0.63869   0.61469    0.012
 5430.00    0.57909   0.61870    0.011
 5431.00    0.54312   0.61805    0.011
 5432.00    0.53004   0.61085    0.011
 5433.00    0.49676   0.60170    0.011
 5434.00    0.44621   0.59598    0.011
 5435.00    0.47767   0.59400    0.011
 5436.00    0.57090   0.59262    0.011
 5437.00    0.55272   0.59006    0.011
 5438.00    0.46084   0.58887    0.011
 5439.00    0.44940   0.59292    0.011
 5440.00    0.48456   0.60322    0.011
 5441.00    0.45403   0.61746    0.011
 5442.00    0.39033   0.63153    0.011
 5443.00    0.35256   0.64218    0.011
 5444.00    0.32613   0.64784    0.011
 5445.00    0.43847   0.64837    0.011
 5446.00    0.60285   0.64360    0.011
 5447.00    0.58863   0.63303    0.011
 5448.00    0.51758   0.61753    0.011
 5449.00    0.51878   0.60117    0.011
 5450.00    0.53919   0.59069    0.011
 5451.00    0.58070   0.59119    0.012
 5452.00    0.62680   0.60142    0.012
 5453.00    0.58811   0.61496    0.012
 5454.00    0.53478   0.62467    0.012
 5455.00    0.49547   0.62666    0.012
 5456.00    0.45801   0.62081    0.012
 5457.00    0.50197   0.60951    0.012
 5458.00    0.55344   0.59754    0.012
 5459.00    0.57623   0.59129    0.012
 5460.00    0.59741   0.59468    0.012
 5461.00    0.57748   0.60549    0.012
 5462.00    0.55648   0.61694    0.012
 5463.00    0.51952   0.62235    0.012
 5464.00    0.48495   0.61973    0.012
 5465.00    0.50636   0.61171    0.012
 5466.00    0.51905   0.60337    0.012
 5467.00    0.41962   0.59937    0.012
 5468.00    0.33744   0.60097    0.012
 5469.00    0.40447   0.60597    0.012
 5470.00    0.45729   0.61132    0.012
 5471.00    0.41891   0.61504    0.012
 5472.00    0.39986   0.61653    0.012
 5473.00    0.47770   0.61576    0.011
 5474.00    0.54109   0.61297    0.011
 5475.00    0.54586   0.60852    0.011
 5476.00    0.54621   0.60247    0.011
 5477.00    0.53169   0.59468    0.011
 5478.00    0.49465   0.58520   -2.000
 5479.00    0.39364   0.57524   -2.000
 5480.00    0.35002   0.56849   -2.000
 5481.00    0.44572   0.56838   -2.000
 5482.00    0.56282   0.57432   -2.000
 5483.00    0.72472   0.58170   -2.000
 5484.00    0.87115   0.58655   -2.000
 5485.00    0.98938   0.58955   -2.000
 5486.00    1.29202   0.59385   -2.000
 5487.00    1.88822   0.60058   -2.000
 5488.00    2.18527   0.60719   -2.000
 5489.00    2.06441   0.61001   -2.000
 5490.00    1.90865   0.60796   -2.000
 5491.00    1.70998   0.60369   -2.000
 5492.00    1.40219   0.60092   -2.000
 5493.00    0.97616   0.60120   -2.000
 5494.00    0.70798   0.60348   -2.000
 5495.00    0.59069   0.60558   -2.000
 5496.00    0.53813   0.60621   -2.000
 5497.00    0.54013   0.60565   -2.000
 5498.00    0.50103   0.60459   -2.000
 5499.00    0.43141   0.60331   -2.000
 5500.00    0.45222   0.60209   -2.000
 5501.00    0.53198   0.60183   -2.000
 5502.00    0.59260   0.60271    0.012
 5503.00    0.64231   0.60290    0.011
 5504.00    0.65035   0.60042    0.011
 5505.00    0.63770   0.59574    0.012
 5506.00    0.63705   0.59141    0.012
 5507.00    0.64156   0.58901    0.011
 5508.00    0.59875   0.58778    0.011
 5509.00    0.53851   0.58644    0.012
 5510.00    0.52742   0.58551    0.012
 5511.00    0.53165   0.58616    0.011
 5512.00    0.46611   0.58781    0.011
 5513.00    0.38241   0.58848    0.011
 5514.00    0.42324   0.58672    0.011
 5515.00    0.49052   0.58319    0.011
 5516.00    0.45832   0.58039    0.011
 5517.00    0.40943   0.58058    0.011
 5518.00    0.49059   0.58434    0.011
 5519.00    0.58822   0.59075    0.011
 5520.00    0.63379   0.59818    0.011
 5521.00    0.67478   0.60528    0.011
 5522.00    0.55102   0.61079    0.011
 5523.00    0.41866   0.61381    0.011
 5524.00    0.42445   0.61436    0.011
 5525.00    0.43135   0.61315    0.011
 5526.00    0.32764   0.61074    0.011
 5527.00    0.23040   0.60679    0.011
 5528.00    0.27243   0.60037    0.011
 5529.00    0.31794   0.59133    0.011
 5530.00    0.40608   0.58141    0.011
 5531.00    0.48837   0.57398    0.011
 5532.00    0.52202   0.57249    0.011
 5533.00    0.54640   0.57755    0.011
 5534.00    0.51317   0.58585    0.011
 5535.00    0.48449   0.59252    0.011
 5536.00    0.47806   0.59458    0.011
 5537.00    0.46728   0.59256    0.011
 5538.00    0.43926   0.58946    0.011
 5539.00    0.44615   0.58846    0.011
 5540.00    0.56824   0.59074    0.011
 5541.00    0.63823   0.59531    0.011
 5542.00    0.56292   0.60058    0.011
 5543.00    0.50658   0.60503    0.011
 5544.00    0.49553   0.60736    0.011
 5545.00    0.49917   0.60670    0.011
 5546.00    0.53310   0.60327    0.011
 5547.00    0.57021   0.59892    0.011
 5548.00    0.61302   0.59598    0.011
 5549.00    0.59832   0.59583    0.011
 5550.00    0.49343   0.59871    0.011
 5551.00    0.45150   0.60376    0.011
 5552.00    0.49624   0.60921    0.011
 5553.00    0.52317   0.61319    0.011
 5554.00    0.52852   0.61439    0.011
 5555.00    0.51012   0.61254    0.011
 5556.00    0.46636   0.60852    0.011
 5557.00    0.45106   0.60391    0.011
 5558.00    0.46259   0.60042    0.011
 5559.00    0.46689   0.59895    0.011
 5560.00    0.46519   0.59904    0.011
 5561.00    0.43920   0.59962    0.011
 5562.00    0.39546   0.59978    0.011
 5563.00    0.34452   0.59896    0.011
 5564.00    0.28896   0.59685    0.011
 5565.00    0.31456   0.59357    0.011
 5566.00    0.38576   0.58975    0.011
 5567.00    0.45013   0.58632    0.011
 5568.00    0.51115   0.58368    0.010
 5569.00    0.52159   0.58165    0.010
 5570.00    0.51067   0.58009    0.010
 5571.00    0.49210   0.57905    0.011
 5572.00    0.47077   0.57857    0.011
 5573.00    0.44043   0.57860    0.010
 5574.00    0.40733   0.57886    0.010
 5575.00    0.40930   0.57883    0.010
 5576.00    0.42019   0.57871    0.010
 5577.00    0.40575   0.57976    0.010
 5578.00    0.38605   0.58243    0.010
 5579.00    0.35494   0.58585    0.010
 5580.00    0.32196   0.58915    0.010
 5581.00    0.43250   0.59177    0.010
 5582.00    0.56057   0.59355    0.010
 5583.00    0.60316   0.59444    0.011
 5584.00    0.63857   0.59420    0.011
 5585.00    0.67698   0.59270    0.011
 5586.00    0.71552   0.59011    0.011
 5587.00    0.60221   0.58579    0.011
 5588.00    0.48715   0.57845    0.011
 5589.00    0.40377   0.56763    0.011
 5590.00    0.33000   0.55499    0.011
 5591.00    0.44710   0.54440    0.011
 5592.00    0.55481   0.53948    0.012
 5593.00    0.55342   0.54127    0.012
 5594.00    0.55694   0.54773    0.011
 5595.00    0.59999   0.55505    0.012
 5596.00    0.64150   0.56055    0.012
 5597.00    0.67380   0.56420    0.012
 5598.00    0.69463   0.56760    0.012
 5599.00    0.66080   0.57161    0.012
 5600.00    0.62725   0.57454    0.012
 5601.00    0.59472   0.57405    0.011
 5602.00    0.55172   0.56995    0.011
 5603.00    0.47483   0.56408    0.011
 5604.00    0.41291   0.55862    0.011
 5605.00    0.39199   0.55563    0.011
 5606.00    0.37137   0.55710    0.011
 5607.00    0.35147   0.56411    0.011
 5608.00    0.37236   0.57550    0.011
 5609.00    0.47604   0.58772    0.011
 5610.00    0.56848   0.59725    0.011
 5611.00    0.64107   0.60254    0.011
 5612.00    0.65066   0.60441    0.011
 5613.00    0.56290   0.60458    0.010
 5614.00    0.48078   0.60397    0.010
 5615.00    0.40631   0.60180    0.010
 5616.00    0.38545   0.59596    0.010
 5617.00    0.42866   0.58529    0.010
 5618.00    0.47204   0.57181    0.010
 5619.00    0.51559   0.56070    0.010
 5620.00    0.52187   0.55666    0.010
 5621.00    0.49352   0.55969    0.010
 5622.00    0.45672   0.56608    0.010
 5623.00    0.41302   0.57217    0.010
 5624.00    0.41651   0.57609    0.010
 5625.00    0.45403   0.57713    0.010
 5626.00    0.48636   0.57472    0.010
 5627.00    0.51541   0.56927    0.010
 5628.00    0.54332   0.56348    0.011
 5629.00    0.57062   0.56110    0.011
 5630.00    0.55265   0.56386    0.011
 5631.00    0.51291   0.57058    0.011
 5632.00    0.48067   0.57879    0.011
 5633.00    0.45153   0.58610    0.011
 5634.00    0.38316   0.59088    0.011
 5635.00    0.30085   0.59240    0.011
 5636.00    0.33182   0.59070    0.011
 5637.00    0.39677   0.58655    0.011
 5638.00    0.41975   0.58115    0.011
 5639.00    0.43227   0.57559    0.011
 5640.00    0.39941   0.57077    0.011
 5641.00    0.35740   0.56746    0.011
 5642.00    0.38522   0.56589    0.011
 5643.00    0.42410   0.56543    0.011
 5644.00    0.39916   0.56518    0.011
 5645.00    0.36671   0.56516    0.010
 5646.00    0.39528   0.56610    0.010
 5647.00    0.42873   0.56828    0.010
 5648.00    0.43811   0.57136    0.010
 5649.00    0.44642   0.57460    0.010
 5650.00    0.54618   0.57711    0.010
 5651.00    0.64344   0.57844    0.010
 5652.00    0.56785   0.57855    0.010
 5653.00    0.49565   0.57810    0.010
 5654.00    0.48589   0.57796    0.010
 5655.00    0.48098   0.57813    0.010
 5656.00    0.52971   0.57742    0.010
 5657.00    0.56997   0.57466    0.010
 5658.00    0.54449   0.56949    0.010
 5659.00    0.52174   0.56257    0.010
 5660.00    0.51492   0.55467    0.010
 5661.00    0.49035   0.54670    0.010
 5662.00    0.38313   0.54097    0.010
 5663.00    0.30203   0.53971    0.010
 5664.00    0.32025   0.54232    0.010
 5665.00    0.34555   0.54639    0.010
 5666.00    0.39335   0.55053    0.010
 5667.00    0.40711   0.55487    0.010
 5668.00    0.32929   0.55949    0.010
 5669.00    0.26311   0.56312    0.011
 5670.00    0.22377   0.56440    0.011
 5671.00    0.22209   0.56364    0.011
 5672.00    0.29561   0.56290    0.011
 5673.00    0.33885   0.56410    0.011
 5674.00    0.32943   0.56779    0.011
 5675.00    0.35074   0.57318    0.011
 5676.00    0.41881   0.57875    0.011
 5677.00    0.48690   0.58296    0.011
 5678.00    0.55500   0.58500    0.011
 5679.00    0.55166   0.58525    0.011
 5680.00    0.46416   0.58464    0.011
 5681.00    0.41389   0.58343    0.011
 5682.00    0.40229   0.58129    0.011
 5683.00    0.42530   0.57787    0.010
 5684.00    0.48002   0.57305    0.010
 5685.00    0.46915   0.56723    0.010
 5686.00    0.40531   0.56168    0.010
 5687.00    0.37929   0.55793    0.010
 5688.00    0.38014   0.55628    0.010
 5689.00    0.31825   0.55572    0.010
 5690.00    0.21725   0.55516    0.010
 5691.00    0.21489   0.55477    0.010
 5692.00    0.26629   0.55598    0.010
 5693.00    0.35907   0.55971    0.010
 5694.00    0.47146   0.56531    0.010
 5695.00    0.51436   0.57102    0.010
 5696.00    0.52890   0.57535    0.010
 5697.00    0.54785   0.57752    0.010
 5698.00    0.56835   0.57784    0.010
 5699.00    0.52525   0.57685    0.010
 5700.00    0.46345   0.57473    0.010
 5701.00    0.44694   0.57134    0.010
 5702.00    0.44146   0.56671    0.010
 5703.00    0.40160   0.56163    0.010
 5704.00    0.35496   0.55694    0.010
 5705.00    0.40572   0.55377    0.010
 5706.00    0.47143   0.55276    0.010
 5707.00    0.40550   0.55309    0.010
 5708.00    0.32466   0.55279    0.010
 5709.00    0.33091   0.54997    0.010
 5710.00    0.34376   0.54438    0.010
 5711.00    0.32328   0.53758    0.010
 5712.00    0.30143   0.53156    0.010
 5713.00    0.31837   0.52814    0.011
 5714.00    0.33502   0.52850    0.011
 5715.00    0.32737   0.53245    0.011
 5716.00    0.32302   0.53941    0.011
 5717.00    0.37516   0.54818    0.011
 5718.00    0.41876   0.55653    0.011
 5719.00    0.37190   0.56311    0.011
 5720.00    0.32953   0.56759    0.011
 5721.00    0.32076   0.57034    0.010
 5722.00    0.31401   0.57248    0.010
 5723.00    0.31874   0.57487    0.010
 5724.00    0.31631   0.57756    0.010
 5725.00    0.28137   0.58030    0.010
 5726.00    0.25604   0.58247    0.010
 5727.00    0.26646   0.58326    0.010
 5728.00    0.27755   0.58223    0.010
 5729.00    0.29074   0.57959    0.010
 5730.00    0.30341   0.57615    0.010
 5731.00    0.31471   0.57321    0.010
 5732.00    0.31117   0.57156    0.010
 5733.00    0.27394   0.57065    0.010
 5734.00    0.26212   0.56960    0.010
 5735.00    0.30025   0.56857    0.010
 5736.00    0.31989   0.56878    0.010
 5737.00    0.30785   0.57079    0.010
 5738.00    0.32444   0.57349    0.010
 5739.00    0.38395   0.57543    0.010
 5740.00    0.43827   0.57577    0.000
 5741.00    0.48574   0.57485    0.000
 5742.00    0.49778   0.57354    0.000
 5743.00    0.46868   0.57234    0.000
 5744.00    0.43559   0.57130    0.000
 5745.00    0.39841   0.57042    0.000
 5746.00    0.38698   0.56993    0.000
 5747.00    0.39882   0.57024    0.000
 5748.00    0.40424   0.57115    0.000
 5749.00    0.40456   0.57154    0.000
 5750.00    0.39121   0.57036    0.000
 5751.00    0.36828   0.56777    0.000
 5752.00    0.40177   0.56534    0.000
 5753.00    0.46991   0.56418    0.000
 5754.00    0.46091   0.56319    0.000
 5755.00    0.41052   0.56047    0.000
 5756.00    0.35932   0.55571    0.000
 5757.00    0.30774   0.55118    0.000
 5758.00    0.34050   0.55001    0.000
 5759.00    0.40712   0.55352    0.000
 5760.00    0.45307   0.55974    0.000
 5761.00    0.49195   0.56511    0.000
 5762.00    0.47723   0.56694    0.000
 5763.00    0.44708   0.56443    0.000
 5764.00    0.48931   0.55891    0.000
 5765.00    0.54878   0.55314    0.000
 5766.00    0.56240   0.55001    0.000
 5767.00    0.56724   0.55144    0.000
 5768.00    0.57365   0.55720    0.000
 5769.00    0.58030   0.56448    0.000
 5770.00    0.59209   0.57041    0.000
 5771.00    0.60443   0.57364    0.000
 5772.00    0.56059   0.57412    0.000
 5773.00    0.51272   0.57259    0.000
 5774.00    0.43995   0.56997    0.000
 5775.00    0.36626   0.56695    0.000
 5776.00    0.43392   0.56417    0.000
 5777.00    0.50207   0.56238    0.000
 5778.00    0.56634   0.56178    0.000
 5779.00    0.62741   0.56222    0.000
 5780.00    0.63712   0.56304    0.000
 5781.00    0.64212   0.56252    0.000
 5782.00    0.59957   0.55910    0.000
 5783.00    0.54739   0.55241    0.000
 5784.00    0.42546   0.54365    0.000
 5785.00    0.32122   0.53536    0.000
 5786.00    0.31517   0.52984    0.000
 5787.00    0.32019   0.52752    0.000
 5788.00    0.37425   0.52767    0.000
 5789.00    0.42869   0.53000    0.000
 5790.00    0.48450   0.53476    0.000
 5791.00    0.53832   0.54097   -2.000
 5792.00    0.58608   0.54640   -2.000
 5793.00    0.61929   0.54972   -2.000
 5794.00    0.61472   0.55075   -2.000
 5795.00    0.60394   0.55093   -2.000
 5796.00    0.57926   0.55224   -2.000
 5797.00    0.56819   0.55479   -2.000
 5798.00    0.58346   0.55745   -2.000
 5799.00    0.58324   0.55885   -2.000
 5800.00    0.55687   0.55838   -2.000
 5801.00    0.53865   0.55710   -2.000
 5802.00    0.53247   0.55722   -2.000
 5803.00    0.54282   0.55998   -2.000
 5804.00    0.57467   0.56411   -2.000
 5805.00    0.56842   0.56714   -2.000
 5806.00    0.51853   0.56740   -2.000
 5807.00    0.49876   0.56461   -2.000
 5808.00    0.50942   0.56010   -2.000
 5809.00    0.52346   0.55628   -2.000
 5810.00    0.54051   0.55457   -2.000
 5811.00    0.53900   0.55504    0.000
 5812.00    0.52292   0.55688    0.000
 5813.00    0.51025   0.55910    0.000
 5814.00    0.49991   0.56110    0.000
 5815.00    0.49303   0.56236    0.000
 5816.00    0.48824   0.56221    0.000
 5817.00    0.50723   0.56047    0.000
 5818.00    0.53878   0.55756    0.000
 5819.00    0.59518   0.55471    0.000
 5820.00    0.66297   0.55352    0.000
 5821.00    0.68584   0.55523    0.000
 5822.00    0.69098   0.55923    0.000
 5823.00    0.68004   0.56347    0.000
 5824.00    0.66370   0.56635    0.000
 5825.00    0.65482   0.56736    0.000
 5826.00    0.64805   0.56699    0.000
 5827.00    0.59537   0.56623    0.000
 5828.00    0.53201   0.56584    0.000
 5829.00    0.51190   0.56592    0.000
 5830.00    0.49987   0.56614    0.000
 5831.00    0.51473   0.56635    0.000
 5832.00    0.53347   0.56653    0.000
 5833.00    0.51674   0.56666    0.000
 5834.00    0.49630   0.56646    0.000
 5835.00    0.46589   0.56568    0.000
 5836.00    0.43480   0.56436    0.000
 5837.00    0.43840   0.56268    0.000
 5838.00    0.44315   0.56096    0.000
 5839.00    0.46757   0.55973    0.000
 5840.00    0.49026   0.55935    0.000
 5841.00    0.45773   0.55956    0.000
 5842.00    0.42411   0.56012    0.000
 5843.00    0.37400   0.56145    0.000
 5844.00    0.33291   0.56343    0.000
 5845.00    0.37924   0.56531    0.000
 5846.00    0.42440   0.56622    0.000
 5847.00    0.46144   0.56564    0.000
 5848.00    0.49575   0.56345    0.000
 5849.00    0.51533   0.56010    0.000
 5850.00    0.53286   0.55650    0.000
 5851.00    0.54153   0.55351    0.000
 5852.00    0.53032   0.55163    0.000
 5853.00    0.44819   0.55045    0.000
 5854.00    0.38212   0.54873    0.000
 5855.00    0.36411   0.54559    0.000
 5856.00    0.35735   0.54115    0.000
 5857.00    0.37926   0.53653    0.000
 5858.00    0.39144   0.53282    0.000
 5859.00    0.38222   0.52986    0.000
 5860.00    0.36699   0.52681    0.000
 5861.00    0.34027   0.52406    0.000
 5862.00    0.34696   0.52337    0.000
 5863.00    0.40915   0.52568    0.000
 5864.00    0.45505   0.52985    0.000
 5865.00    0.47719   0.53426    0.000
 5866.00    0.46833   0.53768    0.000
 5867.00    0.41976   0.54008    0.000
 5868.00    0.42581   0.54187    0.000
 5869.00    0.49352   0.54298    0.000
 5870.00    0.53762   0.54357    0.000
 5871.00    0.55822   0.54448    0.000
 5872.00    0.52061   0.54639    0.000
 5873.00    0.43190   0.54883    0.000
 5874.00    0.41066   0.55080    0.000
 5875.00    0.44160   0.55162    0.000
 5876.00    0.44037   0.55132    0.000
 5877.00    0.41728   0.55055    0.000
 5878.00    0.38501   0.54985    0.000
 5879.00    0.34728   0.54907    0.000
 5880.00    0.36487   0.54762    0.000
 5881.00    0.41123   0.54530    0.000
 5882.00    0.44413   0.54232    0.000
 5883.00    0.47095   0.53923    0.000
 5884.00    0.44585   0.53660    0.000
 5885.00    0.40062   0.53490    0.000
 5886.00    0.35729   0.53390    0.000
 5887.00    0.31459   0.53275    0.000
 5888.00    0.32671   0.53065    0.000
 5889.00    0.35400   0.52629    0.000
 5890.00    0.35504   0.51707    0.000
 5891.00    0.35012   0.50069    0.000
 5892.00    0.31312   0.47834    0.000
 5893.00    0.27029   0.45569    0.000
 5894.00    0.27433   0.44110    0.000
 5895.00    0.28492   0.43981    0.000
 5896.00    0.28359   0.44763    0.000
 5897.00    0.28106   0.45534    0.000
 5898.00    0.29789   0.45745    0.000
 5899.00    0.31595   0.45477    0.000
 5900.00    0.35697   0.45374    0.000
 5901.00    0.39858   0.46106    0.010
 5902.00    0.41302   0.47608    0.010
 5903.00    0.42679   0.49331    0.009
 5904.00    0.42198   0.50846    0.010
 5905.00    0.41518   0.51934    0.010
 5906.00    0.38020   0.52575    0.010
 5907.00    0.34643   0.52894    0.010
 5908.00    0.32383   0.53021    0.010
 5909.00    0.30855   0.53052    0.010
 5910.00    0.34296   0.53090    0.010
 5911.00    0.38328   0.53196    0.010
 5912.00    0.45476   0.53352    0.010
 5913.00    0.50857   0.53495    0.010
 5914.00    0.48755   0.53565    0.010
 5915.00    0.46852   0.53495    0.010
 5916.00    0.45642   0.53237    0.010
 5917.00    0.43939   0.52820    0.010
 5918.00    0.40783   0.52390    0.010
 5919.00    0.38270   0.52149    0.010
 5920.00    0.37368   0.52179    0.010
 5921.00    0.37863   0.52434    0.010
 5922.00    0.41378   0.52788    0.010
 5923.00    0.42255   0.53088    0.010
 5924.00    0.38190   0.53272    0.010
 5925.00    0.33862   0.53340    0.010
 5926.00    0.29107   0.53342    0.010
 5927.00    0.27768   0.53366    0.010
 5928.00    0.31335   0.53439    0.010
 5929.00    0.33828   0.53504    0.010
 5930.00    0.34963   0.53475    0.010
 5931.00    0.36093   0.53284    0.009
 5932.00    0.37219   0.52961    0.009
 5933.00    0.39377   0.52647    0.009
 5934.00    0.42550   0.52484    0.009
 5935.00    0.46132   0.52529    0.009
 5936.00    0.50068   0.52684    0.009
 5937.00    0.51027   0.52797    0.009
 5938.00    0.49716   0.52834    0.009
 5939.00    0.49405   0.52883    0.009
 5940.00    0.49762   0.53030    0.009
 5941.00    0.50064   0.53231    0.009
 5942.00    0.50332   0.53366    0.009
 5943.00    0.46412   0.53359    0.009
 5944.00    0.40347   0.53199    0.009
 5945.00    0.37410   0.52975    0.009
 5946.00    0.35859   0.52845    0.009
 5947.00    0.41670   0.52877    0.009
 5948.00    0.50286   0.53017    0.010
 5949.00    0.53615   0.53133    0.010
 5950.00    0.55235   0.53098    0.010
 5951.00    0.52637   0.52885    0.010
 5952.00    0.48898   0.52591    0.010
 5953.00    0.46712   0.52359    0.010
 5954.00    0.44870   0.52265    0.010
 5955.00    0.46366   0.52267    0.010
 5956.00    0.48452   0.52276    0.010
 5957.00    0.51522   0.52280    0.010
 5958.00    0.54726   0.52313    0.010
 5959.00    0.46768   0.52349    0.010
 5960.00    0.37738   0.52342    0.010
 5961.00    0.31148   0.52330    0.010
 5962.00    0.24703   0.52405    0.009
 5963.00    0.33729   0.52615    0.010
 5964.00    0.43082   0.52922    0.010
 5965.00    0.41891   0.53228    0.010
 5966.00    0.40609   0.53433    0.009
 5967.00    0.37026   0.53487    0.009
 5968.00    0.33653   0.53420    0.009
 5969.00    0.33093   0.53306    0.009
 5970.00    0.32400   0.53224    0.009
 5971.00    0.30501   0.53250    0.009
 5972.00    0.28714   0.53381    0.009
 5973.00    0.27665   0.53555    0.009
 5974.00    0.26876   0.53711    0.009
 5975.00    0.27417   0.53794    0.009
 5976.00    0.28578   0.53750    0.009
 5977.00    0.32310   0.53548    0.009
 5978.00    0.35766   0.53194    0.009
 5979.00    0.38281   0.52738    0.009
 5980.00    0.39132   0.52299    0.010
 5981.00    0.35181   0.52023    0.009
 5982.00    0.32284   0.51989    0.009
 5983.00    0.31984   0.52144    0.010
 5984.00    0.32443   0.52334    0.010
 5985.00    0.34517   0.52357    0.010
 5986.00    0.36315   0.52108    0.010
 5987.00    0.37603   0.51675    0.010
 5988.00    0.36067   0.51255    0.010
 5989.00    0.29976   0.51059    0.010
 5990.00    0.25636   0.51160    0.010
 5991.00    0.23773   0.51443    0.010
 5992.00    0.26189   0.51748    0.010
 5993.00    0.33931   0.51974    0.010
 5994.00    0.37715   0.52094    0.010
 5995.00    0.37155   0.52154    0.009
 5996.00    0.35642   0.52238    0.009
 5997.00    0.33205   0.52383    0.009
 5998.00    0.31926   0.52503    0.009
 5999.00    0.31635   0.52474    0.009
 6000.00    0.32318   0.52279    0.009
 6001.00    0.33734   0.52005    0.009
 6002.00    0.33442   0.51788    0.009
 6003.00    0.32023   0.51714    0.009
 6004.00    0.30012   0.51733    0.009
 6005.00    0.27660   0.51752    0.009
 6006.00    0.29608   0.51714    0.009
 6007.00    0.33722   0.51616    0.009
 6008.00    0.38430   0.51492    0.009
 6009.00    0.43398   0.51319    0.009
 6010.00    0.47120   0.51056    0.010
 6011.00    0.50374   0.50787    0.010
 6012.00    0.48394   0.50650    0.010
 6013.00    0.44753   0.50737    0.010
 6014.00    0.40149   0.50991    0.010
 6015.00    0.35290   0.51205    0.010
 6016.00    0.35364   0.51233    0.010
 6017.00    0.36507   0.51103    0.010
 6018.00    0.39046   0.50940    0.010
 6019.00    0.41825   0.50843    0.010
 6020.00    0.43087   0.50800    0.010
 6021.00    0.44150   0.50741    0.010
 6022.00    0.40869   0.50643    0.010
 6023.00    0.37188   0.50500    0.009
 6024.00    0.35493   0.50330    0.009
 6025.00    0.33909   0.50220    0.009
 6026.00    0.29934   0.50241    0.009
 6027.00    0.25933   0.50395    0.009
 6028.00    0.24518   0.50627    0.009
 6029.00    0.23256   0.50897    0.009
 6030.00    0.25550   0.51178    0.009
 6031.00    0.27960   0.51426    0.009
 6032.00    0.31845   0.51642    0.009
 6033.00    0.35618   0.51853    0.009
 6034.00    0.38421   0.52044    0.009
 6035.00    0.40743   0.52204    0.009
 6036.00    0.39991   0.52337    0.009
 6037.00    0.40155   0.52441    0.009
 6038.00    0.44894   0.52501    0.009
 6039.00    0.48724   0.52521    0.009
 6040.00    0.48873   0.52516    0.009
 6041.00    0.48054   0.52483    0.009
 6042.00    0.43979   0.52404    0.009
 6043.00    0.40712   0.52273    0.009
 6044.00    0.39737   0.52115    0.010
 6045.00    0.39848   0.51999    0.010
 6046.00    0.42588   0.51976    0.010
 6047.00    0.43159   0.52051    0.010
 6048.00    0.39194   0.52195    0.009
 6049.00    0.37258   0.52339    0.009
 6050.00    0.39009   0.52439    0.010
 6051.00    0.39509   0.52504    0.010
 6052.00    0.38021   0.52543    0.010
 6053.00    0.37623   0.52539    0.010
 6054.00    0.38742   0.52470    0.009
 6055.00    0.41503   0.52317    0.009
 6056.00    0.46277   0.52072    0.009
 6057.00    0.49596   0.51764    0.009
 6058.00    0.51339   0.51462    0.009
 6059.00    0.52555   0.51250    0.009
 6060.00    0.53267   0.51170    0.009
 6061.00    0.53970   0.51234    0.009
 6062.00    0.54664   0.51421    0.009
 6063.00    0.55006   0.51638    0.009
 6064.00    0.55088   0.51771    0.009
 6065.00    0.53045   0.51736    0.009
 6066.00    0.49621   0.51501    0.009
 6067.00    0.46676   0.51112    0.009
 6068.00    0.44005   0.50722    0.009
 6069.00    0.43541   0.50509    0.009
 6070.00    0.44172   0.50588    0.010
 6071.00    0.43005   0.50981    0.010
 6072.00    0.41068   0.51525    0.009
 6073.00    0.39582   0.51999    0.009
 6074.00    0.38262   0.52313    0.010
 6075.00    0.40148   0.52484    0.010
 6076.00    0.43033   0.52558    0.010
 6077.00    0.46812   0.52560    0.010
 6078.00    0.50824   0.52470    0.010
 6079.00    0.48381   0.52257    0.009
 6080.00    0.44572   0.51905    0.009
 6081.00    0.42246   0.51472    0.009
 6082.00    0.40168   0.51050    0.009
 6083.00    0.39804   0.50711    0.009
 6084.00    0.39657   0.50503    0.009
 6085.00    0.40301   0.50401    0.009
 6086.00    0.41013   0.50319    0.009
 6087.00    0.40476   0.50241    0.009
 6088.00    0.39874   0.50216    0.009
 6089.00    0.36217   0.50248    0.009
 6090.00    0.32555   0.50315    0.009
 6091.00    0.32653   0.50386    0.009
 6092.00    0.33012   0.50410    0.009
 6093.00    0.38928   0.50356    0.009
 6094.00    0.44628   0.50235    0.009
 6095.00    0.47697   0.50125    0.009
 6096.00    0.50146   0.50130    0.009
 6097.00    0.47455   0.50264    0.009
 6098.00    0.44310   0.50472    0.009
 6099.00    0.38355   0.50696    0.009
 6100.00    0.32655   0.50872    0.009
 6101.00    0.28202   0.50949    0.009
 6102.00    0.25493   0.50914    0.009
 6103.00    0.29692   0.50723    0.009
 6104.00    0.33912   0.50283    0.010
 6105.00    0.38197   0.49627    0.010
 6106.00    0.40725   0.48963    0.010
 6107.00    0.38364   0.48562    0.009
 6108.00    0.36955   0.48652    0.009
 6109.00    0.37815   0.49170    0.009
 6110.00    0.38830   0.49768    0.009
 6111.00    0.40161   0.50212    0.009
 6112.00    0.39481   0.50468    0.009
 6113.00    0.35204   0.50587    0.009
 6114.00    0.30368   0.50644    0.009
 6115.00    0.24659   0.50659    0.009
 6116.00    0.20607   0.50648    0.009
 6117.00    0.18831   0.50660    0.009
 6118.00    0.18427   0.50686    0.009
 6119.00    0.19683   0.50680    0.009
 6120.00    0.22776   0.50609    0.009
 6121.00    0.27828   0.50455    0.009
 6122.00    0.33143   0.50221    0.009
 6123.00    0.38706   0.49850    0.009
 6124.00    0.40244   0.49311    0.009
 6125.00    0.38444   0.48770    0.009
 6126.00    0.37099   0.48435    0.009
 6127.00    0.36086   0.48426    0.009
 6128.00    0.36700   0.48751    0.009
 6129.00    0.38358   0.49187    0.009
 6130.00    0.38484   0.49461    0.009
 6131.00    0.37751   0.49553    0.009
 6132.00    0.37751   0.49575    0.009
 6133.00    0.38110   0.49621    0.009
 6134.00    0.37307   0.49752    0.010
 6135.00    0.36015   0.49928    0.010
 6136.00    0.35872   0.49989    0.010
 6137.00    0.36144   0.49763    0.009
 6138.00    0.35877   0.49150    0.009
 6139.00    0.35446   0.48201    0.010
 6140.00    0.34002   0.47206    0.010
 6141.00    0.32300   0.46543    0.009
 6142.00    0.32671   0.46445    0.009
 6143.00    0.33470   0.46882    0.009
 6144.00    0.36660   0.47536    0.009
 6145.00    0.40238   0.48073    0.009
 6146.00    0.40464   0.48441    0.009
 6147.00    0.40282   0.48810    0.009
 6148.00    0.35583   0.49241    0.009
 6149.00    0.30507   0.49553    0.009
 6150.00    0.29460   0.49598    0.009
 6151.00    0.28607   0.49409    0.009
 6152.00    0.34037   0.49112    0.009
 6153.00    0.39593   0.48869    0.009
 6154.00    0.47196   0.48810    0.009
 6155.00    0.54385   0.48923    0.009
 6156.00    0.53437   0.49082    0.009
 6157.00    0.52422   0.49155    0.009
 6158.00    0.50634   0.49101    0.010
 6159.00    0.48932   0.48938    0.010
 6160.00    0.47906   0.48752    0.010
 6161.00    0.46348   0.48582    0.010
 6162.00    0.41579   0.48292    0.010
 6163.00    0.37418   0.47722    0.010
 6164.00    0.36146   0.46878    0.009
 6165.00    0.36360   0.45918    0.009
 6166.00    0.42331   0.45146    0.009
 6167.00    0.45781   0.44898    0.010
 6168.00    0.41092   0.45260    0.009
 6169.00    0.35781   0.45969    0.009
 6170.00    0.28773   0.46604    0.009
 6171.00    0.24198   0.46876    0.009
 6172.00    0.25324   0.46812    0.009
 6173.00    0.28614   0.46597    0.009
 6174.00    0.36284   0.46448    0.009
 6175.00    0.42478   0.46594    0.009
 6176.00    0.46069   0.47049    0.009
 6177.00    0.47711   0.47544    0.009
 6178.00    0.46346   0.47865    0.009
 6179.00    0.44151   0.48034    0.009
 6180.00    0.40832   0.48132    0.009
 6181.00    0.38917   0.48202    0.009
 6182.00    0.38678   0.48297    0.009
 6183.00    0.37636   0.48455    0.009
 6184.00    0.35749   0.48628    0.009
 6185.00    0.34431   0.48775    0.009
 6186.00    0.33642   0.48913    0.009
 6187.00    0.32294   0.48997    0.010
 6188.00    0.30490   0.48947    0.010
 6189.00    0.29621   0.48766    0.010
 6190.00    0.29425   0.48491    0.010
 6191.00    0.33441   0.48142    0.010
 6192.00    0.40118   0.47746    0.010
 6193.00    0.43788   0.47310    0.009
 6194.00    0.45796   0.46899    0.009
 6195.00    0.73792   0.46623    0.010
 6196.00    1.14266   0.46579   -2.000
 6197.00    1.66903   0.46882   -2.000
 6198.00    2.24581   0.47463   -2.000
 6199.00    2.32339   0.48040   -2.000
 6200.00    2.22404   0.48409   -2.000
 6201.00    1.73587   0.48520   -2.000
 6202.00    1.13134   0.48410   -2.000
 6203.00    0.68045   0.48189   -2.000
 6204.00    0.26773   0.48013   -2.000
 6205.00    0.17590   0.48022   -2.000
 6206.00    0.14869   0.48244   -2.000
 6207.00    0.23990   0.48554   -2.000
 6208.00    0.34980   0.48807    0.009
 6209.00    0.36981   0.48946    0.009
 6210.00    0.37928   0.48996    0.009
 6211.00    0.35551   0.48988    0.009
 6212.00    0.32911   0.48919    0.009
 6213.00    0.34183   0.48775    0.009
 6214.00    0.35627   0.48528    0.009
 6215.00    0.33371   0.48131    0.009
 6216.00    0.31087   0.47597    0.009
 6217.00    0.29380   0.47002    0.009
 6218.00    0.27896   0.46460    0.009
 6219.00    0.30478   0.46120    0.009
 6220.00    0.33058   0.46038    0.009
 6221.00    0.35609   0.46117    0.009
 6222.00    0.38069   0.46229    0.009
 6223.00    0.39834   0.46293    0.009
 6224.00    0.41317   0.46316    0.009
 6225.00    0.41150   0.46396    0.009
 6226.00    0.41247   0.46582    0.009
 6227.00    0.42572   0.46826    0.009
 6228.00    0.43788   0.47040    0.009
 6229.00    0.44592   0.47161    0.009
 6230.00    0.44629   0.47182    0.009
 6231.00    0.42241   0.47052    0.009
 6232.00    0.39516   0.46699    0.009
 6233.00    0.35884   0.46172    0.009
 6234.00    0.32486   0.45624    0.009
 6235.00    0.29625   0.45246    0.009
 6236.00    0.27935   0.45256    0.009
 6237.00    0.28579   0.45677    0.009
 6238.00    0.29044   0.46276    0.009
 6239.00    0.29196   0.46785    0.009
 6240.00    0.28328   0.47010    0.009
 6241.00    0.25911   0.46880    0.009
 6242.00    0.27435   0.46505    0.009
 6243.00    0.34223   0.46096    0.009
 6244.00    0.37735   0.45780    0.009
 6245.00    0.37394   0.45553    0.009
 6246.00    0.35663   0.45386    0.009
 6247.00    0.32491   0.45209    0.009
 6248.00    0.30122   0.44985    0.009
 6249.00    0.28489   0.44847    0.009
 6250.00    0.28409   0.44911    0.009
 6251.00    0.29581   0.45165    0.009
 6252.00    0.31579   0.45549    0.009
 6253.00    0.34163   0.45913    0.009
 6254.00    0.34150   0.46047    0.009
 6255.00    0.32522   0.45871    0.009
 6256.00    0.31660   0.45465    0.009
 6257.00    0.31216   0.44982    0.009
 6258.00    0.43796   0.44587    0.009
 6259.00    0.62531   0.44349    0.010
 6260.00    0.78934   0.44228    0.010
 6261.00    0.94385   0.44196    0.011
 6262.00    0.90146   0.44287    0.011
 6263.00    0.79055   0.44536    0.012
 6264.00    0.57419   0.44967    0.011
 6265.00    0.32690   0.45521    0.011
 6266.00    0.21478   0.46025    0.011
 6267.00    0.13550   0.46361    0.010
 6268.00    0.17021   0.46531    0.010
 6269.00    0.22730   0.46565    0.009
 6270.00    0.29444   0.46524    0.009
 6271.00    0.36311   0.46503    0.009
 6272.00    0.38069   0.46523    0.009
 6273.00    0.39251   0.46536    0.009
 6274.00    0.41692   0.46543    0.009
 6275.00    0.44229   0.46594    0.009
 6276.00    0.42083   0.46705    0.009
 6277.00    0.39749   0.46846    0.009
 6278.00    0.36230   0.46965    0.009
 6279.00    0.32830   0.47011    0.009
 6280.00    0.34636   0.46967    0.000
 6281.00    0.36563   0.46830    0.000
 6282.00    0.40557   0.46598    0.000
 6283.00    0.44027   0.46324    0.000
 6284.00    0.41974   0.46096    0.000
 6285.00    0.40045   0.45993    0.000
 6286.00    0.39034   0.46070    0.000
 6287.00    0.37978   0.46294    0.000
 6288.00    0.36672   0.46578    0.000
 6289.00    0.35214   0.46856    0.000
 6290.00    0.33071   0.47087    0.000
 6291.00    0.31910   0.47260    0.000
 6292.00    0.34397   0.47358    0.000
 6293.00    0.36390   0.47350    0.000
 6294.00    0.36855   0.47226    0.000
 6295.00    0.36756   0.47017    0.000
 6296.00    0.35170   0.46805    0.000
 6297.00    0.33882   0.46644    0.000
 6298.00    0.33267   0.46508    0.000
 6299.00    0.33121   0.46345    0.000
 6300.00    0.33891   0.46131    0.000
 6301.00    0.35046   0.45876    0.000
 6302.00    0.36860   0.45621    0.000
 6303.00    0.37521   0.45402    0.000
 6304.00    0.36456   0.45227    0.000
 6305.00    0.35894   0.45112    0.000
 6306.00    0.35992   0.45088    0.000
 6307.00    0.36008   0.45200    0.000
 6308.00    0.35929   0.45478    0.000
 6309.00    0.34661   0.45865    0.000
 6310.00    0.32177   0.46245    0.000
 6311.00    0.28976   0.46539    0.000
 6312.00    0.25131   0.46713    0.000
 6313.00    0.22318   0.46731    0.000
 6314.00    0.20326   0.46594    0.000
 6315.00    0.19142   0.46358    0.000
 6316.00    0.18524   0.46077    0.000
 6317.00    0.19484   0.45778    0.000
 6318.00    0.21413   0.45474    0.000
 6319.00    0.23052   0.45142    0.000
 6320.00    0.24537   0.44785    0.000
 6321.00    0.23586   0.44506    0.009
 6322.00    0.21503   0.44388    0.009
 6323.00    0.22119   0.44435    0.009
 6324.00    0.23816   0.44652    0.009
 6325.00    0.29146   0.45020    0.009
 6326.00    0.35718   0.45444    0.009
 6327.00    0.36981   0.45825    0.009
 6328.00    0.36717   0.46142    0.009
 6329.00    0.37131   0.46389    0.009
 6330.00    0.37706   0.46547    0.009
 6331.00    0.40511   0.46610    0.009
 6332.00    0.43743   0.46594    0.009
 6333.00    0.39682   0.46544    0.009
 6334.00    0.34540   0.46500    0.008
 6335.00    0.29670   0.46450    0.008
 6336.00    0.24830   0.46341    0.008
 6337.00    0.26953   0.46118    0.008
 6338.00    0.29571   0.45759    0.008
 6339.00    0.35887   0.45318    0.008
 6340.00    0.42338   0.44923    0.009
 6341.00    0.41819   0.44719    0.009
 6342.00    0.41016   0.44794    0.009
 6343.00    0.31107   0.45071    0.009
 6344.00    0.21685   0.45357    0.009
 6345.00    0.20027   0.45509    0.009
 6346.00    0.19284   0.45483    0.009
 6347.00    0.27755   0.45305    0.009
 6348.00    0.35481   0.45059    0.009
 6349.00    0.37822   0.44863    0.009
 6350.00    0.39436   0.44826    0.009
 6351.00    0.37024   0.44962    0.009
 6352.00    0.34893   0.45208    0.009
 6353.00    0.33999   0.45507    0.009
 6354.00    0.32650   0.45796    0.009
 6355.00    0.29643   0.45975    0.009
 6356.00    0.27428   0.45979    0.009
 6357.00    0.27622   0.45829    0.009
 6358.00    0.29079   0.45589    0.009
 6359.00    0.33807   0.45309    0.009
 6360.00    0.37360   0.45019    0.009
 6361.00    0.38292   0.44735    0.009
 6362.00    0.38501   0.44447    0.009
 6363.00    0.37312   0.44118    0.009
 6364.00    0.37473   0.43772    0.009
 6365.00    0.39907   0.43504    0.009
 6366.00    0.41762   0.43380    0.009
 6367.00    0.42762   0.43421    0.009
 6368.00    0.40504   0.43636    0.009
 6369.00    0.34019   0.44001    0.009
 6370.00    0.28356   0.44422    0.009
 6371.00    0.23631   0.44786    0.009
 6372.00    0.23330   0.45020    0.009
 6373.00    0.27485   0.45127    0.009
 6374.00    0.29883   0.45174    0.009
 6375.00    0.30720   0.45245    0.009
 6376.00    0.28492   0.45393    0.009
 6377.00    0.23863   0.45622    0.009
 6378.00    0.20694   0.45866    0.009
 6379.00    0.18531   0.46022    0.009
 6380.00    0.20558   0.46034    0.008
 6381.00    0.25115   0.45933    0.008
 6382.00    0.28173   0.45770    0.008
 6383.00    0.30441   0.45589    0.008
 6384.00    0.30507   0.45443    0.008
 6385.00    0.29566   0.45371    0.008
 6386.00    0.29431   0.45356    0.008
 6387.00    0.29614   0.45374    0.008
 6388.00    0.30434   0.45426    0.008
 6389.00    0.31467   0.45505    0.009
 6390.00    0.35057   0.45610    0.008
 6391.00    0.39367   0.45742    0.008
 6392.00    0.43479   0.45858    0.009
 6393.00    0.47545   0.45878    0.009
 6394.00    0.48202   0.45734    0.009
 6395.00    0.48225   0.45414    0.009
 6396.00    0.46676   0.44997    0.010
 6397.00    0.44902   0.44638    0.010
 6398.00    0.39947   0.44473    0.009
 6399.00    0.34660   0.44553    0.009
 6400.00    0.32414   0.44802    0.009
 6401.00    0.30373   0.44986    0.009
 6402.00    0.34132   0.44912    0.009
 6403.00    0.38080   0.44651    0.009
 6404.00    0.38158   0.44423    0.009
 6405.00    0.38124   0.44398    0.009
 6406.00    0.34653   0.44648    0.009
 6407.00    0.31311   0.45080    0.008
 6408.00    0.29890   0.45428    0.008
 6409.00    0.28704   0.45493    0.008
 6410.00    0.29780   0.45301    0.008
 6411.00    0.30184   0.45000    0.008
 6412.00    0.25886   0.44721    0.008
 6413.00    0.22292   0.44522    0.008
 6414.00    0.22493   0.44429    0.008
 6415.00    0.23502   0.44435    0.009
 6416.00    0.28004   0.44466    0.009
 6417.00    0.31339   0.44490    0.009
 6418.00    0.30524   0.44560    0.009
 6419.00    0.28905   0.44653    0.009
 6420.00    0.24884   0.44689    0.009
 6421.00    0.24338   0.44632    0.009
 6422.00    0.32634   0.44477    0.009
 6423.00    0.40457   0.44253    0.009
 6424.00    0.47242   0.44077    0.009
 6425.00    0.50843   0.44067    0.009
 6426.00    0.48391   0.44273    0.009
 6427.00    0.45496   0.44664    0.009
 6428.00    0.41867   0.45130    0.009
 6429.00    0.38027   0.45522    0.009
 6430.00    0.33881   0.45730    0.009
 6431.00    0.30524   0.45740    0.009
 6432.00    0.28175   0.45552    0.008
 6433.00    0.27809   0.45175    0.008
 6434.00    0.29676   0.44700    0.008
 6435.00    0.30137   0.44288    0.008
 6436.00    0.29200   0.44091    0.008
 6437.00    0.29555   0.44179    0.008
 6438.00    0.31042   0.44478    0.008
 6439.00    0.33179   0.44771    0.012
 6440.00    0.35817   0.44857    0.042
 6441.00    0.42693   0.44686   -1.000
 6442.00    0.52446   0.44399   -1.000
 6443.00    0.63025   0.44206   -1.000
 6444.00    0.74096   0.44242   -1.000
 6445.00    0.77384   0.44544   -1.000
 6446.00    0.76633   0.45021   -1.000
 6447.00    0.68944   0.45468   -1.000
 6448.00    0.58134   0.45737   -1.000
 6449.00    0.45882   0.45808    0.025
 6450.00    0.33072   0.45672    0.010
 6451.00    0.24874   0.45285    0.009
 6452.00    0.18193   0.44672    0.009
 6453.00    0.16011   0.44002    0.009
 6454.00    0.15070   0.43493    0.009
 6455.00    0.15370   0.43291    0.009
 6456.00    0.15952   0.43419    0.008
 6457.00    0.19260   0.43704    0.008
 6458.00    0.23062   0.43879    0.008
 6459.00    0.25207   0.43870    0.008
 6460.00    0.27120   0.43814    0.008
 6461.00    0.29583   0.43866    0.008
 6462.00    0.32101   0.44082    0.009
 6463.00    0.35596   0.44353    0.009
 6464.00    0.39153   0.44442    0.009
 6465.00    0.34601   0.44233    0.009
 6466.00    0.29817   0.43865    0.008
 6467.00    0.25154   0.43576    0.009
 6468.00    0.20827   0.43536    0.009
 6469.00    0.25813   0.43802    0.009
 6470.00    0.30913   0.44241    0.009
 6471.00    0.37619   0.44602    0.009
 6472.00    0.43480   0.44751    0.009
 6473.00    0.41523   0.44700    0.009
 6474.00    0.39683   0.44528    0.009
 6475.00    0.38637   0.44350    0.009
 6476.00    0.37865   0.44254    0.009
 6477.00    0.38532   0.44247    0.009
 6478.00    0.37842   0.44309    0.009
 6479.00    0.31427   0.44413    0.009
 6480.00    0.25064   0.44506    0.008
 6481.00    0.18887   0.44556    0.008
 6482.00    0.15150   0.44559    0.008
 6483.00    0.18570   0.44468    0.008
 6484.00    0.22667   0.44231    0.008
 6485.00    0.28454   0.43896    0.008
 6486.00    0.32611   0.43585    0.008
 6487.00    0.33257   0.43405    0.008
 6488.00    0.33138   0.43413    0.008
 6489.00    0.31591   0.43601    0.008
 6490.00    0.31639   0.43865    0.009
 6491.00    0.34295   0.44064    0.009
 6492.00    0.36776   0.44099    0.009
 6493.00    0.39007   0.43932    0.009
 6494.00    0.39715   0.43551    0.009
 6495.00    0.38503   0.42937    0.009
 6496.00    0.35941   0.42085    0.009
 6497.00    0.31880   0.41070    0.009
 6498.00    0.28276   0.40070    0.009
 6499.00    0.25121   0.39292    0.009
 6500.00    0.24831   0.38920    0.009
 6501.00    0.27017   0.39041    0.009
 6502.00    0.29295   0.39579    0.009
 6503.00    0.31641   0.40354    0.008
 6504.00    0.33261   0.41186    0.008
 6505.00    0.34393   0.41941    0.008
 6506.00    0.34279   0.42576    0.008
 6507.00    0.33434   0.43081    0.008
 6508.00    0.31777   0.43450    0.008
 6509.00    0.29706   0.43691    0.008
 6510.00    0.27198   0.43819    0.008
 6511.00    0.24498   0.43855    0.009
 6512.00    0.23466   0.43838    0.009
 6513.00    0.23068   0.43805    0.009
 6514.00    0.24920   0.43778    0.009
 6515.00    0.27500   0.43763    0.009
 6516.00    0.29352   0.43731    0.009
 6517.00    0.31009   0.43621    0.009
 6518.00    0.28880   0.43396    0.009
 6519.00    0.25914   0.43089    0.009
 6520.00    0.25222   0.42770    0.009
 6521.00    0.24932   0.42518    0.009
 6522.00    0.25144   0.42419    0.009
 6523.00    0.25424   0.42513    0.008
 6524.00    0.26176   0.42746    0.008
 6525.00    0.26972   0.43028    0.008
 6526.00    0.23617   0.43284    0.008
 6527.00    0.20016   0.43448    0.009
 6528.00    0.17231   0.43476    0.000
 6529.00    0.14502   0.43378    0.000
 6530.00    0.16821   0.43214    0.000
 6531.00    0.19230   0.43057    0.000
 6532.00    0.23912   0.42951    0.000
 6533.00    0.28270   0.42907    0.000
 6534.00    0.28294   0.42893    0.000
 6535.00    0.28019   0.42856    0.000
 6536.00    0.25079   0.42777    0.000
 6537.00    0.22229   0.42693    0.000
 6538.00    0.19966   0.42658    0.000
 6539.00    0.18433   0.42688    0.000
 6540.00    0.20631   0.42763    0.000
 6541.00    0.23415   0.42852    0.000
 6542.00    0.28613   0.42924    0.000
 6543.00    0.32174   0.42951    0.000
 6544.00    0.30136   0.42921    0.000
 6545.00    0.27915   0.42814    0.000
 6546.00    0.25171   0.42608    0.000
 6547.00    0.23576   0.42291    0.000
 6548.00    0.24809   0.41885    0.000
 6549.00    0.25944   0.41462    0.000
 6550.00    0.26870   0.41119    0.000
 6551.00    0.27894   0.40913    0.000
 6552.00    0.29096   0.40838    0.000
 6553.00    0.29242   0.40842    0.000
 6554.00    0.27687   0.40828    0.000
 6555.00    0.26325   0.40700    0.000
 6556.00    0.25236   0.40415    0.000
 6557.00    0.25751   0.39993    0.000
 6558.00    0.28261   0.39497    0.000
 6559.00    0.31202   0.38990    0.000
 6560.00    0.34617   0.38490    0.000
 6561.00    0.36543   0.37946    0.000
 6562.00    0.37030   0.37245    0.000
 6563.00    0.35771   0.36220    0.000
 6564.00    0.33025   0.34724    0.000
 6565.00    0.31144   0.32858    0.000
 6566.00    0.29911   0.31120    0.000
 6567.00    0.27899   0.30135    0.000
 6568.00    0.25373   0.30249    0.000
 6569.00    0.25276   0.31432    0.000
 6570.00    0.26580   0.33303    0.000
 6571.00    0.28656   0.35239    0.000
 6572.00    0.31120   0.36737    0.000
 6573.00    0.30517   0.37688    0.000
 6574.00    0.28580   0.38233    0.000
 6575.00    0.26604   0.38528    0.000
 6576.00    0.24613   0.38699    0.000
 6577.00    0.26993   0.38839    0.000
 6578.00    0.30755   0.39018    0.000
 6579.00    0.31643   0.39298    0.000
 6580.00    0.31771   0.39699    0.000
 6581.00    0.31058   0.40169    0.000
 6582.00    0.30164   0.40604    0.000
 6583.00    0.31537   0.40908    0.000
 6584.00    0.33298   0.41052    0.000
 6585.00    0.32615   0.41093    0.000
 6586.00    0.31614   0.41107    0.000
 6587.00    0.30567   0.41140    0.000
 6588.00    0.29515   0.41197    0.000
 6589.00    0.32958   0.41265    0.000
 6590.00    0.36649   0.41339    0.000
 6591.00    0.34205   0.41427    0.000
 6592.00    0.31590   0.41516    0.000
 6593.00    0.25216   0.41557    0.000
 6594.00    0.19139   0.41461    0.000
 6595.00    0.19880   0.41165    0.000
 6596.00    0.20739   0.40733    0.000
 6597.00    0.23108   0.40347    0.000
 6598.00    0.25217   0.40161    0.000
 6599.00    0.25101   0.40217    0.000
 6600.00    0.24941   0.40467    0.000
 6601.00    0.24498   0.40802    0.000
 6602.00    0.24530   0.41117    0.000
 6603.00    0.26929   0.41378    0.000
 6604.00    0.29718   0.41603    0.000
 6605.00    0.34080   0.41789    0.000
 6606.00    0.37109   0.41898    0.000
 6607.00    0.35677   0.41886    0.000
 6608.00    0.33167   0.41749    0.000
 6609.00    0.27609   0.41531    0.009
 6610.00    0.23197   0.41291    0.009
 6611.00    0.21553   0.41074    0.009
 6612.00    0.20880   0.40926    0.009
 6613.00    0.22235   0.40900    0.009
 6614.00    0.23374   0.41001    0.009
 6615.00    0.24120   0.41184    0.008
 6616.00    0.25430   0.41392    0.008
 6617.00    0.27632   0.41592    0.008
 6618.00    0.29185   0.41761    0.008
 6619.00    0.29834   0.41885    0.008
 6620.00    0.29339   0.41976    0.008
 6621.00    0.27443   0.42060    0.008
 6622.00    0.26538   0.42138    0.008
 6623.00    0.26703   0.42192    0.008
 6624.00    0.28001   0.42210    0.008
 6625.00    0.30379   0.42179    0.008
 6626.00    0.31489   0.42072    0.008
 6627.00    0.31532   0.41883    0.009
 6628.00    0.31243   0.41662    0.009
 6629.00    0.30708   0.41483    0.009
 6630.00    0.28650   0.41384    0.009
 6631.00    0.25604   0.41362    0.009
 6632.00    0.20961   0.41380    0.009
 6633.00    0.15412   0.41374    0.009
 6634.00    0.14526   0.41281    0.008
 6635.00    0.15948   0.41082    0.008
 6636.00    0.18038   0.40811    0.008
 6637.00    0.20413   0.40557    0.008
 6638.00    0.22027   0.40421    0.008
 6639.00    0.23362   0.40456    0.008
 6640.00    0.24167   0.40635    0.008
 6641.00    0.24808   0.40887    0.008
 6642.00    0.23276   0.41117    0.008
 6643.00    0.21182   0.41258    0.008
 6644.00    0.20726   0.41298    0.008
 6645.00    0.20615   0.41241    0.008
 6646.00    0.22146   0.41107    0.008
 6647.00    0.23950   0.40965    0.008
 6648.00    0.25709   0.40879    0.008
 6649.00    0.27463   0.40863    0.008
 6650.00    0.31439   0.40913    0.009
 6651.00    0.35608   0.41020    0.009
 6652.00    0.35280   0.41147    0.009
 6653.00    0.34721   0.41240    0.009
 6654.00    0.36088   0.41284    0.009
 6655.00    0.37425   0.41293    0.009
 6656.00    0.34263   0.41281    0.009
 6657.00    0.31101   0.41256    0.009
 6658.00    0.27938   0.41230    0.009
 6659.00    0.24929   0.41211    0.009
 6660.00    0.23783   0.41198    0.009
 6661.00    0.22276   0.41184    0.008
 6662.00    0.17788   0.41149    0.008
 6663.00    0.13889   0.41064    0.008
 6664.00    0.13633   0.40913    0.008
 6665.00    0.13900   0.40690    0.008
 6666.00    0.16711   0.40418    0.008
 6667.00    0.19358   0.40173    0.008
 6668.00    0.21352   0.40027    0.008
 6669.00    0.23904   0.39992    0.009
 6670.00    0.28283   0.40054    0.009
 6671.00    0.30236   0.40195    0.009
 6672.00    0.25451   0.40383    0.009
 6673.00    0.21006   0.40584    0.009
 6674.00    0.17366   0.40777    0.009
 6675.00    0.15035   0.40944    0.009
 6676.00    0.15390   0.41062    0.009
 6677.00    0.15489   0.41106    0.009
 6678.00    0.15131   0.41047    0.009
 6679.00    0.15330   0.40853    0.009
 6680.00    0.16399   0.40512    0.009
 6681.00    0.19631   0.40099    0.008
 6682.00    0.25830   0.39766    0.008
 6683.00    0.29346   0.39627    0.008
 6684.00    0.29622   0.39699    0.008
 6685.00    0.29878   0.39946    0.008
 6686.00    0.30113   0.40274    0.008
 6687.00    0.29753   0.40574    0.008
 6688.00    0.28836   0.40781    0.008
 6689.00    0.26282   0.40898    0.008
 6690.00    0.22374   0.40950    0.008
 6691.00    0.23326   0.40959    0.008
 6692.00    0.27820   0.40951    0.009
 6693.00    0.31104   0.40943    0.009
 6694.00    0.33614   0.40940    0.009
 6695.00    0.30945   0.40933    0.009
 6696.00    0.25378   0.40904    0.000
 6697.00    0.23911   0.40826    0.000
 6698.00    0.24441   0.40675    0.000
 6699.00    0.24631   0.40461    0.000
 6700.00    0.24677   0.40245    0.000
 6701.00    0.23855   0.40094    0.000
 6702.00    0.22720   0.40052    0.000
 6703.00    0.22291   0.40124    0.000
 6704.00    0.22077   0.40260    0.000
 6705.00    0.24798   0.40377    0.000
 6706.00    0.28262   0.40409    0.000
 6707.00    0.30169   0.40352    0.000
 6708.00    0.31757   0.40256    0.000
 6709.00    0.28241   0.40178    0.000
 6710.00    0.23900   0.40146    0.000
 6711.00    0.22849   0.40156    0.000
 6712.00    0.22196   0.40184    0.000
 6713.00    0.28522   0.40191    0.000
 6714.00    0.35428   0.40158    0.000
 6715.00    0.37287   0.40079    0.000
 6716.00    0.38908   0.39952    0.000
 6717.00    0.36509   0.39773    0.000
 6718.00    0.34130   0.39540    0.000
 6719.00    0.36050   0.39262    0.000
 6720.00    0.37644   0.38982    0.000
 6721.00    0.32887   0.38790    0.000
 6722.00    0.27143   0.38766    0.000
 6723.00    0.10073   0.38904    0.000
 6724.00   -0.04848   0.39141    0.000
 6725.00   -0.02654   0.39410    0.000
 6726.00    0.01502   0.39654    0.000
 6727.00    0.17420   0.39826    0.000
 6728.00    0.30586   0.39904    0.000
 6729.00    0.30709   0.39910    0.000
 6730.00    0.30139   0.39888    0.000
 6731.00    0.26895   0.39877    0.000
 6732.00    0.24565   0.39897    0.000
 6733.00    0.25177   0.39955    0.000
 6734.00    0.25889   0.40033    0.000
 6735.00    0.26878   0.40091    0.000
 6736.00    0.27533   0.40103    0.000
 6737.00    0.27405   0.40074    0.000
 6738.00    0.26531   0.40027    0.000
 6739.00    0.24150   0.39971    0.000
 6740.00    0.22854   0.39897    0.000
 6741.00    0.23466   0.39794    0.000
 6742.00    0.25895   0.39673    0.000
 6743.00    0.31121   0.39561    0.000
 6744.00    0.33796   0.39473    0.000
 6745.00    0.33021   0.39404    0.000
 6746.00    0.31085   0.39349    0.000
 6747.00    0.27769   0.39316    0.000
 6748.00    0.27191   0.39298    0.000
 6749.00    0.29488   0.39277    0.000
 6750.00    0.31618   0.39240    0.000
 6751.00    0.33595   0.39178    0.000
 6752.00    0.36366   0.39090    0.000
 6753.00    0.39787   0.38994    0.009
 6754.00    0.42885   0.38929    0.009
 6755.00    0.45751   0.38908    0.010
 6756.00    0.42115   0.38929    0.010
 6757.00    0.34379   0.38994    0.010
 6758.00    0.28136   0.39089    0.010
 6759.00    0.22717   0.39201    0.010
 6760.00    0.26509   0.39328    0.010
 6761.00    0.34716   0.39477    0.011
 6762.00    0.34475   0.39638    0.011
 6763.00    0.30740   0.39787    0.011
 6764.00    0.22299   0.39900    0.011
 6765.00    0.12193   0.39961    0.010
 6766.00    0.14318   0.39971    0.010
 6767.00    0.20095   0.39929    0.010
 6768.00    0.25527   0.39833    0.010
 6769.00    0.30873   0.39678    0.010
 6770.00    0.35114   0.39477    0.010
 6771.00    0.39132   0.39278    0.009
 6772.00    0.38098   0.39130    0.009
 6773.00    0.36269   0.39045    0.009
 6774.00    0.33052   0.39018    0.009
 6775.00    0.29673   0.39050    0.009
 6776.00    0.25090   0.39148    0.009
 6777.00    0.20411   0.39301    0.009
 6778.00    0.19156   0.39484    0.009
 6779.00    0.18050   0.39669    0.010
 6780.00    0.19362   0.39821    0.010
 6781.00    0.20531   0.39922    0.010
 6782.00    0.13867   0.39970    0.010
 6783.00    0.07542   0.39960    0.010
 6784.00    0.07369   0.39876    0.009
 6785.00    0.07568   0.39706    0.009
 6786.00    0.11817   0.39451    0.009
 6787.00    0.15808   0.39151    0.009
 6788.00    0.17807   0.38875    0.009
 6789.00    0.19457   0.38690    0.009
 6790.00    0.19072   0.38640    0.009
 6791.00    0.19136   0.38717    0.009
 6792.00    0.21279   0.38869    0.009
 6793.00    0.23374   0.39032    0.009
 6794.00    0.25290   0.39158    0.009
 6795.00    0.25150   0.39217    0.009
 6796.00    0.18522   0.39194    0.009
 6797.00    0.12908   0.39108    0.009
 6798.00    0.10008   0.39004    0.009
 6799.00    0.10605   0.38920    0.009
 6800.00    0.19238   0.38883    0.009
 6801.00    0.25526   0.38895    0.010
 6802.00    0.27151   0.38947    0.010
 6803.00    0.28450   0.39021    0.010
 6804.00    0.29186   0.39095    0.010
 6805.00    0.27237   0.39148    0.010
 6806.00    0.21215   0.39162    0.009
 6807.00    0.17636   0.39135    0.009
 6808.00    0.17312   0.39088    0.009
 6809.00    0.21043   0.39034    0.009
 6810.00    0.29534   0.38981    0.009
 6811.00    0.37026   0.38938    0.009
 6812.00    0.43486   0.38900    0.009
 6813.00    0.44001   0.38861    0.009
 6814.00    0.39088   0.38828    0.010
 6815.00    0.32890   0.38806    0.009
 6816.00    0.25657   0.38788    0.009
 6817.00    0.24008   0.38762    0.009
 6818.00    0.26312   0.38737    0.009
 6819.00    0.26998   0.38741    0.009
 6820.00    0.26679   0.38785    0.009
 6821.00    0.22995   0.38847    0.009
 6822.00    0.17483   0.38895    0.009
 6823.00    0.18641   0.38914    0.009
 6824.00    0.22944   0.38923    0.009
 6825.00    0.24449   0.38953    0.009
 6826.00    0.24816   0.39018    0.009
 6827.00    0.23594   0.39104    0.009
 6828.00    0.21820   0.39176    0.009
 6829.00    0.21599   0.39193    0.009
 6830.00    0.21831   0.39127    0.009
 6831.00    0.25419   0.38987    0.009
 6832.00    0.29820   0.38836    0.009
 6833.00    0.32428   0.38739    0.009
 6834.00    0.34686   0.38722    0.009
 6835.00    0.34879   0.38764    0.009
 6836.00    0.34756   0.38833    0.009
 6837.00    0.34521   0.38901    0.009
 6838.00    0.34274   0.38944    0.009
 6839.00    0.35690   0.38934    0.010
 6840.00    0.37231   0.38849    0.010
 6841.00    0.32014   0.38679    0.010
 6842.00    0.26529   0.38426    0.009
 6843.00    0.22648   0.38112    0.009
 6844.00    0.19081   0.37784    0.009
 6845.00    0.27564   0.37511    0.009
 6846.00    0.35212   0.37371    0.009
 6847.00    0.28732   0.37405    0.009
 6848.00    0.22487   0.37597    0.009
 6849.00    0.18694   0.37880    0.009
 6850.00    0.15837   0.38172    0.009
 6851.00    0.19941   0.38411    0.009
 6852.00    0.23337   0.38571    0.009
 6853.00    0.22720   0.38654    0.009
 6854.00    0.22089   0.38679    0.009
 6855.00    0.21396   0.38662    0.009
 6856.00    0.20999   0.38599    0.008
 6857.00    0.21702   0.38466    0.009
 6858.00    0.22563   0.38258    0.009
 6859.00    0.23916   0.38026    0.009
 6860.00    0.26084   0.37834    0.009
 6861.00    0.30395   0.37718    0.009
 6862.00    0.32931   0.37678    0.009
 6863.00    0.31454   0.37683    0.009
 6864.00    0.29338   0.37689    0.009
 6865.00    0.25971   0.37698    0.009
 6866.00    0.21306   0.37749    0.009
 6867.00    0.14429   0.37859    0.009
 6868.00    0.09937   0.37993    0.009
 6869.00    0.09013   0.38084    0.009
 6870.00    0.08201   0.38081    0.009
 6871.00    0.07538   0.37989    0.009
 6872.00    0.08884   0.37868    0.009
 6873.00    0.12554   0.37782    0.009
 6874.00    0.14301   0.37749    0.009
 6875.00    0.14086   0.37747    0.009
 6876.00    0.17486   0.37756    0.009
 6877.00    0.24140   0.37766    0.009
 6878.00    0.24552   0.37776    0.009
 6879.00    0.20015   0.37800    0.009
 6880.00    0.18529   0.37854    0.009
 6881.00    0.19171   0.37934    0.008
 6882.00    0.21766   0.38001    0.008
 6883.00    0.25557   0.38018    0.009
 6884.00    0.25977   0.37960    0.009
 6885.00    0.24595   0.37838    0.009
 6886.00    0.20608   0.37703    0.009
 6887.00    0.15412   0.37618    0.009
 6888.00    0.15733   0.37615    0.009
 6889.00    0.18259   0.37680    0.009
 6890.00    0.21370   0.37793    0.009
 6891.00    0.24679   0.37942    0.009
 6892.00    0.25436   0.38103    0.009
 6893.00    0.25460   0.38258    0.009
 6894.00    0.25932   0.38387    0.009
 6895.00    0.26511   0.38470    0.009
 6896.00    0.24523   0.38492    0.008
 6897.00    0.22045   0.38459    0.008
 6898.00    0.24761   0.38386    0.009
 6899.00    0.28245   0.38300    0.009
 6900.00    0.32359   0.38235    0.009
 6901.00    0.36542   0.38208    0.009
 6902.00    0.34729   0.38208    0.009
 6903.00    0.32493   0.38217    0.009
 6904.00    0.25696   0.38234    0.009
 6905.00    0.18736   0.38263    0.009
 6906.00    0.15754   0.38300    0.009
 6907.00    0.12883   0.38331    0.009
 6908.00    0.13429   0.38354    0.009
 6909.00    0.13950   0.38376    0.009
 6910.00    0.14080   0.38407    0.009
 6911.00    0.14480   0.38445    0.009
 6912.00    0.17581   0.38475    0.009
 6913.00    0.20779   0.38478    0.009
 6914.00    0.24679   0.38433    0.009
 6915.00    0.27902   0.38328    0.009
 6916.00    0.27387   0.38167    0.008
 6917.00    0.25875   0.37970    0.008
 6918.00    0.19962   0.37779    0.009
 6919.00    0.15245   0.37642    0.009
 6920.00    0.14863   0.37581    0.009
 6921.00    0.15573   0.37601    0.009
 6922.00    0.19600   0.37698    0.009
 6923.00    0.21967   0.37846    0.009
 6924.00    0.20042   0.38001    0.009
 6925.00    0.18994   0.38111    0.009
 6926.00    0.19897   0.38127    0.009
 6927.00    0.22314   0.38028    0.009
 6928.00    0.27647   0.37843    0.009
 6929.00    0.29674   0.37648    0.009
 6930.00    0.26144   0.37525    0.009
 6931.00    0.24110   0.37510    0.009
 6932.00    0.24278   0.37581    0.009
 6933.00    0.24141   0.37683    0.009
 6934.00    0.23609   0.37761    0.009
 6935.00    0.23737   0.37783    0.009
 6936.00    0.24617   0.37749    0.009
 6937.00    0.24943   0.37695    0.009
 6938.00    0.24712   0.37665    0.009
 6939.00    0.24955   0.37676    0.009
 6940.00    0.25618   0.37713    0.009
 6941.00    0.26615   0.37763    0.009
 6942.00    0.27873   0.37820    0.009
 6943.00    0.26760   0.37876    0.009
 6944.00    0.24017   0.37913    0.009
 6945.00    0.23270   0.37901    0.009
 6946.00    0.23725   0.37811    0.009
 6947.00    0.24468   0.37642    0.009
 6948.00    0.25363   0.37430    0.009
 6949.00    0.24946   0.37249    0.009
 6950.00    0.23929   0.37169    0.009
 6951.00    0.23641   0.37202    0.009
 6952.00    0.23640   0.37303    0.009
 6953.00    0.23193   0.37401    0.009
 6954.00    0.22596   0.37431    0.009
 6955.00    0.23275   0.37382    0.009
 6956.00    0.24313   0.37290    0.009
 6957.00    0.22368   0.37210    0.009
 6958.00    0.19734   0.37180    0.009
 6959.00    0.22210   0.37219    0.009
 6960.00    0.25635   0.37317    0.009
 6961.00    0.24278   0.37436    0.009
 6962.00    0.22237   0.37542    0.009
 6963.00    0.19180   0.37620    0.009
 6964.00    0.16017   0.37673    0.009
 6965.00    0.20661   0.37712    0.009
 6966.00    0.25824   0.37740    0.009
 6967.00    0.24094   0.37755    0.009
 6968.00    0.22144   0.37754    0.009
 6969.00    0.20548   0.37736    0.009
 6970.00    0.19076   0.37721    0.009
 6971.00    0.21370   0.37734    0.009
 6972.00    0.23386   0.37770    0.009
 6973.00    0.21249   0.37800    0.009
 6974.00    0.19525   0.37798    0.009
 6975.00    0.21771   0.37759    0.009
 6976.00    0.23518   0.37700    0.009
 6977.00    0.21796   0.37610    0.009
 6978.00    0.20693   0.37449    0.009
 6979.00    0.22912   0.37189    0.009
 6980.00    0.25134   0.36835    0.009
 6981.00    0.27365   0.36426    0.009
 6982.00    0.27683   0.36054    0.009
 6983.00    0.21215   0.35851    0.009
 6984.00    0.16162   0.35901    0.009
 6985.00    0.15325   0.36177    0.009
 6986.00    0.16862   0.36579    0.010
 6987.00    0.24427   0.36992    0.010
 6988.00    0.28913   0.37319    0.009
 6989.00    0.26666   0.37518    0.010
 6990.00    0.22094   0.37594    0.010
 6991.00    0.13113   0.37580    0.009
 6992.00    0.10621   0.37514    0.009
 6993.00    0.18872   0.37437    0.009
 6994.00    0.22988   0.37393    0.009
 6995.00    0.21104   0.37400    0.009
 6996.00    0.21881   0.37441    0.009
 6997.00    0.26054   0.37483    0.009
 6998.00    0.27356   0.37504    0.009
 6999.00    0.25429   0.37495    0.009
 7000.00    0.24829   0.37455    0.009
 7001.00    0.25543   0.37369    0.009
 7002.00    0.25184   0.37226    0.009
 7003.00    0.23886   0.37042    0.009
 7004.00    0.22325   0.36868    0.009
 7005.00    0.20561   0.36750    0.009
 7006.00    0.20177   0.36689    0.009
 7007.00    0.20728   0.36643    0.009
 7008.00    0.17541   0.36583    0.009
 7009.00    0.12135   0.36525    0.009
 7010.00    0.11557   0.36503    0.009
 7011.00    0.13481   0.36545    0.009
 7012.00    0.17729   0.36650    0.009
 7013.00    0.23020   0.36782    0.009
 7014.00    0.25582   0.36890    0.009
 7015.00    0.27092   0.36936    0.009
 7016.00    0.21622   0.36913    0.009
 7017.00    0.13861   0.36816    0.009
 7018.00    0.16224   0.36636    0.009
 7019.00    0.21371   0.36380    0.009
 7020.00    0.26847   0.36120    0.009
 7021.00    0.32396   0.35978    0.009
 7022.00    0.30089   0.36031    0.009
 7023.00    0.26362   0.36240    0.009
 7024.00    0.29334   0.36492    0.010
 7025.00    0.33234   0.36667    0.010
 7026.00    0.34634   0.36688    0.010
 7027.00    0.35785   0.36563    0.010
 7028.00    0.25280   0.36386    0.010
 7029.00    0.14044   0.36268    0.009
 7030.00    0.23036   0.36265    0.010
 7031.00    0.32549   0.36365    0.010
 7032.00    0.28036   0.36520    0.010
 7033.00    0.23774   0.36678    0.010
 7034.00    0.26386   0.36800    0.009
 7035.00    0.28447   0.36868    0.009
 7036.00    0.22749   0.36882    0.009
 7037.00    0.18176   0.36858    0.009
 7038.00    0.23974   0.36813    0.009
 7039.00    0.28670   0.36760    0.009
 7040.00    0.25947   0.36703    0.009
 7041.00    0.23276   0.36629    0.009
 7042.00    0.20875   0.36563    0.009
 7043.00    0.20584   0.36589    0.009
 7044.00    0.29177   0.36762    0.010
 7045.00    0.34567   0.37043    0.010
 7046.00    0.28819   0.37338    0.010
 7047.00    0.25472   0.37552    0.010
 7048.00    0.29153   0.37634    0.010
 7049.00    0.29702   0.37615    0.010
 7050.00    0.22434   0.37578   -2.000
 7051.00    0.18728   0.37583   -2.000
 7052.00    0.22683   0.37630   -2.000
 7053.00    0.24546   0.37665   -2.000
 7054.00    0.22498   0.37616   -2.000
 7055.00    0.22101   0.37430   -2.000
 7056.00    0.24393   0.37106   -2.000
 7057.00    0.24833   0.36712   -2.000
 7058.00    0.22621   0.36362   -2.000
 7059.00    0.23640   0.36135   -2.000
 7060.00    0.28726   0.36045   -2.000
 7061.00    0.31904   0.36042   -2.000
 7062.00    0.32964   0.36044   -2.000
 7063.00    0.33891   0.35993   -2.000
 7064.00    0.34685   0.35898   -2.000
 7065.00    0.32004   0.35819   -2.000
 7066.00    0.26324   0.35802   -2.000
 7067.00    0.25592   0.35850   -2.000
 7068.00    0.28621   0.35924   -2.000
 7069.00    0.30812   0.35954   -2.000
 7070.00    0.32444   0.35876   -2.000
 7071.00    0.33576   0.35699   -2.000
 7072.00    0.34416   0.35499   -2.000
 7073.00    0.33263   0.35381   -2.000
 7074.00    0.31093   0.35412   -2.000
 7075.00    0.24536   0.35566   -2.000
 7076.00    0.16042   0.35768   -2.000
 7077.00    0.17609   0.35950   -2.000
 7078.00    0.22992   0.36074   -2.000
 7079.00    0.25889   0.36130   -2.000
 7080.00    0.27985   0.36142   -2.000
 7081.00    0.23530   0.36145   -2.000
 7082.00    0.17310   0.36163   -2.000
 7083.00    0.30293   0.36185   -2.000
 7084.00    0.47515   0.36184   -2.000
 7085.00    0.31038   0.36113   -2.000
 7086.00    0.08639   0.35927   -2.000
 7087.00    0.15641   0.35614   -2.000
 7088.00    0.26582   0.35224   -2.000
 7089.00    0.28942   0.34855   -2.000
 7090.00    0.30487   0.34586   -2.000
 7091.00    0.28916   0.34425   -2.000
 7092.00    0.27162   0.34338   -2.000
 7093.00    0.31252   0.34287   -2.000
 7094.00    0.35452   0.34243   -2.000
 7095.00    0.34985   0.34206   -2.000
 7096.00    0.34196   0.34188   -2.000
 7097.00    0.25425   0.34186   -2.000
 7098.00    0.17444   0.34202   -2.000
 7099.00    0.19953   0.34239   -2.000
 7100.00    0.22425   0.34294   -2.000
 7101.00    0.24561   0.34376   -2.000
 7102.00    0.27158   0.34485   -2.000
 7103.00    0.32758   0.34612   -2.000
 7104.00    0.36797   0.34726   -2.000
 7105.00    0.32881   0.34802   -2.000
 7106.00    0.30392   0.34838   -2.000
 7107.00    0.33776   0.34855   -2.000
 7108.00    0.34562   0.34874   -2.000
 7109.00    0.26497   0.34892   -2.000
 7110.00    0.22691   0.34880   -2.000
 7111.00    0.31124   0.34822   -2.000
 7112.00    0.35399   0.34724   -2.000
 7113.00    0.29474   0.34601   -2.000
 7114.00    0.24676   0.34459   -2.000
 7115.00    0.22265   0.34317   -2.000
 7116.00    0.19413   0.34213   -2.000
 7117.00    0.15749   0.34178   -2.000
 7118.00    0.14282   0.34210   -2.000
 7119.00    0.16346   0.34283   -2.000
 7120.00    0.19226   0.34364   -2.000
 7121.00    0.23256   0.34422   -2.000
 7122.00    0.32264   0.34439   -2.000
 7123.00    0.47447   0.34415   -2.000
 7124.00    0.54802   0.34364   -2.000
 7125.00    0.53599   0.34303   -2.000
 7126.00    0.43945   0.34252   -2.000
 7127.00    0.26141   0.34234   -2.000
 7128.00    0.19095   0.34249   -2.000
 7129.00    0.21198   0.34262   -2.000
 7130.00    0.32489   0.34245   -2.000
 7131.00    0.50663   0.34193   -2.000
 7132.00    0.50160   0.34107   -2.000
 7133.00    0.37369   0.33987   -2.000
 7134.00    0.24371   0.33844   -2.000
 7135.00    0.11253   0.33730   -2.000
 7136.00    0.12836   0.33711   -2.000
 7137.00    0.21795   0.33812   -2.000
 7138.00    0.35771   0.34005   -2.000
 7139.00    0.51925   0.34232   -2.000
 7140.00    0.46494   0.34436   -2.000
 7141.00    0.33022   0.34584   -2.000
 7142.00    0.31328   0.34662   -2.000
 7143.00    0.33354   0.34670   -2.000
 7144.00    0.29609   0.34639   -2.000
 7145.00    0.24342   0.34607   -2.000
 7146.00    0.26238   0.34583   -2.000
 7147.00    0.29677   0.34550   -2.000
 7148.00    0.25073   0.34489   -2.000
 7149.00    0.19094   0.34383   -2.000
 7150.00    0.20801   0.34222   -2.000
 7151.00    0.23502   0.34016   -2.000
 7152.00    0.19623   0.33805   -2.000
 7153.00    0.15146   0.33673   -2.000
 7154.00    0.20173   0.33686   -2.000
 7155.00    0.25720   0.33838   -2.000
 7156.00    0.30864   0.34074   -2.000
 7157.00    0.36086   0.34324   -2.000
 7158.00    0.49118   0.34522   -2.000
 7159.00    0.62152   0.34639   -2.000
 7160.00    0.75230   0.34698   -2.000
 7161.00    0.86573   0.34735   -2.000
 7162.00    0.76074   0.34749   -2.000
 7163.00    0.64692   0.34722   -2.000
 7164.00    0.45777   0.34646   -2.000
 7165.00    0.26273   0.34526   -2.000
 7166.00    0.03044   0.34364   -2.000
 7167.00   -0.09052   0.34152   -2.000
 7168.00    0.34127   0.33902   -2.000
 7169.00    0.69211   0.33687   -2.000
 7170.00    0.71706   0.33612   -2.000
 7171.00    0.69728   0.33727   -2.000
 7172.00    0.52804   0.33986   -2.000
 7173.00    0.37499   0.34286   -2.000
 7174.00    0.26761   0.34546   -2.000
 7175.00    0.21450   0.34735   -2.000
 7176.00    0.29232   0.34858   -2.000
 7177.00    0.34658   0.34918   -2.000
 7178.00    0.35179   0.34911   -2.000
 7179.00    0.35749   0.34836   -2.000
 7180.00    0.36406   0.34712   -2.000
 7181.00    0.35290   0.34578   -2.000
 7182.00    0.31367   0.34456   -2.000
 7183.00    0.24753   0.34327   -2.000
 7184.00    0.14398   0.34163   -2.000
 7185.00    0.10779   0.33991   -2.000
 7186.00    0.15396   0.33882   -2.000
 7187.00    0.27791   0.33881   -2.000
 7188.00    0.48569   0.33947   -2.000
 7189.00    0.54455   0.33983   -2.000
 7190.00    0.46180   0.33917   -2.000
 7191.00    0.39865   0.33744   -2.000
 7192.00    0.35193   0.33533   -2.000
 7193.00    0.31237   0.33379   -2.000
 7194.00    0.27809   0.33333   -2.000
 7195.00    0.27149   0.33382   -2.000
 7196.00    0.28284   0.33475   -2.000
 7197.00    0.32249   0.33564   -2.000
 7198.00    0.37822   0.33640   -2.000
 7199.00    0.51752   0.33721   -2.000
 7200.00    0.69810   0.33806   -2.000
 7201.00    0.78927   0.33878   -2.000
 7202.00    0.84227   0.33934   -2.000
 7203.00    0.64421   0.33982   -2.000
 7204.00    0.35429   0.34015   -2.000
 7205.00    0.20710   0.34020   -2.000
 7206.00    0.10411   0.34006   -2.000
 7207.00    0.06828   0.33992   -2.000
 7208.00    0.04979   0.33979   -2.000
 7209.00    0.08926   0.33926   -2.000
 7210.00    0.14092   0.33787   -2.000
 7211.00    0.26258   0.33570   -2.000
 7212.00    0.39587   0.33368   -2.000
 7213.00    0.50674   0.33296   -2.000
 7214.00    0.61482   0.33389   -2.000
 7215.00    0.55389   0.33587   -2.000
 7216.00    0.47832   0.33784   -2.000
 7217.00    0.33069   0.33893   -2.000
 7218.00    0.17939   0.33903   -2.000
