###################################################################
## OUTPUT of StarlightChains_v04.for    [Cid@UFSC - 01/Apr/2007] ##
###################################################################

## Some input info
KUG0210-078._26_22.txt                   [arq_obs]
Base.CB07.vall.4m                        [arq_base]
Masks.EmLines.NEW.gm                     [arq_masks]
StCv04.C11.config                        [arq_config]
   66                                    [N_base]
    0                                    [N_YAV_components = # of components with extra extinction!]
    0                                    [i_FitPowerLaw (1/0 = Yes/No)]
-9.99                                    [alpha_PowerLaw]
CCM                                      [red_law_option]
 1.458241                                [q_norm = A(l_norm)/A(V)]

## (Re)Sampling Parameters
 3741.00                                 [l_ini (A)]
 7218.00                                 [l_fin (A)]
    1.00                                 [dl    (A)]     (OBS: dl_cushion =    50.00 A)

## Normalization info
 4020.00                                 [l_norm (A) - for base]
 4010.00                                 [llow_norm (A) - window for f_obs]
 4060.00                                 [lupp_norm (A) - window for f_obs]
1.087731E-17                             [fobs_norm (in input units)]

## S/N
 3691.00                                 [llow_SN (A) - window for S/N]
 7268.00                                 [lupp_SN (A) - window for S/N]
   4.649                                 [S/N in S/N window]
   3.880                                 [S/N in norm. window]
   0.017                                 [S/N_err in S/N window]
   0.014                                 [S/N_err in norm. window]
  1.0000                                 [fscale_chi2]

## etc...
    -2007318                             [idum_orig]
  2417                                   [NOl_eff]
  2401                                   [Nl_eff]
    16    NSIGMA                         [Ntot_cliped & clip_method]
  1973020                                [Nglobal_steps]
   7                                     [N_chains]
  38                                     [NEX0s_base = N_base in EX0s-fits]
 0   0   1       16   2.0   1.808E+03    [Clip-Bug, RC-Crash & Burn-In warning-flags, n_censored_weights, wei_nsig_threshold & wei_limit]
    38     37.371     36.912      0.460  [idt_all, wdt_TotTime, wdt_UsrTime & wdt_SysTime (sec)]

## Synthesis Results - Best model ##

 2.31742E-05                             [chi2/Nl_eff]
    17.47406                             [adev (%)]

   111.87448                             [sum-of-x (%)]
 1.45523E-17                             [Flux_tot (units of input spectrum!)]
 7.69994E-13                             [Mini_tot (???)]
 3.92307E-13                             [Mcor_tot (???)]

-479.21                                  [v0_min  (km/s)]
 347.07                                  [vd_min  (km/s)]
 0.1332                                  [AV_min  (mag)]
 0.0000                                  [YAV_min (mag)]

# j     x_j(%)      Mini_j(%)     Mcor_j(%)     age_j(yr)     Z_j      (L/M)_j    YAV?  Mstars   component_j        a/Fe...       SSP_chi2r SSP_adev(%)   SSP_AV   SSP_x(%)
  1      0.0000     0.0000E+00    0.0000E+00    1.000000E+06  0.00400  1.094E-02    0   1.0000   age020_m42            0.0000     2.3425E-05    18.0691   3.4678    96.3366
  2      1.8171     7.6606E-04    1.5034E-03    3.160000E+06  0.00400  4.007E-02    0   0.9999   age045_m42            0.0000     2.4252E-05    17.8373   2.7228   103.7512
  3      0.0000     0.0000E+00    0.0000E+00    5.010000E+06  0.00400  2.539E-02    0   0.9488   age055_m42            0.0000     2.3819E-05    17.9704   3.0528   100.8196
  4      0.0000     0.0000E+00    0.0000E+00    6.610000E+06  0.00400  2.620E-02    0   0.9220   age061_m42            0.0000     2.4437E-05    17.9328   2.6497   103.9685
  5      0.0000     0.0000E+00    0.0000E+00    1.000000E+07  0.00400  1.322E-02    0   0.8862   age070_m42            0.0000     2.4866E-05    19.2710   2.3999   105.0751
  6      0.1663     3.5641E-04    5.9957E-04    1.445000E+07  0.00400  7.883E-03    0   0.8571   age078_m42            0.0000     2.4545E-05    19.2211   2.7288   102.3354
  7      0.0000     0.0000E+00    0.0000E+00    2.512000E+07  0.00400  5.251E-03    0   0.8174   age090_m42            0.0000     2.5139E-05    19.5525   2.2742   105.5387
  8      0.0000     0.0000E+00    0.0000E+00    4.000000E+07  0.00400  3.649E-03    0   0.7851   age104_m42            0.0000     2.5145E-05    19.3196   2.0413   106.6357
  9      3.2627     1.7791E-02    2.6640E-02    5.500000E+07  0.00400  3.098E-03    0   0.7629   age110_m42            0.0000     2.5325E-05    18.6248   2.1760   107.3253
 10      0.0000     0.0000E+00    0.0000E+00    1.015200E+08  0.00400  2.228E-03    0   0.7207   age116_m42            0.0000     2.5699E-05    18.1610   2.1847   107.9374
 11      0.2918     4.5094E-03    5.8840E-03    2.861200E+08  0.00400  1.093E-03    0   0.6648   age125_m42            0.0000     2.6439E-05    18.7610   1.6187   110.9317
 12      0.0000     0.0000E+00    0.0000E+00    5.088000E+08  0.00400  6.597E-04    0   0.6365   age130_m42            0.0000     2.6829E-05    17.9295   1.5922   112.4750
 13      0.5796     4.5925E-02    5.2263E-02    1.434000E+09  0.00400  2.132E-04    0   0.5798   age139_m42            0.0000     2.6090E-05    17.3247   0.6075   115.0886
 14      0.0000     0.0000E+00    0.0000E+00    4.250000E+09  0.00400  5.895E-05    0   0.5377   age158_m42            0.0000     2.4078E-05    16.6736   0.1468   111.1954
 15      0.0000     0.0000E+00    0.0000E+00    7.500000E+09  0.00400  3.510E-05    0   0.5212   age171_m42            0.0000     2.4039E-05    16.4547  -0.0505   110.7082
 16      0.0000     0.0000E+00    0.0000E+00    1.300000E+10  0.00400  2.005E-05    0   0.5034   age193_m42            0.0000     2.4074E-05    16.3197  -0.2258   110.3720
 17      5.7802     6.4030E+00    6.2422E+00    1.800000E+10  0.00400  1.525E-05    0   0.4967   age213_m42            0.0000     2.3961E-05    16.3854  -0.2455   109.7580
 18      0.0000     0.0000E+00    0.0000E+00    1.000000E+06  0.00800  1.238E-02    0   1.0000   age020_m52            0.0000     2.3474E-05    18.0639   3.4642    96.5199
 19     11.5478     6.3461E-03    1.2413E-02    3.160000E+06  0.00800  3.074E-02    0   0.9966   age045_m52            0.0000     2.3517E-05    17.9823   3.3851    97.4598
 20     16.1407     1.0220E-02    1.8942E-02    5.010000E+06  0.00800  2.668E-02    0   0.9443   age055_m52            0.0000     2.3718E-05    18.0391   3.1391    99.7820
 21      0.0000     0.0000E+00    0.0000E+00    6.610000E+06  0.00800  2.136E-02    0   0.9177   age061_m52            0.0000     2.3832E-05    18.9336   1.8988   106.2427
 22      0.7205     1.0018E-03    1.7356E-03    1.000000E+07  0.00800  1.215E-02    0   0.8827   age070_m52            0.0000     2.4999E-05    19.8142   2.5899   104.4456
 23      0.0000     0.0000E+00    0.0000E+00    1.445000E+07  0.00800  8.717E-03    0   0.8552   age078_m52            0.0000     2.4659E-05    19.2418   2.6932   103.8041
 24      0.2146     6.4833E-04    1.0386E-03    2.512000E+07  0.00800  5.592E-03    0   0.8162   age090_m52            0.0000     2.5344E-05    19.6805   2.3378   106.7946
 25      0.0000     0.0000E+00    0.0000E+00    4.000000E+07  0.00800  3.896E-03    0   0.7841   age104_m52            0.0000     2.5460E-05    19.3560   2.2387   108.0487
 26      0.4213     3.3133E-03    4.6992E-03    1.015200E+08  0.00800  2.148E-03    0   0.7226   age116_m52            0.0000     2.5547E-05    18.5646   2.1605   108.5040
 27      0.0000     0.0000E+00    0.0000E+00    2.861200E+08  0.00800  9.925E-04    0   0.6683   age125_m52            0.0000     2.6943E-05    17.9125   1.6571   113.5569
 28      0.0000     0.0000E+00    0.0000E+00    9.047900E+08  0.00800  3.141E-04    0   0.6138   age135_m52            0.0000     2.6780E-05    17.1164   0.8263   119.3746
 29      0.0000     0.0000E+00    0.0000E+00    1.434000E+09  0.00800  1.719E-04    0   0.5853   age139_m52            0.0000     2.5372E-05    17.1283   0.2449   116.7527
 30      1.0572     2.2688E-01    2.4938E-01    2.500000E+09  0.00800  7.872E-05    0   0.5600   age150_m52            0.0000     2.4592E-05    16.2734  -0.0441   114.3440
 31      0.1709     6.6571E-02    7.0897E-02    4.250000E+09  0.00800  4.336E-05    0   0.5426   age158_m52            0.0000     2.4327E-05    16.2791  -0.0600   113.3088
 32      0.0000     0.0000E+00    0.0000E+00    6.250000E+09  0.00800  3.159E-05    0   0.5319   age166_m52            0.0000     2.4760E-05    15.9870  -0.2806   113.9222
 33      2.3284     2.8902E+00    2.8777E+00    1.300000E+10  0.00800  1.361E-05    0   0.5073   age193_m52            0.0000     2.5701E-05    15.6838  -0.7675   113.7236
 34      9.8320     1.6801E+01    1.6455E+01    1.800000E+10  0.00800  9.886E-06    0   0.4990   age213_m52            0.0000     2.6645E-05    15.5365  -0.8924   113.7172
 35      0.0000     0.0000E+00    0.0000E+00    1.000000E+06  0.02000  1.544E-02    0   1.0000   age020_m62            0.0000     2.3506E-05    18.0757   3.4619    96.6799
 36      0.0000     0.0000E+00    0.0000E+00    3.160000E+06  0.02000  3.762E-02    0   0.9858   age045_m62            0.0000     2.3481E-05    18.0292   3.3984    97.5917
 37      0.0000     0.0000E+00    0.0000E+00    5.010000E+06  0.02000  3.296E-02    0   0.9342   age055_m62            0.0000     2.4004E-05    17.7444   3.0037   102.4099
 38      0.0000     0.0000E+00    0.0000E+00    8.710000E+06  0.02000  1.154E-02    0   0.8861   age067_m62            0.0000     2.7452E-05    23.2252   2.0998   105.0532
 39      0.0000     0.0000E+00    0.0000E+00    1.445000E+07  0.02000  7.663E-03    0   0.8472   age078_m62            0.0000     2.5467E-05    20.8648   2.2505   106.2198
 40      2.2003     8.2018E-03    1.3038E-02    2.512000E+07  0.02000  4.532E-03    0   0.8099   age090_m62            0.0000     2.5871E-05    21.0964   2.2432   105.9155
 41      0.0216     1.3324E-04    1.9862E-04    5.500000E+07  0.02000  2.733E-03    0   0.7595   age110_m62            0.0000     2.5243E-05    19.3141   2.2226   107.1972
 42      0.7580     9.3535E-03    1.2823E-02    1.609000E+08  0.02000  1.369E-03    0   0.6985   age120_m62            0.0000     2.6450E-05    18.2636   2.0349   111.1879
 43      0.0000     0.0000E+00    0.0000E+00    2.861200E+08  0.02000  9.013E-04    0   0.6714   age125_m62            0.0000     2.7656E-05    17.6724   1.7709   114.9131
 44      0.0000     0.0000E+00    0.0000E+00    5.088000E+08  0.02000  5.028E-04    0   0.6449   age130_m62            0.0000     2.7972E-05    16.7456   1.3635   119.0265
 45      0.0000     0.0000E+00    0.0000E+00    9.047900E+08  0.02000  2.428E-04    0   0.6179   age135_m62            0.0000     2.6021E-05    16.4996   0.7585   118.9156
 46      0.0000     0.0000E+00    0.0000E+00    1.434000E+09  0.02000  1.263E-04    0   0.5908   age139_m62            0.0000     2.4972E-05    16.3294   0.3061   117.3428
 47      0.0000     0.0000E+00    0.0000E+00    2.500000E+09  0.02000  5.985E-05    0   0.5673   age150_m62            0.0000     2.4694E-05    15.8875  -0.0788   116.3550
 48      0.0546     2.8204E-02    3.0269E-02    4.250000E+09  0.02000  3.271E-05    0   0.5468   age158_m62            0.0000     2.5595E-05    15.5746  -0.4080   116.1345
 49      0.6930     8.6082E-01    8.7300E-01    1.000000E+10  0.02000  1.360E-05    0   0.5167   age181_m62            0.0000     2.7492E-05    15.4521  -0.7840   116.5423
 50      0.0000     0.0000E+00    0.0000E+00    1.800000E+10  0.02000  7.124E-06    0   0.5013   age213_m62            0.0000     2.9236E-05    15.3794  -1.0000   115.7282
 51      0.0000     0.0000E+00    0.0000E+00    1.000000E+06  0.05000  2.592E-02    0   0.9998   age020_m72            0.0000     2.3661E-05    18.1714   3.4582    96.5265
 52      0.0619     2.1569E-05    4.0544E-05    3.160000E+06  0.05000  4.845E-02    0   0.9577   age045_m72            0.0000     2.3614E-05    17.8358   3.2728    99.2333
 53      5.4639     3.0047E-03    5.3943E-03    5.010000E+06  0.05000  3.072E-02    0   0.9147   age055_m72            0.0000     2.4710E-05    19.9709   2.8197   102.6412
 54      0.0000     0.0000E+00    0.0000E+00    6.610000E+06  0.05000  1.455E-02    0   0.8877   age061_m72            0.0000     3.0201E-05    25.5868   2.1486   105.3953
 55      4.0373     7.5162E-03    1.2575E-02    1.000000E+07  0.05000  9.074E-03    0   0.8524   age070_m72            0.0000     2.5325E-05    20.5015   2.9896   102.5602
 56      0.1094     4.3492E-04    6.7454E-04    2.512000E+07  0.05000  4.250E-03    0   0.7902   age090_m72            0.0000     2.5594E-05    20.1887   2.6895   104.7681
 57      0.0000     0.0000E+00    0.0000E+00    4.000000E+07  0.05000  3.087E-03    0   0.7618   age104_m72            0.0000     2.6140E-05    20.3937   2.4620   106.5303
 58      0.0000     0.0000E+00    0.0000E+00    1.015200E+08  0.05000  1.700E-03    0   0.7096   age116_m72            0.0000     2.6615E-05    18.8659   2.1847   110.4330
 59      0.0000     0.0000E+00    0.0000E+00    2.861200E+08  0.05000  7.384E-04    0   0.6633   age125_m72            0.0000     2.8024E-05    17.1479   1.6224   117.0966
 60      2.1710     9.6035E-02    1.2011E-01    5.088000E+08  0.05000  3.819E-04    0   0.6372   age130_m72            0.0000     2.6899E-05    16.3980   1.1044   119.9298
 61      0.0000     0.0000E+00    0.0000E+00    9.047900E+08  0.05000  1.676E-04    0   0.6110   age135_m72            0.0000     2.5277E-05    15.7687   0.3763   118.8701
 62      0.4110     7.8563E-02    9.0576E-02    1.434000E+09  0.05000  8.837E-05    0   0.5874   age139_m72            0.0000     2.5267E-05    15.8836  -0.0870   118.3351
 63      0.0000     0.0000E+00    0.0000E+00    2.500000E+09  0.05000  4.233E-05    0   0.5598   age150_m72            0.0000     2.5912E-05    15.5186  -0.4216   117.6322
 64     24.9703     2.9396E+01    3.0285E+01    6.250000E+09  0.05000  1.435E-05    0   0.5249   age166_m72            0.0000     2.7788E-05    15.5229  -0.8936   116.4600
 65     16.5911     4.3034E+01    4.2536E+01    1.300000E+10  0.05000  6.513E-06    0   0.5036   age193_m72            0.0000     3.0566E-05    14.4812  -1.0000   111.3149
 66      0.0000     0.0000E+00    0.0000E+00    1.800000E+10  0.05000  4.527E-06    0   0.4945   age213_m72            0.0000     3.3187E-05    14.4426  -1.0000   105.2484


## Synthesis Results - Average & Chains ##

# j      x_j: min, <> & last-chain-values for 1 ...  7 chains
  1      0.0000      1.3587      4.3733      3.3759      4.1450      4.2767      5.7065      2.3652      0.0000
  2      1.8171      1.8397      1.9188      1.2912      1.7822      2.2909      1.6257      0.0000      0.7876
  3      0.0000      1.3051      0.0000      0.6657      0.2247      0.5112      0.0000      1.5192      0.0254
  4      0.0000      1.4368      0.0000      0.0000      0.3129      0.0010      0.0000      0.0000      0.0000
  5      0.0000      1.1943      0.3003      0.4007      0.0000      0.2092      0.0000      0.4199      0.4236
  6      0.1663      1.4224      0.7123      0.7865      1.9979      0.1284      1.4496      4.2258      1.9749
  7      0.0000      1.4797      1.3862      0.0000      0.3404      0.6627      0.3185      0.0000      0.0000
  8      0.0000      1.3242      0.3345      0.0000      0.2719      0.1797      1.0082      0.8049      6.8894
  9      3.2627      2.3808      0.0000      1.7721      1.5538      1.7033      2.5618      1.3952      3.3605
 10      0.0000      1.3013      0.0000      0.0000      0.8141      1.1462      2.0260      0.9140      0.0000
 11      0.2918      1.5749      0.5213      1.7025      0.3803      0.3475      0.9047      0.3567      3.3843
 12      0.0000      1.6358      1.6951      0.2224      0.0000      0.6755      0.0738      0.9009      0.0000
 13      0.5796      1.6899      0.1093      1.8044      0.0188      0.1586      1.9813      0.0000      2.9871
 14      0.0000      3.9104     16.5415     14.5572     13.0341     16.9780     14.4188     11.2935      0.0000
 15      0.0000      1.4341      1.4437      0.7459      0.0000      0.0000      0.5539      1.5848      6.5204
 16      0.0000      1.9603      4.7034      4.0709      4.3902      2.9508      3.8891      4.6707      0.0478
 17      5.7802      1.0850      0.0000      3.3198      0.0000      0.1019      0.7671      0.2285      9.3763
 18      0.0000      1.5540      0.0000      0.9464      0.6148      0.9354      0.0960      3.8544      0.1540
 19     11.5478      1.3353      1.0083      1.1802      0.9121      1.1561      0.6782      0.3293      1.4371
 20     16.1407      1.3646      1.9205      0.0000      0.1886      0.2130      0.0000      1.2866      5.4832
 21      0.0000      1.2014      0.1993      1.1701      0.1673      0.1904      0.0000      3.8774      0.0000
 22      0.7205      1.5041      3.9424      0.7122      4.4248      0.8987      1.1035      0.0704      1.3326
 23      0.0000      1.5683      0.7566      0.0000      0.7688      0.9629      0.3755      0.3332      1.5454
 24      0.2146      1.6807      0.1237      0.8448      0.5422      1.1368      2.2563      0.2055      1.5183
 25      0.0000      1.2763      0.4095      0.3403      0.3417      0.5690      1.1092      0.0000      0.8684
 26      0.4213      1.2088      0.0000      0.0000      0.6801      0.6386      0.0000      0.1641      1.6931
 27      0.0000      1.6289      0.0000      0.5878      1.3351      1.2940      0.3660      0.5869      0.0870
 28      0.0000      1.4718      0.0000      0.6369      0.2135      0.0743      0.0000      0.7220      0.0000
 29      0.0000      1.5557      2.1825      0.0000      2.3763      2.5511      0.0000      0.8004      0.0000
 30      1.0572      1.5258      1.7564      0.9030      1.1868      2.3299      1.4210      2.2074      1.2813
 31      0.1709      1.4525      0.0000      0.1128      1.8840      0.0166      0.0000      1.4876      3.1653
 32      0.0000      2.5969      6.9481      4.9353      7.6693      8.0400      8.6360      4.4864      0.0000
 33      2.3284      1.0227      0.5265      0.0000      0.3605      0.4222      0.4732      0.5925      1.4370
 34      9.8320      1.5886      2.9822      3.5910      2.0443      2.1959      3.6704      2.7128      4.1536
 35      0.0000      1.0745      0.1055      0.7085      0.3335      0.2008      0.1448      0.8895      0.0000
 36      0.0000      1.1817      1.2296      1.1446      0.6876      0.6592      2.6002      0.4715      0.0000
 37      0.0000      1.4157      0.1936      0.6243      0.0000      0.0373      0.5909      0.0000      0.0854
 38      0.0000      1.2349      1.4002      0.8723      1.7240      1.1601      1.6218      1.1568      0.1540
 39      0.0000      1.0326      1.0684      1.7598      0.7827      1.1276      0.8540      1.4196      0.0000
 40      2.2003      1.0842      0.7906      0.5714      1.7489      0.8281      0.9370      3.3638      1.0206
 41      0.0216      1.6736      0.4661      2.1743      0.1522      0.1294      0.0000      1.7259      1.5807
 42      0.7580      1.3305      0.8485      0.0000      0.2634      0.0000      1.1903      0.0000      1.1056
 43      0.0000      2.1653      0.0000      0.7244      0.0000      0.2231      0.1416      0.0741      0.1983
 44      0.0000      1.3296      0.0318      0.5817      0.0000      0.1097      0.1327      0.0000      2.8109
 45      0.0000      1.0747      0.6442      0.0000      0.5351      1.1772      0.2615      0.9659      0.8019
 46      0.0000      1.0129      0.1641      1.4954      0.0679      0.0000      0.1397      0.5908      0.2161
 47      0.0000      1.4167      1.3942      2.3759      1.7213      1.6402      3.2333      0.9897      0.0000
 48      0.0546      1.8687      4.1358      6.6787      4.8821      5.0217      3.5640      3.9138      5.0506
 49      0.6930      1.7299      5.6596      2.5216      4.9988      5.9103      6.8614      5.5846      1.5193
 50      0.0000      2.0845      1.9674      2.5784      2.2626      3.4202      2.7289      0.6500      3.4688
 51      0.0000      1.5239      0.0000      0.0000      0.2210      0.6133      0.3404      0.6032      0.0185
 52      0.0619      1.3736      0.2287      0.8609      1.4261      0.6804      0.0000      0.4143      0.7408
 53      5.4639      1.1907      2.8864      2.9988      0.2332      0.5344      0.4153      0.5558      3.4697
 54      0.0000      1.4610      1.6107      4.2074      1.6949      2.3531      2.0252      3.6684      3.8492
 55      4.0373      1.4060      0.0000      0.0000      0.6090      0.4165      0.2666      1.1882      2.3496
 56      0.1094      1.6236      0.9405      0.7722      1.5719      1.3184      1.4699      1.9475      8.0144
 57      0.0000      1.1793      2.1766      0.0000      0.1802      0.4218      0.4592      0.1376      0.0000
 58      0.0000      1.2893      0.0000      0.0000      0.4957      0.2822      0.6033      1.1196      0.0000
 59      0.0000      1.3184      0.3446      0.1496      0.4616      0.4734      0.0801      0.0000      2.7064
 60      2.1710      1.2099      0.5284      0.2186      0.2896      0.0955      0.6226      0.7625      1.6914
 61      0.0000      1.4902      0.0000      0.3739      0.0000      0.0490      0.2260      1.2986      0.8147
 62      0.4110      2.1525      5.8318      4.1382      6.4541      5.5753      4.6075      3.6072      1.3877
 63      0.0000      1.4136      2.7025      3.5795      1.6044      1.8764      1.0594      3.5685      0.2724
 64     24.9703      1.6604      3.5640      3.0731      4.5656      2.9815      1.8294      2.4613      0.5583
 65     16.5911      1.2139      0.3798      2.7049      3.1492      2.1278      1.8539      0.0000      4.0284
 66      0.0000      1.3193      1.6229      1.7773      1.5067      2.1293      2.0628      2.9941      0.0000

# j      m_j: min, <> & last-chain-values for 1 ...  7 chains
  1  0.0000E+00  1.2886E-02  2.7494E-02  1.8712E-02  2.3545E-02  2.3519E-02  3.1449E-02  1.5863E-02  0.0000E+00
  2  1.5034E-03  4.7630E-03  3.2931E-03  1.9538E-03  2.7636E-03  3.4393E-03  2.4458E-03  0.0000E+00  1.3289E-03
  3  0.0000E+00  5.0603E-03  0.0000E+00  1.5085E-03  5.2187E-04  1.1494E-03  0.0000E+00  4.1657E-03  6.4098E-05
  4  0.0000E+00  5.2459E-03  0.0000E+00  0.0000E+00  6.8435E-04  2.0879E-06  0.0000E+00  0.0000E+00  0.0000E+00
  5  0.0000E+00  8.3065E-03  1.3845E-03  1.6287E-03  0.0000E+00  8.4366E-04  0.0000E+00  2.0652E-03  1.9199E-03
  6  5.9957E-04  1.6046E-02  5.3263E-03  5.1854E-03  1.3499E-02  8.4003E-04  9.5027E-03  3.3713E-02  1.4520E-02
  7  0.0000E+00  2.3899E-02  1.4841E-02  0.0000E+00  3.2924E-03  6.2067E-03  2.9893E-03  0.0000E+00  0.0000E+00
  8  0.0000E+00  2.9561E-02  4.9493E-03  0.0000E+00  3.6350E-03  2.3263E-03  1.3079E-02  1.2707E-02  1.0023E-01
  9  2.6640E-02  6.0830E-02  0.0000E+00  2.6461E-02  2.3778E-02  2.5235E-02  3.8035E-02  2.5210E-02  5.5956E-02
 10  0.0000E+00  4.3675E-02  0.0000E+00  0.0000E+00  1.6364E-02  2.2306E-02  3.9512E-02  2.1694E-02  0.0000E+00
 11  5.8840E-03  9.9388E-02  2.1809E-02  6.2792E-02  1.4373E-02  1.2716E-02  3.3178E-02  1.5920E-02  1.3919E-01
 12  0.0000E+00  1.6375E-01  1.1248E-01  1.3013E-02  0.0000E+00  3.9211E-02  4.2919E-03  6.3780E-02  0.0000E+00
 13  5.2263E-02  4.7681E-01  2.0451E-02  2.9755E-01  3.1708E-03  2.5951E-02  3.2486E-01  0.0000E+00  5.4929E-01
 14  0.0000E+00  3.7007E+00  1.0377E+01  8.0514E+00  7.3880E+00  9.3168E+00  7.9294E+00  7.5584E+00  0.0000E+00
 15  0.0000E+00  2.2095E+00  1.4744E+00  6.7165E-01  0.0000E+00  0.0000E+00  4.9588E-01  1.7267E+00  6.5468E+00
 16  0.0000E+00  5.1064E+00  8.1218E+00  6.1976E+00  6.8498E+00  4.4572E+00  5.8871E+00  8.6045E+00  8.1138E-02
 17  6.2422E+00  3.6666E+00  0.0000E+00  6.5566E+00  0.0000E+00  1.9958E-01  1.5064E+00  5.4596E-01  2.0650E+01
 18  0.0000E+00  1.3024E-02  0.0000E+00  4.6355E-03  3.0859E-03  4.5457E-03  4.6770E-04  2.2845E-02  8.4104E-04
 19  1.2413E-02  4.4916E-03  2.2483E-03  2.3201E-03  1.8376E-03  2.2550E-03  1.3257E-03  7.8324E-04  3.1503E-03
 20  1.8942E-02  5.0113E-03  4.6751E-03  0.0000E+00  4.1480E-04  4.5365E-04  0.0000E+00  3.3413E-03  1.3122E-02
 21  0.0000E+00  5.3554E-03  5.8904E-04  3.0482E-03  4.4673E-04  4.9219E-04  0.0000E+00  1.2223E-02  0.0000E+00
 22  1.7356E-03  1.1337E-02  1.9699E-02  3.1373E-03  1.9976E-02  3.9279E-03  4.8336E-03  3.7539E-04  6.5461E-03
 23  0.0000E+00  1.5963E-02  5.1051E-03  0.0000E+00  4.6869E-03  5.6831E-03  2.2208E-03  2.3984E-03  1.0252E-02
 24  1.0386E-03  2.5452E-02  1.2420E-03  7.4770E-03  4.9176E-03  9.9824E-03  1.9855E-02  2.2004E-03  1.4984E-02
 25  0.0000E+00  2.6651E-02  5.6681E-03  4.1526E-03  4.2732E-03  6.8890E-03  1.3459E-02  0.0000E+00  1.1818E-02
 26  4.6992E-03  4.2190E-02  0.0000E+00  0.0000E+00  1.4218E-02  1.2925E-02  0.0000E+00  4.0514E-03  3.8513E-02
 27  0.0000E+00  1.1380E-01  0.0000E+00  2.4001E-02  5.5865E-02  5.2419E-02  1.4857E-02  2.8998E-02  3.9598E-03
 28  0.0000E+00  2.9840E-01  0.0000E+00  7.5473E-02  2.5929E-02  8.7352E-03  0.0000E+00  1.0353E-01  0.0000E+00
 29  0.0000E+00  5.4960E-01  5.1109E-01  0.0000E+00  5.0279E-01  5.2259E-01  0.0000E+00  1.9997E-01  0.0000E+00
 30  2.4938E-01  1.1262E+00  8.5936E-01  3.8952E-01  5.2466E-01  9.9716E-01  6.0949E-01  1.1522E+00  6.1633E-01
 31  7.0897E-02  1.8858E+00  0.0000E+00  8.5555E-02  1.4651E+00  1.2524E-02  0.0000E+00  1.3659E+00  2.6784E+00
 32  0.0000E+00  4.5367E+00  8.0462E+00  5.0389E+00  8.0247E+00  8.1444E+00  8.7670E+00  5.5427E+00  0.0000E+00
 33  2.8777E+00  3.9553E+00  1.3497E+00  0.0000E+00  8.3506E-01  9.4667E-01  1.0633E+00  1.6204E+00  3.6218E+00
 34  1.6455E+01  8.3197E+00  1.0353E+01  1.0991E+01  6.4122E+00  6.6682E+00  1.1170E+01  1.0047E+01  1.4176E+01
 35  0.0000E+00  7.2202E-03  4.6976E-04  2.7823E-03  1.3423E-03  7.8240E-04  5.6536E-04  4.2270E-03  0.0000E+00
 36  0.0000E+00  3.2127E-03  2.2161E-03  1.8186E-03  1.1196E-03  1.0392E-03  4.1080E-03  9.0650E-04  0.0000E+00
 37  0.0000E+00  4.1631E-03  3.7738E-04  1.0730E-03  0.0000E+00  6.3669E-05  1.0097E-03  0.0000E+00  1.6366E-04
 38  0.0000E+00  9.8383E-03  7.3943E-03  4.0615E-03  8.2263E-03  5.3591E-03  7.5079E-03  6.5174E-03  7.9953E-04
 39  0.0000E+00  1.1845E-02  8.1241E-03  1.1798E-02  5.3771E-03  7.5003E-03  5.6926E-03  1.1516E-02  0.0000E+00
 40  1.3038E-02  2.0103E-02  9.7172E-03  6.1921E-03  1.9422E-02  8.9035E-03  1.0096E-02  4.4108E-02  1.2333E-02
 41  1.9862E-04  4.8255E-02  8.9082E-03  3.6640E-02  2.6276E-03  2.1634E-03  0.0000E+00  3.5192E-02  2.9703E-02
 42  1.2823E-02  7.0432E-02  2.9775E-02  0.0000E+00  8.3524E-03  0.0000E+00  3.6615E-02  0.0000E+00  3.8143E-02
 43  0.0000E+00  1.6736E-01  0.0000E+00  3.2719E-02  0.0000E+00  9.9968E-03  6.3579E-03  4.0484E-03  9.9891E-03
 44  0.0000E+00  1.7694E-01  2.8054E-03  4.5243E-02  0.0000E+00  8.4665E-03  1.0258E-02  0.0000E+00  2.4378E-01
 45  0.0000E+00  2.8376E-01  1.1276E-01  0.0000E+00  8.4626E-02  1.8024E-01  4.0127E-02  1.8036E-01  1.3799E-01
 46  0.0000E+00  4.9160E-01  5.2787E-02  4.2417E-01  1.9749E-02  0.0000E+00  3.9391E-02  2.0277E-01  6.8350E-02
 47  0.0000E+00  1.3932E+00  9.0892E-01  1.3655E+00  1.0139E+00  9.3534E-01  1.8478E+00  6.8832E-01  0.0000E+00
 48  3.0269E-02  3.2411E+00  4.7550E+00  6.7698E+00  5.0716E+00  5.0503E+00  3.5920E+00  4.8006E+00  5.7089E+00
 49  8.7300E-01  6.8191E+00  1.4789E+01  5.8091E+00  1.1802E+01  1.3509E+01  1.5717E+01  1.5568E+01  3.9030E+00
 50  0.0000E+00  1.5219E+01  9.5217E+00  1.1002E+01  9.8939E+00  1.4479E+01  1.1578E+01  3.3563E+00  1.6505E+01
 51  0.0000E+00  6.0988E-03  0.0000E+00  0.0000E+00  5.2973E-04  1.4233E-03  7.9153E-04  1.7072E-03  4.8303E-05
 52  4.0544E-05  2.8171E-03  3.1090E-04  1.0319E-03  1.7518E-03  8.0919E-04  0.0000E+00  6.0083E-04  9.9018E-04
 53  5.3943E-03  3.6784E-03  5.9110E-03  5.4144E-03  4.3154E-04  9.5732E-04  7.4560E-04  1.2142E-03  6.9856E-03
 54  0.0000E+00  9.2484E-03  6.7586E-03  1.5565E-02  6.4260E-03  8.6371E-03  7.4494E-03  1.6422E-02  1.5880E-02
 55  1.2575E-02  1.3704E-02  0.0000E+00  0.0000E+00  3.5553E-03  2.3536E-03  1.5099E-03  8.1897E-03  1.4924E-02
 56  6.7454E-04  3.1320E-02  1.2026E-02  8.7059E-03  1.8162E-02  1.4748E-02  1.6477E-02  2.6569E-02  1.0076E-01
 57  0.0000E+00  3.0196E-02  3.6943E-02  0.0000E+00  2.7634E-03  6.2630E-03  6.8316E-03  2.4912E-03  0.0000E+00
 58  0.0000E+00  5.5837E-02  0.0000E+00  0.0000E+00  1.2859E-02  7.0857E-03  1.5183E-02  3.4290E-02  0.0000E+00
 59  0.0000E+00  1.2288E-01  2.1292E-02  8.1487E-03  2.5770E-02  2.5586E-02  4.3384E-03  0.0000E+00  1.6439E-01
 60  1.2011E-01  2.0945E-01  6.0636E-02  2.2115E-02  3.0026E-02  9.5893E-03  6.2629E-02  9.3343E-02  1.9083E-01
 61  0.0000E+00  5.6367E-01  0.0000E+00  8.2646E-02  0.0000E+00  1.0753E-02  4.9675E-02  3.4736E-01  2.0082E-01
 62  9.0576E-02  1.4845E+00  2.6661E+00  1.6679E+00  2.6660E+00  2.2296E+00  1.8465E+00  1.7593E+00  6.2372E-01
 63  0.0000E+00  1.9396E+00  2.4580E+00  2.8704E+00  1.3185E+00  1.4929E+00  8.4470E-01  3.4627E+00  2.4362E-01
 64  3.0285E+01  6.3015E+00  8.9663E+00  6.8161E+00  1.0378E+01  6.5613E+00  4.0344E+00  6.6060E+00  1.3808E+00
 65  4.2536E+01  9.7385E+00  2.0200E+00  1.2682E+01  1.5132E+01  9.8984E+00  8.6426E+00  0.0000E+00  2.1062E+01
 66  0.0000E+00  1.4952E+01  1.2192E+01  1.1772E+01  1.0227E+01  1.3993E+01  1.3585E+01  2.3997E+01  0.0000E+00

# AV, chi2 & Mass for <> & i_chain = 1 ...  7 solutions
AV       0.1332      0.5736      0.5914      0.5414      0.5580      0.5190      0.5597      0.7264      0.7670
chi2 2.3174E-05  3.8937E-05  2.5268E-05  2.5115E-05  2.5387E-05  2.5502E-05  2.5141E-05  2.4965E-05  2.4228E-05
Mass 3.9231E-13  2.2650E-13  3.4998E-13  3.7117E-13  3.7037E-13  3.6301E-13  3.8260E-13  3.9327E-13  4.5068E-13
-479.21                                  [v0_min (km/s) before EX0s...]
 347.07                                  [vd_min (km/s) before EX0s...]


## Synthetic spectrum (Best Model) ##l_obs f_obs f_syn wei
 3478    [Nl_obs]
 3741.00    0.43479   0.68052    0.000
 3742.00    0.39094   0.67694    0.000
 3743.00    0.30655   0.67744    0.000
 3744.00    0.23222   0.68312    0.000
 3745.00    0.16374   0.69392    0.040
 3746.00    0.85539   0.70788    0.040
 3747.00    1.93305   0.72243    0.040
 3748.00    2.11348   0.73773    0.040
 3749.00    1.89937   0.75121    0.040
 3750.00    1.49020   0.76184    0.040
 3751.00    1.00738   0.76872    0.040
 3752.00    1.60173   0.77319    0.041
 3753.00    2.54130   0.77590    0.042
 3754.00    1.79706   0.77657    0.040
 3755.00    0.60159   0.77545    0.038
 3756.00    0.62708   0.77251    0.038
 3757.00    0.92056   0.76792    0.038
 3758.00    0.62576   0.76284    0.038
 3759.00    0.22828   0.75904    0.037
 3760.00    0.14212   0.75510    0.039
 3761.00    0.09732   0.75219    0.040
 3762.00   -0.46948   0.75189    0.000
 3763.00   -1.08535   0.75453    0.000
 3764.00   -1.22935   0.75933    0.000
 3765.00   -1.34613   0.76766    0.000
 3766.00   -0.28897   0.78015    0.000
 3767.00    0.78742   0.79465    0.036
 3768.00    0.81586   0.81030    0.035
 3769.00    0.82815   0.82687    0.034
 3770.00    0.44811   0.84360    0.034
 3771.00    0.11685   0.85959    0.033
 3772.00    0.42480   0.87331    0.033
 3773.00    0.66228   0.88471    0.032
 3774.00    0.28119   0.89334    0.032
 3775.00   -0.06287   0.89757    0.000
 3776.00   -0.16681   0.89810    0.000
 3777.00   -0.07798   0.89471    0.000
 3778.00    0.98645   0.88781    0.032
 3779.00    1.81426   0.87741    0.033
 3780.00    1.67355   0.86325    0.034
 3781.00    1.37133   0.84799    0.034
 3782.00    0.52133   0.83095    0.034
 3783.00    0.03306   0.81313    0.034
 3784.00    0.57939   0.79456    0.035
 3785.00    1.01006   0.77615    0.036
 3786.00    1.15818   0.75815    0.035
 3787.00    1.26748   0.74063    0.035
 3788.00    1.29494   0.72572    0.036
 3789.00    1.11539   0.71357    0.036
 3790.00    0.55664   0.70595    0.035
 3791.00    0.28792   0.70286    0.035
 3792.00    0.48349   0.70514    0.035
 3793.00    0.90166   0.71332    0.035
 3794.00    1.63251   0.72616    0.036
 3795.00    1.53106   0.74271    0.035
 3796.00    0.40087   0.76074    0.034
 3797.00   -0.11401   0.77965    0.000
 3798.00    0.04148   0.79734    0.033
 3799.00    0.55200   0.81291    0.033
 3800.00    1.40369   0.82606    0.034
 3801.00    1.38178   0.83601    0.034
 3802.00    0.61959   0.84310    0.033
 3803.00   -0.05455   0.84626    0.000
 3804.00   -0.66299   0.84569    0.000
 3805.00   -0.49955   0.84135    0.000
 3806.00    0.16989   0.83409    0.031
 3807.00    0.43015   0.82421    0.030
 3808.00    0.45560   0.81291    0.030
 3809.00    0.55614   0.80097    0.030
 3810.00    0.69420   0.78851    0.031
 3811.00    0.89212   0.77604    0.031
 3812.00    1.11592   0.76409    0.031
 3813.00    1.16277   0.75313    0.031
 3814.00    1.14399   0.74341    0.031
 3815.00    0.84375   0.73548    0.030
 3816.00    0.45504   0.72782    0.029
 3817.00    0.12951   0.72011    0.029
 3818.00   -0.17944   0.71175    0.000
 3819.00    0.17244   0.70281    0.028
 3820.00    0.66590   0.69295    0.028
 3821.00    0.73922   0.68208    0.029
 3822.00    0.74124   0.67043    0.029
 3823.00    0.37528   0.65777    0.029
 3824.00   -0.03790   0.64436    0.000
 3825.00    0.50350   0.63138    0.030
 3826.00    1.13059   0.61964    0.030
 3827.00    0.73288   0.61085    0.030
 3828.00    0.28010   0.60591    0.030
 3829.00    0.20277   0.60515    0.030
 3830.00    0.13367   0.60909    0.030
 3831.00    0.12342   0.61782    0.030
 3832.00    0.12119   0.63081    0.031
 3833.00    0.29700   0.64744    0.030
 3834.00    0.46870   0.66729    0.029
 3835.00    0.58942   0.68831    0.029
 3836.00    0.69519   0.70980    0.030
 3837.00    0.67464   0.73025    0.030
 3838.00    0.62730   0.74850    0.029
 3839.00    0.41152   0.76445    0.029
 3840.00    0.32192   0.77732    0.029
 3841.00    0.85492   0.78715    0.028
 3842.00    1.28706   0.79386    0.028
 3843.00    1.31550   0.79844    0.029
 3844.00    1.31766   0.80080    0.029
 3845.00    1.23248   0.80093    0.029
 3846.00    1.18796   0.79975    0.028
 3847.00    1.25764   0.79750    0.000
 3848.00    1.17314   0.79429    0.000
 3849.00    0.71836   0.79160    0.000
 3850.00    0.40162   0.78867    0.000
 3851.00    0.37116   0.78635    0.000
 3852.00    0.42471   0.78519    0.000
 3853.00    0.62982   0.78543    0.000
 3854.00    0.68828   0.78691    0.000
 3855.00    0.51548   0.78879    0.000
 3856.00    0.46054   0.79100    0.000
 3857.00    0.56877   0.79272    0.000
 3858.00    0.62355   0.79413    0.000
 3859.00    0.61319   0.79463    0.000
 3860.00    0.61746   0.79414    0.000
 3861.00    0.63745   0.79307    0.000
 3862.00    0.59490   0.79102    0.000
 3863.00    0.49309   0.78868    0.000
 3864.00    0.63033   0.78599    0.000
 3865.00    0.96727   0.78394    0.000
 3866.00    1.06930   0.78237    0.000
 3867.00    0.99858   0.78085    0.000
 3868.00    0.97779   0.77848    0.000
 3869.00    0.98926   0.77539    0.000
 3870.00    0.91421   0.77105    0.000
 3871.00    0.79026   0.76620    0.000
 3872.00    0.83646   0.76049    0.000
 3873.00    0.96636   0.75279    0.000
 3874.00    0.94931   0.74394    0.000
 3875.00    0.86976   0.73461    0.000
 3876.00    0.61992   0.72529    0.000
 3877.00    0.30806   0.71473    0.000
 3878.00    0.49806   0.70455    0.000
 3879.00    0.84278   0.69697    0.000
 3880.00    0.87995   0.69220    0.000
 3881.00    0.83818   0.69086    0.026
 3882.00    0.76238   0.69435    0.026
 3883.00    0.67947   0.70193    0.026
 3884.00    0.32812   0.71355    0.025
 3885.00   -0.06749   0.72773    0.000
 3886.00    0.16109   0.74387    0.025
 3887.00    0.46698   0.76074    0.025
 3888.00    0.65785   0.77781    0.025
 3889.00    0.83888   0.79487    0.026
 3890.00    0.97950   0.80922    0.025
 3891.00    1.11811   0.82236    0.025
 3892.00    1.31394   0.83321    0.026
 3893.00    1.49778   0.84277    0.026
 3894.00    0.84600   0.85048    0.025
 3895.00    0.24780   0.85639    0.025
 3896.00    0.74577   0.86272    0.025
 3897.00    1.19614   0.86830    0.025
 3898.00    1.08359   0.87452    0.025
 3899.00    0.95039   0.88153    0.024
 3900.00    0.64893   0.88884    0.024
 3901.00    0.45088   0.89658    0.023
 3902.00    0.88446   0.90391    0.023
 3903.00    1.20388   0.91075    0.023
 3904.00    0.97393   0.91606    0.023
 3905.00    0.75722   0.91988    0.022
 3906.00    0.59235   0.92105    0.022
 3907.00    0.49350   0.91995    0.022
 3908.00    0.60986   0.91599    0.023
 3909.00    0.73020   0.90952    0.023
 3910.00    0.86152   0.90067    0.024
 3911.00    0.99031   0.88961    0.024
 3912.00    1.11315   0.87759    0.025
 3913.00    1.15331   0.86430    0.025
 3914.00    1.02477   0.85114    0.025
 3915.00    0.83686   0.83687    0.026
 3916.00    0.54349   0.82246    0.025
 3917.00    0.34524   0.80735    0.025
 3918.00    0.29480   0.79131    0.025
 3919.00    0.37228   0.77506    0.025
 3920.00    0.62432   0.75799    0.025
 3921.00    0.88262   0.74107    0.025
 3922.00    1.14842   0.72456    0.026
 3923.00    1.22921   0.70932    0.025
 3924.00    1.11405   0.69624    0.024
 3925.00    0.96610   0.68593    0.024
 3926.00    0.78753   0.67954    0.024
 3927.00    0.71264   0.67716    0.024
 3928.00    0.72315   0.67931    0.024
 3929.00    0.77270   0.68564    0.024
 3930.00    0.85054   0.69563    0.024
 3931.00    0.83067   0.70847    0.024
 3932.00    0.74862   0.72346    0.024
 3933.00    0.58057   0.73962    0.024
 3934.00    0.36466   0.75626    0.024
 3935.00    0.33335   0.77337    0.024
 3936.00    0.39141   0.79038    0.024
 3937.00    0.64398   0.80665    0.024
 3938.00    0.97787   0.82204    0.025
 3939.00    0.96855   0.83669    0.025
 3940.00    0.83647   0.85031    0.025
 3941.00    0.63170   0.86280    0.025
 3942.00    0.40497   0.87321    0.025
 3943.00    0.42129   0.88197    0.025
 3944.00    0.49865   0.88894    0.025
 3945.00    0.64873   0.89309    0.025
 3946.00    0.81364   0.89416    0.025
 3947.00    0.95834   0.89230    0.025
 3948.00    1.09980   0.88698    0.026
 3949.00    0.85430   0.87792    0.026
 3950.00    0.56259   0.86485    0.025
 3951.00    0.60741   0.84738    0.025
 3952.00    0.67962   0.82625    0.025
 3953.00    0.89896   0.80185    0.026
 3954.00    1.12507   0.77424    0.026
 3955.00    0.83652   0.74453    0.025
 3956.00    0.54270   0.71346    0.025
 3957.00    0.31606   0.68217    0.025
 3958.00    0.10456   0.65256    0.026
 3959.00    0.17951   0.62613    0.025
 3960.00    0.25387   0.60463    0.000
 3961.00    0.32147   0.58952    0.000
 3962.00    0.37596   0.58184    0.000
 3963.00    0.32732   0.58234    0.000
 3964.00    0.29589   0.59128    0.000
 3965.00    0.36653   0.60822    0.000
 3966.00    0.40172   0.63181    0.000
 3967.00    0.27050   0.66106    0.000
 3968.00    0.18459   0.69426    0.000
 3969.00    0.27228   0.72951    0.000
 3970.00    0.36553   0.76521    0.000
 3971.00    0.47653   0.79967    0.000
 3972.00    0.58429   0.83181    0.000
 3973.00    0.68328   0.86116    0.000
 3974.00    0.77496   0.88696    0.000
 3975.00    0.84963   0.90953    0.000
 3976.00    0.94569   0.92901    0.000
 3977.00    1.08471   0.94542    0.000
 3978.00    1.13733   0.95978    0.000
 3979.00    1.03879   0.97188    0.000
 3980.00    0.91171   0.98232    0.000
 3981.00    0.74093   0.99144    0.024
 3982.00    0.64175   0.99896    0.024
 3983.00    0.63888   1.00541    0.024
 3984.00    0.70492   1.01039    0.024
 3985.00    0.85258   1.01463    0.024
 3986.00    0.95594   1.01779    0.024
 3987.00    1.01305   1.02069    0.023
 3988.00    1.06214   1.02305    0.023
 3989.00    1.10385   1.02540    0.023
 3990.00    1.06128   1.02782    0.024
 3991.00    0.95027   1.02985    0.023
 3992.00    1.02050   1.03204    0.023
 3993.00    1.22022   1.03338    0.023
 3994.00    1.21928   1.03460    0.023
 3995.00    1.09252   1.03515    0.023
 3996.00    1.05713   1.03541    0.023
 3997.00    1.07181   1.03541    0.024
 3998.00    1.06073   1.03542    0.023
 3999.00    1.03736   1.03606    0.023
 4000.00    1.19689   1.03733    0.024
 4001.00    1.43159   1.04001    0.024
 4002.00    1.24144   1.04331    0.024
 4003.00    0.90208   1.04813    0.023
 4004.00    0.92758   1.05361    0.023
 4005.00    1.06118   1.05934    0.023
 4006.00    1.06324   1.06509    0.023
 4007.00    1.03299   1.07074    0.023
 4008.00    1.15283   1.07561    0.023
 4009.00    1.30250   1.07915    0.024
 4010.00    1.32092   1.08130    0.024
 4011.00    1.31893   1.08208    0.024
 4012.00    1.39754   1.08122    0.023
 4013.00    1.48542   1.07910    0.023
 4014.00    1.04981   1.07580    0.023
 4015.00    0.57373   1.07177    0.023
 4016.00    0.86164   1.06691    0.023
 4017.00    1.18173   1.06148    0.023
 4018.00    1.12496   1.05539    0.023
 4019.00    1.05829   1.04909    0.023
 4020.00    0.70860   1.04328    0.022
 4021.00    0.39532   1.03736    0.022
 4022.00    0.72388   1.03245    0.023
 4023.00    1.03500   1.02837    0.023
 4024.00    1.15852   1.02614    0.023
 4025.00    1.28712   1.02542    0.023
 4026.00    1.45428   1.02673    0.023
 4027.00    1.55108   1.02984    0.022
 4028.00    1.24213   1.03449    0.022
 4029.00    0.98238   1.03995    0.022
 4030.00    0.94813   1.04519    0.022
 4031.00    0.87070   1.04931    0.022
 4032.00    0.63124   1.05161    0.021
 4033.00    0.50219   1.05221    0.021
 4034.00    0.71929   1.05051    0.021
 4035.00    0.97577   1.04730    0.021
 4036.00    1.33696   1.04295    0.021
 4037.00    1.60507   1.03858    0.022
 4038.00    1.66060   1.03479    0.022
 4039.00    1.66905   1.03251    0.022
 4040.00    1.58442   1.03188    0.022
 4041.00    1.41954   1.03296    0.022
 4042.00    1.11640   1.03556    0.022
 4043.00    0.85885   1.03856    0.022
 4044.00    0.67007   1.04162    0.022
 4045.00    0.57148   1.04354    0.022
 4046.00    0.59247   1.04439    0.022
 4047.00    0.60617   1.04352    0.022
 4048.00    0.61137   1.04115    0.022
 4049.00    0.72921   1.03723    0.022
 4050.00    0.96301   1.03205    0.022
 4051.00    1.00000   1.02662    0.023
 4052.00    0.85825   1.02063    0.022
 4053.00    0.80911   1.01505    0.022
 4054.00    0.83408   1.00985    0.023
 4055.00    0.91123   1.00576    0.023
 4056.00    1.02511   1.00246    0.023
 4057.00    1.10255   1.00039    0.023
 4058.00    1.15748   0.99940    0.023
 4059.00    1.03337   0.99944    0.022
 4060.00    0.81266   1.00026    0.022
 4061.00    0.83955   1.00141    0.022
 4062.00    0.98247   1.00262    0.022
 4063.00    0.87745   1.00360    0.022
 4064.00    0.67226   1.00436    0.022
 4065.00    0.74476   1.00494    0.022
 4066.00    0.91302   1.00569    0.022
 4067.00    0.88594   1.00647    0.022
 4068.00    0.80214   1.00784    0.022
 4069.00    0.89886   1.01009    0.022
 4070.00    1.03893   1.01372    0.022
 4071.00    1.01333   1.01855    0.022
 4072.00    0.95562   1.02470    0.022
 4073.00    0.99676   1.03190    0.022
 4074.00    1.05279   1.04001    0.022
 4075.00    0.97970   1.04843    0.022
 4076.00    0.89232   1.05652    0.021
 4077.00    0.90980   1.06416    0.021
 4078.00    0.93495   1.07070    0.022
 4079.00    0.73032   1.07587    0.021
 4080.00    0.51690   1.07915    0.021
 4081.00    0.73240   1.08006    0.021
 4082.00    0.94495   1.07827    0.021
 4083.00    0.95680   1.07318    0.021
 4084.00    0.98016   1.06485    0.021
 4085.00    1.19329   1.05294    0.021
 4086.00    1.36722   1.03802    0.022
 4087.00    1.13778   1.02014    0.021
 4088.00    0.91956   1.00031    0.021
 4089.00    0.78379   0.97923    0.021
 4090.00    0.70285   0.95819    0.021
 4091.00    0.92957   0.93852    0.021
 4092.00    1.11663   0.92146    0.000
 4093.00    1.12624   0.90830    0.000
 4094.00    1.10563   0.89977    0.000
 4095.00    0.97405   0.89658    0.000
 4096.00    0.90198   0.89841    0.000
 4097.00    1.01292   0.90511    0.000
 4098.00    1.06477   0.91575    0.000
 4099.00    0.96218   0.92939    0.000
 4100.00    0.87741   0.94464    0.000
 4101.00    0.83263   0.96058    0.000
 4102.00    0.87020   0.97607    0.000
 4103.00    1.06802   0.99060    0.000
 4104.00    1.17778   1.00361    0.000
 4105.00    1.13813   1.01474    0.000
 4106.00    1.06703   1.02398    0.000
 4107.00    0.94920   1.03123    0.000
 4108.00    0.83336   1.03679    0.000
 4109.00    0.72012   1.04062    0.000
 4110.00    0.78137   1.04328    0.000
 4111.00    1.04344   1.04479    0.000
 4112.00    1.17391   1.04555    0.000
 4113.00    1.17080   1.04583    0.021
 4114.00    1.18359   1.04554    0.021
 4115.00    1.21062   1.04513    0.021
 4116.00    1.04191   1.04402    0.021
 4117.00    0.71876   1.04274    0.021
 4118.00    0.63737   1.04060    0.021
 4119.00    0.72373   1.03808    0.021
 4120.00    0.78619   1.03486    0.021
 4121.00    0.83412   1.03140    0.021
 4122.00    0.83299   1.02799    0.021
 4123.00    0.80581   1.02474    0.021
 4124.00    0.85516   1.02256    0.021
 4125.00    0.93979   1.02095    0.021
 4126.00    1.04969   1.02092    0.021
 4127.00    1.16961   1.02132    0.021
 4128.00    1.04216   1.02274    0.021
 4129.00    0.83100   1.02388    0.021
 4130.00    0.80869   1.02482    0.021
 4131.00    0.84011   1.02469    0.021
 4132.00    1.03304   1.02336    0.021
 4133.00    1.26388   1.02085    0.021
 4134.00    1.38842   1.01724    0.021
 4135.00    1.49288   1.01326    0.021
 4136.00    1.01060   1.00907    0.021
 4137.00    0.44264   1.00561    0.021
 4138.00    0.57100   1.00282    0.021
 4139.00    0.77337   1.00122    0.021
 4140.00    0.75815   1.00062    0.021
 4141.00    0.72789   1.00093    0.020
 4142.00    0.75446   1.00200    0.021
 4143.00    0.78300   1.00341    0.021
 4144.00    1.00610   1.00534    0.021
 4145.00    1.22316   1.00742    0.021
 4146.00    1.22825   1.01027    0.021
 4147.00    1.22723   1.01331    0.021
 4148.00    1.13185   1.01737    0.021
 4149.00    1.02437   1.02177    0.021
 4150.00    0.79757   1.02700    0.021
 4151.00    0.61116   1.03240    0.020
 4152.00    0.71141   1.03789    0.021
 4153.00    0.82779   1.04297    0.021
 4154.00    1.03225   1.04704    0.021
 4155.00    1.18451   1.05003    0.021
 4156.00    1.10862   1.05117    0.021
 4157.00    1.04038   1.05084    0.020
 4158.00    0.99959   1.04849    0.020
 4159.00    0.97852   1.04477    0.020
 4160.00    1.01696   1.03952    0.020
 4161.00    0.99962   1.03335    0.020
 4162.00    0.83904   1.02656    0.020
 4163.00    0.79873   1.01955    0.020
 4164.00    1.02409   1.01292    0.020
 4165.00    1.13198   1.00683    0.020
 4166.00    1.01487   1.00194    0.020
 4167.00    0.94802   0.99814    0.020
 4168.00    0.96516   0.99592    0.020
 4169.00    0.93058   0.99499    0.020
 4170.00    0.82026   0.99554    0.020
 4171.00    0.68398   0.99710    0.020
 4172.00    0.51428   0.99969    0.020
 4173.00    0.47714   1.00272    0.020
 4174.00    0.59042   1.00617    0.020
 4175.00    0.72775   1.00955    0.020
 4176.00    0.88915   1.01292    0.020
 4177.00    0.95155   1.01592    0.020
 4178.00    0.92656   1.01864    0.020
 4179.00    0.87548   1.02088    0.020
 4180.00    0.80411   1.02265    0.020
 4181.00    0.89753   1.02395    0.020
 4182.00    1.10365   1.02451    0.020
 4183.00    1.06744   1.02444    0.020
 4184.00    0.88598   1.02326    0.020
 4185.00    0.75045   1.02120    0.020
 4186.00    0.63894   1.01802    0.020
 4187.00    0.75228   1.01399    0.020
 4188.00    0.96760   1.00933    0.020
 4189.00    1.02340   1.00448    0.020
 4190.00    1.01695   1.00005    0.020
 4191.00    0.81786   0.99658    0.020
 4192.00    0.55480   0.99473    0.020
 4193.00    0.71040   0.99474    0.020
 4194.00    0.98269   0.99687    0.020
 4195.00    1.01739   1.00108    0.020
 4196.00    0.99759   1.00709    0.020
 4197.00    0.96102   1.01444    0.020
 4198.00    0.92136   1.02241    0.020
 4199.00    0.76599   1.03057    0.020
 4200.00    0.59426   1.03811    0.020
 4201.00    0.59025   1.04482    0.020
 4202.00    0.60335   1.05013    0.019
 4203.00    0.70518   1.05428    0.019
 4204.00    0.81279   1.05704    0.020
 4205.00    0.95512   1.05887    0.019
 4206.00    1.09837   1.05985    0.019
 4207.00    1.14979   1.06028    0.020
 4208.00    1.19493   1.06012    0.020
 4209.00    1.05575   1.05924    0.020
 4210.00    0.92613   1.05748    0.020
 4211.00    0.93548   1.05419    0.020
 4212.00    0.93921   1.04939    0.020
 4213.00    0.88965   1.04243    0.020
 4214.00    0.85881   1.03392    0.020
 4215.00    0.95666   1.02377    0.020
 4216.00    1.02917   1.01322    0.020
 4217.00    0.96703   1.00286    0.019
 4218.00    0.93596   0.99406    0.019
 4219.00    1.03761   0.98755    0.019
 4220.00    1.09140   0.98407    0.019
 4221.00    0.97657   0.98376    0.019
 4222.00    0.90581   0.98643    0.020
 4223.00    0.96552   0.99154    0.020
 4224.00    0.96589   0.99834    0.020
 4225.00    0.81651   1.00603    0.020
 4226.00    0.78524   1.01410    0.020
 4227.00    1.01064   1.02193    0.020
 4228.00    1.05012   1.02962    0.019
 4229.00    0.73899   1.03678    0.019
 4230.00    0.65486   1.04401    0.019
 4231.00    0.94448   1.05083    0.019
 4232.00    1.07410   1.05774    0.019
 4233.00    0.97275   1.06404    0.019
 4234.00    0.82920   1.06979    0.019
 4235.00    0.63206   1.07425    0.019
 4236.00    0.75308   1.07717    0.019
 4237.00    1.23008   1.07813    0.019
 4238.00    1.35962   1.07700    0.019
 4239.00    1.14629   1.07383    0.019
 4240.00    0.98860   1.06899    0.019
 4241.00    0.87933   1.06287    0.019
 4242.00    0.96229   1.05627    0.019
 4243.00    1.19263   1.04958    0.019
 4244.00    1.32151   1.04373    0.019
 4245.00    1.38201   1.03873    0.019
 4246.00    1.33088   1.03541    0.020
 4247.00    1.21385   1.03334    0.020
 4248.00    1.20824   1.03309    0.020
 4249.00    1.26000   1.03402    0.020
 4250.00    1.14147   1.03649    0.020
 4251.00    0.94697   1.03981    0.020
 4252.00    0.96472   1.04406    0.020
 4253.00    1.06386   1.04860    0.020
 4254.00    1.20076   1.05305    0.020
 4255.00    1.34997   1.05691    0.020
 4256.00    1.10500   1.05931    0.019
 4257.00    0.75242   1.06005    0.019
 4258.00    0.95361   1.05826    0.019
 4259.00    1.27890   1.05426    0.019
 4260.00    1.32890   1.04779    0.020
 4261.00    1.32968   1.03971    0.020
 4262.00    1.07732   1.03068    0.020
 4263.00    0.79032   1.02170    0.019
 4264.00    0.98663   1.01405    0.019
 4265.00    1.23015   1.00821    0.020
 4266.00    1.18913   1.00533    0.019
 4267.00    1.13069   1.00495    0.019
 4268.00    1.12840   1.00759    0.019
 4269.00    1.12716   1.01191    0.018
 4270.00    1.03638   1.01782    0.018
 4271.00    0.95040   1.02371    0.018
 4272.00    0.99152   1.02928    0.019
 4273.00    1.02766   1.03332    0.019
 4274.00    0.99524   1.03565    0.019
 4275.00    0.95892   1.03592    0.019
 4276.00    0.88709   1.03409    0.019
 4277.00    0.83091   1.03061    0.019
 4278.00    0.87894   1.02558    0.019
 4279.00    0.92008   1.01977    0.019
 4280.00    0.92548   1.01336    0.019
 4281.00    0.92615   1.00686    0.019
 4282.00    0.90706   1.00056   -2.000
 4283.00    0.86931   0.99423   -2.000
 4284.00    0.76719   0.98831   -2.000
 4285.00    0.70233   0.98178   -2.000
 4286.00    0.74578   0.97518   -2.000
 4287.00    0.78138   0.96735   -2.000
 4288.00    0.79754   0.95878   -2.000
 4289.00    0.77889   0.94887   -2.000
 4290.00    0.68581   0.93806   -2.000
 4291.00    0.62685   0.92657   -2.000
 4292.00    0.63124   0.91476   -2.000
 4293.00    0.67942   0.90346   -2.000
 4294.00    0.79859   0.89289   -2.000
 4295.00    0.86130   0.88406   -2.000
 4296.00    0.84367   0.87712   -2.000
 4297.00    0.77882   0.87289   -2.000
 4298.00    0.65485   0.87169    0.020
 4299.00    0.68627   0.87394    0.020
 4300.00    0.88911   0.88018    0.020
 4301.00    0.93653   0.89036    0.019
 4302.00    0.83276   0.90489    0.019
 4303.00    0.70046   0.92318    0.019
 4304.00    0.54371   0.94495    0.020
 4305.00    0.47104   0.96924    0.019
 4306.00    0.46190   0.99468    0.019
 4307.00    0.46361   1.02029    0.019
 4308.00    0.47252   1.04379    0.019
 4309.00    0.62140   1.06486    0.019
 4310.00    0.85167   1.08097    0.019
 4311.00    0.88263   1.09297    0.019
 4312.00    0.81258   1.09907    0.019
 4313.00    0.84905   1.10127    0.019
 4314.00    0.93224   1.09900    0.019
 4315.00    0.95343   1.09480    0.019
 4316.00    0.95125   1.08919    0.019
 4317.00    0.89900   1.08412    0.019
 4318.00    0.83074   1.08043    0.019
 4319.00    1.01053   1.07863    0.019
 4320.00    1.25662   1.07905    0.019
 4321.00    1.32916   1.08073    0.020
 4322.00    1.36371   1.08317    0.020
 4323.00    1.01296   1.08482    0.020
 4324.00    0.59518   1.08470    0.020
 4325.00    0.81438   1.08184    0.019
 4326.00    1.11783   1.07551    0.019
 4327.00    1.13339   1.06604    0.020
 4328.00    1.12204   1.05367    0.020
 4329.00    1.17665   1.03982    0.020
 4330.00    1.23504   1.02572    0.000
 4331.00    0.89692   1.01300    0.000
 4332.00    0.55392   1.00327    0.000
 4333.00    0.71025   0.99726    0.000
 4334.00    0.86934   0.99624    0.000
 4335.00    1.09479   0.99939    0.000
 4336.00    1.28463   1.00717    0.000
 4337.00    1.01086   1.01761    0.000
 4338.00    0.77720   1.03045    0.000
 4339.00    0.89397   1.04361    0.000
 4340.00    1.00153   1.05691    0.000
 4341.00    1.04969   1.06878    0.000
 4342.00    1.10312   1.07951    0.000
 4343.00    1.18314   1.08863    0.000
 4344.00    1.18977   1.09664    0.000
 4345.00    0.89685   1.10392    0.000
 4346.00    0.74514   1.11096    0.000
 4347.00    1.07122   1.11821    0.000
 4348.00    1.30442   1.12571    0.000
 4349.00    1.27260   1.13404    0.000
 4350.00    1.23802   1.14249    0.000
 4351.00    1.19674   1.15146    0.020
 4352.00    1.13850   1.15988    0.020
 4353.00    1.04458   1.16801    0.020
 4354.00    0.99451   1.17470    0.020
 4355.00    1.02459   1.18018    0.020
 4356.00    1.03292   1.18376    0.020
 4357.00    1.00649   1.18525    0.020
 4358.00    1.07220   1.18463    0.020
 4359.00    1.26710   1.18186    0.020
 4360.00    1.35902   1.17760    0.020
 4361.00    1.32389   1.17143    0.020
 4362.00    1.30411   1.16456    0.021
 4363.00    1.30103   1.15654    0.020
 4364.00    1.34892   1.14847    0.020
 4365.00    1.44571   1.13989    0.020
 4366.00    1.39174   1.13162    0.020
 4367.00    1.21025   1.12301    0.020
 4368.00    1.06398   1.11454    0.020
 4369.00    0.94396   1.10558    0.020
 4370.00    0.98376   1.09630    0.020
 4371.00    1.12815   1.08625    0.020
 4372.00    1.07794   1.07549    0.020
 4373.00    0.91629   1.06464    0.020
 4374.00    0.85558   1.05389    0.020
 4375.00    0.84522   1.04452    0.020
 4376.00    1.15113   1.03631    0.020
 4377.00    1.59352   1.03130    0.020
 4378.00    1.37845   1.02899    0.020
 4379.00    0.92009   1.03046    0.020
 4380.00    0.89657   1.03466    0.020
 4381.00    1.00942   1.04183    0.020
 4382.00    0.93462   1.05104    0.020
 4383.00    0.81074   1.06173    0.020
 4384.00    0.85526   1.07313    0.020
 4385.00    0.93576   1.08454    0.020
 4386.00    0.89234   1.09515    0.019
 4387.00    0.82797   1.10443    0.019
 4388.00    1.00978   1.11183    0.019
 4389.00    1.22304   1.11700    0.019
 4390.00    1.02030   1.11987    0.019
 4391.00    0.78043   1.12036    0.019
 4392.00    0.93021   1.11890    0.019
 4393.00    1.10075   1.11558    0.020
 4394.00    1.29684   1.11118    0.019
 4395.00    1.49071   1.10666    0.019
 4396.00    1.46266   1.10252    0.019
 4397.00    1.42892   1.10013    0.019
 4398.00    1.27021   1.09916    0.019
 4399.00    1.10523   1.10010    0.019
 4400.00    0.86279   1.10311    0.019
 4401.00    0.64750   1.10854    0.019
 4402.00    0.66055   1.11503    0.019
 4403.00    0.69432   1.12221    0.019
 4404.00    0.85792   1.12957    0.019
 4405.00    0.99422   1.13695    0.020
 4406.00    0.99622   1.14336    0.020
 4407.00    1.02896   1.14922    0.020
 4408.00    1.18446   1.15403    0.019
 4409.00    1.23252   1.15821    0.019
 4410.00    0.92432   1.16148    0.019
 4411.00    0.74496   1.16465    0.019
 4412.00    0.92656   1.16726    0.019
 4413.00    1.07278   1.16932    0.019
 4414.00    1.13418   1.17092    0.019
 4415.00    1.15822   1.17167    0.019
 4416.00    1.10496   1.17178    0.019
 4417.00    1.03780   1.17115    0.019
 4418.00    0.94561   1.17006    0.019
 4419.00    0.93377   1.16860    0.019
 4420.00    1.04840   1.16688    0.019
 4421.00    1.06436   1.16488    0.019
 4422.00    0.94396   1.16308    0.019
 4423.00    0.90932   1.16117    0.019
 4424.00    0.97900   1.15998    0.019
 4425.00    1.06967   1.15902    0.019
 4426.00    1.18284   1.15911    0.019
 4427.00    1.25264   1.15998    0.020
 4428.00    1.28142   1.16175    0.020
 4429.00    1.17912   1.16445    0.019
 4430.00    0.96750   1.16785    0.019
 4431.00    0.93719   1.17173    0.019
 4432.00    1.03999   1.17626    0.019
 4433.00    1.07104   1.18084    0.019
 4434.00    1.05583   1.18566    0.019
 4435.00    1.02093   1.19005    0.019
 4436.00    0.97491   1.19397    0.019
 4437.00    0.85680   1.19728    0.019
 4438.00    0.70329   1.19955    0.019
 4439.00    0.85181   1.20090    0.019
 4440.00    1.12848   1.20075    0.019
 4441.00    1.27158   1.19902    0.020
 4442.00    1.36613   1.19530    0.020
 4443.00    1.13296   1.18961    0.019
 4444.00    0.79902   1.18201    0.019
 4445.00    0.84217   1.17310    0.019
 4446.00    0.98185   1.16353    0.019
 4447.00    1.03319   1.15370    0.019
 4448.00    1.06612   1.14423    0.019
 4449.00    1.17564   1.13632    0.019
 4450.00    1.29774   1.12957    0.020
 4451.00    1.27492   1.12516    0.019
 4452.00    1.23423   1.12272    0.019
 4453.00    1.15903   1.12280    0.019
 4454.00    1.08089   1.12508    0.019
 4455.00    0.96746   1.12879    0.019
 4456.00    0.85229   1.13413    0.019
 4457.00    0.77526   1.14049    0.018
 4458.00    0.70174   1.14784    0.018
 4459.00    0.81022   1.15566    0.018
 4460.00    0.92065   1.16420    0.018
 4461.00    1.07053   1.17333    0.000
 4462.00    1.21214   1.18193    0.000
 4463.00    1.25658   1.19129    0.000
 4464.00    1.30008   1.20014    0.000
 4465.00    1.33600   1.20918    0.000
 4466.00    1.36332   1.21716    0.000
 4467.00    1.33836   1.22454    0.000
 4468.00    1.30919   1.23078    0.000
 4469.00    1.25982   1.23563    0.000
 4470.00    1.22215   1.23935    0.000
 4471.00    1.23023   1.24150    0.000
 4472.00    1.21879   1.24276    0.000
 4473.00    1.14393   1.24301    0.000
 4474.00    1.10785   1.24338    0.000
 4475.00    1.17851   1.24309    0.000
 4476.00    1.27806   1.24288    0.000
 4477.00    1.44567   1.24226    0.000
 4478.00    1.53995   1.24186    0.000
 4479.00    1.48488   1.24119    0.000
 4480.00    1.36907   1.24049    0.000
 4481.00    1.14559   1.23938    0.000
 4482.00    1.01250   1.23801    0.019
 4483.00    1.01962   1.23647    0.018
 4484.00    1.01625   1.23553    0.018
 4485.00    0.99862   1.23489    0.018
 4486.00    0.97117   1.23590    0.018
 4487.00    0.93196   1.23799    0.018
 4488.00    0.99719   1.24233    0.018
 4489.00    1.17285   1.24799    0.019
 4490.00    1.14788   1.25525    0.019
 4491.00    0.93583   1.26363    0.019
 4492.00    0.85666   1.27283    0.019
 4493.00    0.88673   1.28298    0.019
 4494.00    0.99786   1.29272    0.019
 4495.00    1.16765   1.30235    0.019
 4496.00    1.26878   1.31050    0.018
 4497.00    1.32631   1.31733    0.018
 4498.00    1.33648   1.32218    0.019
 4499.00    1.32035   1.32523    0.019
 4500.00    1.30813   1.32662    0.019
 4501.00    1.29781   1.32607    0.019
 4502.00    1.29865   1.32375    0.019
 4503.00    1.30416   1.32026    0.019
 4504.00    1.37010   1.31557    0.019
 4505.00    1.45762   1.31059    0.019
 4506.00    1.63919   1.30519    0.019
 4507.00    1.84910   1.29983    0.018
 4508.00    1.71038   1.29440    0.019
 4509.00    1.48434   1.28869    0.019
 4510.00    1.36425   1.28303    0.019
 4511.00    1.26570   1.27656    0.019
 4512.00    1.26561   1.26997    0.019
 4513.00    1.28124   1.26193    0.018
 4514.00    1.12289   1.25348    0.018
 4515.00    0.94387   1.24327    0.018
 4516.00    0.90934   1.23295    0.018
 4517.00    0.88650   1.22179    0.019
 4518.00    1.25328   1.21081    0.019
 4519.00    1.63778   1.20062    0.019
 4520.00    1.41494   1.19101    0.019
 4521.00    1.19051   1.18426    0.019
 4522.00    1.26569   1.17860    0.019
 4523.00    1.34272   1.17660    0.019
 4524.00    1.45455   1.17598    0.019
 4525.00    1.54137   1.17890    0.019
 4526.00    1.34796   1.18289    0.019
 4527.00    1.18564   1.18948    0.019
 4528.00    1.26668   1.19647    0.018
 4529.00    1.32789   1.20429    0.018
 4530.00    1.27191   1.21205    0.019
 4531.00    1.20649   1.21869    0.019
 4532.00    1.09690   1.22517    0.019
 4533.00    1.01511   1.22973    0.018
 4534.00    1.03963   1.23397    0.018
 4535.00    1.07077   1.23619    0.019
 4536.00    1.12304   1.23737    0.019
 4537.00    1.16589   1.23754    0.019
 4538.00    1.18331   1.23660    0.019
 4539.00    1.17206   1.23602    0.019
 4540.00    1.09439   1.23489    0.019
 4541.00    1.03346   1.23464    0.019
 4542.00    1.00610   1.23442    0.019
 4543.00    1.01563   1.23550    0.019
 4544.00    1.08959   1.23737    0.019
 4545.00    1.13266   1.24034    0.019
 4546.00    1.12851   1.24462    0.019
 4547.00    1.20684   1.24933    0.019
 4548.00    1.39591   1.25550    0.019
 4549.00    1.48408   1.26112    0.019
 4550.00    1.45298   1.26755    0.000
 4551.00    1.39822   1.27292    0.000
 4552.00    1.31882   1.27808    0.000
 4553.00    1.30456   1.28234    0.000
 4554.00    1.35019   1.28594    0.000
 4555.00    1.30215   1.28859    0.000
 4556.00    1.17819   1.29052    0.000
 4557.00    1.20850   1.29187    0.000
 4558.00    1.34883   1.29274    0.000
 4559.00    1.33486   1.29361    0.000
 4560.00    1.22433   1.29414    0.000
 4561.00    1.13881   1.29464    0.000
 4562.00    1.06698   1.29500    0.000
 4563.00    1.21605   1.29499    0.000
 4564.00    1.47013   1.29481    0.000
 4565.00    1.40022   1.29382    0.000
 4566.00    1.19743   1.29210    0.000
 4567.00    1.17949   1.28946    0.000
 4568.00    1.22633   1.28593    0.000
 4569.00    1.35509   1.28191    0.000
 4570.00    1.50806   1.27774    0.000
 4571.00    1.47218   1.27347    0.000
 4572.00    1.39004   1.26928    0.000
 4573.00    1.28956   1.26591    0.000
 4574.00    1.18546   1.26258    0.000
 4575.00    1.08692   1.26072    0.000
 4576.00    0.98924   1.25940    0.000
 4577.00    1.13678   1.25902    0.000
 4578.00    1.31238   1.25936    0.000
 4579.00    1.24594   1.25997    0.000
 4580.00    1.16091   1.26103    0.000
 4581.00    1.35332   1.26150    0.000
 4582.00    1.55727   1.26187    0.000
 4583.00    1.52485   1.26120    0.000
 4584.00    1.48759   1.26047    0.000
 4585.00    1.33047   1.25915    0.000
 4586.00    1.18565   1.25768    0.000
 4587.00    1.25587   1.25612    0.000
 4588.00    1.31773   1.25479    0.000
 4589.00    1.29019   1.25372    0.000
 4590.00    1.25263   1.25389    0.000
 4591.00    1.13935   1.25456    0.000
 4592.00    1.05756   1.25697    0.000
 4593.00    1.15671   1.25986    0.000
 4594.00    1.23160   1.26437    0.000
 4595.00    1.19561   1.26934    0.000
 4596.00    1.15485   1.27561    0.000
 4597.00    1.09625   1.28238    0.000
 4598.00    1.09676   1.28928    0.000
 4599.00    1.28210   1.29710    0.000
 4600.00    1.42080   1.30371    0.000
 4601.00    1.43571   1.31117    0.000
 4602.00    1.44345   1.31703    0.000
 4603.00    1.43485   1.32283    0.000
 4604.00    1.44585   1.32727    0.000
 4605.00    1.49556   1.33146    0.000
 4606.00    1.49551   1.33451    0.000
 4607.00    1.40992   1.33694    0.000
 4608.00    1.37263   1.33872    0.000
 4609.00    1.40805   1.33972    0.000
 4610.00    1.41311   1.34058    0.000
 4611.00    1.37801   1.34094    0.000
 4612.00    1.30187   1.34160    0.000
 4613.00    1.17792   1.34121    0.000
 4614.00    1.13773   1.34120    0.000
 4615.00    1.18363   1.34043    0.000
 4616.00    1.23997   1.33933    0.000
 4617.00    1.30576   1.33768    0.000
 4618.00    1.35968   1.33573    0.000
 4619.00    1.40412   1.33310    0.000
 4620.00    1.26604   1.33039    0.000
 4621.00    0.99968   1.32662    0.000
 4622.00    1.02882   1.32233    0.000
 4623.00    1.24014   1.31756    0.000
 4624.00    1.35632   1.31210    0.000
 4625.00    1.42128   1.30644    0.000
 4626.00    1.33950   1.30019    0.000
 4627.00    1.18909   1.29395    0.000
 4628.00    1.29943   1.28703    0.000
 4629.00    1.51488   1.28046    0.000
 4630.00    1.56478   1.27339    0.000
 4631.00    1.55772   1.26684    0.000
 4632.00    1.54734   1.26001    0.000
 4633.00    1.53600   1.25385    0.000
 4634.00    1.49737   1.24845    0.000
 4635.00    1.45221   1.24329    0.000
 4636.00    1.43197   1.23931    0.000
 4637.00    1.41654   1.23588    0.000
 4638.00    1.30514   1.23385    0.000
 4639.00    1.17934   1.23295    0.000
 4640.00    1.18381   1.23316    0.000
 4641.00    1.20261   1.23493    0.000
 4642.00    1.24281   1.23772    0.000
 4643.00    1.28456   1.24174    0.000
 4644.00    1.33070   1.24707    0.000
 4645.00    1.37701   1.25274    0.000
 4646.00    1.31843   1.25905    0.000
 4647.00    1.25630   1.26475    0.000
 4648.00    1.08239   1.27037    0.000
 4649.00    0.92302   1.27411    0.000
 4650.00    1.00135   1.27697    0.000
 4651.00    1.08281   1.27748    0.000
 4652.00    1.19648   1.27627    0.000
 4653.00    1.31398   1.27295    0.000
 4654.00    1.45953   1.26802    0.000
 4655.00    1.59214   1.26285    0.000
 4656.00    1.65235   1.25643    0.000
 4657.00    1.69834   1.25046    0.000
 4658.00    1.68082   1.24427    0.000
 4659.00    1.65236   1.23910    0.000
 4660.00    1.58383   1.23523    0.000
 4661.00    1.52268   1.23306    0.000
 4662.00    1.48420   1.23319    0.000
 4663.00    1.43799   1.23444    0.000
 4664.00    1.37163   1.23709    0.000
 4665.00    1.30207   1.23999    0.000
 4666.00    1.22532   1.24344    0.000
 4667.00    1.18560   1.24690    0.000
 4668.00    1.21780   1.25020    0.000
 4669.00    1.22489   1.25313    0.000
 4670.00    1.18948   1.25473    0.000
 4671.00    1.18884   1.25581    0.000
 4672.00    1.23980   1.25609    0.000
 4673.00    1.27841   1.25641    0.000
 4674.00    1.30094   1.25647    0.000
 4675.00    1.38231   1.25682    0.000
 4676.00    1.53130   1.25727    0.000
 4677.00    1.65841   1.25731    0.000
 4678.00    1.76333   1.25815    0.000
 4679.00    1.79038   1.25910    0.000
 4680.00    1.74785   1.26035    0.000
 4681.00    1.66203   1.26175    0.000
 4682.00    1.54211   1.26299    0.000
 4683.00    1.43274   1.26401    0.000
 4684.00    1.33066   1.26375    0.000
 4685.00    1.21589   1.26336    0.000
 4686.00    1.09341   1.26237    0.000
 4687.00    1.06837   1.26046    0.000
 4688.00    1.09499   1.25824    0.000
 4689.00    1.23930   1.25486    0.000
 4690.00    1.43778   1.25164    0.000
 4691.00    1.49453   1.24754    0.000
 4692.00    1.49513   1.24426    0.000
 4693.00    1.42697   1.24028    0.000
 4694.00    1.33559   1.23721    0.000
 4695.00    1.33663   1.23437    0.000
 4696.00    1.36390   1.23229    0.000
 4697.00    1.37069   1.23181    0.000
 4698.00    1.37267   1.23153    0.000
 4699.00    1.31384   1.23393    0.000
 4700.00    1.24356   1.23577    0.000
 4701.00    1.36597   1.23955    0.000
 4702.00    1.51640   1.24361    0.000
 4703.00    1.36643   1.24942    0.000
 4704.00    1.18470   1.25609    0.000
 4705.00    1.12845   1.26330    0.000
 4706.00    1.08081   1.27090    0.000
 4707.00    1.15574   1.27887    0.000
 4708.00    1.23484   1.28712    0.000
 4709.00    1.37190   1.29464    0.000
 4710.00    1.50385   1.30186    0.000
 4711.00    1.46710   1.30750    0.000
 4712.00    1.42156   1.31199    0.000
 4713.00    1.24113   1.31443    0.000
 4714.00    1.09842   1.31542    0.000
 4715.00    1.32557   1.31397    0.000
 4716.00    1.53338   1.31120    0.000
 4717.00    1.60442   1.30661    0.000
 4718.00    1.66193   1.30162    0.000
 4719.00    1.64587   1.29603    0.000
 4720.00    1.62882   1.29043    0.000
 4721.00    1.60742   1.28584    0.000
 4722.00    1.56787   1.28128    0.000
 4723.00    1.46320   1.27934    0.000
 4724.00    1.41204   1.27757    0.000
 4725.00    1.52196   1.27735    0.000
 4726.00    1.59542   1.27895    0.000
 4727.00    1.57549   1.28158    0.000
 4728.00    1.53882   1.28540    0.000
 4729.00    1.46526   1.28964    0.000
 4730.00    1.42130   1.29479    0.000
 4731.00    1.43390   1.29982    0.000
 4732.00    1.41392   1.30517    0.000
 4733.00    1.33959   1.30926    0.000
 4734.00    1.30627   1.31412    0.000
 4735.00    1.33289   1.31825    0.000
 4736.00    1.29422   1.32123    0.000
 4737.00    1.17159   1.32439    0.000
 4738.00    1.09373   1.32658    0.000
 4739.00    1.06660   1.32769    0.000
 4740.00    1.15224   1.32710    0.000
 4741.00    1.35052   1.32680    0.000
 4742.00    1.49951   1.32467    0.000
 4743.00    1.60504   1.32259    0.000
 4744.00    1.66148   1.31894    0.000
 4745.00    1.67979   1.31530    0.000
 4746.00    1.63302   1.31141    0.000
 4747.00    1.54181   1.30648    0.000
 4748.00    1.49099   1.30215    0.000
 4749.00    1.46434   1.29666    0.000
 4750.00    1.43706   1.29134    0.000
 4751.00    1.40944   1.28581    0.000
 4752.00    1.34546   1.28088    0.000
 4753.00    1.26504   1.27616    0.000
 4754.00    1.11435   1.27192    0.000
 4755.00    0.93631   1.26933    0.000
 4756.00    1.16215   1.26740    0.000
 4757.00    1.52182   1.26724    0.000
 4758.00    1.67245   1.26840    0.000
 4759.00    1.76497   1.27007    0.000
 4760.00    1.60289   1.27341    0.000
 4761.00    1.38258   1.27713    0.018
 4762.00    1.17387   1.28291    0.018
 4763.00    0.96729   1.28900    0.018
 4764.00    1.03964   1.29481    0.018
 4765.00    1.15128   1.30092    0.018
 4766.00    1.34572   1.30614    0.018
 4767.00    1.54855   1.31077    0.019
 4768.00    1.57652   1.31380    0.019
 4769.00    1.59320   1.31575    0.018
 4770.00    1.37906   1.31594    0.018
 4771.00    1.15861   1.31458    0.018
 4772.00    1.27394   1.31316    0.018
 4773.00    1.38582   1.31112    0.019
 4774.00    1.39743   1.30802    0.018
 4775.00    1.40947   1.30523    0.018
 4776.00    1.42777   1.30257    0.018
 4777.00    1.46034   1.30059    0.018
 4778.00    1.62715   1.29969    0.018
 4779.00    1.74144   1.29946    0.018
 4780.00    1.49609   1.30095    0.018
 4781.00    1.31777   1.30345    0.018
 4782.00    1.49455   1.30701    0.018
 4783.00    1.63257   1.31141    0.018
 4784.00    1.60550   1.31637    0.018
 4785.00    1.57148   1.32081    0.018
 4786.00    1.51302   1.32415    0.018
 4787.00    1.41528   1.32789    0.018
 4788.00    1.20149   1.33002    0.018
 4789.00    1.04820   1.33174    0.018
 4790.00    1.04723   1.33321    0.018
 4791.00    1.16765   1.33368    0.018
 4792.00    1.55130   1.33387    0.018
 4793.00    1.77515   1.33262    0.018
 4794.00    1.69824   1.33141    0.018
 4795.00    1.61176   1.32863    0.018
 4796.00    1.50957   1.32692    0.018
 4797.00    1.47995   1.32518    0.018
 4798.00    1.55490   1.32383    0.018
 4799.00    1.56658   1.32357    0.018
 4800.00    1.49809   1.32398    0.018
 4801.00    1.52976   1.32498    0.018
 4802.00    1.67330   1.32598    0.018
 4803.00    1.70985   1.32755    0.018
 4804.00    1.64100   1.32928    0.018
 4805.00    1.52444   1.33197    0.018
 4806.00    1.36645   1.33459    0.018
 4807.00    1.29465   1.33728    0.018
 4808.00    1.28880   1.33925    0.018
 4809.00    1.27635   1.34108    0.018
 4810.00    1.25946   1.34157    0.018
 4811.00    1.33213   1.34067    0.018
 4812.00    1.45759   1.33953    0.018
 4813.00    1.48169   1.33642    0.018
 4814.00    1.45370   1.33377    0.018
 4815.00    1.38814   1.33126    0.018
 4816.00    1.30585   1.32846    0.018
 4817.00    1.39271   1.32491    0.018
 4818.00    1.54430   1.32140    0.018
 4819.00    1.53782   1.31801    0.018
 4820.00    1.47995   1.31515    0.018
 4821.00    1.53885   1.31266    0.018
 4822.00    1.62954   1.30940    0.018
 4823.00    1.73624   1.30810    0.018
 4824.00    1.84650   1.30733    0.018
 4825.00    1.58076   1.30675    0.018
 4826.00    1.24799   1.30497    0.017
 4827.00    1.29707   1.30392    0.018
 4828.00    1.39818   1.30248    0.018
 4829.00    1.57268   1.30063    0.018
 4830.00    1.75431   1.29913    0.018
 4831.00    1.67371   1.29744    0.018
 4832.00    1.57721   1.29688    0.017
 4833.00    1.51440   1.29501    0.017
 4834.00    1.45208   1.29369    0.017
 4835.00    1.31603   1.29249    0.017
 4836.00    1.19474   1.29017    0.017
 4837.00    1.45859   1.28738    0.018
 4838.00    1.70720   1.28272    0.018
 4839.00    1.74786   1.27760    0.018
 4840.00    1.76893   1.27280    0.017
 4841.00    1.61296   1.26559    0.017
 4842.00    1.47228   1.25594    0.017
 4843.00    1.43298   1.24540    0.017
 4844.00    1.39250   1.23319    0.017
 4845.00    1.34588   1.21816    0.017
 4846.00    1.33786   1.20318    0.017
 4847.00    1.49052   1.18872    0.017
 4848.00    1.55952   1.17342    0.000
 4849.00    1.34047   1.15854    0.000
 4850.00    1.18077   1.14436    0.000
 4851.00    1.19322   1.13075    0.000
 4852.00    1.21573   1.12202    0.000
 4853.00    1.26319   1.11763    0.000
 4854.00    1.27383   1.11401    0.000
 4855.00    1.20594   1.11507    0.000
 4856.00    1.15895   1.11855    0.000
 4857.00    1.15069   1.12428    0.000
 4858.00    1.15997   1.13044    0.000
 4859.00    1.19764   1.13876    0.000
 4860.00    1.23076   1.14779    0.000
 4861.00    1.25740   1.15621    0.000
 4862.00    1.25638   1.16752    0.000
 4863.00    1.22083   1.17811    0.000
 4864.00    1.24939   1.18859    0.000
 4865.00    1.34854   1.19836    0.000
 4866.00    1.32917   1.20767    0.000
 4867.00    1.19470   1.21671    0.000
 4868.00    1.10471   1.22389    0.000
 4869.00    1.05281   1.23198    0.000
 4870.00    1.10018   1.23750    0.000
 4871.00    1.22242   1.24131    0.000
 4872.00    1.24281   1.24522    0.000
 4873.00    1.19570   1.24763    0.000
 4874.00    1.21175   1.24788    0.000
 4875.00    1.26448   1.24760    0.017
 4876.00    1.24905   1.24707    0.017
 4877.00    1.19914   1.24667    0.017
 4878.00    1.24696   1.24731    0.017
 4879.00    1.33759   1.24858    0.017
 4880.00    1.49369   1.25058    0.017
 4881.00    1.67441   1.25258    0.017
 4882.00    1.69036   1.25956    0.018
 4883.00    1.65377   1.26676    0.018
 4884.00    1.62001   1.27572    0.018
 4885.00    1.58701   1.28613    0.017
 4886.00    1.36516   1.29562    0.017
 4887.00    1.10211   1.30563    0.017
 4888.00    1.15522   1.31399    0.018
 4889.00    1.26313   1.32140    0.018
 4890.00    1.37241   1.32614    0.018
 4891.00    1.48186   1.33130    0.018
 4892.00    1.50099   1.33467    0.018
 4893.00    1.51172   1.33545    0.018
 4894.00    1.64912   1.33545    0.018
 4895.00    1.79369   1.33405    0.018
 4896.00    1.49876   1.33218    0.018
 4897.00    1.19799   1.32927    0.018
 4898.00    1.35500   1.32586    0.018
 4899.00    1.50211   1.32102    0.018
 4900.00    1.41394   1.31586    0.018
 4901.00    1.33265   1.31065    0.018
 4902.00    1.34022   1.30438    0.018
 4903.00    1.34312   1.29846    0.018
 4904.00    1.30543   1.29263    0.018
 4905.00    1.27597   1.28719    0.018
 4906.00    1.29937   1.28010    0.018
 4907.00    1.34964   1.27274    0.018
 4908.00    1.53506   1.26474    0.018
 4909.00    1.68018   1.25745    0.018
 4910.00    1.66131   1.25118    0.018
 4911.00    1.64180   1.24679    0.018
 4912.00    1.62011   1.24607    0.018
 4913.00    1.57431   1.24621    0.018
 4914.00    1.45985   1.24998    0.018
 4915.00    1.34057   1.25423    0.018
 4916.00    1.20956   1.25993    0.018
 4917.00    1.11184   1.26632    0.018
 4918.00    1.08398   1.27441    0.018
 4919.00    1.20519   1.28348    0.018
 4920.00    1.59841   1.29052    0.018
 4921.00    1.72708   1.29798    0.018
 4922.00    1.43386   1.30258    0.018
 4923.00    1.29653   1.30480    0.018
 4924.00    1.37735   1.30628    0.018
 4925.00    1.40886   1.30679    0.018
 4926.00    1.37963   1.30666    0.018
 4927.00    1.41445   1.30673    0.018
 4928.00    1.51879   1.30636    0.018
 4929.00    1.53156   1.30562    0.018
 4930.00    1.45663   1.30617    0.018
 4931.00    1.41405   1.30879    0.018
 4932.00    1.39878   1.31286    0.018
 4933.00    1.40023   1.31849    0.018
 4934.00    1.41411   1.32499    0.018
 4935.00    1.38880   1.33099    0.017
 4936.00    1.33788   1.33664    0.017
 4937.00    1.32704   1.34141    0.017
 4938.00    1.33911   1.34524    0.017
 4939.00    1.34851   1.34961    0.017
 4940.00    1.35656   1.35127    0.000
 4941.00    1.42903   1.35112    0.000
 4942.00    1.52924   1.34835    0.000
 4943.00    1.54251   1.34502    0.000
 4944.00    1.52368   1.34041    0.000
 4945.00    1.57474   1.33340    0.000
 4946.00    1.64765   1.32805    0.000
 4947.00    1.71126   1.32019    0.000
 4948.00    1.77243   1.31388    0.000
 4949.00    1.58440   1.30647    0.000
 4950.00    1.34330   1.30109    0.000
 4951.00    1.38440   1.30010    0.000
 4952.00    1.47305   1.29776    0.000
 4953.00    1.57283   1.29663    0.000
 4954.00    1.67402   1.29519    0.000
 4955.00    1.55435   1.29513    0.000
 4956.00    1.41509   1.29486    0.000
 4957.00    1.50892   1.29481    0.000
 4958.00    1.61504   1.29679    0.000
 4959.00    1.78581   1.29942    0.000
 4960.00    1.95285   1.30014    0.000
 4961.00    1.73184   1.30089    0.000
 4962.00    1.51597   1.30171    0.000
 4963.00    1.41177   1.30095    0.000
 4964.00    1.31582   1.30053    0.000
 4965.00    1.32118   1.29783    0.000
 4966.00    1.32749   1.29530    0.000
 4967.00    1.34190   1.29047    0.000
 4968.00    1.36823   1.28385    0.000
 4969.00    1.46898   1.27810    0.000
 4970.00    1.55639   1.27026    0.000
 4971.00    1.57838   1.26337    0.000
 4972.00    1.59425   1.25726    0.000
 4973.00    1.58576   1.25112    0.000
 4974.00    1.58045   1.24505    0.000
 4975.00    1.58571   1.24066    0.000
 4976.00    1.54396   1.23943    0.000
 4977.00    1.37082   1.24017    0.000
 4978.00    1.25262   1.24141    0.000
 4979.00    1.26581   1.24481    0.000
 4980.00    1.31379   1.24860    0.000
 4981.00    1.43365   1.25057    0.000
 4982.00    1.52888   1.25383    0.000
 4983.00    1.57987   1.25598    0.000
 4984.00    1.63531   1.25849    0.000
 4985.00    1.69772   1.25955    0.000
 4986.00    1.64576   1.25795    0.000
 4987.00    1.43605   1.25720    0.000
 4988.00    1.39630   1.25398    0.000
 4989.00    1.56290   1.24910    0.000
 4990.00    1.64431   1.24365    0.000
 4991.00    1.63453   1.23613    0.000
 4992.00    1.61075   1.22934    0.000
 4993.00    1.57374   1.22345    0.000
 4994.00    1.47266   1.21765    0.000
 4995.00    1.31826   1.21230    0.000
 4996.00    1.31980   1.20654    0.000
 4997.00    1.43561   1.19996    0.000
 4998.00    1.45510   1.19374    0.000
 4999.00    1.41260   1.18923    0.000
 5000.00    1.42279   1.18784    0.000
 5001.00    1.46265   1.18610    0.000
 5002.00    1.38401   1.18254    0.000
 5003.00    1.24731   1.18044    0.000
 5004.00    1.37154   1.17687    0.000
 5005.00    1.60624   1.17500    0.000
 5006.00    1.57028   1.17449    0.000
 5007.00    1.43616   1.17483    0.000
 5008.00    1.40159   1.17808    0.000
 5009.00    1.39756   1.17985    0.000
 5010.00    1.53736   1.18230    0.000
 5011.00    1.71388   1.18686    0.000
 5012.00    1.56470   1.19082    0.000
 5013.00    1.34786   1.19642    0.000
 5014.00    1.33704   1.20197    0.000
 5015.00    1.35996   1.20874    0.000
 5016.00    1.17310   1.21686    0.000
 5017.00    0.96050   1.22246    0.000
 5018.00    0.94839   1.22983    0.000
 5019.00    0.95324   1.23447    0.000
 5020.00    1.23425   1.23774    0.000
 5021.00    1.52876   1.24193    0.000
 5022.00    1.28601   1.24449    0.000
 5023.00    1.03997   1.24634    0.000
 5024.00    1.10006   1.24617    0.000
 5025.00    1.16177   1.24464    0.000
 5026.00    1.25604   1.24046    0.000
 5027.00    1.33720   1.23577    0.000
 5028.00    1.26541   1.23096    0.000
 5029.00    1.20975   1.22855    0.017
 5030.00    1.28436   1.22632    0.017
 5031.00    1.35919   1.22336    0.017
 5032.00    1.43523   1.22202    0.017
 5033.00    1.45667   1.21914    0.017
 5034.00    1.21702   1.22065    0.017
 5035.00    1.04278   1.22436    0.017
 5036.00    1.12332   1.22828    0.017
 5037.00    1.21617   1.23416    0.017
 5038.00    1.34893   1.23894    0.017
 5039.00    1.43483   1.24386    0.017
 5040.00    1.39213   1.24768    0.017
 5041.00    1.32339   1.25260    0.017
 5042.00    1.19345   1.25938    0.017
 5043.00    1.13837   1.26503    0.017
 5044.00    1.23547   1.27018    0.017
 5045.00    1.30574   1.27617    0.016
 5046.00    1.32854   1.28151    0.016
 5047.00    1.33600   1.28582    0.016
 5048.00    1.31971   1.28978    0.016
 5049.00    1.30647   1.29225    0.016
 5050.00    1.29739   1.29453    0.016
 5051.00    1.33182   1.29487    0.016
 5052.00    1.41834   1.29396    0.016
 5053.00    1.47074   1.29348    0.016
 5054.00    1.48713   1.29044    0.016
 5055.00    1.46380   1.28690    0.016
 5056.00    1.40349   1.28101    0.016
 5057.00    1.37166   1.27474    0.016
 5058.00    1.36320   1.27075    0.016
 5059.00    1.34465   1.26462    0.016
 5060.00    1.31880   1.25978    0.016
 5061.00    1.28937   1.25518    0.016
 5062.00    1.25766   1.25090    0.017
 5063.00    1.44230   1.24618    0.018
 5064.00    1.74689   1.23970    0.019
 5065.00    1.66328   1.23655    0.020
 5066.00    1.39249   1.23217    0.021
 5067.00    1.31488   1.22744    0.021
 5068.00    1.31768   1.22428    0.020
 5069.00    1.41626   1.22210    0.019
 5070.00    1.54894   1.22025    0.018
 5071.00    1.47816   1.21649    0.017
 5072.00    1.34619   1.21603    0.016
 5073.00    1.33850   1.21763    0.016
 5074.00    1.36186   1.21986    0.016
 5075.00    1.39706   1.22307    0.017
 5076.00    1.43467   1.22784    0.017
 5077.00    1.34999   1.23352    0.017
 5078.00    1.24588   1.23787    0.017
 5079.00    1.32913   1.24291    0.017
 5080.00    1.43453   1.24876    0.017
 5081.00    1.36244   1.25376    0.017
 5082.00    1.27608   1.25676    0.017
 5083.00    1.25912   1.25851    0.017
 5084.00    1.24529   1.25949    0.016
 5085.00    1.31003   1.25930    0.016
 5086.00    1.37273   1.25724    0.016
 5087.00    1.28726   1.25522    0.016
 5088.00    1.21060   1.25278    0.016
 5089.00    1.29771   1.24898    0.016
 5090.00    1.38559   1.24446    0.016
 5091.00    1.48199   1.23987    0.016
 5092.00    1.55565   1.23718    0.017
 5093.00    1.45213   1.23491    0.017
 5094.00    1.34988   1.23258    0.017
 5095.00    1.25505   1.23076    0.017
 5096.00    1.23051   1.22988    0.017
 5097.00    1.53396   1.22857    0.017
 5098.00    1.75032   1.22905    0.017
 5099.00    1.63466   1.23091    0.017
 5100.00    1.50757   1.23286    0.017
 5101.00    1.34417   1.23603    0.016
 5102.00    1.22640   1.23778    0.016
 5103.00    1.23168   1.24117    0.017
 5104.00    1.24829   1.24503    0.017
 5105.00    1.29111   1.24762    0.017
 5106.00    1.34445   1.25057    0.017
 5107.00    1.41887   1.25127    0.017
 5108.00    1.44391   1.25121    0.017
 5109.00    1.38291   1.25048    0.017
 5110.00    1.34751   1.24720    0.017
 5111.00    1.35115   1.24404    0.017
 5112.00    1.38146   1.23960    0.017
 5113.00    1.44753   1.23401    0.017
 5114.00    1.43619   1.22847    0.017
 5115.00    1.33351   1.22191    0.017
 5116.00    1.29585   1.21663    0.017
 5117.00    1.32584   1.21238    0.017
 5118.00    1.39631   1.20911    0.017
 5119.00    1.50393   1.20695    0.017
 5120.00    1.46658   1.20568    0.016
 5121.00    1.31196   1.20470    0.016
 5122.00    1.32319   1.20565    0.016
 5123.00    1.45248   1.20652    0.016
 5124.00    1.55120   1.20673    0.016
 5125.00    1.63082   1.20849    0.016
 5126.00    1.42643   1.20746    0.016
 5127.00    1.06699   1.20871    0.016
 5128.00    1.12429   1.20915    0.016
 5129.00    1.37930   1.20611    0.016
 5130.00    1.41361   1.20481    0.016
 5131.00    1.35761   1.20233    0.016
 5132.00    1.33424   1.20043    0.016
 5133.00    1.32228   1.19773    0.016
 5134.00    1.34268   1.19463    0.016
 5135.00    1.37261   1.19340    0.016
 5136.00    1.25693   1.19161    0.016
 5137.00    1.10569   1.18999    0.015
 5138.00    1.21697   1.18958    0.015
 5139.00    1.38012   1.18957    0.015
 5140.00    1.49183   1.19055    0.016
 5141.00    1.59560   1.19147    0.016
 5142.00    1.46061   1.19332    0.016
 5143.00    1.29842   1.19705    0.016
 5144.00    1.27815   1.19969    0.016
 5145.00    1.26870   1.20163    0.016
 5146.00    1.18071   1.20250    0.016
 5147.00    1.08949   1.20336    0.015
 5148.00    1.17808   1.20296    0.016
 5149.00    1.26416   1.19922    0.016
 5150.00    1.18209   1.19484    0.016
 5151.00    1.10627   1.18761    0.016
 5152.00    1.13893   1.17766    0.016
 5153.00    1.17822   1.16405    0.017
 5154.00    1.28801   1.14690    0.016
 5155.00    1.37998   1.13163    0.016
 5156.00    1.33784   1.11618    0.016
 5157.00    1.29095   1.10202    0.016
 5158.00    1.21680   1.08646    0.016
 5159.00    1.17924   1.06885    0.016
 5160.00    1.30837   1.05614    0.017
 5161.00    1.41885   1.04792    0.017
 5162.00    1.45973   1.04502    0.017
 5163.00    1.49496   1.04430    0.017
 5164.00    1.51254   1.04416    0.017
 5165.00    1.47746   1.04455    0.017
 5166.00    1.30286   1.04602    0.017
 5167.00    1.16015   1.05239    0.017
 5168.00    1.08993   1.06137    0.017
 5169.00    1.00668   1.06943    0.017
 5170.00    0.89776   1.07187    0.016
 5171.00    0.85839   1.07427    0.016
 5172.00    0.93837   1.08088    0.017
 5173.00    1.01090   1.08738    0.017
 5174.00    1.07222   1.09414    0.017
 5175.00    1.11808   1.09782    0.017
 5176.00    1.14353   1.10266    0.017
 5177.00    1.18262   1.10886    0.017
 5178.00    1.23758   1.11452    0.017
 5179.00    1.25691   1.12417    0.017
 5180.00    1.23968   1.13313    0.016
 5181.00    1.17607   1.14119    0.016
 5182.00    1.07049   1.14768    0.016
 5183.00    1.02795   1.15464    0.016
 5184.00    1.03569   1.16387    0.016
 5185.00    1.01403   1.17044    0.016
 5186.00    0.97174   1.17496    0.016
 5187.00    1.06387   1.17885    0.015
 5188.00    1.23872   1.18358    0.015
 5189.00    1.29763   1.18599    0.015
 5190.00    1.29420   1.18597    0.000
 5191.00    1.29823   1.18532    0.000
 5192.00    1.30572   1.18319    0.000
 5193.00    1.33165   1.18199    0.000
 5194.00    1.36499   1.17938    0.000
 5195.00    1.33638   1.17566    0.000
 5196.00    1.28651   1.17395    0.000
 5197.00    1.36069   1.17116    0.000
 5198.00    1.47069   1.17029    0.000
 5199.00    1.44130   1.17118    0.000
 5200.00    1.37860   1.17332    0.000
 5201.00    1.45011   1.17945    0.000
 5202.00    1.54744   1.18307    0.000
 5203.00    1.50323   1.18882    0.000
 5204.00    1.43785   1.19608    0.000
 5205.00    1.43229   1.20349    0.000
 5206.00    1.43327   1.21268    0.000
 5207.00    1.29077   1.21827    0.000
 5208.00    1.13791   1.22352    0.000
 5209.00    1.31494   1.22616    0.000
 5210.00    1.50429   1.22900    0.000
 5211.00    1.59401   1.23152    0.016
 5212.00    1.67620   1.23169    0.016
 5213.00    1.50139   1.23134    0.016
 5214.00    1.33253   1.22712    0.015
 5215.00    1.26003   1.22541    0.016
 5216.00    1.20312   1.22381    0.016
 5217.00    1.30482   1.22300    0.016
 5218.00    1.39740   1.22450    0.016
 5219.00    1.42371   1.22303    0.016
 5220.00    1.43907   1.22512    0.016
 5221.00    1.39340   1.22774    0.016
 5222.00    1.34795   1.23283    0.016
 5223.00    1.30351   1.24206    0.016
 5224.00    1.25895   1.24713    0.016
 5225.00    1.21392   1.25494    0.017
 5226.00    1.16419   1.26217    0.017
 5227.00    1.10001   1.26789    0.017
 5228.00    1.08696   1.27669    0.017
 5229.00    1.20692   1.28177    0.017
 5230.00    1.25534   1.28780    0.017
 5231.00    1.14379   1.29213    0.017
 5232.00    1.13006   1.29283    0.017
 5233.00    1.30592   1.29446    0.017
 5234.00    1.37594   1.29337    0.017
 5235.00    1.26705   1.29249    0.017
 5236.00    1.31807   1.28956    0.017
 5237.00    1.60591   1.28523    0.017
 5238.00    1.68918   1.28345    0.017
 5239.00    1.50611   1.27911    0.016
 5240.00    1.39557   1.27534    0.016
 5241.00    1.36823   1.27113    0.016
 5242.00    1.29840   1.26792    0.016
 5243.00    1.18559   1.26765    0.016
 5244.00    1.24141   1.26274    0.016
 5245.00    1.44767   1.26012    0.016
 5246.00    1.45741   1.25839    0.016
 5247.00    1.31266   1.25407    0.016
 5248.00    1.30410   1.24964    0.016
 5249.00    1.38972   1.24071    0.016
 5250.00    1.41547   1.23322    0.016
 5251.00    1.40491   1.22567    0.016
 5252.00    1.40297   1.21451    0.016
 5253.00    1.40558   1.20264    0.016
 5254.00    1.42978   1.19027    0.016
 5255.00    1.46390   1.17955    0.015
 5256.00    1.47583   1.17100    0.015
 5257.00    1.47899   1.16250    0.015
 5258.00    1.52253   1.15433    0.015
 5259.00    1.57966   1.14965    0.015
 5260.00    1.60519   1.15061    0.015
 5261.00    1.62176   1.15713    0.016
 5262.00    1.49045   1.16289    0.016
 5263.00    1.32461   1.16704    0.016
 5264.00    1.27477   1.17393    0.016
 5265.00    1.24667   1.18782    0.016
 5266.00    1.27389   1.20548    0.016
 5267.00    1.30912   1.21810    0.016
 5268.00    1.18326   1.22954    0.016
 5269.00    1.04046   1.24049    0.016
 5270.00    1.00332   1.25269    0.016
 5271.00    0.97339   1.26791    0.016
 5272.00    1.18300   1.27897    0.016
 5273.00    1.40065   1.28805    0.016
 5274.00    1.20615   1.29750    0.016
 5275.00    1.01812   1.30587    0.016
 5276.00    1.05206   1.31420    0.016
 5277.00    1.09201   1.31978    0.016
 5278.00    1.22333   1.32417    0.016
 5279.00    1.35472   1.33044    0.016
 5280.00    1.48682   1.33430    0.016
 5281.00    1.58977   1.33498    0.016
 5282.00    1.48747   1.33293    0.016
 5283.00    1.39522   1.33197    0.016
 5284.00    1.35750   1.33194    0.016
 5285.00    1.32811   1.32858    0.016
 5286.00    1.33494   1.32369    0.016
 5287.00    1.38290   1.31865    0.016
 5288.00    1.57808   1.31849    0.017
 5289.00    1.67299   1.31952    0.017
 5290.00    1.46679   1.31725    0.017
 5291.00    1.33979   1.31592    0.017
 5292.00    1.41534   1.31748    0.017
 5293.00    1.48619   1.32488    0.017
 5294.00    1.54671   1.33230    0.017
 5295.00    1.58497   1.33588    0.016
 5296.00    1.58076   1.33976    0.016
 5297.00    1.57430   1.34588    0.016
 5298.00    1.56410   1.35425    0.016
 5299.00    1.52393   1.36060    0.016
 5300.00    1.44004   1.36303    0.016
 5301.00    1.40547   1.36393    0.016
 5302.00    1.43420   1.36508    0.016
 5303.00    1.43825   1.36610    0.016
 5304.00    1.41439   1.36540    0.016
 5305.00    1.37346   1.36122    0.016
 5306.00    1.31551   1.35557    0.016
 5307.00    1.34479   1.34985    0.015
 5308.00    1.45080   1.34255    0.015
 5309.00    1.48278   1.33587    0.015
 5310.00    1.45739   1.32733    0.015
 5311.00    1.45602   1.31698    0.015
 5312.00    1.47101   1.30604    0.015
 5313.00    1.43371   1.29517    0.015
 5314.00    1.36517   1.28847    0.015
 5315.00    1.38250   1.28224    0.015
 5316.00    1.44455   1.27323    0.015
 5317.00    1.43749   1.26228    0.015
 5318.00    1.39921   1.25770    0.015
 5319.00    1.40120   1.25954    0.015
 5320.00    1.41883   1.26153    0.014
 5321.00    1.42102   1.26100    0.014
 5322.00    1.41811   1.25824    0.014
 5323.00    1.41373   1.26341    0.014
 5324.00    1.40895   1.27104    0.015
 5325.00    1.53453   1.27703    0.015
 5326.00    1.68985   1.28238    0.015
 5327.00    1.56108   1.28495    0.015
 5328.00    1.38046   1.29087    0.015
 5329.00    1.40061   1.29403    0.015
 5330.00    1.44892   1.29662    0.015
 5331.00    1.43623   1.30263    0.015
 5332.00    1.41740   1.30458    0.015
 5333.00    1.34747   1.30748    0.015
 5334.00    1.27426   1.30850    0.015
 5335.00    1.36235   1.31018    0.015
 5336.00    1.45519   1.31787    0.015
 5337.00    1.52962   1.32117    0.015
 5338.00    1.59874   1.32521    0.016
 5339.00    1.51624   1.33096    0.015
 5340.00    1.44145   1.33641    0.015
 5341.00    1.47748   1.34596    0.015
 5342.00    1.51383   1.35177    0.016
 5343.00    1.55327   1.35755    0.016
 5344.00    1.57995   1.36536    0.016
 5345.00    1.51962   1.37066    0.016
 5346.00    1.46746   1.37627    0.016
 5347.00    1.45842   1.37936    0.016
 5348.00    1.45305   1.38067    0.016
 5349.00    1.46324   1.38153    0.016
 5350.00    1.46063   1.37955    0.016
 5351.00    1.41312   1.37578    0.015
 5352.00    1.39446   1.37210    0.015
 5353.00    1.46081   1.36626    0.016
 5354.00    1.48707   1.35843    0.016
 5355.00    1.41261   1.35063    0.016
 5356.00    1.36386   1.34237    0.016
 5357.00    1.37076   1.33759    0.015
 5358.00    1.42224   1.33194    0.015
 5359.00    1.55745   1.32503    0.015
 5360.00    1.60816   1.32025    0.015
 5361.00    1.52026   1.31733    0.015
 5362.00    1.49469   1.31962    0.015
 5363.00    1.55879   1.32110    0.015
 5364.00    1.50113   1.32208    0.015
 5365.00    1.28944   1.32387    0.015
 5366.00    1.18450   1.32683    0.015
 5367.00    1.19855   1.33330    0.014
 5368.00    1.24316   1.33806   -2.000
 5369.00    1.31782   1.34141   -2.000
 5370.00    1.32259   1.34341   -2.000
 5371.00    1.26677   1.34482   -2.000
 5372.00    1.26760   1.34656   -2.000
 5373.00    1.31169   1.34704   -2.000
 5374.00    1.31597   1.34620   -2.000
 5375.00    1.29352   1.34303   -2.000
 5376.00    1.27856   1.33928   -2.000
 5377.00    1.26801   1.33504   -2.000
 5378.00    1.26011   1.32978   -2.000
 5379.00    1.25357   1.32493   -2.000
 5380.00    1.24008   1.31811   -2.000
 5381.00    1.22351   1.31047   -2.000
 5382.00    1.29294   1.30464   -2.000
 5383.00    1.39521   1.29767    0.015
 5384.00    1.37891   1.29177    0.015
 5385.00    1.32414   1.28540    0.015
 5386.00    1.34233   1.27756    0.015
 5387.00    1.38033   1.27368    0.014
 5388.00    1.44666   1.26928    0.015
 5389.00    1.51931   1.26419    0.015
 5390.00    1.53344   1.25999    0.015
 5391.00    1.53718   1.25544    0.015
 5392.00    1.52837   1.25421    0.015
 5393.00    1.51785   1.25277    0.015
 5394.00    1.48451   1.24942    0.015
 5395.00    1.44897   1.24817    0.016
 5396.00    1.40403   1.24948    0.015
 5397.00    1.35853   1.25283    0.015
 5398.00    1.31248   1.25539    0.015
 5399.00    1.26684   1.25664    0.015
 5400.00    1.29172   1.26150    0.015
 5401.00    1.31574   1.26955    0.015
 5402.00    1.31779   1.27815    0.015
 5403.00    1.32218   1.28500    0.015
 5404.00    1.35851   1.28983    0.015
 5405.00    1.39831   1.29769    0.015
 5406.00    1.46930   1.30736    0.015
 5407.00    1.52549   1.31471    0.015
 5408.00    1.48383   1.31942    0.015
 5409.00    1.42116   1.32197    0.015
 5410.00    1.25042   1.32480    0.015
 5411.00    1.13963   1.32961    0.014
 5412.00    1.27771   1.33133    0.014
 5413.00    1.38564   1.32843    0.014
 5414.00    1.38999   1.32656    0.014
 5415.00    1.40795   1.32399    0.014
 5416.00    1.46532   1.32313    0.014
 5417.00    1.49919   1.32224    0.014
 5418.00    1.47504   1.31449    0.014
 5419.00    1.43632   1.31101    0.014
 5420.00    1.36656   1.30997    0.014
 5421.00    1.31774   1.30806    0.014
 5422.00    1.30763   1.30914    0.014
 5423.00    1.33166   1.30493    0.014
 5424.00    1.41086   1.30473    0.014
 5425.00    1.46008   1.30942    0.014
 5426.00    1.46679   1.31133    0.014
 5427.00    1.41257   1.31548    0.014
 5428.00    1.28237   1.31711    0.014
 5429.00    1.27207   1.32052    0.014
 5430.00    1.39357   1.32553    0.014
 5431.00    1.44427   1.32742    0.014
 5432.00    1.42634   1.32998    0.014
 5433.00    1.42132   1.33026    0.014
 5434.00    1.42736   1.33129    0.014
 5435.00    1.42076   1.33042    0.015
 5436.00    1.40465   1.32683    0.015
 5437.00    1.43099   1.32583    0.015
 5438.00    1.48542   1.32309    0.015
 5439.00    1.49580   1.32054    0.015
 5440.00    1.48065   1.31708    0.014
 5441.00    1.40992   1.31165    0.014
 5442.00    1.31113   1.31057    0.015
 5443.00    1.32968   1.30980    0.014
 5444.00    1.39951   1.30669    0.014
 5445.00    1.45800   1.30517    0.014
 5446.00    1.51224   1.30321    0.014
 5447.00    1.42398   1.30312    0.015
 5448.00    1.29038   1.30516    0.014
 5449.00    1.34157   1.30306    0.014
 5450.00    1.44190   1.30315    0.015
 5451.00    1.47313   1.30464    0.015
 5452.00    1.48934   1.30397    0.015
 5453.00    1.45331   1.30589    0.014
 5454.00    1.40825   1.30474    0.014
 5455.00    1.44966   1.30399    0.014
 5456.00    1.50240   1.30506    0.014
 5457.00    1.41717   1.30205    0.014
 5458.00    1.31919   1.30135    0.014
 5459.00    1.30911   1.29971    0.014
 5460.00    1.30397   1.29656    0.014
 5461.00    1.40659   1.29522    0.014
 5462.00    1.50976   1.28981    0.014
 5463.00    1.41937   1.28674    0.014
 5464.00    1.33792   1.28561    0.014
 5465.00    1.46628   1.28201    0.014
 5466.00    1.58389   1.28065    0.013
 5467.00    1.56328   1.27710    0.013
 5468.00    1.53554   1.27564    0.014
 5469.00    1.44604   1.27820    0.014
 5470.00    1.38103   1.27793    0.014
 5471.00    1.47289   1.27916    0.014
 5472.00    1.55285   1.28108    0.014
 5473.00    1.57312   1.28349    0.014
 5474.00    1.57601   1.28817    0.014
 5475.00    1.50832   1.29105    0.014
 5476.00    1.45277   1.29363    0.014
 5477.00    1.43809   1.29763    0.014
 5478.00    1.42903   1.30096   -2.000
 5479.00    1.43591   1.30370   -2.000
 5480.00    1.44702   1.30684   -2.000
 5481.00    1.46839   1.30850   -2.000
 5482.00    1.46820   1.30957   -2.000
 5483.00    1.42286   1.31090   -2.000
 5484.00    1.36900   1.31140   -2.000
 5485.00    1.29961   1.31299   -2.000
 5486.00    1.17172   1.31295   -2.000
 5487.00    0.95068   1.31006   -2.000
 5488.00    0.81363   1.30910   -2.000
 5489.00    0.79391   1.30913   -2.000
 5490.00    0.84920   1.30825   -2.000
 5491.00    0.99672   1.30637   -2.000
 5492.00    1.25779   1.30172   -2.000
 5493.00    1.64194   1.29952   -2.000
 5494.00    1.82143   1.30018   -2.000
 5495.00    1.80530   1.29701   -2.000
 5496.00    1.77752   1.29467   -2.000
 5497.00    1.73991   1.29245   -2.000
 5498.00    1.64160   1.29001   -2.000
 5499.00    1.49824   1.29212   -2.000
 5500.00    1.44519   1.29049   -2.000
 5501.00    1.45103   1.28935   -2.000
 5502.00    1.36046   1.29194    0.014
 5503.00    1.21488   1.29178    0.014
 5504.00    1.26833   1.29555    0.014
 5505.00    1.42067   1.29844    0.014
 5506.00    1.40136   1.29912    0.014
 5507.00    1.30830   1.30412    0.013
 5508.00    1.29303   1.30665    0.013
 5509.00    1.30640   1.30965    0.013
 5510.00    1.28527   1.31368    0.013
 5511.00    1.25336   1.31432    0.013
 5512.00    1.28426   1.31699    0.013
 5513.00    1.33151   1.31830    0.013
 5514.00    1.30971   1.31717    0.013
 5515.00    1.27325   1.31846    0.013
 5516.00    1.23892   1.31831    0.013
 5517.00    1.20496   1.31782    0.013
 5518.00    1.21017   1.31738    0.013
 5519.00    1.22035   1.31528    0.013
 5520.00    1.28837   1.31583    0.013
 5521.00    1.36150   1.31618    0.013
 5522.00    1.44217   1.31654    0.013
 5523.00    1.52323   1.31795    0.013
 5524.00    1.51423   1.31807    0.013
 5525.00    1.50237   1.32076    0.014
 5526.00    1.40146   1.32307    0.028
 5527.00    1.30493   1.32525   -1.000
 5528.00    1.30275   1.32871   -1.000
 5529.00    1.30244   1.32989   -1.000
 5530.00    1.32501   1.33368   -1.000
 5531.00    1.33975   1.33762   -1.000
 5532.00    1.28918   1.33894   -1.000
 5533.00    1.24527   1.34219    0.192
 5534.00    1.24281   1.34467    0.023
 5535.00    1.24717   1.34698    0.014
 5536.00    1.28491   1.35011    0.014
 5537.00    1.30365   1.35071    0.014
 5538.00    1.24697   1.35193    0.014
 5539.00    1.21494   1.35393    0.014
 5540.00    1.26423   1.35362    0.014
 5541.00    1.29562   1.35386    0.014
 5542.00    1.27705   1.35418    0.014
 5543.00    1.31321   1.35243    0.014
 5544.00    1.47997   1.35116    0.014
 5545.00    1.57604   1.34935    0.013
 5546.00    1.52636   1.34656    0.013
 5547.00    1.48969   1.34499    0.013
 5548.00    1.47634   1.34124    0.014
 5549.00    1.43120   1.33711    0.014
 5550.00    1.33621   1.33511    0.013
 5551.00    1.33556   1.33119    0.013
 5552.00    1.46481   1.32766    0.013
 5553.00    1.51208   1.32433    0.013
 5554.00    1.46002   1.32074    0.013
 5555.00    1.40140   1.31885    0.013
 5556.00    1.33578   1.31582    0.013
 5557.00    1.32716   1.31429    0.013
 5558.00    1.37226   1.31274    0.013
 5559.00    1.38923   1.31039    0.013
 5560.00    1.38282   1.31112    0.013
 5561.00    1.38668   1.31054    0.013
 5562.00    1.39803   1.31086    0.013
 5563.00    1.41974   1.31181    0.013
 5564.00    1.44810   1.30979    0.013
 5565.00    1.47539   1.31159    0.013
 5566.00    1.50209   1.31298    0.013
 5567.00    1.48412   1.31027    0.013
 5568.00    1.44432   1.31020    0.013
 5569.00    1.42205   1.30864    0.013
 5570.00    1.40719   1.30547    0.013
 5571.00    1.39335   1.30431    0.013
 5572.00    1.37987   1.29876    0.013
 5573.00    1.37055   1.29320    0.013
 5574.00    1.36250   1.29091    0.013
 5575.00    1.35035   1.28481    0.014
 5576.00    1.33716   1.28022    0.014
 5577.00    1.38072   1.27626    0.013
 5578.00    1.43603   1.27019    0.013
 5579.00    1.37303   1.26868    0.013
 5580.00    1.29074   1.26535    0.014
 5581.00    1.25526   1.26264    0.014
 5582.00    1.22550   1.26518    0.014
 5583.00    1.31027   1.26421    0.014
 5584.00    1.40465   1.26426    0.013
 5585.00    1.38941   1.26616    0.013
 5586.00    1.36886   1.26744    0.013
 5587.00    1.28666   1.27344    0.014
 5588.00    1.20552   1.27656    0.014
 5589.00    1.24158   1.27706    0.013
 5590.00    1.27225   1.28335    0.013
 5591.00    1.19575   1.28863    0.013
 5592.00    1.13227   1.29273    0.013
 5593.00    1.21998   1.29699    0.013
 5594.00    1.30495   1.30010    0.014
 5595.00    1.36782   1.30724    0.013
 5596.00    1.40249   1.31271    0.013
 5597.00    1.26673   1.31470    0.013
 5598.00    1.15725   1.31730    0.013
 5599.00    1.17303   1.31996    0.013
 5600.00    1.19755   1.32234    0.013
 5601.00    1.25601   1.32106    0.013
 5602.00    1.30784   1.31930    0.013
 5603.00    1.33820   1.31924    0.013
 5604.00    1.36212   1.31834    0.013
 5605.00    1.36841   1.31563    0.013
 5606.00    1.37928   1.30871    0.013
 5607.00    1.40095   1.30520    0.013
 5608.00    1.41881   1.30636    0.013
 5609.00    1.42899   1.30414    0.013
 5610.00    1.45857   1.30025    0.013
 5611.00    1.52244   1.29759    0.013
 5612.00    1.56898   1.29820    0.013
 5613.00    1.58873   1.30028    0.013
 5614.00    1.54586   1.29995    0.013
 5615.00    1.41801   1.29858    0.013
 5616.00    1.38225   1.29992    0.013
 5617.00    1.45651   1.30442    0.013
 5618.00    1.45622   1.30653    0.013
 5619.00    1.37739   1.30644    0.013
 5620.00    1.38829   1.30839    0.013
 5621.00    1.48256   1.31060    0.013
 5622.00    1.46460   1.31226    0.013
 5623.00    1.35469   1.31249    0.013
 5624.00    1.31953   1.31121    0.013
 5625.00    1.33826   1.31202    0.013
 5626.00    1.38130   1.31246    0.013
 5627.00    1.43974   1.31062    0.013
 5628.00    1.46240   1.30949    0.013
 5629.00    1.46526   1.30838    0.013
 5630.00    1.39235   1.30869    0.013
 5631.00    1.28296   1.30917    0.013
 5632.00    1.30005   1.30644    0.013
 5633.00    1.36967   1.30644    0.013
 5634.00    1.43521   1.30820    0.013
 5635.00    1.49931   1.30787    0.013
 5636.00    1.43918   1.30849    0.012
 5637.00    1.34178   1.30785    0.012
 5638.00    1.32897   1.30785    0.013
 5639.00    1.33722   1.30991    0.013
 5640.00    1.30161   1.30812    0.013
 5641.00    1.25715   1.30497    0.012
 5642.00    1.25491   1.30505    0.012
 5643.00    1.25935   1.30482    0.012
 5644.00    1.24036   1.30271    0.012
 5645.00    1.21862   1.29889    0.012
 5646.00    1.27874   1.29488    0.012
 5647.00    1.34540   1.29554    0.012
 5648.00    1.38544   1.29549    0.012
 5649.00    1.42430   1.28995    0.013
 5650.00    1.42084   1.28805    0.013
 5651.00    1.41558   1.29118    0.013
 5652.00    1.34594   1.29255    0.013
 5653.00    1.28028   1.29210    0.013
 5654.00    1.28774   1.29245    0.013
 5655.00    1.30051   1.29641    0.013
 5656.00    1.37218   1.30238    0.013
 5657.00    1.42282   1.30525    0.013
 5658.00    1.31041   1.30672    0.013
 5659.00    1.22069   1.31191    0.013
 5660.00    1.26419   1.31797    0.013
 5661.00    1.29407   1.32150    0.013
 5662.00    1.26060   1.32409    0.013
 5663.00    1.24467   1.32750    0.013
 5664.00    1.29542   1.33199    0.013
 5665.00    1.34172   1.33391    0.013
 5666.00    1.37392   1.33329    0.013
 5667.00    1.41039   1.33454    0.013
 5668.00    1.45838   1.33623    0.013
 5669.00    1.47101   1.33558    0.013
 5670.00    1.40208   1.33313    0.013
 5671.00    1.35072   1.33149    0.012
 5672.00    1.33442   1.33156    0.012
 5673.00    1.36046   1.32972    0.012
 5674.00    1.46014   1.32672    0.013
 5675.00    1.52643   1.32619    0.013
 5676.00    1.54190   1.32626    0.013
 5677.00    1.50704   1.32536    0.013
 5678.00    1.40483   1.32383    0.013
 5679.00    1.34979   1.32330    0.013
 5680.00    1.35031   1.32481    0.012
 5681.00    1.36061   1.32472    0.012
 5682.00    1.38105   1.32372    0.012
 5683.00    1.37966   1.32405    0.012
 5684.00    1.35826   1.32295    0.012
 5685.00    1.33135   1.32173    0.012
 5686.00    1.29999   1.31920    0.012
 5687.00    1.27301   1.31675    0.012
 5688.00    1.24914   1.31542    0.012
 5689.00    1.26137   1.30962    0.012
 5690.00    1.29611   1.30562    0.012
 5691.00    1.33327   1.30269    0.012
 5692.00    1.37174   1.29635    0.012
 5693.00    1.44560   1.29360    0.013
 5694.00    1.53622   1.28893    0.013
 5695.00    1.55345   1.28473    0.013
 5696.00    1.54072   1.28506    0.013
 5697.00    1.52336   1.28049    0.013
 5698.00    1.50439   1.27982    0.013
 5699.00    1.53081   1.28247    0.013
 5700.00    1.57058   1.28111    0.013
 5701.00    1.51501   1.28613    0.013
 5702.00    1.43622   1.29063    0.013
 5703.00    1.35651   1.29293    0.013
 5704.00    1.27662   1.30164    0.013
 5705.00    1.32124   1.30745    0.013
 5706.00    1.38499   1.31301    0.013
 5707.00    1.48767   1.32187    0.013
 5708.00    1.59477   1.32733    0.013
 5709.00    1.47665   1.33417    0.013
 5710.00    1.34147   1.34131    0.012
 5711.00    1.23280   1.34525    0.012
 5712.00    1.12522   1.35060    0.012
 5713.00    1.19605   1.35549    0.012
 5714.00    1.26941   1.35737    0.012
 5715.00    1.38957   1.35920    0.012
 5716.00    1.50000   1.36172    0.012
 5717.00    1.44343   1.36312    0.012
 5718.00    1.39584   1.36347    0.012
 5719.00    1.44328   1.36327    0.012
 5720.00    1.48675   1.36353    0.012
 5721.00    1.50049   1.36494    0.012
 5722.00    1.50300   1.36405    0.012
 5723.00    1.44143   1.36269    0.012
 5724.00    1.39269   1.36396    0.012
 5725.00    1.40223   1.36430    0.012
 5726.00    1.41576   1.36409    0.013
 5727.00    1.44413   1.36369    0.013
 5728.00    1.47214   1.36290    0.012
 5729.00    1.49903   1.36421    0.012
 5730.00    1.50901   1.36388    0.013
 5731.00    1.47432   1.36194    0.013
 5732.00    1.44313   1.36238    0.013
 5733.00    1.41988   1.36192    0.013
 5734.00    1.39390   1.36062    0.013
 5735.00    1.36258   1.35976    0.013
 5736.00    1.34755   1.35736    0.013
 5737.00    1.36043   1.35654    0.013
 5738.00    1.35794   1.35621    0.013
 5739.00    1.33239   1.35334    0.013
 5740.00    1.36805   1.35185    0.000
 5741.00    1.48439   1.35117    0.000
 5742.00    1.53904   1.34895    0.000
 5743.00    1.52206   1.34788    0.000
 5744.00    1.47049   1.34714    0.000
 5745.00    1.38352   1.34569    0.000
 5746.00    1.35898   1.34621    0.000
 5747.00    1.39083   1.34664    0.000
 5748.00    1.42285   1.34579    0.000
 5749.00    1.45499   1.34659    0.000
 5750.00    1.47950   1.34689    0.000
 5751.00    1.49867   1.34697    0.000
 5752.00    1.46366   1.34974    0.000
 5753.00    1.39537   1.35115    0.000
 5754.00    1.38617   1.35147    0.000
 5755.00    1.40868   1.35393    0.000
 5756.00    1.44400   1.35546    0.000
 5757.00    1.48528   1.35547    0.000
 5758.00    1.45012   1.35626    0.000
 5759.00    1.38428   1.35632    0.000
 5760.00    1.34987   1.35553    0.000
 5761.00    1.32623   1.35517    0.000
 5762.00    1.38872   1.35278    0.000
 5763.00    1.47603   1.34963    0.000
 5764.00    1.50868   1.34769    0.000
 5765.00    1.52831   1.34284    0.000
 5766.00    1.56216   1.33801    0.000
 5767.00    1.59874   1.33485    0.000
 5768.00    1.67615   1.32867    0.000
 5769.00    1.75964   1.32328    0.000
 5770.00    1.62764   1.31921    0.000
 5771.00    1.47216   1.31470    0.000
 5772.00    1.49685   1.31221    0.000
 5773.00    1.53446   1.30821    0.000
 5774.00    1.49256   1.30654    0.000
 5775.00    1.44774   1.30858    0.000
 5776.00    1.45820   1.30737    0.000
 5777.00    1.46974   1.30870    0.000
 5778.00    1.51179   1.31201    0.000
 5779.00    1.54432   1.31425    0.000
 5780.00    1.42384   1.32019    0.000
 5781.00    1.31099   1.32391    0.000
 5782.00    1.27549   1.32790    0.000
 5783.00    1.24870   1.33561    0.000
 5784.00    1.28507   1.33977    0.000
 5785.00    1.31892   1.34371    0.000
 5786.00    1.33881   1.34837    0.000
 5787.00    1.35861   1.35266    0.000
 5788.00    1.37800   1.35773    0.000
 5789.00    1.39009   1.35996    0.000
 5790.00    1.37554   1.36294    0.000
 5791.00    1.37547   1.36654   -2.000
 5792.00    1.41958   1.36707   -2.000
 5793.00    1.45542   1.36832   -2.000
 5794.00    1.46980   1.36923   -2.000
 5795.00    1.45526   1.37019   -2.000
 5796.00    1.37619   1.37146   -2.000
 5797.00    1.34754   1.37048   -2.000
 5798.00    1.41646   1.37151   -2.000
 5799.00    1.44887   1.37270   -2.000
 5800.00    1.41966   1.37125   -2.000
 5801.00    1.42464   1.37183   -2.000
 5802.00    1.48016   1.37288   -2.000
 5803.00    1.48935   1.37284   -2.000
 5804.00    1.43835   1.37313   -2.000
 5805.00    1.42002   1.37403   -2.000
 5806.00    1.43910   1.37644   -2.000
 5807.00    1.47571   1.37791   -2.000
 5808.00    1.53002   1.37854   -2.000
 5809.00    1.53906   1.38082   -2.000
 5810.00    1.50779   1.38284   -2.000
 5811.00    1.48097   1.38384    0.000
 5812.00    1.45762   1.38523    0.000
 5813.00    1.42129   1.38738    0.000
 5814.00    1.37600   1.38929    0.000
 5815.00    1.37889   1.39019    0.000
 5816.00    1.41092   1.39094    0.000
 5817.00    1.47924   1.39237    0.000
 5818.00    1.56673   1.39320    0.000
 5819.00    1.61545   1.39261    0.000
 5820.00    1.64640   1.39263    0.000
 5821.00    1.60181   1.39363    0.000
 5822.00    1.52743   1.39287    0.000
 5823.00    1.50353   1.39140    0.000
 5824.00    1.49659   1.39181    0.000
 5825.00    1.46830   1.39192    0.000
 5826.00    1.43398   1.39014    0.000
 5827.00    1.38804   1.38897    0.000
 5828.00    1.33939   1.38877    0.000
 5829.00    1.33464   1.38772    0.000
 5830.00    1.33808   1.38587    0.000
 5831.00    1.39724   1.38377    0.000
 5832.00    1.46443   1.38191    0.000
 5833.00    1.43701   1.37980    0.000
 5834.00    1.39969   1.37597    0.000
 5835.00    1.29783   1.37200    0.000
 5836.00    1.19161   1.36908    0.000
 5837.00    1.14296   1.36470    0.000
 5838.00    1.09622   1.35948    0.000
 5839.00    1.22396   1.35517    0.000
 5840.00    1.35053   1.35023    0.000
 5841.00    1.43664   1.34462    0.000
 5842.00    1.51543   1.33941    0.000
 5843.00    1.48370   1.33533    0.000
 5844.00    1.45294   1.33171    0.000
 5845.00    1.43172   1.32697    0.000
 5846.00    1.42023   1.32390    0.000
 5847.00    1.47691   1.32258    0.000
 5848.00    1.52238   1.32058    0.000
 5849.00    1.50730   1.31993    0.000
 5850.00    1.48887   1.31957    0.000
 5851.00    1.45594   1.31969    0.000
 5852.00    1.41856   1.32174    0.000
 5853.00    1.36530   1.32269    0.000
 5854.00    1.29967   1.32360    0.000
 5855.00    1.19698   1.32627    0.000
 5856.00    1.13460   1.32849    0.000
 5857.00    1.17507   1.33039    0.000
 5858.00    1.21074   1.33188    0.000
 5859.00    1.23589   1.33278    0.000
 5860.00    1.27300   1.33372    0.000
 5861.00    1.33291   1.33369    0.000
 5862.00    1.36533   1.33249    0.000
 5863.00    1.35204   1.33095    0.000
 5864.00    1.33731   1.32863    0.000
 5865.00    1.32050   1.32492    0.000
 5866.00    1.32112   1.31980    0.000
 5867.00    1.34407   1.31405    0.000
 5868.00    1.37246   1.30698    0.000
 5869.00    1.40696   1.29745    0.000
 5870.00    1.37962   1.28847    0.000
 5871.00    1.29072   1.27835    0.000
 5872.00    1.24324   1.26435    0.000
 5873.00    1.23215   1.25190    0.000
 5874.00    1.29052   1.23797    0.000
 5875.00    1.40263   1.22082    0.000
 5876.00    1.45962   1.20880    0.000
 5877.00    1.47913   1.19395    0.000
 5878.00    1.45244   1.17692    0.000
 5879.00    1.39821   1.16968    0.000
 5880.00    1.40116   1.15828    0.000
 5881.00    1.43386   1.14567    0.000
 5882.00    1.41541   1.14556    0.000
 5883.00    1.37390   1.14116    0.000
 5884.00    1.34222   1.13741    0.000
 5885.00    1.31434   1.14369    0.000
 5886.00    1.29938   1.14631    0.000
 5887.00    1.28868   1.15441    0.000
 5888.00    1.26878   1.16810    0.000
 5889.00    1.24634   1.17636    0.000
 5890.00    1.18892   1.19052    0.000
 5891.00    1.12355   1.20501    0.000
 5892.00    1.11085   1.21366    0.000
 5893.00    1.10772   1.22928    0.000
 5894.00    1.12156   1.24471    0.000
 5895.00    1.13777   1.25317    0.000
 5896.00    1.12242   1.26420    0.000
 5897.00    1.10390   1.27559    0.000
 5898.00    1.15602   1.28173    0.000
 5899.00    1.21263   1.28777    0.000
 5900.00    1.28274   1.29480    0.000
 5901.00    1.35311   1.29813    0.012
 5902.00    1.37562   1.30120    0.012
 5903.00    1.39684   1.30494    0.012
 5904.00    1.38181   1.30614    0.012
 5905.00    1.36692   1.30892    0.012
 5906.00    1.35416   1.31060    0.012
 5907.00    1.34589   1.31003    0.012
 5908.00    1.37943   1.31312    0.012
 5909.00    1.40768   1.31400    0.012
 5910.00    1.39997   1.31306    0.012
 5911.00    1.39681   1.31605    0.012
 5912.00    1.41752   1.31620    0.012
 5913.00    1.43318   1.31667    0.012
 5914.00    1.42739   1.31902    0.012
 5915.00    1.40926   1.31764    0.012
 5916.00    1.34803   1.31902    0.012
 5917.00    1.29191   1.32099    0.011
 5918.00    1.25081   1.31958    0.011
 5919.00    1.23299   1.32026    0.011
 5920.00    1.27350   1.32066    0.011
 5921.00    1.31906   1.32106    0.011
 5922.00    1.37551   1.32200    0.011
 5923.00    1.41347   1.32090    0.011
 5924.00    1.41676   1.32238    0.011
 5925.00    1.42378   1.32334    0.011
 5926.00    1.43692   1.32139    0.011
 5927.00    1.44885   1.32282    0.011
 5928.00    1.45906   1.32411    0.011
 5929.00    1.45878   1.32385    0.011
 5930.00    1.44528   1.32417    0.011
 5931.00    1.44824   1.32351    0.011
 5932.00    1.46952   1.32457    0.011
 5933.00    1.46251   1.32503    0.011
 5934.00    1.42771   1.32259    0.012
 5935.00    1.38029   1.32333    0.012
 5936.00    1.32193   1.32471    0.012
 5937.00    1.31298   1.32191    0.012
 5938.00    1.34168   1.32073    0.012
 5939.00    1.37063   1.32221    0.012
 5940.00    1.39974   1.32169    0.012
 5941.00    1.42430   1.32059    0.012
 5942.00    1.44620   1.32078    0.012
 5943.00    1.42634   1.32133    0.012
 5944.00    1.38510   1.32197    0.012
 5945.00    1.36468   1.32200    0.012
 5946.00    1.35349   1.32325    0.012
 5947.00    1.31785   1.32611    0.012
 5948.00    1.27288   1.32711    0.012
 5949.00    1.24026   1.32825    0.011
 5950.00    1.21162   1.33115    0.011
 5951.00    1.27016   1.33341    0.011
 5952.00    1.35231   1.33575    0.011
 5953.00    1.40565   1.33758    0.011
 5954.00    1.45259   1.33939    0.011
 5955.00    1.41975   1.34197    0.011
 5956.00    1.37280   1.34315    0.011
 5957.00    1.36512   1.34424    0.011
 5958.00    1.36275   1.34525    0.011
 5959.00    1.37652   1.34492    0.011
 5960.00    1.39184   1.34509    0.011
 5961.00    1.39601   1.34429    0.011
 5962.00    1.39952   1.34262    0.011
 5963.00    1.37649   1.34172    0.011
 5964.00    1.35302   1.34021    0.011
 5965.00    1.36667   1.33824    0.011
 5966.00    1.38113   1.33554    0.011
 5967.00    1.41626   1.33385    0.011
 5968.00    1.44901   1.33229    0.011
 5969.00    1.44976   1.32857    0.012
 5970.00    1.44352   1.32737    0.012
 5971.00    1.37479   1.32686    0.012
 5972.00    1.31695   1.32405    0.012
 5973.00    1.33086   1.32364    0.012
 5974.00    1.34594   1.32347    0.012
 5975.00    1.36705   1.32295    0.012
 5976.00    1.37166   1.32392    0.012
 5977.00    1.30794   1.32343    0.011
 5978.00    1.25582   1.32429    0.011
 5979.00    1.24339   1.32577    0.011
 5980.00    1.23817   1.32512    0.011
 5981.00    1.25375   1.32604    0.011
 5982.00    1.27899   1.32741    0.013
 5983.00    1.32802   1.32790    0.032
 5984.00    1.36320   1.32761   -1.000
 5985.00    1.36895   1.32682   -1.000
 5986.00    1.36879   1.32816   -1.000
 5987.00    1.35774   1.32678   -1.000
 5988.00    1.34565   1.32422   -1.000
 5989.00    1.33187   1.32520   -1.000
 5990.00    1.31745   1.32262   -1.000
 5991.00    1.30210   1.32028   -1.000
 5992.00    1.28906   1.32061   -1.000
 5993.00    1.27889   1.31694   -1.000
 5994.00    1.26979   1.31566    0.047
 5995.00    1.26185   1.31492    0.015
 5996.00    1.24565   1.31139    0.011
 5997.00    1.22146   1.31226    0.011
 5998.00    1.23785   1.31024    0.011
 5999.00    1.28890   1.30678    0.011
 6000.00    1.33451   1.30906    0.012
 6001.00    1.37603   1.30697    0.012
 6002.00    1.37134   1.30482    0.012
 6003.00    1.33613   1.30689    0.012
 6004.00    1.25137   1.30518    0.012
 6005.00    1.13797   1.30517    0.011
 6006.00    1.10389   1.30650    0.011
 6007.00    1.10977   1.30654    0.011
 6008.00    1.17440   1.30887    0.011
 6009.00    1.26466   1.30881    0.011
 6010.00    1.34256   1.30994    0.011
 6011.00    1.41584   1.31470    0.011
 6012.00    1.42181   1.31587    0.011
 6013.00    1.40642   1.31777    0.011
 6014.00    1.34771   1.32258    0.011
 6015.00    1.27751   1.32579    0.011
 6016.00    1.24473   1.32921    0.011
 6017.00    1.22007   1.33280    0.011
 6018.00    1.18545   1.33695    0.011
 6019.00    1.14911   1.34165    0.011
 6020.00    1.13144   1.34422    0.011
 6021.00    1.11621   1.34777    0.011
 6022.00    1.09904   1.35235    0.011
 6023.00    1.08168   1.35465    0.011
 6024.00    1.10889   1.35675    0.011
 6025.00    1.13859   1.36026    0.011
 6026.00    1.15253   1.36275    0.011
 6027.00    1.16654   1.36367    0.011
 6028.00    1.22123   1.36575    0.011
 6029.00    1.27354   1.36790    0.011
 6030.00    1.27074   1.36842    0.011
 6031.00    1.27307   1.36968    0.011
 6032.00    1.34092   1.37082    0.012
 6033.00    1.40146   1.37105    0.012
 6034.00    1.39906   1.37210    0.012
 6035.00    1.38925   1.37194    0.011
 6036.00    1.33204   1.37160    0.011
 6037.00    1.28024   1.37238    0.011
 6038.00    1.25548   1.37124    0.011
 6039.00    1.24270   1.37017    0.011
 6040.00    1.27840   1.37028    0.011
 6041.00    1.31456   1.36854    0.011
 6042.00    1.35232   1.36677    0.011
 6043.00    1.37725   1.36607    0.011
 6044.00    1.36584   1.36392    0.011
 6045.00    1.35218   1.36210    0.011
 6046.00    1.33306   1.36117    0.011
 6047.00    1.33122   1.35908    0.011
 6048.00    1.36546   1.35813    0.011
 6049.00    1.40448   1.35745    0.011
 6050.00    1.45219   1.35596    0.011
 6051.00    1.47598   1.35645    0.011
 6052.00    1.46176   1.35644    0.011
 6053.00    1.43333   1.35600    0.011
 6054.00    1.38506   1.35795    0.011
 6055.00    1.36450   1.35824    0.011
 6056.00    1.37794   1.35882    0.011
 6057.00    1.37863   1.36158    0.011
 6058.00    1.36553   1.36122    0.011
 6059.00    1.34580   1.36221    0.011
 6060.00    1.31974   1.36484    0.011
 6061.00    1.29736   1.36364    0.011
 6062.00    1.27807   1.36407    0.011
 6063.00    1.26766   1.36485    0.011
 6064.00    1.26383   1.36294    0.011
 6065.00    1.28358   1.36225    0.011
 6066.00    1.31866   1.36021    0.011
 6067.00    1.35710   1.35790    0.011
 6068.00    1.39746   1.35626    0.011
 6069.00    1.39333   1.35209    0.011
 6070.00    1.36713   1.35020    0.011
 6071.00    1.34627   1.34832    0.011
 6072.00    1.32771   1.34315    0.011
 6073.00    1.31917   1.34232    0.011
 6074.00    1.31432   1.34136    0.011
 6075.00    1.31697   1.33641    0.011
 6076.00    1.32195   1.33618    0.011
 6077.00    1.32027   1.33650    0.011
 6078.00    1.31686   1.33290    0.011
 6079.00    1.33175   1.33286    0.011
 6080.00    1.35052   1.33359    0.011
 6081.00    1.36390   1.33132    0.011
 6082.00    1.37638   1.33157    0.011
 6083.00    1.38503   1.33180    0.011
 6084.00    1.39319   1.32992    0.011
 6085.00    1.36047   1.33116    0.011
 6086.00    1.32416   1.33093    0.011
 6087.00    1.31714   1.32814    0.011
 6088.00    1.31163   1.33047    0.011
 6089.00    1.31415   1.33043    0.011
 6090.00    1.31632   1.32694    0.011
 6091.00    1.28190   1.33021    0.011
 6092.00    1.24806   1.33011    0.011
 6093.00    1.22672   1.32704    0.011
 6094.00    1.20653   1.33186    0.011
 6095.00    1.20034   1.33098    0.011
 6096.00    1.20229   1.32829    0.011
 6097.00    1.27181   1.33443    0.011
 6098.00    1.33042   1.33341    0.011
 6099.00    1.32129   1.33190    0.011
 6100.00    1.31474   1.33703    0.011
 6101.00    1.32067   1.33460    0.011
 6102.00    1.32571   1.33443    0.011
 6103.00    1.32719   1.33763    0.011
 6104.00    1.31698   1.33341    0.011
 6105.00    1.26831   1.33350    0.011
 6106.00    1.23333   1.33419    0.011
 6107.00    1.23644   1.32960    0.011
 6108.00    1.23892   1.33031    0.011
 6109.00    1.23992   1.32810    0.010
 6110.00    1.23926   1.32356    0.011
 6111.00    1.23518   1.32568    0.011
 6112.00    1.23907   1.32191    0.011
 6113.00    1.25724   1.31764    0.011
 6114.00    1.26733   1.32061    0.011
 6115.00    1.26476   1.31643    0.011
 6116.00    1.25682   1.31296    0.011
 6117.00    1.24149   1.31634    0.011
 6118.00    1.23989   1.31258    0.011
 6119.00    1.25492   1.30920    0.011
 6120.00    1.26620   1.31146    0.011
 6121.00    1.27347   1.30829    0.011
 6122.00    1.26581   1.30542    0.011
 6123.00    1.24409   1.30675    0.011
 6124.00    1.20946   1.30429    0.011
 6125.00    1.16413   1.30262    0.011
 6126.00    1.21081   1.30391    0.011
 6127.00    1.32467   1.30226    0.011
 6128.00    1.37600   1.30222    0.011
 6129.00    1.38724   1.30415    0.011
 6130.00    1.36472   1.30333    0.011
 6131.00    1.32328   1.30453    0.011
 6132.00    1.32186   1.30767    0.011
 6133.00    1.33996   1.30901    0.011
 6134.00    1.35796   1.30978    0.011
 6135.00    1.37592   1.31056    0.011
 6136.00    1.39571   1.31184    0.011
 6137.00    1.41616   1.31254    0.010
 6138.00    1.43182   1.31112    0.011
 6139.00    1.44602   1.30955    0.011
 6140.00    1.45495   1.30836    0.011
 6141.00    1.46255   1.30489    0.011
 6142.00    1.47271   1.29995    0.011
 6143.00    1.48339   1.29657    0.011
 6144.00    1.43220   1.29149    0.011
 6145.00    1.37096   1.28392    0.011
 6146.00    1.35300   1.27947    0.011
 6147.00    1.34030   1.27363    0.011
 6148.00    1.35238   1.26438    0.011
 6149.00    1.36653   1.25988    0.011
 6150.00    1.37860   1.25530    0.011
 6151.00    1.39057   1.24716    0.011
 6152.00    1.39826   1.24393    0.011
 6153.00    1.40506   1.24140    0.011
 6154.00    1.36356   1.23622    0.011
 6155.00    1.32345   1.23544    0.011
 6156.00    1.31073   1.23500    0.011
 6157.00    1.29840   1.23444    0.011
 6158.00    1.29057   1.23816    0.011
 6159.00    1.27869   1.23911    0.011
 6160.00    1.23436   1.24045    0.011
 6161.00    1.19154   1.24683    0.011
 6162.00    1.15777   1.24957    0.011
 6163.00    1.13213   1.25106    0.010
 6164.00    1.14510   1.25723    0.010
 6165.00    1.15542   1.26233    0.011
 6166.00    1.15549   1.26439    0.011
 6167.00    1.15244   1.26690    0.011
 6168.00    1.13931   1.27144    0.010
 6169.00    1.13061   1.27403    0.010
 6170.00    1.13400   1.27292    0.011
 6171.00    1.13757   1.27560    0.011
 6172.00    1.14156   1.27787    0.011
 6173.00    1.14456   1.27428    0.011
 6174.00    1.14553   1.27511    0.011
 6175.00    1.14037   1.27602    0.011
 6176.00    1.12438   1.27179    0.011
 6177.00    1.11203   1.27236    0.011
 6178.00    1.10525   1.27164    0.011
 6179.00    1.11610   1.26814    0.011
 6180.00    1.15081   1.27018    0.011
 6181.00    1.18600   1.26850    0.011
 6182.00    1.22178   1.26662    0.011
 6183.00    1.23556   1.27094    0.011
 6184.00    1.22619   1.26957    0.011
 6185.00    1.24130   1.26897    0.011
 6186.00    1.27912   1.27406    0.011
 6187.00    1.30359   1.27426    0.011
 6188.00    1.31715   1.27509    0.011
 6189.00    1.31776   1.27844    0.011
 6190.00    1.30906   1.27874    0.011
 6191.00    1.27110   1.28020    0.011
 6192.00    1.21468   1.28150    0.011
 6193.00    1.15916   1.28099    0.011
 6194.00    1.10413   1.28118    0.011
 6195.00    1.11645   1.28033    0.011
 6196.00    1.16111   1.27921   -2.000
 6197.00    1.28469   1.27694   -2.000
 6198.00    1.44099   1.27348   -2.000
 6199.00    1.34738   1.27183   -2.000
 6200.00    1.16520   1.26742   -2.000
 6201.00    0.92768   1.26244   -2.000
 6202.00    0.67360   1.26075   -2.000
 6203.00    0.66283   1.25505   -2.000
 6204.00    0.71250   1.25001   -2.000
 6205.00    0.89257   1.24879   -2.000
 6206.00    1.09890   1.24322   -2.000
 6207.00    1.14781   1.23971   -2.000
 6208.00    1.17188   1.23909    0.011
 6209.00    1.14098   1.23461    0.011
 6210.00    1.10363   1.23317    0.011
 6211.00    1.16881   1.23250    0.011
 6212.00    1.24213   1.22962    0.011
 6213.00    1.30413   1.23013    0.010
 6214.00    1.36563   1.22849    0.010
 6215.00    1.32846   1.22682    0.010
 6216.00    1.28962   1.22908    0.010
 6217.00    1.22196   1.22646    0.010
 6218.00    1.15841   1.22516    0.010
 6219.00    1.16998   1.22840    0.010
 6220.00    1.18150   1.22535    0.010
 6221.00    1.19252   1.22356    0.010
 6222.00    1.20143   1.22726    0.010
 6223.00    1.19398   1.22506    0.010
 6224.00    1.18754   1.22234    0.010
 6225.00    1.18704   1.22558    0.010
 6226.00    1.18259   1.22489    0.010
 6227.00    1.15984   1.22058    0.011
 6228.00    1.14245   1.22259    0.011
 6229.00    1.14546   1.22362    0.011
 6230.00    1.16154   1.21751    0.011
 6231.00    1.21896   1.21854    0.011
 6232.00    1.25932   1.22137    0.011
 6233.00    1.25390   1.21405    0.011
 6234.00    1.24564   1.21402    0.011
 6235.00    1.23085   1.21790    0.011
 6236.00    1.22324   1.21071    0.010
 6237.00    1.22997   1.20983    0.010
 6238.00    1.21919   1.21392    0.010
 6239.00    1.17804   1.20782    0.010
 6240.00    1.15540   1.20636    0.010
 6241.00    1.16090   1.21014    0.010
 6242.00    1.17018   1.20550    0.010
 6243.00    1.18449   1.20396    0.010
 6244.00    1.18856   1.20819    0.010
 6245.00    1.18061   1.20606    0.010
 6246.00    1.17492   1.20515    0.010
 6247.00    1.17156   1.21041    0.010
 6248.00    1.16305   1.21054    0.010
 6249.00    1.14984   1.21039    0.010
 6250.00    1.14582   1.21741    0.010
 6251.00    1.14921   1.22012    0.010
 6252.00    1.17864   1.22027    0.010
 6253.00    1.22654   1.22740    0.010
 6254.00    1.26471   1.23213    0.011
 6255.00    1.29682   1.23224    0.011
 6256.00    1.29871   1.23782    0.011
 6257.00    1.28419   1.24346    0.011
 6258.00    1.26781   1.24378    0.011
 6259.00    1.25055   1.24748    0.011
 6260.00    1.24031   1.25250    0.012
 6261.00    1.23292   1.25239    0.013
 6262.00    1.18445   1.25485    0.013
 6263.00    1.12169   1.25906    0.013
 6264.00    1.07050   1.25825    0.013
 6265.00    1.02271   1.25998    0.013
 6266.00    1.01891   1.26341    0.012
 6267.00    1.02581   1.26222    0.011
 6268.00    1.07693   1.26392    0.011
 6269.00    1.13675   1.26663    0.011
 6270.00    1.14071   1.26567    0.010
 6271.00    1.13614   1.26757    0.010
 6272.00    1.11499   1.26937    0.010
 6273.00    1.09197   1.26911    0.010
 6274.00    1.14036   1.27087    0.010
 6275.00    1.19412   1.27149    0.010
 6276.00    1.21989   1.27178    0.010
 6277.00    1.24452   1.27242    0.011
 6278.00    1.21194   1.27177    0.010
 6279.00    1.17987   1.27224    0.010
 6280.00    1.18549   1.27125    0.000
 6281.00    1.19238   1.26959    0.000
 6282.00    1.22077   1.26999    0.000
 6283.00    1.24590   1.26767    0.000
 6284.00    1.23671   1.26551    0.000
 6285.00    1.22644   1.26576    0.000
 6286.00    1.20811   1.26326    0.000
 6287.00    1.19382   1.26163    0.000
 6288.00    1.20250   1.26207    0.000
 6289.00    1.20704   1.25983    0.000
 6290.00    1.19288   1.25904    0.000
 6291.00    1.17786   1.26067    0.000
 6292.00    1.15964   1.25930    0.000
 6293.00    1.14037   1.25842    0.000
 6294.00    1.11779   1.26101    0.000
 6295.00    1.09675   1.26075    0.000
 6296.00    1.07979   1.25903    0.000
 6297.00    1.08312   1.26177    0.000
 6298.00    1.13237   1.26215    0.000
 6299.00    1.17454   1.25885    0.000
 6300.00    1.20281   1.26150    0.000
 6301.00    1.21208   1.26284    0.000
 6302.00    1.18884   1.25800    0.000
 6303.00    1.16567   1.26006    0.000
 6304.00    1.14261   1.26283    0.000
 6305.00    1.14386   1.25800    0.000
 6306.00    1.17712   1.25947    0.000
 6307.00    1.20094   1.26357    0.000
 6308.00    1.21381   1.26035    0.000
 6309.00    1.21034   1.26174    0.000
 6310.00    1.19016   1.26665    0.000
 6311.00    1.20447   1.26510    0.000
 6312.00    1.24988   1.26669    0.000
 6313.00    1.28765   1.27185    0.000
 6314.00    1.31935   1.27107    0.000
 6315.00    1.30155   1.27258    0.000
 6316.00    1.24915   1.27698    0.000
 6317.00    1.18806   1.27599    0.000
 6318.00    1.12165   1.27731    0.000
 6319.00    1.10580   1.28001    0.000
 6320.00    1.11702   1.27785    0.000
 6321.00    1.14983   1.27906    0.010
 6322.00    1.19267   1.28044    0.010
 6323.00    1.23357   1.27737    0.010
 6324.00    1.27368   1.27844    0.010
 6325.00    1.29153   1.27884    0.010
 6326.00    1.30177   1.27586    0.010
 6327.00    1.31815   1.27707    0.010
 6328.00    1.33628   1.27676    0.010
 6329.00    1.31214   1.27473    0.010
 6330.00    1.27794   1.27636    0.010
 6331.00    1.27398   1.27578    0.010
 6332.00    1.27579   1.27479    0.010
 6333.00    1.27541   1.27632    0.010
 6334.00    1.27470   1.27554    0.010
 6335.00    1.27586   1.27514    0.010
 6336.00    1.27722   1.27564    0.010
 6337.00    1.27866   1.27445    0.010
 6338.00    1.28011   1.27411    0.010
 6339.00    1.28896   1.27282    0.010
 6340.00    1.29808   1.27079    0.010
 6341.00    1.25760   1.27017    0.010
 6342.00    1.21839   1.26720    0.010
 6343.00    1.23030   1.26448    0.010
 6344.00    1.24351   1.26366    0.010
 6345.00    1.27727   1.25992    0.010
 6346.00    1.30818   1.25737    0.010
 6347.00    1.31035   1.25712    0.010
 6348.00    1.30920   1.25402    0.010
 6349.00    1.28414   1.25276    0.010
 6350.00    1.25728   1.25393    0.010
 6351.00    1.22045   1.25283    0.010
 6352.00    1.19347   1.25366    0.010
 6353.00    1.21003   1.25650    0.010
 6354.00    1.21913   1.25786    0.010
 6355.00    1.20111   1.26084    0.010
 6356.00    1.18723   1.26476    0.010
 6357.00    1.18594   1.26793    0.010
 6358.00    1.19016   1.27224    0.010
 6359.00    1.20863   1.27611    0.010
 6360.00    1.20746   1.27988    0.010
 6361.00    1.16255   1.28437    0.010
 6362.00    1.14212   1.28703    0.010
 6363.00    1.16896   1.29026    0.010
 6364.00    1.18223   1.29407    0.010
 6365.00    1.17265   1.29494    0.010
 6366.00    1.15653   1.29701    0.010
 6367.00    1.13077   1.29988    0.010
 6368.00    1.12160   1.29902    0.010
 6369.00    1.13395   1.29985    0.010
 6370.00    1.14329   1.30201    0.010
 6371.00    1.14919   1.29989    0.010
 6372.00    1.18106   1.29964    0.010
 6373.00    1.23910   1.30143    0.010
 6374.00    1.28493   1.29852    0.010
 6375.00    1.31990   1.29736    0.010
 6376.00    1.30413   1.29913    0.010
 6377.00    1.24863   1.29582    0.010
 6378.00    1.24730   1.29383    0.010
 6379.00    1.28327   1.29594    0.010
 6380.00    1.31355   1.29262    0.010
 6381.00    1.34039   1.28993    0.010
 6382.00    1.34297   1.29270    0.010
 6383.00    1.33276   1.28985    0.010
 6384.00    1.31606   1.28675    0.010
 6385.00    1.29640   1.29030    0.010
 6386.00    1.27985   1.28824    0.010
 6387.00    1.26452   1.28520    0.010
 6388.00    1.25404   1.28932    0.010
 6389.00    1.24519   1.28792    0.010
 6390.00    1.22613   1.28544    0.010
 6391.00    1.20421   1.28968    0.010
 6392.00    1.18844   1.28834    0.010
 6393.00    1.17410   1.28668    0.010
 6394.00    1.15328   1.29067    0.010
 6395.00    1.13125   1.28873    0.010
 6396.00    1.13237   1.28786    0.010
 6397.00    1.13681   1.29147    0.010
 6398.00    1.12332   1.28876    0.010
 6399.00    1.10796   1.28837    0.010
 6400.00    1.10526   1.29175    0.010
 6401.00    1.10341   1.28870    0.010
 6402.00    1.12289   1.28846    0.010
 6403.00    1.14306   1.29174    0.010
 6404.00    1.10761   1.28921    0.010
 6405.00    1.07404   1.28887    0.010
 6406.00    1.09977   1.29202    0.010
 6407.00    1.12815   1.29074    0.010
 6408.00    1.19647   1.29021    0.010
 6409.00    1.25899   1.29300    0.010
 6410.00    1.26550   1.29320    0.010
 6411.00    1.26834   1.29248    0.010
 6412.00    1.24547   1.29463    0.010
 6413.00    1.22421   1.29600    0.010
 6414.00    1.21163   1.29506    0.010
 6415.00    1.20421   1.29646    0.010
 6416.00    1.21909   1.29840    0.010
 6417.00    1.23219   1.29729    0.010
 6418.00    1.23896   1.29817    0.010
 6419.00    1.24729   1.30017    0.010
 6420.00    1.26030   1.29899    0.010
 6421.00    1.27249   1.29985    0.010
 6422.00    1.28260   1.30164    0.010
 6423.00    1.28836   1.30054    0.010
 6424.00    1.28459   1.30170    0.010
 6425.00    1.26980   1.30322    0.010
 6426.00    1.23405   1.30229    0.010
 6427.00    1.20379   1.30361    0.010
 6428.00    1.18264   1.30472    0.010
 6429.00    1.16966   1.30396    0.010
 6430.00    1.16856   1.30479    0.010
 6431.00    1.18113   1.30522    0.010
 6432.00    1.21117   1.30473    0.011
 6433.00    1.23153   1.30441    0.010
 6434.00    1.24096   1.30388    0.010
 6435.00    1.25132   1.30402    0.010
 6436.00    1.26260   1.30251    0.010
 6437.00    1.25801   1.30101    0.010
 6438.00    1.23950   1.30220    0.010
 6439.00    1.19783   1.30019    0.010
 6440.00    1.13826   1.29799    0.010
 6441.00    1.12079   1.30042    0.010
 6442.00    1.13190   1.29900    0.010
 6443.00    1.16180   1.29637    0.010
 6444.00    1.20286   1.29974    0.010
 6445.00    1.22273   1.29970    0.010
 6446.00    1.23161   1.29686    0.010
 6447.00    1.22364   1.30037    0.010
 6448.00    1.20810   1.30199    0.010
 6449.00    1.16734   1.29905    0.010
 6450.00    1.11682   1.30185    0.010
 6451.00    1.09233   1.30490    0.010
 6452.00    1.07640   1.30204    0.010
 6453.00    1.11562   1.30357    0.010
 6454.00    1.17006   1.30746    0.010
 6455.00    1.17603   1.30499    0.010
 6456.00    1.17101   1.30499    0.010
 6457.00    1.18251   1.30905    0.010
 6458.00    1.19701   1.30712    0.010
 6459.00    1.25349   1.30563    0.010
 6460.00    1.31582   1.30906    0.010
 6461.00    1.34237   1.30771    0.010
 6462.00    1.36535   1.30490    0.010
 6463.00    1.34195   1.30704    0.010
 6464.00    1.31561   1.30607    0.010
 6465.00    1.23962   1.30221    0.010
 6466.00    1.16237   1.30257    0.010
 6467.00    1.13654   1.30165    0.009
 6468.00    1.11291   1.29702    0.009
 6469.00    1.15072   1.29537    0.009
 6470.00    1.18613   1.29403    0.010
 6471.00    1.18761   1.28878    0.010
 6472.00    1.18882   1.28515    0.010
 6473.00    1.18750   1.28294    0.010
 6474.00    1.18478   1.27710    0.010
 6475.00    1.17250   1.27181    0.010
 6476.00    1.16573   1.26872    0.010
 6477.00    1.18784   1.26249    0.010
 6478.00    1.21682   1.25639    0.010
 6479.00    1.27483   1.25306    0.010
 6480.00    1.32103   1.24728    0.010
 6481.00    1.32607   1.24175    0.010
 6482.00    1.31667   1.23953    0.010
 6483.00    1.26492   1.23547    0.010
 6484.00    1.23089   1.23218    0.010
 6485.00    1.24114   1.23239    0.010
 6486.00    1.24440   1.23115    0.010
 6487.00    1.23259   1.23114    0.010
 6488.00    1.22107   1.23433    0.010
 6489.00    1.21007   1.23600    0.010
 6490.00    1.21040   1.23903    0.010
 6491.00    1.22925   1.24456    0.010
 6492.00    1.23805   1.24812    0.010
 6493.00    1.23246   1.25269    0.010
 6494.00    1.20922   1.25910    0.009
 6495.00    1.16375   1.26305    0.010
 6496.00    1.11777   1.26728    0.010
 6497.00    1.07121   1.27308    0.010
 6498.00    1.06604   1.27633    0.010
 6499.00    1.10144   1.27896    0.010
 6500.00    1.11858   1.28330    0.010
 6501.00    1.11995   1.28557    0.010
 6502.00    1.11341   1.28639    0.010
 6503.00    1.10084   1.28918    0.010
 6504.00    1.12930   1.29080    0.010
 6505.00    1.18520   1.29043    0.010
 6506.00    1.22177   1.29211    0.010
 6507.00    1.24702   1.29346    0.010
 6508.00    1.25844   1.29275    0.010
 6509.00    1.26279   1.29385    0.010
 6510.00    1.27303   1.29508    0.010
 6511.00    1.28587   1.29455    0.010
 6512.00    1.30370   1.29548    0.010
 6513.00    1.32341   1.29656    0.010
 6514.00    1.31482   1.29629    0.010
 6515.00    1.29709   1.29720    0.010
 6516.00    1.27031   1.29805    0.010
 6517.00    1.24108   1.29786    0.009
 6518.00    1.20196   1.29867    0.009
 6519.00    1.16064   1.29930    0.009
 6520.00    1.15354   1.29895    0.010
 6521.00    1.15248   1.29934    0.010
 6522.00    1.15058   1.29971    0.010
 6523.00    1.14858   1.29895    0.010
 6524.00    1.15102   1.29851    0.010
 6525.00    1.15389   1.29839    0.010
 6526.00    1.18260   1.29695    0.010
 6527.00    1.21285   1.29526    0.010
 6528.00    1.22214   1.29428    0.000
 6529.00    1.23104   1.29191    0.000
 6530.00    1.25882   1.28864    0.000
 6531.00    1.28512   1.28647    0.000
 6532.00    1.27400   1.28301    0.000
 6533.00    1.26124   1.27804    0.000
 6534.00    1.22664   1.27437    0.000
 6535.00    1.19885   1.26987    0.000
 6536.00    1.23161   1.26323    0.000
 6537.00    1.26438   1.25773    0.000
 6538.00    1.29718   1.25243    0.000
 6539.00    1.32130   1.24443    0.000
 6540.00    1.30102   1.23675    0.000
 6541.00    1.27908   1.23106    0.000
 6542.00    1.25028   1.22259    0.000
 6543.00    1.22084   1.21277    0.000
 6544.00    1.18918   1.20731    0.000
 6545.00    1.16293   1.20013    0.000
 6546.00    1.15222   1.18908    0.000
 6547.00    1.16054   1.18462    0.000
 6548.00    1.21567   1.18099    0.000
 6549.00    1.28022   1.17075    0.000
 6550.00    1.36474   1.16801    0.000
 6551.00    1.41432   1.16968    0.000
 6552.00    1.39954   1.16265    0.000
 6553.00    1.36236   1.16197    0.000
 6554.00    1.28913   1.16904    0.000
 6555.00    1.23370   1.16678    0.000
 6556.00    1.20340   1.16800    0.000
 6557.00    1.18551   1.17871    0.000
 6558.00    1.18303   1.18107    0.000
 6559.00    1.20387   1.18369    0.000
 6560.00    1.25026   1.19536    0.000
 6561.00    1.36783   1.20067    0.000
 6562.00    1.55416   1.20407    0.000
 6563.00    1.77412   1.21450    0.000
 6564.00    2.02272   1.22057    0.000
 6565.00    2.16706   1.22415    0.000
 6566.00    2.23316   1.23223    0.000
 6567.00    2.14723   1.23733    0.000
 6568.00    1.96108   1.24061    0.000
 6569.00    1.73417   1.24629    0.000
 6570.00    1.48374   1.24940    0.000
 6571.00    1.32825   1.25199    0.000
 6572.00    1.22048   1.25571    0.000
 6573.00    1.17347   1.25655    0.000
 6574.00    1.15291   1.25817    0.000
 6575.00    1.18390   1.26062    0.000
 6576.00    1.23415   1.25953    0.000
 6577.00    1.26054   1.26007    0.000
 6578.00    1.27938   1.26201    0.000
 6579.00    1.27663   1.25984    0.000
 6580.00    1.26817   1.25946    0.000
 6581.00    1.26670   1.26149    0.000
 6582.00    1.26675   1.25931    0.000
 6583.00    1.34679   1.25836    0.000
 6584.00    1.44055   1.26072    0.000
 6585.00    1.54305   1.25936    0.000
 6586.00    1.64669   1.25822    0.000
 6587.00    1.67758   1.26070    0.000
 6588.00    1.70183   1.26049    0.000
 6589.00    1.64101   1.25945    0.000
 6590.00    1.57550   1.26169    0.000
 6591.00    1.46683   1.26244    0.000
 6592.00    1.35768   1.26172    0.000
 6593.00    1.29060   1.26347    0.000
 6594.00    1.22649   1.26479    0.000
 6595.00    1.23055   1.26464    0.000
 6596.00    1.23143   1.26595    0.000
 6597.00    1.19201   1.26751    0.000
 6598.00    1.15769   1.26804    0.000
 6599.00    1.16710   1.26912    0.000
 6600.00    1.17811   1.27066    0.000
 6601.00    1.19932   1.27159    0.000
 6602.00    1.21759   1.27252    0.000
 6603.00    1.22121   1.27381    0.000
 6604.00    1.21717   1.27454    0.000
 6605.00    1.18218   1.27502    0.000
 6606.00    1.14905   1.27589    0.000
 6607.00    1.12213   1.27582    0.000
 6608.00    1.10247   1.27533    0.000
 6609.00    1.10335   1.27571    0.009
 6610.00    1.11703   1.27469    0.009
 6611.00    1.16164   1.27289    0.009
 6612.00    1.19787   1.27282    0.010
 6613.00    1.21658   1.27120    0.009
 6614.00    1.21678   1.26819    0.009
 6615.00    1.18342   1.26785    0.010
 6616.00    1.17605   1.26638    0.010
 6617.00    1.20989   1.26262    0.010
 6618.00    1.24582   1.26219    0.010
 6619.00    1.28466   1.26160    0.010
 6620.00    1.29470   1.25777    0.010
 6621.00    1.26946   1.25737    0.010
 6622.00    1.25598   1.25805    0.010
 6623.00    1.25520   1.25472    0.010
 6624.00    1.24592   1.25428    0.010
 6625.00    1.22856   1.25622    0.010
 6626.00    1.20274   1.25378    0.010
 6627.00    1.16982   1.25305    0.009
 6628.00    1.15835   1.25576    0.009
 6629.00    1.16275   1.25449    0.009
 6630.00    1.16103   1.25330    0.009
 6631.00    1.15534   1.25594    0.009
 6632.00    1.14545   1.25593    0.009
 6633.00    1.13319   1.25440    0.009
 6634.00    1.14107   1.25607    0.009
 6635.00    1.15891   1.25702    0.010
 6636.00    1.20508   1.25556    0.010
 6637.00    1.26338   1.25568    0.010
 6638.00    1.27137   1.25692    0.010
 6639.00    1.26091   1.25597    0.010
 6640.00    1.24072   1.25442    0.010
 6641.00    1.21750   1.25515    0.010
 6642.00    1.22122   1.25497    0.010
 6643.00    1.23191   1.25226    0.010
 6644.00    1.22681   1.25194    0.010
 6645.00    1.21838   1.25241    0.010
 6646.00    1.20193   1.24929    0.010
 6647.00    1.18413   1.24797    0.010
 6648.00    1.16677   1.24888    0.009
 6649.00    1.14946   1.24615    0.009
 6650.00    1.13163   1.24427    0.009
 6651.00    1.11375   1.24536    0.009
 6652.00    1.09837   1.24352    0.009
 6653.00    1.08311   1.24184    0.009
 6654.00    1.09796   1.24280    0.009
 6655.00    1.11322   1.24164    0.010
 6656.00    1.12068   1.24077    0.010
 6657.00    1.12847   1.24160    0.010
 6658.00    1.14343   1.24039    0.010
 6659.00    1.15645   1.24038    0.010
 6660.00    1.14606   1.24142    0.010
 6661.00    1.14035   1.23971    0.010
 6662.00    1.17330   1.24001    0.010
 6663.00    1.20311   1.24150    0.010
 6664.00    1.21358   1.23934    0.010
 6665.00    1.21767   1.23942    0.010
 6666.00    1.19070   1.24160    0.010
 6667.00    1.16439   1.23961    0.010
 6668.00    1.14063   1.23909    0.010
 6669.00    1.12599   1.24180    0.009
 6670.00    1.14127   1.24075    0.009
 6671.00    1.16291   1.23974    0.009
 6672.00    1.20218   1.24233    0.009
 6673.00    1.23462   1.24229    0.009
 6674.00    1.25085   1.24123    0.009
 6675.00    1.25557   1.24307    0.009
 6676.00    1.23667   1.24339    0.009
 6677.00    1.20581   1.24256    0.009
 6678.00    1.15360   1.24342    0.009
 6679.00    1.13251   1.24351    0.009
 6680.00    1.16005   1.24306    0.010
 6681.00    1.18931   1.24299    0.010
 6682.00    1.22092   1.24245    0.010
 6683.00    1.24663   1.24222    0.010
 6684.00    1.26521   1.24147    0.010
 6685.00    1.26740   1.24041    0.010
 6686.00    1.25213   1.24038    0.010
 6687.00    1.24121   1.23919    0.010
 6688.00    1.23437   1.23781    0.010
 6689.00    1.21964   1.23796    0.010
 6690.00    1.19838   1.23640    0.010
 6691.00    1.19810   1.23470    0.010
 6692.00    1.21313   1.23499    0.010
 6693.00    1.22563   1.23311    0.010
 6694.00    1.23652   1.23090    0.010
 6695.00    1.21331   1.23111    0.010
 6696.00    1.17102   1.22927    0.000
 6697.00    1.13122   1.22642    0.000
 6698.00    1.09263   1.22622    0.000
 6699.00    1.12071   1.22497    0.000
 6700.00    1.17683   1.22190    0.000
 6701.00    1.18908   1.22117    0.000
 6702.00    1.18552   1.22089    0.000
 6703.00    1.15034   1.21852    0.000
 6704.00    1.10553   1.21766    0.000
 6705.00    1.11142   1.21805    0.000
 6706.00    1.13016   1.21678    0.000
 6707.00    1.14194   1.21657    0.000
 6708.00    1.15229   1.21762    0.000
 6709.00    1.16330   1.21729    0.000
 6710.00    1.17443   1.21787    0.000
 6711.00    1.18035   1.21948    0.000
 6712.00    1.18565   1.21988    0.000
 6713.00    1.19869   1.22098    0.000
 6714.00    1.21238   1.22271    0.000
 6715.00    1.29090   1.22329    0.000
 6716.00    1.37249   1.22427    0.000
 6717.00    1.46221   1.22570    0.000
 6718.00    1.54991   1.22610    0.000
 6719.00    1.51782   1.22659    0.000
 6720.00    1.48332   1.22736    0.000
 6721.00    1.40202   1.22736    0.000
 6722.00    1.32156   1.22692    0.000
 6723.00    1.25072   1.22675    0.000
 6724.00    1.18696   1.22682    0.000
 6725.00    1.17958   1.22587    0.000
 6726.00    1.17040   1.22437    0.000
 6727.00    1.15035   1.22435    0.000
 6728.00    1.13938   1.22382    0.000
 6729.00    1.17140   1.22153    0.000
 6730.00    1.21125   1.22096    0.000
 6731.00    1.28130   1.22139    0.000
 6732.00    1.34382   1.21925    0.000
 6733.00    1.38214   1.21785    0.000
 6734.00    1.38909   1.21953    0.000
 6735.00    1.31051   1.21854    0.000
 6736.00    1.23551   1.21634    0.000
 6737.00    1.16888   1.21903    0.000
 6738.00    1.12715   1.21974    0.000
 6739.00    1.13576   1.21734    0.000
 6740.00    1.14770   1.22036    0.000
 6741.00    1.16549   1.22261    0.000
 6742.00    1.16676   1.22068    0.000
 6743.00    1.14259   1.22334    0.000
 6744.00    1.12054   1.22640    0.000
 6745.00    1.10136   1.22517    0.000
 6746.00    1.10367   1.22707    0.000
 6747.00    1.13158   1.22999    0.000
 6748.00    1.15419   1.22933    0.000
 6749.00    1.17123   1.23050    0.000
 6750.00    1.17640   1.23258    0.000
 6751.00    1.17058   1.23208    0.000
 6752.00    1.16558   1.23294    0.000
 6753.00    1.16125   1.23415    0.011
 6754.00    1.14870   1.23323    0.011
 6755.00    1.13025   1.23415    0.011
 6756.00    1.11010   1.23536    0.011
 6757.00    1.08888   1.23396    0.011
 6758.00    1.08953   1.23459    0.011
 6759.00    1.10223   1.23620    0.011
 6760.00    1.17179   1.23481    0.011
 6761.00    1.26859   1.23497    0.011
 6762.00    1.33426   1.23680    0.011
 6763.00    1.38705   1.23539    0.012
 6764.00    1.38570   1.23481    0.012
 6765.00    1.36521   1.23658    0.012
 6766.00    1.34157   1.23514    0.011
 6767.00    1.31699   1.23375    0.011
 6768.00    1.29491   1.23509    0.011
 6769.00    1.27346   1.23345    0.011
 6770.00    1.27067   1.23122    0.011
 6771.00    1.27163   1.23247    0.011
 6772.00    1.27746   1.23117    0.011
 6773.00    1.28406   1.22842    0.011
 6774.00    1.18252   1.22979    0.011
 6775.00    1.06837   1.22929    0.011
 6776.00    1.05952   1.22610    0.010
 6777.00    1.05898   1.22726    0.010
 6778.00    1.11565   1.22823    0.010
 6779.00    1.17481   1.22532    0.010
 6780.00    1.17169   1.22580    0.010
 6781.00    1.16795   1.22790    0.011
 6782.00    1.16561   1.22612    0.010
 6783.00    1.16202   1.22606    0.010
 6784.00    1.13585   1.22843    0.010
 6785.00    1.10984   1.22805    0.010
 6786.00    1.08546   1.22751    0.010
 6787.00    1.06436   1.22911    0.010
 6788.00    1.06840   1.23029    0.010
 6789.00    1.08157   1.22964    0.010
 6790.00    1.14799   1.22964    0.011
 6791.00    1.20325   1.23186    0.011
 6792.00    1.20697   1.23171    0.011
 6793.00    1.21350   1.23027    0.011
 6794.00    1.23066   1.23263    0.011
 6795.00    1.23543   1.23325    0.011
 6796.00    1.20109   1.23121    0.011
 6797.00    1.17529   1.23293    0.011
 6798.00    1.17235   1.23408    0.011
 6799.00    1.17993   1.23260    0.010
 6800.00    1.21169   1.23351    0.010
 6801.00    1.22895   1.23448    0.010
 6802.00    1.21738   1.23407    0.010
 6803.00    1.18318   1.23474    0.010
 6804.00    1.10979   1.23546    0.010
 6805.00    1.07291   1.23571    0.010
 6806.00    1.09141   1.23619    0.010
 6807.00    1.09423   1.23677    0.010
 6808.00    1.07618   1.23733    0.010
 6809.00    1.08345   1.23776    0.010
 6810.00    1.12046   1.23815    0.010
 6811.00    1.14489   1.23846    0.011
 6812.00    1.15633   1.23880    0.011
 6813.00    1.17309   1.23905    0.011
 6814.00    1.19473   1.23865    0.011
 6815.00    1.21562   1.23850    0.011
 6816.00    1.23591   1.23856    0.011
 6817.00    1.22207   1.23785    0.011
 6818.00    1.18406   1.23711    0.010
 6819.00    1.19012   1.23642    0.010
 6820.00    1.22357   1.23567    0.010
 6821.00    1.24536   1.23482    0.010
 6822.00    1.26082   1.23318    0.010
 6823.00    1.24867   1.23213    0.010
 6824.00    1.22349   1.23144    0.010
 6825.00    1.20132   1.22941    0.010
 6826.00    1.18037   1.22817    0.010
 6827.00    1.17289   1.22762    0.010
 6828.00    1.17010   1.22574    0.010
 6829.00    1.18152   1.22470    0.010
 6830.00    1.19711   1.22451    0.010
 6831.00    1.18689   1.22324    0.010
 6832.00    1.17042   1.22239    0.010
 6833.00    1.13703   1.22270    0.010
 6834.00    1.10031   1.22210    0.010
 6835.00    1.15315   1.22105    0.010
 6836.00    1.21964   1.22159    0.011
 6837.00    1.22135   1.22123    0.011
 6838.00    1.21580   1.21952    0.011
 6839.00    1.16077   1.22048    0.011
 6840.00    1.10205   1.22042    0.011
 6841.00    1.10316   1.21740    0.011
 6842.00    1.10666   1.21847    0.011
 6843.00    1.11436   1.21943    0.010
 6844.00    1.12316   1.21523    0.010
 6845.00    1.17419   1.21542    0.010
 6846.00    1.22085   1.21792    0.010
 6847.00    1.19396   1.21419    0.010
 6848.00    1.16711   1.21287    0.010
 6849.00    1.14078   1.21621    0.010
 6850.00    1.12359   1.21425    0.010
 6851.00    1.17425   1.21126    0.010
 6852.00    1.21254   1.21441    0.010
 6853.00    1.18066   1.21547    0.010
 6854.00    1.14488   1.21209    0.010
 6855.00    1.09150   1.21336    0.010
 6856.00    1.05070   1.21616    0.010
 6857.00    1.05647   1.21389    0.010
 6858.00    1.05045   1.21343    0.010
 6859.00    1.00795   1.21693    0.010
 6860.00    0.98674   1.21712    0.010
 6861.00    1.02159   1.21558    0.010
 6862.00    1.05448   1.21749    0.010
 6863.00    1.08293   1.21977    0.010
 6864.00    1.08722   1.21946    0.010
 6865.00    1.04421   1.21963    0.010
 6866.00    1.03066   1.22204    0.010
 6867.00    1.06739   1.22381    0.010
 6868.00    1.08737   1.22358    0.010
 6869.00    1.08233   1.22473    0.010
 6870.00    1.06951   1.22784    0.010
 6871.00    1.04646   1.22850    0.010
 6872.00    1.04901   1.22809    0.010
 6873.00    1.08117   1.23160    0.010
 6874.00    1.10749   1.23448    0.010
 6875.00    1.12784   1.23335    0.010
 6876.00    1.09411   1.23532    0.010
 6877.00    1.01171   1.23967    0.010
 6878.00    0.99504   1.23933    0.010
 6879.00    1.03052   1.23942    0.010
 6880.00    1.09989   1.24372    0.010
 6881.00    1.19293   1.24474    0.010
 6882.00    1.20941   1.24359    0.010
 6883.00    1.17904   1.24648    0.010
 6884.00    1.12964   1.24866    0.010
 6885.00    1.07005   1.24760    0.010
 6886.00    1.04663   1.24858    0.010
 6887.00    1.03998   1.25087    0.010
 6888.00    1.04134   1.25094    0.010
 6889.00    1.04591   1.25060    0.010
 6890.00    1.08354   1.25167    0.010
 6891.00    1.13243   1.25255    0.010
 6892.00    1.16569   1.25237    0.010
 6893.00    1.19447   1.25229    0.010
 6894.00    1.22484   1.25246    0.010
 6895.00    1.25560   1.25263    0.010
 6896.00    1.22594   1.25245    0.010
 6897.00    1.18475   1.25151    0.011
 6898.00    1.20866   1.25167    0.010
 6899.00    1.24219   1.25166    0.010
 6900.00    1.20380   1.24966    0.010
 6901.00    1.15764   1.24966    0.010
 6902.00    1.08505   1.25006    0.010
 6903.00    1.01059   1.24737    0.010
 6904.00    1.02962   1.24718    0.010
 6905.00    1.05201   1.24821    0.010
 6906.00    1.07163   1.24568    0.010
 6907.00    1.09190   1.24506    0.010
 6908.00    1.13489   1.24621    0.010
 6909.00    1.17387   1.24466    0.010
 6910.00    1.14933   1.24370    0.010
 6911.00    1.11951   1.24462    0.010
 6912.00    1.03687   1.24410    0.010
 6913.00    0.97389   1.24294    0.010
 6914.00    1.05230   1.24347    0.010
 6915.00    1.12716   1.24355    0.010
 6916.00    1.18251   1.24288    0.010
 6917.00    1.21530   1.24369    0.011
 6918.00    1.14864   1.24396    0.011
 6919.00    1.09469   1.24330    0.010
 6920.00    1.08685   1.24433    0.010
 6921.00    1.08989   1.24480    0.010
 6922.00    1.12597   1.24385    0.010
 6923.00    1.14071   1.24482    0.010
 6924.00    1.10028   1.24559    0.010
 6925.00    1.06849   1.24480    0.010
 6926.00    1.05593   1.24543    0.010
 6927.00    1.05430   1.24572    0.010
 6928.00    1.07375   1.24499    0.010
 6929.00    1.09558   1.24583    0.010
 6930.00    1.12145   1.24574    0.010
 6931.00    1.11979   1.24445    0.010
 6932.00    1.07761   1.24568    0.010
 6933.00    1.06562   1.24601    0.010
 6934.00    1.09273   1.24382    0.010
 6935.00    1.11127   1.24509    0.011
 6936.00    1.12004   1.24667    0.011
 6937.00    1.11754   1.24440    0.011
 6938.00    1.10371   1.24532    0.011
 6939.00    1.09609   1.24806    0.011
 6940.00    1.09397   1.24654    0.011
 6941.00    1.09506   1.24684    0.011
 6942.00    1.09864   1.24991    0.011
 6943.00    1.08268   1.24963    0.010
 6944.00    1.05328   1.24961    0.010
 6945.00    1.06922   1.25252    0.010
 6946.00    1.11249   1.25362    0.010
 6947.00    1.10833   1.25344    0.010
 6948.00    1.07920   1.25533    0.010
 6949.00    1.05214   1.25717    0.010
 6950.00    1.02602   1.25719    0.010
 6951.00    1.03257   1.25755    0.010
 6952.00    1.05196   1.25899    0.010
 6953.00    1.09859   1.25960    0.010
 6954.00    1.15432   1.25845    0.011
 6955.00    1.18561   1.25826    0.011
 6956.00    1.21002   1.25942    0.011
 6957.00    1.13633   1.25762    0.010
 6958.00    1.03993   1.25568    0.010
 6959.00    0.96553   1.25711    0.010
 6960.00    0.89522   1.25547    0.011
 6961.00    0.98603   1.25231    0.010
 6962.00    1.09990   1.25377    0.010
 6963.00    1.15727   1.25316    0.011
 6964.00    1.20879   1.24924    0.011
 6965.00    1.26371   1.25003    0.011
 6966.00    1.31886   1.25190    0.010
 6967.00    1.25289   1.24869    0.010
 6968.00    1.18303   1.24777    0.010
 6969.00    1.15553   1.25160    0.010
 6970.00    1.12829   1.25090    0.010
 6971.00    1.10861   1.24916    0.010
 6972.00    1.08768   1.25307    0.010
 6973.00    1.04809   1.25491    0.010
 6974.00    1.00786   1.25380    0.010
 6975.00    0.96149   1.25591    0.011
 6976.00    0.92523   1.25805    0.011
 6977.00    0.95926   1.25795    0.011
 6978.00    0.99088   1.25846    0.011
 6979.00    1.00963   1.25974    0.011
 6980.00    1.01679   1.26010    0.011
 6981.00    0.97410   1.26003    0.011
 6982.00    0.94418   1.26028    0.011
 6983.00    0.95960   1.25995    0.010
 6984.00    0.98486   1.25967    0.010
 6985.00    1.03950   1.25956    0.010
 6986.00    1.08430   1.25840    0.010
 6987.00    1.10413   1.25774    0.010
 6988.00    1.10735   1.25743    0.010
 6989.00    1.07424   1.25590    0.010
 6990.00    1.06383   1.25501    0.010
 6991.00    1.09649   1.25466    0.010
 6992.00    1.14339   1.25301    0.010
 6993.00    1.21387   1.25197    0.010
 6994.00    1.22435   1.25221    0.011
 6995.00    1.14775   1.25087    0.011
 6996.00    1.11577   1.24918    0.011
 6997.00    1.14076   1.24968    0.011
 6998.00    1.14269   1.24944    0.011
 6999.00    1.11868   1.24788    0.011
 7000.00    1.09257   1.24824    0.011
 7001.00    1.06437   1.24872    0.011
 7002.00    1.06114   1.24713    0.011
 7003.00    1.07976   1.24702    0.011
 7004.00    1.05619   1.24828    0.011
 7005.00    1.00010   1.24721    0.010
 7006.00    0.97522   1.24712    0.010
 7007.00    0.97148   1.24936    0.010
 7008.00    0.98211   1.24862    0.010
 7009.00    1.00127   1.24781    0.011
 7010.00    1.00016   1.25084    0.011
 7011.00    0.98855   1.25234    0.011
 7012.00    1.03160   1.25191    0.011
 7013.00    1.09919   1.25335    0.011
 7014.00    1.11084   1.25509    0.011
 7015.00    1.10091   1.25638    0.011
 7016.00    1.09903   1.25751    0.011
 7017.00    1.09980   1.25797    0.011
 7018.00    1.06327   1.26042    0.011
 7019.00    1.01648   1.26363    0.011
 7020.00    1.03099   1.26384    0.011
 7021.00    1.05935   1.26490    0.011
 7022.00    1.03836   1.26931    0.011
 7023.00    1.00845   1.27067    0.011
 7024.00    1.02485   1.26974    0.011
 7025.00    1.04765   1.27391    0.011
 7026.00    1.04502   1.27709    0.011
 7027.00    1.03987   1.27491    0.011
 7028.00    1.01646   1.27735    0.011
 7029.00    0.99191   1.28182    0.011
 7030.00    0.99964   1.27940    0.011
 7031.00    1.00813   1.27798    0.011
 7032.00    0.97643   1.28156    0.011
 7033.00    0.94766   1.28127    0.011
 7034.00    0.99930   1.27740    0.011
 7035.00    1.04832   1.27700    0.011
 7036.00    1.06076   1.27644    0.011
 7037.00    1.07236   1.27171    0.011
 7038.00    1.07627   1.26792    0.011
 7039.00    1.08104   1.26594    0.011
 7040.00    1.09162   1.26235    0.011
 7041.00    1.10456   1.25684    0.011
 7042.00    1.12981   1.25196    0.011
 7043.00    1.15015   1.24903    0.011
 7044.00    1.14983   1.24384    0.011
 7045.00    1.14991   1.23727    0.011
 7046.00    1.15137   1.23437    0.011
 7047.00    1.14292   1.23105    0.011
 7048.00    1.10544   1.22542    0.011
 7049.00    1.09397   1.22275    0.011
 7050.00    1.14742   1.22157   -2.000
 7051.00    1.16790   1.21743   -2.000
 7052.00    1.11746   1.21430   -2.000
 7053.00    1.10879   1.21486   -2.000
 7054.00    1.17810   1.21345   -2.000
 7055.00    1.23600   1.21079   -2.000
 7056.00    1.27526   1.21199   -2.000
 7057.00    1.23991   1.21235   -2.000
 7058.00    1.09781   1.21017   -2.000
 7059.00    1.02525   1.21100   -2.000
 7060.00    1.04018   1.21192   -2.000
 7061.00    1.02643   1.21012   -2.000
 7062.00    0.98088   1.21049   -2.000
 7063.00    1.01006   1.21154   -2.000
 7064.00    1.11235   1.20949   -2.000
 7065.00    1.14705   1.20809   -2.000
 7066.00    1.12344   1.20725   -2.000
 7067.00    1.09204   1.20465   -2.000
 7068.00    1.05471   1.20257   -2.000
 7069.00    1.00588   1.20012   -2.000
 7070.00    0.94937   1.19669   -2.000
 7071.00    1.03060   1.19390   -2.000
 7072.00    1.19238   1.19052   -2.000
 7073.00    1.23901   1.18653   -2.000
 7074.00    1.22693   1.18350   -2.000
 7075.00    1.16648   1.18050   -2.000
 7076.00    1.08468   1.17598   -2.000
 7077.00    1.10261   1.17249   -2.000
 7078.00    1.15835   1.17163   -2.000
 7079.00    1.16197   1.16847   -2.000
 7080.00    1.14879   1.16526   -2.000
 7081.00    1.17448   1.16556   -2.000
 7082.00    1.21063   1.16367   -2.000
 7083.00    1.19560   1.16172   -2.000
 7084.00    1.16925   1.16278   -2.000
 7085.00    1.08423   1.16207   -2.000
 7086.00    0.98889   1.16108   -2.000
 7087.00    0.99086   1.16246   -2.000
 7088.00    1.00588   1.16348   -2.000
 7089.00    1.01147   1.16254   -2.000
 7090.00    1.01616   1.16304   -2.000
 7091.00    0.95940   1.16556   -2.000
 7092.00    0.89904   1.16530   -2.000
 7093.00    0.96492   1.16472   -2.000
 7094.00    1.03367   1.16647   -2.000
 7095.00    1.06942   1.16703   -2.000
 7096.00    1.10240   1.16653   -2.000
 7097.00    1.06672   1.16738   -2.000
 7098.00    1.02723   1.16845   -2.000
 7099.00    0.93713   1.16762   -2.000
 7100.00    0.86055   1.16706   -2.000
 7101.00    0.90371   1.16805   -2.000
 7102.00    0.94319   1.16780   -2.000
 7103.00    0.95873   1.16658   -2.000
 7104.00    0.97667   1.16567   -2.000
 7105.00    1.00686   1.16569   -2.000
 7106.00    1.02341   1.16571   -2.000
 7107.00    0.98381   1.16384   -2.000
 7108.00    0.97209   1.16224   -2.000
 7109.00    1.05540   1.16184   -2.000
 7110.00    1.10099   1.16095   -2.000
 7111.00    1.03824   1.15883   -2.000
 7112.00    0.97965   1.15701   -2.000
 7113.00    0.93129   1.15666   -2.000
 7114.00    0.90575   1.15485   -2.000
 7115.00    0.92847   1.15266   -2.000
 7116.00    0.93317   1.15349   -2.000
 7117.00    0.90471   1.15284   -2.000
 7118.00    0.95369   1.15000   -2.000
 7119.00    1.12709   1.15038   -2.000
 7120.00    1.22808   1.15167   -2.000
 7121.00    1.22700   1.14990   -2.000
 7122.00    1.23049   1.14907   -2.000
 7123.00    1.23965   1.15109   -2.000
 7124.00    1.22815   1.15130   -2.000
 7125.00    1.19408   1.15060   -2.000
 7126.00    1.09533   1.15266   -2.000
 7127.00    0.93422   1.15329   -2.000
 7128.00    0.83084   1.15297   -2.000
 7129.00    0.77657   1.15512   -2.000
 7130.00    0.81712   1.15526   -2.000
 7131.00    0.92868   1.15488   -2.000
 7132.00    0.97275   1.15725   -2.000
 7133.00    0.97239   1.15775   -2.000
 7134.00    0.96097   1.15735   -2.000
 7135.00    0.94317   1.16008   -2.000
 7136.00    0.95369   1.16137   -2.000
 7137.00    0.97842   1.15945   -2.000
 7138.00    0.98850   1.16175   -2.000
 7139.00    0.99221   1.16521   -2.000
 7140.00    0.93744   1.16265   -2.000
 7141.00    0.86088   1.16308   -2.000
 7142.00    0.89805   1.16749   -2.000
 7143.00    0.97115   1.16638   -2.000
 7144.00    0.94830   1.16556   -2.000
 7145.00    0.90015   1.16935   -2.000
 7146.00    0.89278   1.16984   -2.000
 7147.00    0.89422   1.16753   -2.000
 7148.00    0.94052   1.16953   -2.000
 7149.00    0.99449   1.17212   -2.000
 7150.00    0.98230   1.17062   -2.000
 7151.00    0.96154   1.17075   -2.000
 7152.00    0.98998   1.17283   -2.000
 7153.00    1.02289   1.17268   -2.000
 7154.00    1.02054   1.17301   -2.000
 7155.00    1.01627   1.17427   -2.000
 7156.00    0.99442   1.17417   -2.000
 7157.00    0.97344   1.17433   -2.000
 7158.00    1.06493   1.17510   -2.000
 7159.00    1.14935   1.17527   -2.000
 7160.00    1.07334   1.17598   -2.000
 7161.00    0.99068   1.17640   -2.000
 7162.00    0.82435   1.17526   -2.000
 7163.00    0.68886   1.17520   -2.000
 7164.00    0.81647   1.17621   -2.000
 7165.00    0.94048   1.17517   -2.000
 7166.00    1.04174   1.17352   -2.000
 7167.00    1.09918   1.17406   -2.000
 7168.00    0.93903   1.17371   -2.000
 7169.00    0.82324   1.17113   -2.000
 7170.00    0.88601   1.17103   -2.000
 7171.00    0.93015   1.17133   -2.000
 7172.00    0.91205   1.16846   -2.000
 7173.00    0.89758   1.16731   -2.000
 7174.00    0.89336   1.16819   -2.000
 7175.00    0.89536   1.16701   -2.000
 7176.00    0.91238   1.16554   -2.000
 7177.00    0.91811   1.16638   -2.000
 7178.00    0.90033   1.16639   -2.000
 7179.00    0.93057   1.16425   -2.000
 7180.00    1.04774   1.16526   -2.000
 7181.00    1.05997   1.16661   -2.000
 7182.00    0.90608   1.16435   -2.000
 7183.00    0.80817   1.16497   -2.000
 7184.00    0.78806   1.16705   -2.000
 7185.00    0.80270   1.16612   -2.000
 7186.00    0.85982   1.16623   -2.000
 7187.00    0.92080   1.16839   -2.000
 7188.00    0.98593   1.16845   -2.000
 7189.00    0.89598   1.16697   -2.000
 7190.00    0.65857   1.16912   -2.000
 7191.00    0.64589   1.17057   -2.000
 7192.00    0.82162   1.16855   -2.000
 7193.00    0.88102   1.17026   -2.000
 7194.00    0.85455   1.17233   -2.000
 7195.00    0.63109   1.17140   -2.000
 7196.00    0.27992   1.17296   -2.000
 7197.00    0.45635   1.17558   -2.000
 7198.00    0.93208   1.17510   -2.000
 7199.00    1.14953   1.17510   -2.000
 7200.00    1.23942   1.17881   -2.000
 7201.00    1.07100   1.17996   -2.000
 7202.00    0.79228   1.17956   -2.000
 7203.00    0.76839   1.18370   -2.000
 7204.00    0.83774   1.18602   -2.000
 7205.00    0.87812   1.18551   -2.000
 7206.00    0.90953   1.18891   -2.000
 7207.00    0.93206   1.19269   -2.000
 7208.00    0.95230   1.19252   -2.000
 7209.00    0.97201   1.19445   -2.000
 7210.00    0.99161   1.19931   -2.000
 7211.00    0.98821   1.20015   -2.000
 7212.00    0.98098   1.20126   -2.000
 7213.00    1.12473   1.20580   -2.000
 7214.00    1.28733   1.20728   -2.000
 7215.00    1.10031   1.20737   -2.000
 7216.00    0.88300   1.21101   -2.000
 7217.00    0.82161   1.21417   -2.000
 7218.00    0.76814   1.21380   -2.000
