###################################################################
## OUTPUT of StarlightChains_v04.for    [Cid@UFSC - 01/Apr/2007] ##
###################################################################

## Some input info
KUG0210-078._43_50.txt                   [arq_obs]
Base.CB07.vall.4m                        [arq_base]
Masks.EmLines.NEW.gm                     [arq_masks]
StCv04.C11.config                        [arq_config]
   66                                    [N_base]
    0                                    [N_YAV_components = # of components with extra extinction!]
    0                                    [i_FitPowerLaw (1/0 = Yes/No)]
-9.99                                    [alpha_PowerLaw]
CCM                                      [red_law_option]
 1.458241                                [q_norm = A(l_norm)/A(V)]

## (Re)Sampling Parameters
 3741.00                                 [l_ini (A)]
 7218.00                                 [l_fin (A)]
    1.00                                 [dl    (A)]     (OBS: dl_cushion =    50.00 A)

## Normalization info
 4020.00                                 [l_norm (A) - for base]
 4010.00                                 [llow_norm (A) - window for f_obs]
 4060.00                                 [lupp_norm (A) - window for f_obs]
1.097453E-17                             [fobs_norm (in input units)]

## S/N
 3691.00                                 [llow_SN (A) - window for S/N]
 7268.00                                 [lupp_SN (A) - window for S/N]
   2.068                                 [S/N in S/N window]
   3.294                                 [S/N in norm. window]
   0.008                                 [S/N_err in S/N window]
   0.013                                 [S/N_err in norm. window]
  1.0000                                 [fscale_chi2]

## etc...
    -2007822                             [idum_orig]
  2390                                   [NOl_eff]
  2357                                   [Nl_eff]
    33    NSIGMA                         [Ntot_cliped & clip_method]
 15647800                                [Nglobal_steps]
   7                                     [N_chains]
   7                                     [NEX0s_base = N_base in EX0s-fits]
 0   0   0       33   2.0   2.671E+03    [Clip-Bug, RC-Crash & Burn-In warning-flags, n_censored_weights, wei_nsig_threshold & wei_limit]
   173    173.085    172.388      0.696  [idt_all, wdt_TotTime, wdt_UsrTime & wdt_SysTime (sec)]

## Synthesis Results - Best model ##

 6.15838E-05                             [chi2/Nl_eff]
    86.86977                             [adev (%)]

   129.99921                             [sum-of-x (%)]
 1.39950E-16                             [Flux_tot (units of input spectrum!)]
 1.24084E-14                             [Mini_tot (???)]
 1.21593E-14                             [Mcor_tot (???)]

 290.89                                  [v0_min  (km/s)]
   0.04                                  [vd_min  (km/s)]
 1.7001                                  [AV_min  (mag)]
 0.0000                                  [YAV_min (mag)]

# j     x_j(%)      Mini_j(%)     Mcor_j(%)     age_j(yr)     Z_j      (L/M)_j    YAV?  Mstars   component_j        a/Fe...       SSP_chi2r SSP_adev(%)   SSP_AV   SSP_x(%)
  1     67.7532     5.3732E+01    5.4832E+01    1.000000E+06  0.00400  1.094E-02    0   1.0000   age020_m42            0.0000     2.9469E-05    44.0319   2.0038    87.7161
  2      0.0000     0.0000E+00    0.0000E+00    3.160000E+06  0.00400  4.007E-02    0   0.9999   age045_m42            0.0000     2.6293E-05    40.7310   1.2209    94.9095
  3      0.0000     0.0000E+00    0.0000E+00    5.010000E+06  0.00400  2.539E-02    0   0.9488   age055_m42            0.0000     2.7720E-05    42.0741   1.5721    91.9223
  4      0.0000     0.0000E+00    0.0000E+00    6.610000E+06  0.00400  2.620E-02    0   0.9220   age061_m42            0.0000     2.6131E-05    40.3758   1.1565    94.8608
  5      0.0000     0.0000E+00    0.0000E+00    1.000000E+07  0.00400  1.322E-02    0   0.8862   age070_m42            0.0000     2.6855E-05    42.1409   0.9657    94.8468
  6     12.7436     1.4026E+01    1.2267E+01    1.445000E+07  0.00400  7.883E-03    0   0.8571   age078_m42            0.0000     2.7681E-05    42.7854   1.2935    92.4023
  7      0.0000     0.0000E+00    0.0000E+00    2.512000E+07  0.00400  5.251E-03    0   0.8174   age090_m42            0.0000     2.6784E-05    42.2162   0.8477    95.0877
  8      0.0000     0.0000E+00    0.0000E+00    4.000000E+07  0.00400  3.649E-03    0   0.7851   age104_m42            0.0000     2.6191E-05    41.4941   0.6024    96.2957
  9      0.0000     0.0000E+00    0.0000E+00    5.500000E+07  0.00400  3.098E-03    0   0.7629   age110_m42            0.0000     2.5403E-05    39.9206   0.7046    97.4459
 10      0.0000     0.0000E+00    0.0000E+00    1.015200E+08  0.00400  2.228E-03    0   0.7207   age116_m42            0.0000     2.4762E-05    38.6714   0.6882    98.4190
 11      0.0000     0.0000E+00    0.0000E+00    2.861200E+08  0.00400  1.093E-03    0   0.6648   age125_m42            0.0000     2.4130E-05    38.2964   0.1342   100.9202
 12      0.0000     0.0000E+00    0.0000E+00    5.088000E+08  0.00400  6.597E-04    0   0.6365   age130_m42            0.0000     2.3356E-05    36.7825   0.0634   103.1957
 13      0.0000     0.0000E+00    0.0000E+00    1.434000E+09  0.00400  2.132E-04    0   0.5798   age139_m42            0.0000     2.2530E-05    36.4584  -0.9447   105.9857
 14      0.0000     0.0000E+00    0.0000E+00    4.250000E+09  0.00400  5.895E-05    0   0.5377   age158_m42            0.0000     2.4912E-05    45.3618  -1.0000    96.8210
 15      0.0000     0.0000E+00    0.0000E+00    7.500000E+09  0.00400  3.510E-05    0   0.5212   age171_m42            0.0000     2.6412E-05    50.0918  -1.0000    93.2721
 16      0.0000     0.0000E+00    0.0000E+00    1.300000E+10  0.00400  2.005E-05    0   0.5034   age193_m42            0.0000     2.8331E-05    54.2914  -1.0000    89.9489
 17      0.0000     0.0000E+00    0.0000E+00    1.800000E+10  0.00400  1.525E-05    0   0.4967   age213_m42            0.0000     2.8548E-05    55.0236  -1.0000    89.1490
 18     42.5222     2.9800E+01    3.0410E+01    1.000000E+06  0.00800  1.238E-02    0   1.0000   age020_m52            0.0000     2.9466E-05    44.0234   1.9993    87.9225
 19      2.2919     6.4687E-01    6.5787E-01    3.160000E+06  0.00800  3.074E-02    0   0.9966   age045_m52            0.0000     2.9190E-05    43.5998   1.9157    88.8562
 20      0.0000     0.0000E+00    0.0000E+00    5.010000E+06  0.00800  2.668E-02    0   0.9443   age055_m52            0.0000     2.8108E-05    42.5099   1.6658    90.8732
 21      0.0000     0.0000E+00    0.0000E+00    6.610000E+06  0.00800  2.136E-02    0   0.9177   age061_m52            0.0000     2.7053E-05    42.7104   0.4581    96.1066
 22      0.0000     0.0000E+00    0.0000E+00    1.000000E+07  0.00800  1.215E-02    0   0.8827   age070_m52            0.0000     2.7491E-05    43.2620   1.1752    93.9643
 23      0.0000     0.0000E+00    0.0000E+00    1.445000E+07  0.00800  8.717E-03    0   0.8552   age078_m52            0.0000     2.7356E-05    42.5903   1.2593    93.6806
 24      0.0000     0.0000E+00    0.0000E+00    2.512000E+07  0.00800  5.592E-03    0   0.8162   age090_m52            0.0000     2.6542E-05    42.1479   0.9138    96.1678
 25      0.0000     0.0000E+00    0.0000E+00    4.000000E+07  0.00800  3.896E-03    0   0.7841   age104_m52            0.0000     2.5827E-05    40.9940   0.7929    97.5819
 26      0.0000     0.0000E+00    0.0000E+00    1.015200E+08  0.00800  2.148E-03    0   0.7226   age116_m52            0.0000     2.4936E-05    39.3716   0.6834    98.4970
 27      0.0000     0.0000E+00    0.0000E+00    2.861200E+08  0.00800  9.925E-04    0   0.6683   age125_m52            0.0000     2.3110E-05    36.6377   0.1323   104.0081
 28      0.0000     0.0000E+00    0.0000E+00    9.047900E+08  0.00800  3.141E-04    0   0.6138   age135_m52            0.0000     2.2239E-05    35.6206  -0.7690   110.5912
 29      0.0000     0.0000E+00    0.0000E+00    1.434000E+09  0.00800  1.719E-04    0   0.5853   age139_m52            0.0000     2.3553E-05    42.2518  -1.0000   103.1504
 30      0.0000     0.0000E+00    0.0000E+00    2.500000E+09  0.00800  7.872E-05    0   0.5600   age150_m52            0.0000     2.5766E-05    49.0437  -1.0000    96.4729
 31      0.0000     0.0000E+00    0.0000E+00    4.250000E+09  0.00800  4.336E-05    0   0.5426   age158_m52            0.0000     2.6267E-05    49.6823  -1.0000    95.2258
 32      0.0000     0.0000E+00    0.0000E+00    6.250000E+09  0.00800  3.159E-05    0   0.5319   age166_m52            0.0000     2.8422E-05    54.2959  -1.0000    91.7099
 33      0.0000     0.0000E+00    0.0000E+00    1.300000E+10  0.00800  1.361E-05    0   0.5073   age193_m52            0.0000     3.5674E-05    64.8083  -1.0000    81.7490
 34      0.0000     0.0000E+00    0.0000E+00    1.800000E+10  0.00800  9.886E-06    0   0.4990   age213_m52            0.0000     3.8320E-05    66.5916  -1.0000    78.9878
 35      0.9980     5.6077E-01    5.7225E-01    1.000000E+06  0.02000  1.544E-02    0   1.0000   age020_m62            0.0000     2.9536E-05    44.0466   1.9956    88.1302
 36      0.0000     0.0000E+00    0.0000E+00    3.160000E+06  0.02000  3.762E-02    0   0.9858   age045_m62            0.0000     2.9449E-05    43.8552   1.9335    88.9746
 37      0.0000     0.0000E+00    0.0000E+00    5.010000E+06  0.02000  3.296E-02    0   0.9342   age055_m62            0.0000     2.6898E-05    41.1293   1.5128    93.4828
 38      0.0000     0.0000E+00    0.0000E+00    8.710000E+06  0.02000  1.154E-02    0   0.8861   age067_m62            0.0000     2.9955E-05    48.3003   0.7901    93.0201
 39      0.0000     0.0000E+00    0.0000E+00    1.445000E+07  0.02000  7.663E-03    0   0.8472   age078_m62            0.0000     2.7917E-05    44.5915   0.8692    95.0229
 40      0.0000     0.0000E+00    0.0000E+00    2.512000E+07  0.02000  4.532E-03    0   0.8099   age090_m62            0.0000     2.7752E-05    44.3027   0.8660    94.5734
 41      0.0000     0.0000E+00    0.0000E+00    5.500000E+07  0.02000  2.733E-03    0   0.7595   age110_m62            0.0000     2.6027E-05    41.2052   0.7865    96.6533
 42      0.0000     0.0000E+00    0.0000E+00    1.609000E+08  0.02000  1.369E-03    0   0.6985   age120_m62            0.0000     2.4070E-05    37.8658   0.5417   101.2408
 43      0.0000     0.0000E+00    0.0000E+00    2.861200E+08  0.02000  9.013E-04    0   0.6714   age125_m62            0.0000     2.2966E-05    35.9458   0.2351   105.5116
 44      0.0000     0.0000E+00    0.0000E+00    5.088000E+08  0.02000  5.028E-04    0   0.6449   age130_m62            0.0000     2.2114E-05    34.7686  -0.2473   110.7901
 45      0.0000     0.0000E+00    0.0000E+00    9.047900E+08  0.02000  2.428E-04    0   0.6179   age135_m62            0.0000     2.2474E-05    36.1570  -0.8606   110.5667
 46      0.0000     0.0000E+00    0.0000E+00    1.434000E+09  0.02000  1.263E-04    0   0.5908   age139_m62            0.0000     2.3664E-05    40.7441  -1.0000   104.5710
 47      0.0000     0.0000E+00    0.0000E+00    2.500000E+09  0.02000  5.985E-05    0   0.5673   age150_m62            0.0000     2.6442E-05    49.3123  -1.0000    97.3859
 48      0.0000     0.0000E+00    0.0000E+00    4.250000E+09  0.02000  3.271E-05    0   0.5468   age158_m62            0.0000     3.0101E-05    55.9934  -1.0000    90.9701
 49      0.0000     0.0000E+00    0.0000E+00    1.000000E+10  0.02000  1.360E-05    0   0.5167   age181_m62            0.0000     3.6442E-05    63.0309  -1.0000    83.2788
 50      0.0000     0.0000E+00    0.0000E+00    1.800000E+10  0.02000  7.124E-06    0   0.5013   age213_m62            0.0000     4.1521E-05    66.8263  -1.0000    77.8578
 51      3.6899     1.2351E+00    1.2601E+00    1.000000E+06  0.05000  2.592E-02    0   0.9998   age020_m72            0.0000     2.9825E-05    44.3332   1.9933    88.0972
 52      0.0000     0.0000E+00    0.0000E+00    3.160000E+06  0.05000  4.845E-02    0   0.9577   age045_m72            0.0000     2.8420E-05    42.6330   1.7960    90.5155
 53      0.0000     0.0000E+00    0.0000E+00    5.010000E+06  0.05000  3.072E-02    0   0.9147   age055_m72            0.0000     2.8457E-05    44.0900   1.4073    92.3638
 54      0.0000     0.0000E+00    0.0000E+00    6.610000E+06  0.05000  1.455E-02    0   0.8877   age061_m72            0.0000     3.1139E-05    49.9113   0.8810    92.4924
 55      0.0004     4.1402E-04    3.6013E-04    1.000000E+07  0.05000  9.074E-03    0   0.8524   age070_m72            0.0000     2.8536E-05    44.0689   1.5817    92.0483
 56      0.0000     0.0000E+00    0.0000E+00    2.512000E+07  0.05000  4.250E-03    0   0.7902   age090_m72            0.0000     2.7130E-05    42.5392   1.2734    94.0533
 57      0.0000     0.0000E+00    0.0000E+00    4.000000E+07  0.05000  3.087E-03    0   0.7618   age104_m72            0.0000     2.6513E-05    42.0504   1.0496    95.5595
 58      0.0000     0.0000E+00    0.0000E+00    1.015200E+08  0.05000  1.700E-03    0   0.7096   age116_m72            0.0000     2.4479E-05    38.7667   0.7176   100.0037
 59      0.0000     0.0000E+00    0.0000E+00    2.861200E+08  0.05000  7.384E-04    0   0.6633   age125_m72            0.0000     2.2209E-05    34.6504  -0.0000   108.8921
 60      0.0000     0.0000E+00    0.0000E+00    5.088000E+08  0.05000  3.819E-04    0   0.6372   age130_m72            0.0000     2.1906E-05    35.3658  -0.5258   111.9226
 61      0.0000     0.0000E+00    0.0000E+00    9.047900E+08  0.05000  1.676E-04    0   0.6110   age135_m72            0.0000     2.3385E-05    39.0760  -1.0000   107.1250
 62      0.0000     0.0000E+00    0.0000E+00    1.434000E+09  0.05000  8.837E-05    0   0.5874   age139_m72            0.0000     2.6460E-05    49.0842  -1.0000    98.8343
 63      0.0000     0.0000E+00    0.0000E+00    2.500000E+09  0.05000  4.233E-05    0   0.5598   age150_m72            0.0000     3.0370E-05    55.7374  -1.0000    91.8164
 64      0.0000     0.0000E+00    0.0000E+00    6.250000E+09  0.05000  1.435E-05    0   0.5249   age166_m72            0.0000     3.8434E-05    65.0545  -1.0000    80.8228
 65      0.0000     0.0000E+00    0.0000E+00    1.300000E+10  0.05000  6.513E-06    0   0.5036   age193_m72            0.0000     4.5653E-05    69.8017  -1.0000    74.9047
 66      0.0000     0.0000E+00    0.0000E+00    1.800000E+10  0.05000  4.527E-06    0   0.4945   age213_m72            0.0000     5.0364E-05    72.1303  -1.0000    70.8057


## Synthesis Results - Average & Chains ##

# j      x_j: min, <> & last-chain-values for 1 ...  7 chains
  1     67.7532     78.2786     68.0178     79.1707     87.3385     73.3907     67.7534     67.9183    104.3611
  2      0.0000      0.0000      0.0000      0.0000      0.0000      0.0000      0.0000      0.0000      0.0000
  3      0.0000      0.0000      0.0000      0.0000      0.0000      0.0001      0.0001      0.0002      0.0000
  4      0.0000      0.0000      0.0000      0.0000      0.0000      0.0000      0.0000      0.0000      0.0000
  5      0.0000      0.0000      0.0000      0.0000      0.0000      0.0000      0.0000      0.0000      0.0000
  6     12.7436      4.5371      7.9546      0.0000      0.0000      0.0000     12.7437     11.0616      0.0000
  7      0.0000      0.0000      0.0000      0.0000      0.0000      0.0000      0.0000      0.0000      0.0000
  8      0.0000      0.0000      0.0000      0.0000      0.0000      0.0000      0.0000      0.0000      0.0000
  9      0.0000      0.0000      0.0000      0.0000      0.0000      0.0000      0.0000      0.0000      0.0000
 10      0.0000      0.0000      0.0000      0.0001      0.0000      0.0000      0.0000      0.0000      0.0000
 11      0.0000      0.0000      0.0000      0.0000      0.0000      0.0000      0.0000      0.0000      0.0000
 12      0.0000      0.0000      0.0000      0.0000      0.0000      0.0000      0.0000      0.0000      0.0000
 13      0.0000      0.0000      0.0000      0.0000      0.0000      0.0000      0.0000      0.0000      0.0000
 14      0.0000      0.0000      0.0000      0.0000      0.0000      0.0000      0.0000      0.0000      0.0000
 15      0.0000      0.0000      0.0000      0.0000      0.0000      0.0000      0.0000      0.0000      0.0000
 16      0.0000      0.0000      0.0000      0.0000      0.0000      0.0000      0.0000      0.0000      0.0000
 17      0.0000      0.0000      0.0000      0.0000      0.0000      0.0000      0.0000      0.0000      0.0000
 18     42.5222     41.7849     44.5763     50.8271     42.6604     43.5047     42.5223     42.7694     25.6338
 19      2.2919      2.5983      5.6477      0.0005      0.0000      6.3227      2.2919      3.9243      0.0007
 20      0.0000      0.0001      0.0004      0.0000      0.0000      0.0000      0.0000      0.0001      0.0000
 21      0.0000      0.0000      0.0000      0.0000      0.0000      0.0000      0.0000      0.0000      0.0000
 22      0.0000      0.0000      0.0000      0.0000      0.0000      0.0000      0.0000      0.0000      0.0000
 23      0.0000      0.0000      0.0000      0.0000      0.0000      0.0000      0.0000      0.0000      0.0000
 24      0.0000      0.0000      0.0000      0.0000      0.0000      0.0000      0.0000      0.0000      0.0000
 25      0.0000      0.0000      0.0000      0.0000      0.0000      0.0000      0.0000      0.0000      0.0000
 26      0.0000      0.0000      0.0000      0.0000      0.0000      0.0000      0.0000      0.0000      0.0000
 27      0.0000      0.0000      0.0000      0.0000      0.0000      0.0000      0.0000      0.0000      0.0000
 28      0.0000      0.0000      0.0000      0.0000      0.0000      0.0000      0.0000      0.0000      0.0000
 29      0.0000      0.0000      0.0000      0.0000      0.0000      0.0000      0.0000      0.0000      0.0000
 30      0.0000      0.0000      0.0000      0.0000      0.0000      0.0000      0.0000      0.0000      0.0000
 31      0.0000      0.0000      0.0000      0.0000      0.0000      0.0000      0.0000      0.0000      0.0000
 32      0.0000      0.0000      0.0000      0.0000      0.0000      0.0000      0.0000      0.0000      0.0000
 33      0.0000      0.0000      0.0000      0.0000      0.0000      0.0000      0.0000      0.0000      0.0000
 34      0.0000      0.0000      0.0000      0.0000      0.0000      0.0000      0.0000      0.0000      0.0000
 35      0.9980      0.4635      1.2761      0.0001      0.0000      0.0000      0.9980      0.9682      0.0019
 36      0.0000      0.0002      0.0003      0.0001      0.0003      0.0001      0.0002      0.0000      0.0001
 37      0.0000      0.0000      0.0000      0.0000      0.0000      0.0001      0.0000      0.0000      0.0000
 38      0.0000      0.0000      0.0000      0.0000      0.0000      0.0000      0.0000      0.0000      0.0000
 39      0.0000      0.0000      0.0000      0.0000      0.0000      0.0000      0.0000      0.0000      0.0000
 40      0.0000      0.0000      0.0000      0.0000      0.0000      0.0000      0.0000      0.0000      0.0000
 41      0.0000      0.0000      0.0000      0.0000      0.0000      0.0000      0.0000      0.0000      0.0000
 42      0.0000      0.0000      0.0000      0.0000      0.0000      0.0000      0.0000      0.0000      0.0000
 43      0.0000      0.0000      0.0000      0.0000      0.0000      0.0000      0.0000      0.0000      0.0000
 44      0.0000      0.0000      0.0000      0.0000      0.0000      0.0000      0.0000      0.0000      0.0000
 45      0.0000      0.0000      0.0000      0.0000      0.0000      0.0000      0.0000      0.0000      0.0000
 46      0.0000      0.0000      0.0000      0.0000      0.0000      0.0000      0.0000      0.0000      0.0000
 47      0.0000      0.0000      0.0000      0.0000      0.0000      0.0000      0.0000      0.0000      0.0000
 48      0.0000      0.0000      0.0000      0.0000      0.0000      0.0000      0.0000      0.0000      0.0000
 49      0.0000      0.0000      0.0000      0.0000      0.0000      0.0000      0.0000      0.0000      0.0000
 50      0.0000      0.0000      0.0000      0.0000      0.0000      0.0000      0.0000      0.0000      0.0000
 51      3.6899      2.3371      2.5268      0.0012      0.0006      6.7813      3.6899      3.3575      0.0023
 52      0.0000      0.0002      0.0000      0.0001      0.0002      0.0001      0.0001      0.0004      0.0002
 53      0.0000      0.0000      0.0000      0.0001      0.0000      0.0001      0.0000      0.0000      0.0000
 54      0.0000      0.0000      0.0000      0.0000      0.0000      0.0000      0.0000      0.0000      0.0000
 55      0.0004      0.0001      0.0000      0.0001      0.0000      0.0000      0.0004      0.0000      0.0000
 56      0.0000      0.0000      0.0000      0.0000      0.0000      0.0000      0.0000      0.0000      0.0000
 57      0.0000      0.0000      0.0000      0.0000      0.0000      0.0000      0.0000      0.0000      0.0000
 58      0.0000      0.0000      0.0000      0.0000      0.0000      0.0000      0.0000      0.0000      0.0000
 59      0.0000      0.0000      0.0000      0.0000      0.0000      0.0000      0.0000      0.0000      0.0000
 60      0.0000      0.0000      0.0000      0.0000      0.0000      0.0000      0.0000      0.0000      0.0000
 61      0.0000      0.0000      0.0000      0.0000      0.0000      0.0000      0.0000      0.0000      0.0000
 62      0.0000      0.0000      0.0000      0.0000      0.0000      0.0000      0.0000      0.0000      0.0000
 63      0.0000      0.0000      0.0000      0.0000      0.0000      0.0000      0.0000      0.0000      0.0000
 64      0.0000      0.0000      0.0000      0.0000      0.0000      0.0000      0.0000      0.0000      0.0000
 65      0.0000      0.0000      0.0000      0.0000      0.0000      0.0000      0.0000      0.0000      0.0000
 66      0.0000      0.0000      0.0000      0.0000      0.0000      0.0000      0.0000      0.0000      0.0000

# j      m_j: min, <> & last-chain-values for 1 ...  7 chains
  1  5.4832E+01  6.3724E+01  5.6285E+01  6.3801E+01  6.9850E+01  6.2755E+01  5.4832E+01  5.5504E+01  8.2159E+01
  2  0.0000E+00  5.2657E-07  0.0000E+00  5.4439E-07  0.0000E+00  2.3458E-06  0.0000E+00  0.0000E+00  8.7306E-07
  3  0.0000E+00  1.5604E-05  0.0000E+00  2.0918E-06  0.0000E+00  1.8821E-05  2.7585E-05  5.9754E-05  1.8597E-06
  4  0.0000E+00  6.5414E-07  0.0000E+00  1.5031E-07  0.0000E+00  2.6962E-06  0.0000E+00  0.0000E+00  1.7990E-06
  5  0.0000E+00  9.7327E-07  0.0000E+00  0.0000E+00  0.0000E+00  4.1229E-06  0.0000E+00  0.0000E+00  2.7927E-06
  6  1.2267E+01  4.3934E+00  7.8298E+00  0.0000E+00  0.0000E+00  3.0832E-05  1.2267E+01  1.0752E+01  1.6418E-05
  7  0.0000E+00  5.1727E-06  3.1217E-05  0.0000E+00  0.0000E+00  3.8967E-06  0.0000E+00  0.0000E+00  1.7303E-06
  8  0.0000E+00  4.9527E-06  0.0000E+00  0.0000E+00  0.0000E+00  4.1525E-06  0.0000E+00  0.0000E+00  2.9704E-05
  9  0.0000E+00  1.3476E-05  0.0000E+00  5.6487E-05  0.0000E+00  4.7924E-06  0.0000E+00  0.0000E+00  3.1629E-05
 10  0.0000E+00  3.8922E-05  0.0000E+00  2.1198E-04  0.0000E+00  4.3249E-05  0.0000E+00  0.0000E+00  1.6575E-05
 11  0.0000E+00  3.6833E-06  0.0000E+00  0.0000E+00  0.0000E+00  8.0270E-06  0.0000E+00  0.0000E+00  1.7544E-05
 12  0.0000E+00  3.2456E-06  0.0000E+00  0.0000E+00  0.0000E+00  1.6315E-05  0.0000E+00  0.0000E+00  6.9502E-06
 13  0.0000E+00  4.1804E-06  0.0000E+00  0.0000E+00  0.0000E+00  2.8614E-05  0.0000E+00  0.0000E+00  1.9542E-06
 14  0.0000E+00  8.3894E-06  0.0000E+00  0.0000E+00  0.0000E+00  6.1684E-05  0.0000E+00  0.0000E+00  0.0000E+00
 15  0.0000E+00  5.8170E-05  0.0000E+00  0.0000E+00  0.0000E+00  0.0000E+00  0.0000E+00  0.0000E+00  3.9378E-04
 16  0.0000E+00  4.5950E-05  0.0000E+00  0.0000E+00  0.0000E+00  3.3785E-04  0.0000E+00  0.0000E+00  0.0000E+00
 17  0.0000E+00  1.7387E-04  0.0000E+00  0.0000E+00  0.0000E+00  0.0000E+00  0.0000E+00  0.0000E+00  1.1770E-03
 18  3.0410E+01  3.0059E+01  3.2597E+01  3.6195E+01  3.0150E+01  3.2873E+01  3.0410E+01  3.0886E+01  1.7833E+01
 19  6.5787E-01  7.5020E-01  1.6576E+00  1.4093E-04  0.0000E+00  1.9175E+00  6.5787E-01  1.1374E+00  1.8806E-04
 20  0.0000E+00  2.0711E-05  1.1738E-04  0.0000E+00  0.0000E+00  0.0000E+00  0.0000E+00  2.7771E-05  1.7823E-06
 21  0.0000E+00  4.9905E-07  0.0000E+00  0.0000E+00  0.0000E+00  2.0799E-06  0.0000E+00  0.0000E+00  1.4633E-06
 22  0.0000E+00  1.0701E-06  0.0000E+00  3.2616E-06  0.0000E+00  2.4721E-06  0.0000E+00  0.0000E+00  1.7815E-06
 23  0.0000E+00  1.6213E-06  1.2649E-06  0.0000E+00  0.0000E+00  5.4517E-06  0.0000E+00  0.0000E+00  4.7524E-06
 24  0.0000E+00  1.2135E-05  0.0000E+00  2.2636E-05  3.2729E-05  2.2603E-05  0.0000E+00  0.0000E+00  7.0074E-06
 25  0.0000E+00  1.2174E-05  0.0000E+00  0.0000E+00  0.0000E+00  6.2605E-06  0.0000E+00  7.1682E-05  7.5949E-06
 26  0.0000E+00  8.9971E-06  0.0000E+00  0.0000E+00  0.0000E+00  5.3664E-05  0.0000E+00  0.0000E+00  1.1498E-05
 27  0.0000E+00  3.7747E-06  0.0000E+00  0.0000E+00  0.0000E+00  0.0000E+00  0.0000E+00  0.0000E+00  2.5553E-05
 28  0.0000E+00  1.6450E-05  0.0000E+00  0.0000E+00  0.0000E+00  9.0613E-05  0.0000E+00  0.0000E+00  2.7932E-05
 29  0.0000E+00  3.0161E-05  0.0000E+00  0.0000E+00  0.0000E+00  5.2090E-05  0.0000E+00  0.0000E+00  1.5621E-04
 30  0.0000E+00  2.3290E-05  0.0000E+00  0.0000E+00  0.0000E+00  0.0000E+00  0.0000E+00  0.0000E+00  1.5766E-04
 31  0.0000E+00  1.1516E-04  0.0000E+00  0.0000E+00  0.0000E+00  5.7914E-04  0.0000E+00  0.0000E+00  2.4639E-04
 32  0.0000E+00  1.6281E-04  0.0000E+00  0.0000E+00  0.0000E+00  8.8335E-04  0.0000E+00  0.0000E+00  2.8887E-04
 33  0.0000E+00  0.0000E+00  0.0000E+00  0.0000E+00  0.0000E+00  0.0000E+00  0.0000E+00  0.0000E+00  0.0000E+00
 34  0.0000E+00  6.8363E-04  0.0000E+00  2.6076E-03  0.0000E+00  0.0000E+00  0.0000E+00  1.6809E-03  4.6111E-04
 35  5.7225E-01  2.6733E-01  7.4821E-01  5.5490E-05  0.0000E+00  9.9019E-06  5.7225E-01  5.6061E-01  1.0337E-03
 36  0.0000E+00  3.5525E-05  6.3970E-05  2.2699E-05  6.6848E-05  3.6521E-05  3.7271E-05  0.0000E+00  2.1767E-05
 37  0.0000E+00  3.7500E-06  0.0000E+00  0.0000E+00  0.0000E+00  2.6051E-05  0.0000E+00  0.0000E+00  1.4003E-06
 38  0.0000E+00  5.1052E-07  0.0000E+00  0.0000E+00  0.0000E+00  0.0000E+00  0.0000E+00  0.0000E+00  3.4560E-06
 39  0.0000E+00  3.0131E-06  0.0000E+00  1.3760E-05  0.0000E+00  5.2328E-06  0.0000E+00  0.0000E+00  2.1370E-06
 40  0.0000E+00  1.0232E-05  0.0000E+00  4.0301E-05  0.0000E+00  8.1829E-06  0.0000E+00  0.0000E+00  2.2362E-05
 41  0.0000E+00  3.3104E-06  0.0000E+00  1.0330E-05  0.0000E+00  5.8324E-06  0.0000E+00  0.0000E+00  6.9481E-06
 42  0.0000E+00  3.4485E-06  0.0000E+00  0.0000E+00  0.0000E+00  2.3512E-05  0.0000E+00  0.0000E+00  1.6970E-06
 43  0.0000E+00  1.3100E-06  0.0000E+00  0.0000E+00  0.0000E+00  3.7467E-06  0.0000E+00  0.0000E+00  5.4185E-06
 44  0.0000E+00  1.8108E-05  0.0000E+00  0.0000E+00  0.0000E+00  6.4865E-05  0.0000E+00  0.0000E+00  6.2863E-05
 45  0.0000E+00  3.2562E-05  0.0000E+00  0.0000E+00  0.0000E+00  1.2792E-04  0.0000E+00  0.0000E+00  1.0265E-04
 46  0.0000E+00  1.2446E-05  0.0000E+00  0.0000E+00  0.0000E+00  9.1509E-05  0.0000E+00  0.0000E+00  0.0000E+00
 47  0.0000E+00  4.4962E-05  0.0000E+00  0.0000E+00  0.0000E+00  0.0000E+00  0.0000E+00  0.0000E+00  3.0436E-04
 48  0.0000E+00  7.5563E-05  0.0000E+00  0.0000E+00  0.0000E+00  2.2377E-04  0.0000E+00  0.0000E+00  3.0549E-04
 49  0.0000E+00  1.8866E-04  0.0000E+00  0.0000E+00  0.0000E+00  0.0000E+00  0.0000E+00  0.0000E+00  1.2772E-03
 50  0.0000E+00  4.9550E-04  0.0000E+00  0.0000E+00  0.0000E+00  3.6432E-03  0.0000E+00  0.0000E+00  0.0000E+00
 51  1.2601E+00  8.0284E-01  8.8234E-01  3.9774E-04  2.0147E-04  2.4469E+00  1.2601E+00  1.1578E+00  7.5793E-04
 52  0.0000E+00  2.9721E-05  0.0000E+00  9.1655E-06  4.1544E-05  1.1993E-05  2.5677E-05  7.8855E-05  3.9362E-05
 53  0.0000E+00  7.2737E-06  0.0000E+00  1.4076E-05  0.0000E+00  3.6938E-05  0.0000E+00  0.0000E+00  1.4798E-06
 54  0.0000E+00  4.7457E-06  0.0000E+00  2.2252E-05  0.0000E+00  2.3146E-06  0.0000E+00  5.5497E-06  2.9107E-06
 55  3.6013E-04  7.0735E-05  0.0000E+00  9.2340E-05  0.0000E+00  3.6463E-05  3.6013E-04  0.0000E+00  4.7241E-06
 56  0.0000E+00  6.7040E-06  0.0000E+00  0.0000E+00  0.0000E+00  2.9988E-05  0.0000E+00  9.0453E-06  9.0588E-06
 57  0.0000E+00  6.0881E-06  0.0000E+00  0.0000E+00  0.0000E+00  3.6521E-05  0.0000E+00  0.0000E+00  7.5889E-06
 58  0.0000E+00  4.5267E-06  0.0000E+00  0.0000E+00  0.0000E+00  2.0822E-05  0.0000E+00  0.0000E+00  1.1473E-05
 59  0.0000E+00  7.6529E-06  0.0000E+00  0.0000E+00  0.0000E+00  4.5590E-05  0.0000E+00  0.0000E+00  9.8316E-06
 60  0.0000E+00  1.5417E-05  0.0000E+00  0.0000E+00  0.0000E+00  8.6908E-05  0.0000E+00  0.0000E+00  2.4349E-05
 61  0.0000E+00  1.8988E-05  0.0000E+00  0.0000E+00  0.0000E+00  4.2876E-05  0.0000E+00  0.0000E+00  8.9064E-05
 62  0.0000E+00  3.4011E-05  0.0000E+00  0.0000E+00  0.0000E+00  2.5007E-04  0.0000E+00  0.0000E+00  0.0000E+00
 63  0.0000E+00  1.5858E-05  0.0000E+00  0.0000E+00  0.0000E+00  0.0000E+00  0.0000E+00  0.0000E+00  1.0735E-04
 64  0.0000E+00  7.3866E-05  0.0000E+00  0.0000E+00  0.0000E+00  0.0000E+00  0.0000E+00  0.0000E+00  5.0003E-04
 65  0.0000E+00  0.0000E+00  0.0000E+00  0.0000E+00  0.0000E+00  0.0000E+00  0.0000E+00  0.0000E+00  0.0000E+00
 66  0.0000E+00  0.0000E+00  0.0000E+00  0.0000E+00  0.0000E+00  0.0000E+00  0.0000E+00  0.0000E+00  0.0000E+00

# AV, chi2 & Mass for <> & i_chain = 1 ...  7 solutions
AV       1.7001      2.3289      2.2167      2.2458      2.2450      2.2428      2.2001      2.2061      2.2456
chi2 6.1584E-05  8.1295E-05  7.6702E-05  7.6863E-05  7.6858E-05  7.6733E-05  7.6644E-05  7.6677E-05  7.6942E-05
Mass 1.2159E-14  2.8127E-14  2.3799E-14  2.5414E-14  2.5580E-14  2.3854E-14  2.3799E-14  2.3760E-14  2.6007E-14
 290.89                                  [v0_min (km/s) before EX0s...]
   0.04                                  [vd_min (km/s) before EX0s...]


## Synthetic spectrum (Best Model) ##l_obs f_obs f_syn wei
 3478    [Nl_obs]
 3741.00    0.80097   1.26448    0.000
 3742.00    0.57266   1.29580    0.000
 3743.00    0.16891   1.31946    0.000
 3744.00    0.02269   1.33384    0.000
 3745.00    0.02652   1.34051    0.031
 3746.00   -0.15643   1.34076    0.000
 3747.00   -0.43424   1.33425    0.000
 3748.00   -0.72790   1.32044    0.000
 3749.00   -1.02853   1.29898    0.000
 3750.00   -0.76548   1.27183    0.000
 3751.00   -0.28962   1.23698    0.000
 3752.00    0.07725   1.19305    0.031
 3753.00    0.40918   1.15309    0.031
 3754.00    0.14340   1.14313    0.030
 3755.00   -0.28256   1.17041    0.000
 3756.00   -0.14168   1.21367    0.000
 3757.00    0.12361   1.24829    0.029
 3758.00    0.09685   1.27148    0.028
 3759.00    0.01912   1.29462    0.028
 3760.00   -0.15269   1.31662    0.000
 3761.00   -0.33698   1.33108    0.000
 3762.00   -0.20506   1.33728    0.000
 3763.00   -0.04343   1.33407    0.000
 3764.00    0.07431   1.33729    0.027
 3765.00    0.18952   1.35061    0.027
 3766.00   -0.02473   1.35484    0.000
 3767.00   -0.24620   1.34636    0.000
 3768.00   -0.39521   1.33111    0.000
 3769.00   -0.53340   1.30806    0.000
 3770.00   -0.40899   1.27584    0.000
 3771.00   -0.28189   1.23340    0.000
 3772.00   -0.11944   1.17953    0.000
 3773.00    0.02745   1.12189    0.026
 3774.00    0.03783   1.08517    0.026
 3775.00    0.05419   1.09528    0.026
 3776.00    0.10931   1.14370    0.026
 3777.00    0.18064   1.19837    0.027
 3778.00    0.33397   1.24578    0.027
 3779.00    0.46434   1.28670    0.027
 3780.00    0.50066   1.31781    0.028
 3781.00    0.48224   1.33920    0.028
 3782.00    0.27819   1.35515    0.028
 3783.00    0.20179   1.36748    0.028
 3784.00    0.49048   1.37728    0.029
 3785.00    0.67654   1.38353    0.030
 3786.00    0.61182   1.38703    0.030
 3787.00    0.45366   1.38774    0.030
 3788.00    0.09853   1.38586    0.029
 3789.00   -0.11113   1.38365    0.000
 3790.00   -0.05436   1.38210    0.000
 3791.00    0.06452   1.37788    0.028
 3792.00    0.28281   1.36992    0.028
 3793.00    0.43622   1.35718    0.028
 3794.00    0.49849   1.33698    0.028
 3795.00    0.44555   1.31281    0.028
 3796.00    0.25023   1.28960    0.027
 3797.00    0.37699   1.25950    0.028
 3798.00    0.85467   1.21439    0.031
 3799.00    1.01778   1.15428    0.033
 3800.00    0.87860   1.08411    0.031
 3801.00    0.58551   1.02701    0.030
 3802.00    0.16200   1.02083    0.028
 3803.00    0.03770   1.07203    0.027
 3804.00    0.13668   1.14347    0.027
 3805.00    0.32356   1.20545    0.027
 3806.00    0.56807   1.25260    0.027
 3807.00    0.45861   1.28842    0.027
 3808.00    0.14603   1.31353    0.026
 3809.00   -0.15011   1.32960    0.000
 3810.00   -0.43803   1.34293    0.000
 3811.00   -0.38369   1.35818    0.000
 3812.00   -0.18135   1.37136    0.000
 3813.00    0.37389   1.37892    0.027
 3814.00    1.06000   1.38396    0.028
 3815.00    1.21927   1.38709    0.028
 3816.00    1.21292   1.38819    0.028
 3817.00    0.86132   1.38800    0.029
 3818.00    0.41916   1.38750    0.030
 3819.00    0.55865   1.38508    0.030
 3820.00    0.82277   1.37808    0.028
 3821.00    0.81939   1.35765    0.028
 3822.00    0.77061   1.31288    0.029
 3823.00    0.52595   1.26746    0.028
 3824.00    0.25616   1.27430    0.028
 3825.00    0.10543   1.32359    0.027
 3826.00   -0.03462   1.35859    0.000
 3827.00   -0.07333   1.36810    0.000
 3828.00   -0.10660   1.36565    0.000
 3829.00    0.06569   1.35800    0.027
 3830.00    0.24224   1.34779    0.028
 3831.00    0.43076   1.33327    0.029
 3832.00    0.60642   1.31364    0.029
 3833.00    0.49649   1.28771    0.029
 3834.00    0.38955   1.25462    0.028
 3835.00    0.31975   1.21059    0.028
 3836.00    0.22289   1.15121    0.028
 3837.00   -0.10279   1.07491    0.000
 3838.00   -0.38489   0.99506    0.000
 3839.00   -0.39291   0.95171    0.000
 3840.00   -0.34717   0.98034    0.000
 3841.00   -0.03616   1.05774    0.000
 3842.00    0.11492   1.13587    0.027
 3843.00   -0.37417   1.19729    0.000
 3844.00   -0.70778   1.24356    0.000
 3845.00   -0.52445   1.27812    0.000
 3846.00   -0.29361   1.30478    0.000
 3847.00    0.07068   1.32525    0.000
 3848.00    0.37418   1.34011    0.000
 3849.00    0.53170   1.35122    0.000
 3850.00    0.63433   1.36027    0.000
 3851.00    0.62313   1.36795    0.000
 3852.00    0.52572   1.37332    0.000
 3853.00    0.27283   1.37707    0.000
 3854.00    0.06531   1.37996    0.000
 3855.00   -0.07069   1.38243    0.000
 3856.00   -0.22703   1.38448    0.000
 3857.00   -0.41153   1.38494    0.000
 3858.00   -0.30088   1.38343    0.000
 3859.00    0.16940   1.37933    0.000
 3860.00    0.51509   1.37612    0.000
 3861.00    0.72694   1.37684    0.000
 3862.00    0.68561   1.37945    0.000
 3863.00    0.40441   1.38048    0.000
 3864.00    0.45236   1.38126    0.000
 3865.00    0.77528   1.38210    0.000
 3866.00    0.69677   1.38211    0.000
 3867.00    0.32300   1.38224    0.000
 3868.00    0.42508   1.38214    0.000
 3869.00    0.83452   1.37877    0.000
 3870.00    0.71178   1.36751    0.000
 3871.00    0.28828   1.35340    0.000
 3872.00    0.11726   1.35711    0.000
 3873.00    0.07044   1.36962    0.000
 3874.00    0.03114   1.36709    0.000
 3875.00   -0.00498   1.35176    0.000
 3876.00    0.12653   1.34544    0.000
 3877.00    0.31911   1.35361    0.000
 3878.00    0.51711   1.35862    0.000
 3879.00    0.71678   1.35426    0.000
 3880.00    0.43796   1.34689    0.000
 3881.00    0.03630   1.34109    0.026
 3882.00    0.12394   1.33368    0.026
 3883.00    0.31388   1.32423    0.027
 3884.00    0.19048   1.31197    0.027
 3885.00    0.01542   1.29424    0.027
 3886.00    0.03465   1.27073    0.027
 3887.00    0.07795   1.24142    0.027
 3888.00    0.37855   1.20540    0.027
 3889.00    0.70118   1.15589    0.027
 3890.00    0.53427   1.08846    0.027
 3891.00    0.34296   1.00290    0.026
 3892.00    0.19741   0.91764    0.026
 3893.00    0.05389   0.88877    0.027
 3894.00   -0.00741   0.94503    0.000
 3895.00   -0.06917   1.03828    0.000
 3896.00   -0.14035   1.11834    0.000
 3897.00   -0.18208   1.17736    0.000
 3898.00    0.12437   1.22109    0.025
 3899.00    0.40523   1.25309    0.025
 3900.00    0.47754   1.27734    0.025
 3901.00    0.51861   1.29535    0.025
 3902.00    0.36885   1.30899    0.023
 3903.00    0.24896   1.31888    0.022
 3904.00    0.27280   1.32868    0.022
 3905.00    0.30287   1.33687    0.022
 3906.00    0.35732   1.34285    0.022
 3907.00    0.36601   1.34716    0.022
 3908.00    0.22555   1.35113    0.023
 3909.00    0.14691   1.35365    0.024
 3910.00    0.23873   1.35538    0.024
 3911.00    0.41787   1.35751    0.025
 3912.00    0.80317   1.36003    0.026
 3913.00    1.04506   1.36167    0.027
 3914.00    0.99428   1.36112    0.028
 3915.00    0.76637   1.35929    0.028
 3916.00    0.22387   1.35810    0.028
 3917.00    0.14609   1.35964    0.028
 3918.00    0.79040   1.36113    0.028
 3919.00    1.20094   1.36129    0.029
 3920.00    1.29251   1.36029    0.029
 3921.00    1.32162   1.35650    0.030
 3922.00    1.27570   1.34952    0.030
 3923.00    1.33740   1.33951    0.030
 3924.00    1.51306   1.33187    0.030
 3925.00    1.22100   1.32758    0.029
 3926.00    0.49199   1.32384    0.028
 3927.00    0.43690   1.31775    0.028
 3928.00    0.93685   1.31400    0.029
 3929.00    1.10508   1.30966    0.029
 3930.00    1.03284   1.30357    0.028
 3931.00    0.92214   1.31213    0.028
 3932.00    0.78697   1.33242    0.028
 3933.00    0.76146   1.34443    0.028
 3934.00    0.79699   1.34884    0.028
 3935.00    0.80551   1.34845    0.028
 3936.00    0.80095   1.34405    0.028
 3937.00    0.81945   1.33691    0.027
 3938.00    0.84760   1.33352    0.027
 3939.00    0.81844   1.33708    0.027
 3940.00    0.76877   1.34334    0.027
 3941.00    0.68919   1.34876    0.027
 3942.00    0.60057   1.35103    0.027
 3943.00    0.67854   1.35123    0.027
 3944.00    0.79835   1.35129    0.027
 3945.00    0.96423   1.35093    0.027
 3946.00    1.13950   1.34982    0.027
 3947.00    0.87640   1.34745    0.027
 3948.00    0.54311   1.34394    0.027
 3949.00    0.41260   1.34194    0.027
 3950.00    0.30631   1.34283    0.027
 3951.00    0.55696   1.34173    0.027
 3952.00    0.83667   1.33914    0.027
 3953.00    0.97352   1.33851    0.027
 3954.00    1.10379   1.33771    0.028
 3955.00    1.21349   1.33538    0.028
 3956.00    1.32086   1.33131    0.028
 3957.00    1.32034   1.32652    0.029
 3958.00    1.31897   1.32065    0.030
 3959.00    1.30173   1.31712    0.030
 3960.00    1.25870   1.31414    0.000
 3961.00    0.92515   1.30865    0.000
 3962.00    0.64270   1.30269    0.000
 3963.00    0.76190   1.29279    0.000
 3964.00    0.93595   1.27809    0.000
 3965.00    1.43544   1.25682    0.000
 3966.00    1.75301   1.23788    0.000
 3967.00    1.21638   1.21552    0.000
 3968.00    0.77841   1.17782    0.000
 3969.00    0.71850   1.13959    0.000
 3970.00    0.74297   1.10453    0.000
 3971.00    1.03714   1.04730    0.000
 3972.00    1.16324   0.96196    0.000
 3973.00    0.83416   0.87128    0.000
 3974.00    0.62479   0.83299    0.000
 3975.00    0.69334   0.88523    0.000
 3976.00    0.80428   0.98208    0.000
 3977.00    1.00033   1.06590    0.000
 3978.00    1.07824   1.12778    0.000
 3979.00    0.94949   1.17339    0.000
 3980.00    0.87416   1.20611    0.000
 3981.00    0.88062   1.23073    0.029
 3982.00    0.84467   1.24982    0.029
 3983.00    0.75169   1.26460    0.028
 3984.00    0.75942   1.27683    0.028
 3985.00    0.88640   1.28471    0.028
 3986.00    0.95356   1.29008    0.028
 3987.00    0.95825   1.29510    0.028
 3988.00    0.97323   1.30104    0.028
 3989.00    0.99770   1.30679    0.028
 3990.00    0.95171   1.31024    0.027
 3991.00    0.84852   1.31246    0.027
 3992.00    0.77233   1.31502    0.027
 3993.00    0.71543   1.31684    0.026
 3994.00    0.78935   1.31802    0.026
 3995.00    0.94530   1.31898    0.026
 3996.00    0.90581   1.32020    0.026
 3997.00    0.75922   1.32011    0.026
 3998.00    0.77175   1.31786    0.026
 3999.00    0.86008   1.31604    0.027
 4000.00    0.90007   1.31784    0.027
 4001.00    0.92020   1.31940    0.027
 4002.00    0.95615   1.31820    0.027
 4003.00    0.99767   1.31831    0.026
 4004.00    1.13557   1.31991    0.027
 4005.00    1.30203   1.31915    0.027
 4006.00    0.92547   1.31700    0.027
 4007.00    0.41551   1.31337    0.027
 4008.00    0.16149   1.31200    0.027
 4009.00   -0.04164   1.31042    0.000
 4010.00    0.51804   1.30726    0.027
 4011.00    1.19625   1.29938    0.028
 4012.00    1.23538   1.28578    0.028
 4013.00    1.20102   1.27516    0.028
 4014.00    1.29066   1.28070    0.028
 4015.00    1.38988   1.29502    0.029
 4016.00    1.59579   1.30532    0.029
 4017.00    1.80620   1.30890    0.030
 4018.00    1.76568   1.31083    0.030
 4019.00    1.72256   1.31105    0.030
 4020.00    1.66545   1.31029    0.030
 4021.00    1.60622   1.30869    0.029
 4022.00    1.50956   1.30691    0.029
 4023.00    1.46146   1.30354    0.029
 4024.00    1.93601   1.29924    0.030
 4025.00    2.27459   1.29099    0.030
 4026.00    1.58093   1.27582    0.030
 4027.00    0.98697   1.24849    0.029
 4028.00    0.96802   1.19991    0.029
 4029.00    1.00000   1.13131    0.029
 4030.00    1.26539   1.09272    0.029
 4031.00    1.39172   1.13579    0.029
 4032.00    0.99641   1.21232    0.028
 4033.00    0.66100   1.25971    0.028
 4034.00    0.51342   1.28030    0.028
 4035.00    0.42938   1.28974    0.027
 4036.00    0.51436   1.29565    0.027
 4037.00    0.56453   1.29924    0.027
 4038.00    0.53517   1.30203    0.027
 4039.00    0.40521   1.30365    0.028
 4040.00    0.07638   1.30624    0.027
 4041.00    0.02062   1.30754    0.027
 4042.00    0.43530   1.30738    0.027
 4043.00    0.76627   1.30723    0.027
 4044.00    0.97097   1.30603    0.027
 4045.00    1.07681   1.30485    0.028
 4046.00    1.05160   1.30406    0.027
 4047.00    1.06207   1.30393    0.027
 4048.00    1.11419   1.30307    0.027
 4049.00    1.01325   1.30180    0.027
 4050.00    0.75474   1.30196    0.027
 4051.00    0.66061   1.30313    0.027
 4052.00    0.71577   1.30322    0.027
 4053.00    0.74538   1.30303    0.026
 4054.00    0.75455   1.30354    0.026
 4055.00    0.79192   1.30310    0.026
 4056.00    0.84914   1.30213    0.026
 4057.00    0.93848   1.30089    0.027
 4058.00    1.04767   1.29835    0.027
 4059.00    1.01349   1.29735    0.026
 4060.00    0.90195   1.29855    0.026
 4061.00    0.72845   1.30356    0.026
 4062.00    0.52591   1.30515    0.026
 4063.00    0.49918   1.29975    0.026
 4064.00    0.54349   1.29388    0.026
 4065.00    0.61365   1.29273    0.026
 4066.00    0.69271   1.29239    0.026
 4067.00    0.59353   1.29238    0.026
 4068.00    0.44258   1.29211    0.026
 4069.00    0.67947   1.29247    0.026
 4070.00    1.00952   1.29054    0.027
 4071.00    0.92039   1.28058    0.027
 4072.00    0.75004   1.26404    0.027
 4073.00    0.88499   1.25062    0.027
 4074.00    1.06594   1.24950    0.027
 4075.00    1.01662   1.26044    0.027
 4076.00    0.94184   1.27017    0.027
 4077.00    0.59604   1.27671    0.027
 4078.00    0.23039   1.27876    0.026
 4079.00    0.17594   1.26924    0.026
 4080.00    0.13340   1.26413    0.026
 4081.00    0.42732   1.27009    0.026
 4082.00    0.71874   1.27511    0.026
 4083.00    0.84600   1.27534    0.027
 4084.00    0.96339   1.27554    0.027
 4085.00    0.91812   1.27443    0.027
 4086.00    0.89263   1.27171    0.027
 4087.00    1.07071   1.26912    0.027
 4088.00    1.24394   1.26328    0.027
 4089.00    1.38162   1.25933    0.027
 4090.00    1.36653   1.25675    0.027
 4091.00    0.49448   1.24985    0.027
 4092.00   -0.05874   1.23195    0.000
 4093.00    0.81472   1.21795    0.000
 4094.00    1.50920   1.22275    0.000
 4095.00    1.54631   1.22637    0.000
 4096.00    1.50668   1.21657    0.000
 4097.00    1.23101   1.20206    0.000
 4098.00    1.08873   1.18601    0.000
 4099.00    1.29509   1.16380    0.000
 4100.00    1.35268   1.13158    0.000
 4101.00    1.07616   1.08922    0.000
 4102.00    0.97675   1.04111    0.000
 4103.00    1.22195   0.97944    0.000
 4104.00    1.21961   0.89221    0.000
 4105.00    0.79725   0.80257    0.000
 4106.00    0.82510   0.78093    0.000
 4107.00    1.52217   0.85254    0.000
 4108.00    1.68840   0.95313    0.000
 4109.00    1.16104   1.03204    0.000
 4110.00    0.92666   1.08738    0.000
 4111.00    1.02950   1.12702    0.000
 4112.00    1.06621   1.15549    0.000
 4113.00    1.03580   1.17692    0.026
 4114.00    1.05956   1.19249    0.026
 4115.00    1.13184   1.20496    0.026
 4116.00    1.19804   1.21605    0.025
 4117.00    1.25945   1.22504    0.025
 4118.00    1.16159   1.23077    0.025
 4119.00    0.95321   1.22773    0.025
 4120.00    0.91416   1.22476    0.036
 4121.00    0.97814   1.23381    0.141
 4122.00    1.00642   1.24170   -1.000
 4123.00    1.01573   1.23479   -1.000
 4124.00    1.03007   1.21501   -1.000
 4125.00    1.04674   1.20867   -1.000
 4126.00    1.22773   1.23068   -1.000
 4127.00    1.47398   1.25270   -1.000
 4128.00    1.48103   1.25806    0.066
 4129.00    1.40712   1.26000    0.028
 4130.00    1.27732   1.25967    0.025
 4131.00    1.13161   1.25704    0.024
 4132.00    1.05787   1.25438    0.024
 4133.00    1.00103   1.25558    0.024
 4134.00    0.95184   1.25494    0.024
 4135.00    0.90409   1.25286    0.024
 4136.00    1.01913   1.25392    0.025
 4137.00    1.15793   1.25678    0.025
 4138.00    0.95950   1.25910    0.025
 4139.00    0.72522   1.26116    0.025
 4140.00    0.97068   1.26153    0.025
 4141.00    1.24933   1.26079    0.025
 4142.00    1.44654   1.26000    0.025
 4143.00    1.64095   1.25871    0.026
 4144.00    1.60057   1.25635    0.026
 4145.00    1.55866   1.24993    0.026
 4146.00    1.48152   1.23045    0.026
 4147.00    1.38757   1.19785    0.026
 4148.00    1.03354   1.18596    0.026
 4149.00    0.74369   1.21194    0.025
 4150.00    1.08645   1.23990    0.026
 4151.00    1.38999   1.25130    0.026
 4152.00    1.41507   1.25542    0.026
 4153.00    1.42236   1.25594    0.026
 4154.00    1.33257   1.25538    0.026
 4155.00    1.15069   1.25587    0.026
 4156.00    0.56629   1.25442    0.026
 4157.00    0.15318   1.25225    0.025
 4158.00    0.35617   1.25327    0.025
 4159.00    0.51417   1.25541    0.025
 4160.00    0.53645   1.25495    0.025
 4161.00    0.63626   1.25516    0.025
 4162.00    0.93516   1.25642    0.025
 4163.00    1.20105   1.25748    0.025
 4164.00    1.39400   1.25715    0.026
 4165.00    1.39387   1.25610    0.026
 4166.00    1.02390   1.25374    0.026
 4167.00    0.85030   1.25254    0.025
 4168.00    1.00490   1.25360    0.025
 4169.00    1.05408   1.25411    0.025
 4170.00    0.94881   1.25418    0.025
 4171.00    0.92211   1.25178    0.026
 4172.00    0.99658   1.24498    0.026
 4173.00    1.03822   1.24009    0.026
 4174.00    1.04260   1.24417    0.026
 4175.00    0.98459   1.24872    0.026
 4176.00    0.86416   1.24859    0.026
 4177.00    0.90921   1.24827    0.026
 4178.00    1.10033   1.24879    0.027
 4179.00    1.17654   1.24894    0.026
 4180.00    1.16339   1.24884    0.026
 4181.00    1.11373   1.24892    0.025
 4182.00    1.03911   1.24829    0.025
 4183.00    0.81841   1.24801    0.025
 4184.00    0.51016   1.24849    0.025
 4185.00    0.34612   1.24841    0.025
 4186.00    0.25749   1.24787    0.025
 4187.00    0.58606   1.24744    0.025
 4188.00    1.10386   1.24637    0.025
 4189.00    1.42699   1.24352    0.025
 4190.00    1.67417   1.24048    0.025
 4191.00    1.50512   1.23928    0.025
 4192.00    1.19781   1.24059    0.024
 4193.00    0.87211   1.23947    0.024
 4194.00    0.54127   1.23758    0.024
 4195.00    0.53530   1.23900    0.024
 4196.00    0.60385   1.23961    0.025
 4197.00    0.70024   1.23822    0.024
 4198.00    0.80175   1.23509    0.024
 4199.00    1.09193   1.22940    0.024
 4200.00    1.40880   1.22033    0.025
 4201.00    1.45873   1.20533    0.024
 4202.00    1.48145   1.18203    0.024
 4203.00    0.81411   1.15397    0.023
 4204.00    0.10182   1.14335    0.023
 4205.00    0.41872   1.16084    0.023
 4206.00    0.76651   1.18799    0.023
 4207.00    0.64454   1.20772    0.023
 4208.00    0.52827   1.21982    0.023
 4209.00    0.57977   1.22677    0.023
 4210.00    0.65905   1.23094    0.024
 4211.00    1.14286   1.23380    0.024
 4212.00    1.54748   1.23559    0.024
 4213.00    1.20330   1.23641    0.024
 4214.00    0.91832   1.23672    0.024
 4215.00    1.04026   1.23486    0.024
 4216.00    1.18686   1.23180    0.023
 4217.00    1.46454   1.23181    0.024
 4218.00    1.62912   1.23484    0.024
 4219.00    1.31062   1.23552    0.024
 4220.00    1.07308   1.23483    0.023
 4221.00    1.12078   1.23555    0.023
 4222.00    1.09605   1.23631    0.023
 4223.00    0.85682   1.23701    0.023
 4224.00    0.70273   1.23698    0.023
 4225.00    0.76347   1.23645    0.023
 4226.00    0.82529   1.23527    0.023
 4227.00    0.88946   1.23447    0.022
 4228.00    0.88706   1.23390    0.022
 4229.00    0.75913   1.23257    0.022
 4230.00    0.76691   1.23051    0.022
 4231.00    0.99809   1.22920    0.022
 4232.00    1.05756   1.23023    0.022
 4233.00    0.86916   1.23224    0.022
 4234.00    0.86545   1.23280    0.022
 4235.00    1.09624   1.23262    0.022
 4236.00    1.23450   1.23128    0.022
 4237.00    1.26922   1.22939    0.022
 4238.00    1.25994   1.22894    0.022
 4239.00    1.20722   1.22908    0.022
 4240.00    1.08984   1.22829    0.022
 4241.00    0.91621   1.22756    0.022
 4242.00    0.70937   1.22796    0.022
 4243.00    0.47707   1.22848    0.022
 4244.00    0.61409   1.22829    0.023
 4245.00    1.00000   1.22689    0.023
 4246.00    1.25265   1.22604    0.023
 4247.00    1.42662   1.22682    0.024
 4248.00    1.18735   1.22777    0.024
 4249.00    0.73531   1.22769    0.024
 4250.00    0.51822   1.22617    0.024
 4251.00    0.40596   1.22468    0.024
 4252.00    0.61745   1.22455    0.024
 4253.00    0.95307   1.22506    0.024
 4254.00    1.01712   1.22465    0.024
 4255.00    0.99266   1.22431    0.024
 4256.00    0.91091   1.22300    0.024
 4257.00    0.81353   1.22041    0.023
 4258.00    0.97446   1.21966    0.023
 4259.00    1.19326   1.22150    0.024
 4260.00    1.09769   1.22246    0.024
 4261.00    0.94590   1.22263    0.024
 4262.00    0.79126   1.22215    0.024
 4263.00    0.63623   1.22123    0.024
 4264.00    0.99522   1.22009    0.024
 4265.00    1.40442   1.21989    0.025
 4266.00    1.29484   1.21995    0.025
 4267.00    1.15353   1.22072    0.025
 4268.00    0.72395   1.22072    0.024
 4269.00    0.28833   1.21877    0.023
 4270.00    0.19461   1.20955    0.023
 4271.00    0.11417   1.19839    0.023
 4272.00    0.38482   1.20149    0.023
 4273.00    0.66343   1.21220    0.024
 4274.00    1.05134   1.21647    0.024
 4275.00    1.37457   1.21591    0.024
 4276.00    1.11020   1.21504    0.024
 4277.00    0.89514   1.21504    0.025
 4278.00    1.00853   1.21415    0.024
 4279.00    1.10054   1.21132    0.024
 4280.00    1.08190   1.20867    0.024
 4281.00    1.05942   1.20907    0.024
 4282.00    1.02089   1.21174   -2.000
 4283.00    0.92553   1.21386   -2.000
 4284.00    0.63397   1.21409   -2.000
 4285.00    0.48381   1.21300   -2.000
 4286.00    0.74465   1.21124   -2.000
 4287.00    0.94244   1.20951   -2.000
 4288.00    0.98387   1.20806   -2.000
 4289.00    1.14968   1.20734   -2.000
 4290.00    1.58139   1.20855   -2.000
 4291.00    1.76123   1.21040   -2.000
 4292.00    1.47341   1.20992   -2.000
 4293.00    1.20743   1.20804   -2.000
 4294.00    0.97684   1.20653   -2.000
 4295.00    0.83432   1.20673   -2.000
 4296.00    0.81708   1.20812   -2.000
 4297.00    0.94863   1.20859   -2.000
 4298.00    1.26639   1.20671   -1.000
 4299.00    1.60867   1.20503   -1.000
 4300.00    1.97799   1.20543   -1.000
 4301.00    2.34868   1.20630   -1.000
 4302.00    2.72072   1.20590   -1.000
 4303.00    2.93390   1.20426   -1.000
 4304.00    3.01080   1.20266   -1.000
 4305.00    3.25552   1.20242   -1.000
 4306.00    3.62708   1.20143   -1.000
 4307.00    2.96194   1.19849   -1.000
 4308.00    1.60837   1.19697   -1.000
 4309.00    0.96975   1.19835    0.073
 4310.00    0.74690   1.19953    0.028
 4311.00    0.77659   1.19841    0.023
 4312.00    0.93426   1.19665    0.023
 4313.00    1.08131   1.19595    0.022
 4314.00    1.22370   1.19623    0.022
 4315.00    1.20077   1.19638    0.022
 4316.00    1.11557   1.19536    0.022
 4317.00    1.03050   1.19310    0.022
 4318.00    0.94549   1.19145    0.022
 4319.00    0.92075   1.19129    0.022
 4320.00    0.91212   1.19029    0.022
 4321.00    0.89426   1.18811    0.022
 4322.00    0.87438   1.18669    0.022
 4323.00    1.00079   1.18500    0.022
 4324.00    1.15266   1.18326    0.022
 4325.00    1.32640   1.18313    0.022
 4326.00    1.50303   1.18274    0.022
 4327.00    1.39927   1.18046    0.022
 4328.00    1.26931   1.17615    0.022
 4329.00    0.92092   1.17022    0.022
 4330.00    0.56005   1.16491    0.000
 4331.00    0.65623   1.16145    0.000
 4332.00    0.76321   1.15792    0.000
 4333.00    0.89010   1.15238    0.000
 4334.00    1.00858   1.14458    0.000
 4335.00    0.92511   1.13416    0.000
 4336.00    0.84262   1.12084    0.000
 4337.00    0.77288   1.10482    0.000
 4338.00    0.72462   1.08531    0.000
 4339.00    0.86404   1.05958    0.000
 4340.00    0.99478   1.02362    0.000
 4341.00    1.06950   0.97347    0.000
 4342.00    1.11104   0.90712    0.000
 4343.00    0.98514   0.82386    0.000
 4344.00    0.88476   0.74775    0.000
 4345.00    0.88857   0.73706    0.000
 4346.00    0.86212   0.80561    0.000
 4347.00    0.73333   0.89681    0.000
 4348.00    0.58726   0.96692    0.000
 4349.00    0.39187   1.01556    0.000
 4350.00    0.31792   1.05117    0.000
 4351.00    0.54004   1.07718    0.022
 4352.00    0.70744   1.09627    0.022
 4353.00    0.75974   1.11024    0.022
 4354.00    0.80540   1.12076    0.028
 4355.00    0.83892   1.12907    0.072
 4356.00    0.98013   1.13749   -1.000
 4357.00    1.29339   1.14703   -1.000
 4358.00    1.47012   1.15504   -1.000
 4359.00    1.45541   1.16069   -1.000
 4360.00    1.44704   1.16443   -1.000
 4361.00    1.44650   1.16743   -1.000
 4362.00    1.36753   1.17004    0.092
 4363.00    1.20326   1.17210    0.030
 4364.00    1.07116   1.17368    0.022
 4365.00    0.96990   1.17488    0.022
 4366.00    0.90859   1.17639    0.022
 4367.00    0.88108   1.17817    0.022
 4368.00    0.80403   1.17938    0.022
 4369.00    0.69009   1.17965    0.022
 4370.00    0.80397   1.17802    0.022
 4371.00    1.06692   1.17612    0.022
 4372.00    1.10494   1.17681    0.022
 4373.00    1.01414   1.17909    0.022
 4374.00    1.07153   1.18069    0.022
 4375.00    1.20284   1.18118    0.023
 4376.00    1.18490   1.18096    0.022
 4377.00    1.10256   1.18076    0.022
 4378.00    0.95878   1.18038    0.022
 4379.00    0.79226   1.17986    0.022
 4380.00    0.74846   1.18029    0.022
 4381.00    0.74316   1.18172    0.022
 4382.00    0.69889   1.18197    0.022
 4383.00    0.64442   1.18028    0.022
 4384.00    0.90139   1.17976    0.022
 4385.00    1.22488   1.18063    0.022
 4386.00    0.93164   1.17930    0.022
 4387.00    0.53410   1.17560    0.021
 4388.00    0.64622   1.17180    0.021
 4389.00    0.82344   1.16751    0.022
 4390.00    0.98178   1.15478    0.022
 4391.00    1.13842   1.12457    0.022
 4392.00    1.16898   1.09947    0.022
 4393.00    1.19283   1.11087    0.022
 4394.00    1.31892   1.14299    0.022
 4395.00    1.44386   1.16528    0.022
 4396.00    1.31169   1.17497    0.022
 4397.00    1.18340   1.17826    0.023
 4398.00    1.14053   1.17817    0.022
 4399.00    1.09142   1.17662    0.022
 4400.00    0.96522   1.17632    0.022
 4401.00    0.87753   1.17832    0.022
 4402.00    1.11385   1.18026    0.023
 4403.00    1.29773   1.18019    0.023
 4404.00    1.15292   1.17903    0.022
 4405.00    1.01860   1.17854    0.022
 4406.00    0.93583   1.17910    0.022
 4407.00    0.88033   1.17905    0.022
 4408.00    0.93364   1.17759    0.022
 4409.00    1.02369   1.17641    0.022
 4410.00    1.23555   1.17671    0.022
 4411.00    1.32992   1.17744    0.022
 4412.00    1.09512   1.17756    0.022
 4413.00    0.97285   1.17737    0.022
 4414.00    1.12028   1.17701    0.022
 4415.00    1.19437   1.17621    0.022
 4416.00    1.11670   1.17638    0.022
 4417.00    1.05264   1.17643    0.022
 4418.00    1.01308   1.17226    0.022
 4419.00    1.02614   1.16700    0.022
 4420.00    1.12203   1.16535    0.023
 4421.00    1.14313   1.16660    0.023
 4422.00    1.06089   1.16937    0.022
 4423.00    1.11085   1.17267    0.022
 4424.00    1.32160   1.17434    0.022
 4425.00    1.21671   1.17478    0.022
 4426.00    0.77338   1.17442    0.022
 4427.00    0.63458   1.17401    0.022
 4428.00    0.78382   1.17414    0.022
 4429.00    1.00919   1.17415    0.022
 4430.00    1.29805   1.17358    0.023
 4431.00    1.33520   1.17275    0.023
 4432.00    1.18753   1.17250    0.022
 4433.00    1.26614   1.17256    0.022
 4434.00    1.49062   1.17161    0.023
 4435.00    1.43812   1.17047    0.023
 4436.00    1.22938   1.17015    0.023
 4437.00    1.27344   1.16978    0.023
 4438.00    1.44160   1.16903    0.022
 4439.00    1.38736   1.16795    0.022
 4440.00    1.23876   1.16414    0.023
 4441.00    1.05501   1.15660    0.022
 4442.00    0.85847   1.15422    0.022
 4443.00    0.95910   1.16036    0.022
 4444.00    1.15111   1.16467    0.022
 4445.00    1.31803   1.16302    0.022
 4446.00    1.47852   1.16172    0.022
 4447.00    1.42578   1.16349    0.022
 4448.00    1.32858   1.16573    0.023
 4449.00    1.31989   1.16742    0.023
 4450.00    1.32573   1.16763    0.022
 4451.00    1.16997   1.16646    0.022
 4452.00    0.99429   1.16572    0.022
 4453.00    0.94091   1.16618    0.022
 4454.00    0.89792   1.16659    0.022
 4455.00    0.90934   1.16610    0.022
 4456.00    0.92344   1.16513    0.022
 4457.00    0.96816   1.16473    0.021
 4458.00    1.01823   1.16491    0.021
 4459.00    1.37414   1.16465    0.022
 4460.00    1.70308   1.16454    0.022
 4461.00    1.48572   1.16489    0.000
 4462.00    1.28602   1.16481    0.000
 4463.00    1.29382   1.16408    0.000
 4464.00    1.28924   1.16337    0.000
 4465.00    1.18429   1.16258    0.000
 4466.00    1.07517   1.16133    0.000
 4467.00    0.94066   1.16024    0.000
 4468.00    0.85902   1.15954    0.000
 4469.00    1.03107   1.15831    0.000
 4470.00    1.10223   1.15573    0.000
 4471.00    0.77943   1.15122    0.000
 4472.00    0.58179   1.14258    0.000
 4473.00    0.79112   1.12558    0.000
 4474.00    0.97878   1.08764    0.000
 4475.00    1.10683   1.03155    0.000
 4476.00    1.13677   1.01183    0.000
 4477.00    0.93550   1.05670    0.000
 4478.00    0.75015   1.11315    0.000
 4479.00    0.59719   1.14072    0.000
 4480.00    0.57489   1.15005    0.000
 4481.00    0.78419   1.15419    0.000
 4482.00    0.89271   1.15597    0.021
 4483.00    0.84493   1.15468    0.021
 4484.00    0.85782   1.14694    0.021
 4485.00    0.95336   1.13780    0.021
 4486.00    0.95514   1.13911    0.021
 4487.00    0.84448   1.14971    0.021
 4488.00    0.80030   1.15719    0.021
 4489.00    0.82642   1.15920    0.021
 4490.00    0.87633   1.15937    0.021
 4491.00    0.94844   1.15909    0.021
 4492.00    0.98310   1.15820    0.021
 4493.00    0.98699   1.15682    0.021
 4494.00    0.81442   1.15597    0.021
 4495.00    0.51415   1.15611    0.021
 4496.00    0.87353   1.15675    0.021
 4497.00    1.65192   1.15703    0.021
 4498.00    1.60097   1.15652    0.021
 4499.00    1.08935   1.15576    0.021
 4500.00    1.02824   1.15523    0.021
 4501.00    1.18477   1.15513    0.021
 4502.00    1.18806   1.15539    0.021
 4503.00    1.12741   1.15563    0.021
 4504.00    1.13011   1.15518    0.021
 4505.00    1.15541   1.15399    0.021
 4506.00    1.10174   1.15319    0.021
 4507.00    1.02425   1.15394    0.021
 4508.00    1.04234   1.15518    0.021
 4509.00    1.08436   1.15545    0.021
 4510.00    1.05261   1.15479    0.020
 4511.00    1.00586   1.15390    0.020
 4512.00    0.73522   1.15312    0.020
 4513.00    0.42886   1.15274    0.020
 4514.00    0.60272   1.15198    0.020
 4515.00    0.83366   1.15040    0.021
 4516.00    0.71623   1.14919    0.021
 4517.00    0.57061   1.14898    0.020
 4518.00    0.57261   1.14803    0.020
 4519.00    0.58133   1.14643    0.020
 4520.00    0.69075   1.14669    0.020
 4521.00    0.80310   1.14817    0.020
 4522.00    1.00126   1.14873    0.020
 4523.00    1.17442   1.14891    0.021
 4524.00    0.87809   1.14935    0.021
 4525.00    0.62012   1.14951    0.021
 4526.00    0.79189   1.14850    0.020
 4527.00    0.94629   1.14660    0.020
 4528.00    0.96480   1.14552    0.020
 4529.00    0.98042   1.14566    0.020
 4530.00    0.97890   1.14595    0.020
 4531.00    0.95760   1.14584    0.020
 4532.00    0.84363   1.14421    0.020
 4533.00    0.75405   1.14145    0.020
 4534.00    0.75765   1.14019    0.020
 4535.00    0.76550   1.14113    0.020
 4536.00    0.78692   1.14234    0.020
 4537.00    0.80759   1.14173    0.020
 4538.00    0.82625   1.13927    0.020
 4539.00    0.90888   1.13664    0.020
 4540.00    1.13970   1.13434    0.020
 4541.00    1.18915   1.13068    0.020
 4542.00    0.87502   1.12282    0.020
 4543.00    0.64978   1.10711    0.020
 4544.00    0.57975   1.07853    0.020
 4545.00    0.64980   1.04334    0.020
 4546.00    0.93391   1.02817    0.020
 4547.00    1.14048   1.04776    0.021
 4548.00    1.24295   1.08156    0.020
 4549.00    1.14776   1.10669    0.020
 4550.00    0.81890   1.12124    0.000
 4551.00    0.67980   1.12964    0.000
 4552.00    0.73849   1.13338    0.000
 4553.00    0.85977   1.13399    0.000
 4554.00    1.03859   1.13455    0.000
 4555.00    1.19397   1.13519    0.000
 4556.00    1.33037   1.13235    0.000
 4557.00    1.21918   1.12930    0.000
 4558.00    0.93142   1.13157    0.000
 4559.00    0.86350   1.13581    0.000
 4560.00    0.93315   1.13766    0.000
 4561.00    0.84541   1.13839    0.000
 4562.00    0.67158   1.13887    0.000
 4563.00    0.71080   1.13903    0.000
 4564.00    0.85132   1.13939    0.000
 4565.00    0.85347   1.13969    0.000
 4566.00    0.79888   1.13962    0.000
 4567.00    0.78751   1.13875    0.000
 4568.00    0.79130   1.13741    0.000
 4569.00    0.85814   1.13688    0.000
 4570.00    0.94361   1.13663    0.000
 4571.00    0.95461   1.13428    0.000
 4572.00    0.94736   1.13066    0.000
 4573.00    0.86180   1.12984    0.000
 4574.00    0.76073   1.13242    0.000
 4575.00    0.61748   1.13469    0.000
 4576.00    0.46770   1.13516    0.000
 4577.00    0.57410   1.13533    0.000
 4578.00    0.70981   1.13467    0.000
 4579.00    0.76567   1.13330    0.000
 4580.00    0.81539   1.13354    0.000
 4581.00    0.71273   1.13500    0.000
 4582.00    0.60373   1.13551    0.000
 4583.00    0.84141   1.13495    0.000
 4584.00    1.07433   1.13418    0.000
 4585.00    0.97354   1.13372    0.000
 4586.00    0.87442   1.13349    0.000
 4587.00    0.80462   1.13271    0.000
 4588.00    0.76703   1.13183    0.000
 4589.00    1.07406   1.13198    0.000
 4590.00    1.32281   1.13255    0.000
 4591.00    1.13100   1.13227    0.000
 4592.00    0.95650   1.13164    0.000
 4593.00    0.88147   1.13139    0.000
 4594.00    0.84777   1.12921    0.000
 4595.00    1.00295   1.12542    0.000
 4596.00    1.10172   1.12495    0.000
 4597.00    0.98947   1.12821    0.000
 4598.00    0.90096   1.13056    0.000
 4599.00    0.88669   1.12908    0.000
 4600.00    0.88747   1.12583    0.000
 4601.00    0.92822   1.12520    0.000
 4602.00    0.97109   1.12787    0.000
 4603.00    1.01879   1.13009    0.000
 4604.00    1.03931   1.12999    0.000
 4605.00    1.00620   1.12845    0.000
 4606.00    1.00181   1.12687    0.000
 4607.00    1.04682   1.12607    0.000
 4608.00    0.97525   1.12613    0.000
 4609.00    0.72814   1.12694    0.000
 4610.00    0.63341   1.12762    0.000
 4611.00    0.74033   1.12768    0.000
 4612.00    0.80896   1.12751    0.000
 4613.00    0.83299   1.12689    0.000
 4614.00    0.89230   1.12515    0.000
 4615.00    0.98787   1.12399    0.000
 4616.00    1.08015   1.12504    0.000
 4617.00    1.16943   1.12622    0.000
 4618.00    1.16559   1.12622    0.000
 4619.00    1.08734   1.12617    0.000
 4620.00    1.01560   1.12626    0.000
 4621.00    0.94845   1.12577    0.000
 4622.00    0.79065   1.12384    0.000
 4623.00    0.57697   1.12089    0.000
 4624.00    0.62375   1.11965    0.000
 4625.00    0.81081   1.12118    0.000
 4626.00    0.85608   1.12325    0.000
 4627.00    0.83502   1.12442    0.000
 4628.00    0.94886   1.12492    0.000
 4629.00    1.11709   1.12470    0.000
 4630.00    0.84842   1.12413    0.000
 4631.00    0.42945   1.12391    0.000
 4632.00    0.42566   1.12358    0.000
 4633.00    0.54213   1.12210    0.000
 4634.00    0.78366   1.11891    0.000
 4635.00    1.05515   1.11431    0.000
 4636.00    1.04649   1.11173    0.000
 4637.00    0.98372   1.11414    0.000
 4638.00    0.81249   1.11840    0.000
 4639.00    0.62497   1.12034    0.000
 4640.00    0.82426   1.12072    0.000
 4641.00    1.06612   1.12046    0.000
 4642.00    1.20586   1.11832    0.000
 4643.00    1.33816   1.11590    0.000
 4644.00    1.26187   1.11550    0.000
 4645.00    1.17770   1.11468    0.000
 4646.00    0.99186   1.11250    0.000
 4647.00    0.81603   1.11314    0.000
 4648.00    1.02976   1.11668    0.000
 4649.00    1.21900   1.11799    0.000
 4650.00    1.00771   1.11253    0.000
 4651.00    0.81366   1.10252    0.000
 4652.00    0.79600   1.09656    0.000
 4653.00    0.78746   1.09579    0.000
 4654.00    0.84553   1.09411    0.000
 4655.00    0.89941   1.09365    0.000
 4656.00    0.92985   1.09991    0.000
 4657.00    0.94953   1.10887    0.000
 4658.00    0.92119   1.11319    0.000
 4659.00    0.91226   1.11325    0.000
 4660.00    0.97446   1.11362    0.000
 4661.00    0.98326   1.11473    0.000
 4662.00    0.82819   1.11536    0.000
 4663.00    0.78595   1.11576    0.000
 4664.00    1.03797   1.11559    0.000
 4665.00    1.22651   1.11349    0.000
 4666.00    1.27279   1.11074    0.000
 4667.00    1.20927   1.10984    0.000
 4668.00    0.93250   1.10963    0.000
 4669.00    0.74522   1.10819    0.000
 4670.00    0.70947   1.10703    0.000
 4671.00    0.75752   1.10756    0.000
 4672.00    0.92990   1.10862    0.000
 4673.00    0.97974   1.10945    0.000
 4674.00    0.86976   1.11096    0.000
 4675.00    0.82972   1.11282    0.000
 4676.00    0.87004   1.11286    0.000
 4677.00    0.88919   1.11010    0.000
 4678.00    0.88688   1.10702    0.000
 4679.00    0.86887   1.10598    0.000
 4680.00    0.83685   1.10577    0.000
 4681.00    0.93682   1.10560    0.000
 4682.00    1.14074   1.10598    0.000
 4683.00    1.11768   1.10573    0.000
 4684.00    0.93739   1.10388    0.000
 4685.00    0.78527   1.10042    0.000
 4686.00    0.65026   1.09419    0.000
 4687.00    0.68420   1.08237    0.000
 4688.00    0.80773   1.05262    0.000
 4689.00    0.88050   0.99478    0.000
 4690.00    0.92990   0.94690    0.000
 4691.00    0.84835   0.96390    0.000
 4692.00    0.71490   1.02512    0.000
 4693.00    0.86004   1.07035    0.000
 4694.00    1.09923   1.08839    0.000
 4695.00    0.97971   1.09585    0.000
 4696.00    0.75840   1.09960    0.000
 4697.00    0.72460   1.10231    0.000
 4698.00    0.73470   1.10383    0.000
 4699.00    0.82392   1.10455    0.000
 4700.00    0.92803   1.10509    0.000
 4701.00    0.92871   1.10517    0.000
 4702.00    0.91433   1.10374    0.000
 4703.00    0.88801   1.10117    0.000
 4704.00    0.86043   1.10020    0.000
 4705.00    0.83523   1.10137    0.000
 4706.00    0.81020   1.10221    0.000
 4707.00    0.92028   1.10187    0.000
 4708.00    1.03495   1.10129    0.000
 4709.00    1.00032   1.10045    0.000
 4710.00    0.96659   1.10007    0.000
 4711.00    0.96953   1.10098    0.000
 4712.00    0.96290   1.10190    0.000
 4713.00    0.80962   1.10141    0.000
 4714.00    0.67889   1.10056    0.000
 4715.00    0.76937   1.09918    0.000
 4716.00    0.83765   1.08648    0.000
 4717.00    0.74898   1.06062    0.000
 4718.00    0.68218   1.05110    0.000
 4719.00    0.73439   1.07146    0.000
 4720.00    0.80465   1.09379    0.000
 4721.00    0.95360   1.09972    0.000
 4722.00    0.99491   1.10063    0.000
 4723.00    0.65003   1.10103    0.000
 4724.00    0.45346   1.10116    0.000
 4725.00    0.70335   1.10097    0.000
 4726.00    0.88243   1.10057    0.000
 4727.00    0.88005   1.10019    0.000
 4728.00    0.85202   1.10012    0.000
 4729.00    0.76745   1.10024    0.000
 4730.00    0.71560   1.09989    0.000
 4731.00    0.72635   1.09876    0.000
 4732.00    0.73800   1.09738    0.000
 4733.00    0.75117   1.09675    0.000
 4734.00    0.69910   1.09678    0.000
 4735.00    0.55161   1.09675    0.000
 4736.00    0.56030   1.09672    0.000
 4737.00    0.76976   1.09690    0.000
 4738.00    0.84527   1.09703    0.000
 4739.00    0.76903   1.09690    0.000
 4740.00    0.67333   1.09659    0.000
 4741.00    0.55819   1.09596    0.000
 4742.00    0.61725   1.09566    0.000
 4743.00    0.82982   1.09565    0.000
 4744.00    0.95113   1.09533    0.000
 4745.00    1.00161   1.09473    0.000
 4746.00    0.98291   1.09444    0.000
 4747.00    0.91697   1.09462    0.000
 4748.00    0.89257   1.09482    0.000
 4749.00    0.89303   1.09460    0.000
 4750.00    0.89493   1.09423    0.000
 4751.00    0.89759   1.09424    0.000
 4752.00    0.84680   1.09422    0.000
 4753.00    0.77182   1.09384    0.000
 4754.00    0.70233   1.09342    0.000
 4755.00    0.63498   1.09312    0.000
 4756.00    0.72441   1.09273    0.000
 4757.00    0.86579   1.09226    0.000
 4758.00    0.85700   1.09194    0.000
 4759.00    0.80646   1.09156    0.000
 4760.00    0.77883   1.09115    0.000
 4761.00    0.75644   1.09074    0.017
 4762.00    0.77943   1.09050    0.017
 4763.00    0.81073   1.09051    0.017
 4764.00    0.95096   1.09044    0.017
 4765.00    1.10652   1.09020    0.017
 4766.00    1.15235   1.08958    0.017
 4767.00    1.18705   1.08856    0.017
 4768.00    1.07231   1.08788    0.017
 4769.00    0.94792   1.08767    0.017
 4770.00    0.89586   1.08751    0.017
 4771.00    0.84597   1.08746    0.017
 4772.00    0.78665   1.08760    0.017
 4773.00    0.72998   1.08777    0.017
 4774.00    0.75013   1.08801    0.017
 4775.00    0.78520   1.08774    0.017
 4776.00    1.03583   1.08682    0.017
 4777.00    1.25168   1.08608    0.017
 4778.00    1.14039   1.08621    0.017
 4779.00    1.03147   1.08659    0.017
 4780.00    0.93874   1.08650    0.016
 4781.00    0.86081   1.08616    0.016
 4782.00    0.86133   1.08579    0.016
 4783.00    0.85519   1.08510    0.016
 4784.00    0.82066   1.08439    0.016
 4785.00    0.79383   1.08435    0.016
 4786.00    0.79406   1.08432    0.016
 4787.00    0.79241   1.08367    0.016
 4788.00    0.78524   1.08301    0.016
 4789.00    0.77015   1.08280    0.017
 4790.00    0.73515   1.08233    0.016
 4791.00    0.72647   1.08163    0.016
 4792.00    0.77488   1.08153    0.016
 4793.00    0.78965   1.08157    0.016
 4794.00    0.74112   1.08140    0.016
 4795.00    0.71485   1.08136    0.016
 4796.00    0.72514   1.08127    0.016
 4797.00    0.71312   1.08106    0.016
 4798.00    0.66895   1.08110    0.016
 4799.00    0.67954   1.08133    0.016
 4800.00    0.75953   1.08143    0.017
 4801.00    0.81178   1.08122    0.022
 4802.00    0.83303   1.08055    0.066
 4803.00    0.84715   1.07975   -1.000
 4804.00    0.85423   1.07891   -1.000
 4805.00    0.86535   1.07863   -1.000
 4806.00    0.87998   1.07870   -1.000
 4807.00    0.83674   1.07845   -1.000
 4808.00    0.74921   1.07795   -1.000
 4809.00    0.76690   1.07748   -1.000
 4810.00    0.85537   1.07709   -1.000
 4811.00    0.79126   1.07683   -1.000
 4812.00    0.63723   1.07672   -1.000
 4813.00    0.60540   1.07621    0.049
 4814.00    0.63638   1.07574    0.020
 4815.00    0.72930   1.07553    0.017
 4816.00    0.84982   1.07492    0.017
 4817.00    0.92836   1.07352    0.017
 4818.00    0.99086   1.07250    0.017
 4819.00    0.95559   1.07242    0.017
 4820.00    0.88855   1.07282    0.017
 4821.00    0.83165   1.07309    0.017
 4822.00    0.77752   1.07323    0.017
 4823.00    0.87519   1.07217    0.017
 4824.00    1.00677   1.07023    0.017
 4825.00    0.87185   1.06976    0.017
 4826.00    0.68943   1.07064    0.017
 4827.00    0.68910   1.07037    0.017
 4828.00    0.71358   1.06876    0.017
 4829.00    0.73199   1.06792    0.017
 4830.00    0.74982   1.06815    0.017
 4831.00    0.76236   1.06800    0.017
 4832.00    0.77459   1.06662    0.016
 4833.00    0.84941   1.06427    0.017
 4834.00    0.92428   1.06315    0.017
 4835.00    0.70811   1.06377    0.017
 4836.00    0.50060   1.06401    0.017
 4837.00    0.51922   1.06306    0.017
 4838.00    0.53997   1.06248    0.017
 4839.00    0.58982   1.06189    0.017
 4840.00    0.62938   1.06068    0.017
 4841.00    0.57597   1.05933    0.017
 4842.00    0.55996   1.05820    0.017
 4843.00    0.79215   1.05655    0.017
 4844.00    0.96523   1.05439    0.017
 4845.00    0.83326   1.05252    0.017
 4846.00    0.74117   1.05102    0.016
 4847.00    0.81513   1.04895    0.017
 4848.00    0.81367   1.04641    0.000
 4849.00    0.55254   1.04389    0.000
 4850.00    0.38359   1.04133    0.000
 4851.00    0.48198   1.03780    0.000
 4852.00    0.56786   1.03297    0.000
 4853.00    0.62282   1.02733    0.000
 4854.00    0.69527   1.02150    0.000
 4855.00    0.80503   1.01499    0.000
 4856.00    0.83333   1.00672    0.000
 4857.00    0.71066   0.99635    0.000
 4858.00    0.63218   0.98320    0.000
 4859.00    0.62522   0.96594    0.000
 4860.00    0.61928   0.94334    0.000
 4861.00    0.61478   0.91441    0.000
 4862.00    0.61613   0.87499    0.000
 4863.00    0.62479   0.82149    0.000
 4864.00    0.56819   0.75616    0.000
 4865.00    0.43975   0.68919    0.000
 4866.00    0.45600   0.65638    0.000
 4867.00    0.61278   0.68878    0.000
 4868.00    0.70856   0.76578    0.000
 4869.00    0.75210   0.83815    0.000
 4870.00    0.75112   0.88799    0.000
 4871.00    0.71656   0.92114    0.000
 4872.00    0.68413   0.94564    0.000
 4873.00    0.65312   0.96591    0.000
 4874.00    0.67301   0.98223    0.000
 4875.00    0.72244   0.99343    0.017
 4876.00    0.76589   1.00170    0.017
 4877.00    0.80632   1.00929    0.017
 4878.00    0.69455   1.01617    0.017
 4879.00    0.51614   1.02172    0.017
 4880.00    0.56694   1.02614    0.017
 4881.00    0.70389   1.02999    0.017
 4882.00    0.75759   1.03343    0.017
 4883.00    0.78472   1.03641    0.016
 4884.00    0.84790   1.03903    0.016
 4885.00    0.92068   1.04061    0.017
 4886.00    0.73038   1.04156    0.016
 4887.00    0.48269   1.04270    0.016
 4888.00    0.53072   1.04384    0.016
 4889.00    0.63001   1.04470    0.016
 4890.00    0.73763   1.04517    0.016
 4891.00    0.84634   1.04616    0.016
 4892.00    0.96514   1.04728    0.016
 4893.00    1.08488   1.04804    0.016
 4894.00    0.87092   1.04794    0.016
 4895.00    0.63803   1.04721    0.016
 4896.00    0.55604   1.04723    0.016
 4897.00    0.47948   1.04894    0.016
 4898.00    0.62097   1.05066    0.016
 4899.00    0.76314   1.05148    0.016
 4900.00    0.92129   1.05214    0.016
 4901.00    1.04328   1.05234    0.016
 4902.00    0.69785   1.05227    0.016
 4903.00    0.39795   1.05182    0.016
 4904.00    0.49394   1.05082    0.016
 4905.00    0.58368   1.05029    0.016
 4906.00    0.63320   1.05080    0.016
 4907.00    0.64063   1.05105    0.016
 4908.00    0.43638   1.05047    0.016
 4909.00    0.29064   1.05031    0.016
 4910.00    0.38307   1.05051    0.016
 4911.00    0.48189   1.05037    0.016
 4912.00    0.60222   1.05012    0.016
 4913.00    0.69175   1.04985    0.016
 4914.00    0.69361   1.04938    0.016
 4915.00    0.68384   1.04857    0.016
 4916.00    0.64582   1.04832    0.016
 4917.00    0.59681   1.04839    0.016
 4918.00    0.52473   1.04844    0.016
 4919.00    0.45425   1.04822    0.016
 4920.00    0.38670   1.04790    0.016
 4921.00    0.40219   1.04662    0.016
 4922.00    0.55010   1.04412    0.016
 4923.00    0.62374   1.03919    0.016
 4924.00    0.59343   1.02899    0.015
 4925.00    0.61699   1.00921    0.015
 4926.00    0.70691   0.98048    0.016
 4927.00    0.76993   0.97344    0.016
 4928.00    0.80373   0.99537    0.015
 4929.00    0.80952   1.02340    0.015
 4930.00    0.78848   1.03517    0.015
 4931.00    0.80103   1.04134    0.015
 4932.00    0.84195   1.04449    0.015
 4933.00    0.87738   1.04563    0.015
 4934.00    0.90875   1.04615    0.015
 4935.00    0.83416   1.04631    0.015
 4936.00    0.69037   1.04630    0.015
 4937.00    0.66495   1.04549    0.015
 4938.00    0.70719   1.04428    0.016
 4939.00    0.73853   1.04386    0.016
 4940.00    0.76445   1.04451    0.000
 4941.00    0.70243   1.04461    0.000
 4942.00    0.60255   1.04359    0.000
 4943.00    0.59041   1.04236    0.000
 4944.00    0.61067   1.04187    0.000
 4945.00    0.59552   1.04199    0.000
 4946.00    0.56929   1.04214    0.000
 4947.00    0.71914   1.04159    0.000
 4948.00    0.91493   1.04175    0.000
 4949.00    0.77793   1.04259    0.000
 4950.00    0.57006   1.04295    0.000
 4951.00    0.53765   1.04260    0.000
 4952.00    0.53480   1.04262    0.000
 4953.00    0.59362   1.04249    0.000
 4954.00    0.66028   1.04244    0.000
 4955.00    0.69189   1.04218    0.000
 4956.00    0.72040   1.04180    0.000
 4957.00    0.72789   1.04118    0.000
 4958.00    0.73426   1.04080    0.000
 4959.00    0.73988   1.04067    0.000
 4960.00    0.74471   1.04014    0.000
 4961.00    0.68896   1.03874    0.000
 4962.00    0.63523   1.03685    0.000
 4963.00    0.62540   1.03665    0.000
 4964.00    0.61607   1.03819    0.000
 4965.00    0.61272   1.03934    0.000
 4966.00    0.60926   1.03915    0.000
 4967.00    0.60485   1.03886    0.000
 4968.00    0.61894   1.03860    0.000
 4969.00    0.74855   1.03800    0.000
 4970.00    0.84563   1.03696    0.000
 4971.00    0.78321   1.03620    0.000
 4972.00    0.71456   1.03607    0.000
 4973.00    0.62112   1.03581    0.000
 4974.00    0.55098   1.03569    0.000
 4975.00    0.55787   1.03570    0.000
 4976.00    0.55840   1.03580    0.000
 4977.00    0.54114   1.03580    0.000
 4978.00    0.55655   1.03581    0.000
 4979.00    0.65010   1.03574    0.000
 4980.00    0.70492   1.03549    0.000
 4981.00    0.67975   1.03496    0.000
 4982.00    0.59935   1.03421    0.000
 4983.00    0.41974   1.03342    0.000
 4984.00    0.39465   1.03312    0.000
 4985.00    0.61234   1.03278    0.000
 4986.00    0.70512   1.03154    0.000
 4987.00    0.62560   1.02933    0.000
 4988.00    0.60431   1.02845    0.000
 4989.00    0.65372   1.02909    0.000
 4990.00    0.65294   1.03015    0.000
 4991.00    0.59844   1.03077    0.000
 4992.00    0.57467   1.03151    0.000
 4993.00    0.57993   1.03129    0.000
 4994.00    0.64793   1.03056    0.000
 4995.00    0.76816   1.02958    0.000
 4996.00    0.79510   1.02881    0.000
 4997.00    0.75367   1.02899    0.000
 4998.00    0.75178   1.02884    0.000
 4999.00    0.77533   1.02866    0.000
 5000.00    0.76164   1.02889    0.000
 5001.00    0.72699   1.02912    0.000
 5002.00    0.63919   1.02887    0.000
 5003.00    0.52535   1.02837    0.000
 5004.00    0.49922   1.02713    0.000
 5005.00    0.51024   1.02448    0.000
 5006.00    0.60641   1.02255    0.000
 5007.00    0.73346   1.02276    0.000
 5008.00    0.74634   1.02448    0.000
 5009.00    0.72419   1.02419    0.000
 5010.00    0.67230   1.02298    0.000
 5011.00    0.61281   1.02249    0.000
 5012.00    0.55688   1.02303    0.000
 5013.00    0.50170   1.02381    0.000
 5014.00    0.52377   1.02379    0.000
 5015.00    0.55848   1.02298    0.000
 5016.00    0.50543   1.02248    0.000
 5017.00    0.44160   1.02185    0.000
 5018.00    0.50147   1.01829    0.000
 5019.00    0.57179   1.00258    0.000
 5020.00    0.67795   0.97501    0.000
 5021.00    0.78586   0.97352    0.000
 5022.00    0.73246   0.99732    0.000
 5023.00    0.67738   1.01490    0.000
 5024.00    0.67183   1.01730    0.000
 5025.00    0.66723   1.01985    0.000
 5026.00    0.68183   1.02066    0.000
 5027.00    0.69658   1.01995    0.000
 5028.00    0.71328   1.01984    0.000
 5029.00    0.72400   1.02031    0.015
 5030.00    0.68646   1.01999    0.015
 5031.00    0.64860   1.01913    0.015
 5032.00    0.60874   1.01829    0.015
 5033.00    0.60046   1.01839    0.015
 5034.00    0.74322   1.01921    0.015
 5035.00    0.83964   1.01933    0.015
 5036.00    0.75565   1.01840    0.015
 5037.00    0.66656   1.01781    0.015
 5038.00    0.56097   1.01821    0.015
 5039.00    0.49947   1.01840    0.015
 5040.00    0.55901   1.01722    0.015
 5041.00    0.60433   1.01599    0.015
 5042.00    0.61624   1.01635    0.015
 5043.00    0.61578   1.01618    0.015
 5044.00    0.59017   1.01442    0.015
 5045.00    0.57948   1.01037    0.015
 5046.00    0.59520   1.00835    0.015
 5047.00    0.64647   1.01067    0.015
 5048.00    0.75277   1.01421    0.015
 5049.00    0.73620   1.01466    0.015
 5050.00    0.55260   1.01435    0.015
 5051.00    0.44661   1.00924    0.015
 5052.00    0.43353   0.99756    0.015
 5053.00    0.50613   0.99477    0.015
 5054.00    0.66916   1.00316    0.015
 5055.00    0.73958   1.01232    0.015
 5056.00    0.72380   1.01261    0.015
 5057.00    0.76763   1.01409    0.015
 5058.00    0.86039   1.01546    0.015
 5059.00    0.78844   1.01409    0.015
 5060.00    0.59752   1.00841    0.015
 5061.00    0.53870   1.00571    0.015
 5062.00    0.56363   1.00795    0.015
 5063.00    0.55822   1.01178    0.015
 5064.00    0.53599   1.01195    0.015
 5065.00    0.49384   1.01173    0.015
 5066.00    0.44207   1.01167    0.015
 5067.00    0.49316   1.01153    0.015
 5068.00    0.58707   1.01064    0.015
 5069.00    0.64295   1.00922    0.015
 5070.00    0.68528   1.00812    0.015
 5071.00    0.69620   1.00864    0.015
 5072.00    0.69768   1.00891    0.015
 5073.00    0.70335   1.00829    0.015
 5074.00    0.71006   1.00798    0.015
 5075.00    0.58135   1.00827    0.015
 5076.00    0.42520   1.00786    0.015
 5077.00    0.41632   1.00691    0.015
 5078.00    0.43084   1.00655    0.015
 5079.00    0.40617   1.00661    0.015
 5080.00    0.37685   1.00650    0.015
 5081.00    0.38698   1.00624    0.015
 5082.00    0.40027   1.00620    0.014
 5083.00    0.49110   1.00592    0.014
 5084.00    0.58542   1.00419    0.014
 5085.00    0.48155   1.00319    0.014
 5086.00    0.38084   1.00347    0.014
 5087.00    0.55487   1.00406    0.014
 5088.00    0.72255   1.00377    0.014
 5089.00    0.77241   1.00385    0.014
 5090.00    0.81437   1.00395    0.014
 5091.00    0.76838   1.00361    0.014
 5092.00    0.71981   1.00324    0.014
 5093.00    0.65120   1.00311    0.014
 5094.00    0.58291   1.00318    0.014
 5095.00    0.51655   1.00309    0.014
 5096.00    0.47677   1.00272    0.014
 5097.00    0.56103   1.00245    0.014
 5098.00    0.63680   1.00245    0.014
 5099.00    0.68027   1.00225    0.014
 5100.00    0.71740   1.00165    0.014
 5101.00    0.73438   1.00097    0.014
 5102.00    0.72641   1.00009    0.014
 5103.00    0.65121   0.99899    0.014
 5104.00    0.58993   0.99810    0.014
 5105.00    0.56081   0.99796    0.014
 5106.00    0.53019   0.99859    0.014
 5107.00    0.49654   0.99893    0.014
 5108.00    0.48099   0.99861    0.014
 5109.00    0.49697   0.99819    0.014
 5110.00    0.53223   0.99820    0.014
 5111.00    0.59689   0.99779    0.014
 5112.00    0.66047   0.99692    0.014
 5113.00    0.72260   0.99655    0.015
 5114.00    0.71600   0.99658    0.015
 5115.00    0.62828   0.99598    0.015
 5116.00    0.59094   0.99599    0.015
 5117.00    0.60602   0.99629    0.015
 5118.00    0.56198   0.99571    0.015
 5119.00    0.46370   0.99513    0.015
 5120.00    0.43614   0.99545    0.015
 5121.00    0.46580   0.99571    0.015
 5122.00    0.48287   0.99594    0.015
 5123.00    0.49098   0.99597    0.015
 5124.00    0.56615   0.99545    0.015
 5125.00    0.68322   0.99481    0.014
 5126.00    0.67811   0.99372    0.015
 5127.00    0.60631   0.99271    0.015
 5128.00    0.52898   0.99159    0.015
 5129.00    0.44903   0.99127    0.015
 5130.00    0.42499   0.99154    0.015
 5131.00    0.42384   0.99087    0.015
 5132.00    0.51334   0.98988    0.015
 5133.00    0.63453   0.98960    0.015
 5134.00    0.68015   0.99014    0.015
 5135.00    0.70348   0.99029    0.015
 5136.00    0.68741   0.99033    0.015
 5137.00    0.66171   0.98986    0.015
 5138.00    0.74799   0.98935    0.015
 5139.00    0.85639   0.98952    0.015
 5140.00    0.61685   0.99019    0.015
 5141.00    0.32364   0.98994    0.014
 5142.00    0.30774   0.98881    0.014
 5143.00    0.32342   0.98811    0.014
 5144.00    0.44089   0.98715    0.014
 5145.00    0.56612   0.98725    0.015
 5146.00    0.58349   0.98761    0.015
 5147.00    0.59643   0.98631    0.015
 5148.00    0.53359   0.98495    0.015
 5149.00    0.47144   0.98496    0.014
 5150.00    0.46456   0.98520    0.014
 5151.00    0.45552   0.98493    0.014
 5152.00    0.40920   0.98539    0.014
 5153.00    0.37103   0.98499    0.015
 5154.00    0.41962   0.98484    0.014
 5155.00    0.46014   0.98432    0.014
 5156.00    0.43988   0.98345    0.014
 5157.00    0.44204   0.98306    0.014
 5158.00    0.57263   0.98288    0.014
 5159.00    0.68702   0.98283    0.014
 5160.00    0.72760   0.98230    0.014
 5161.00    0.74131   0.98280    0.014
 5162.00    0.65480   0.98351    0.014
 5163.00    0.58707   0.98469    0.014
 5164.00    0.57792   0.98424    0.014
 5165.00    0.53504   0.98392    0.014
 5166.00    0.40284   0.98333    0.014
 5167.00    0.31841   0.98251    0.014
 5168.00    0.34262   0.98215    0.014
 5169.00    0.38940   0.98169    0.014
 5170.00    0.48061   0.98050    0.014
 5171.00    0.52084   0.97762    0.014
 5172.00    0.47359   0.97455    0.014
 5173.00    0.45906   0.97266    0.014
 5174.00    0.49371   0.97384    0.014
 5175.00    0.50899   0.97604    0.014
 5176.00    0.49869   0.97601    0.014
 5177.00    0.47843   0.97317    0.014
 5178.00    0.44658   0.97241    0.014
 5179.00    0.45050   0.97517    0.014
 5180.00    0.49111   0.97749    0.014
 5181.00    0.52787   0.97759    0.014
 5182.00    0.56114   0.97738    0.014
 5183.00    0.55037   0.97774    0.014
 5184.00    0.50446   0.97744    0.013
 5185.00    0.46624   0.97667    0.014
 5186.00    0.43343   0.97598    0.014
 5187.00    0.41323   0.97386    0.014
 5188.00    0.40080   0.97058    0.014
 5189.00    0.43246   0.96915    0.014
 5190.00    0.48782   0.97137    0.000
 5191.00    0.51837   0.97413    0.000
 5192.00    0.53734   0.97527    0.000
 5193.00    0.50070   0.97500    0.000
 5194.00    0.44168   0.97442    0.000
 5195.00    0.42665   0.97456    0.000
 5196.00    0.42672   0.97329    0.000
 5197.00    0.40996   0.97168    0.000
 5198.00    0.38834   0.97109    0.000
 5199.00    0.45470   0.97165    0.000
 5200.00    0.54208   0.97165    0.000
 5201.00    0.52942   0.97185    0.000
 5202.00    0.49751   0.97193    0.000
 5203.00    0.51216   0.97162    0.000
 5204.00    0.53377   0.97126    0.000
 5205.00    0.51654   0.96972    0.000
 5206.00    0.49507   0.96930    0.000
 5207.00    0.39247   0.96978    0.000
 5208.00    0.28401   0.96919    0.000
 5209.00    0.35114   0.96660    0.000
 5210.00    0.42482   0.96523    0.000
 5211.00    0.41819   0.96610    0.014
 5212.00    0.41228   0.96708    0.014
 5213.00    0.44611   0.96671    0.014
 5214.00    0.48292   0.96638    0.014
 5215.00    0.56791   0.96678    0.014
 5216.00    0.63781   0.96674    0.014
 5217.00    0.55403   0.96614    0.014
 5218.00    0.48629   0.96669    0.014
 5219.00    0.53523   0.96778    0.014
 5220.00    0.58624   0.96728    0.014
 5221.00    0.64877   0.96582    0.014
 5222.00    0.68612   0.96542    0.014
 5223.00    0.61141   0.96608    0.014
 5224.00    0.55607   0.96666    0.014
 5225.00    0.57145   0.96687    0.014
 5226.00    0.57696   0.96694    0.014
 5227.00    0.55221   0.96667    0.014
 5228.00    0.55917   0.96558    0.014
 5229.00    0.64859   0.96438    0.014
 5230.00    0.68246   0.96256    0.014
 5231.00    0.59209   0.96026    0.014
 5232.00    0.53260   0.95925    0.014
 5233.00    0.53299   0.96048    0.014
 5234.00    0.58707   0.96270    0.014
 5235.00    0.73193   0.96361    0.014
 5236.00    0.77477   0.96373    0.014
 5237.00    0.66651   0.96296    0.014
 5238.00    0.58963   0.96134    0.013
 5239.00    0.55358   0.96025    0.013
 5240.00    0.54192   0.96024    0.013
 5241.00    0.55826   0.96113    0.013
 5242.00    0.58247   0.96178    0.013
 5243.00    0.61466   0.96199    0.013
 5244.00    0.56591   0.96153    0.013
 5245.00    0.44495   0.96139    0.013
 5246.00    0.44053   0.96143    0.014
 5247.00    0.52773   0.96103    0.014
 5248.00    0.62772   0.96056    0.014
 5249.00    0.73656   0.96024    0.014
 5250.00    0.68990   0.96105    0.014
 5251.00    0.54897   0.96030    0.014
 5252.00    0.53712   0.95856    0.014
 5253.00    0.59358   0.95728    0.014
 5254.00    0.62555   0.95715    0.014
 5255.00    0.64628   0.95639    0.014
 5256.00    0.47364   0.95608    0.014
 5257.00    0.22454   0.95625    0.014
 5258.00    0.29854   0.95601    0.014
 5259.00    0.48137   0.95533    0.014
 5260.00    0.60692   0.95513    0.014
 5261.00    0.71625   0.95576    0.015
 5262.00    0.75676   0.95648    0.015
 5263.00    0.78120   0.95693    0.015
 5264.00    0.66173   0.95645    0.015
 5265.00    0.51527   0.95538    0.015
 5266.00    0.55838   0.95429    0.015
 5267.00    0.62896   0.95322    0.015
 5268.00    0.62963   0.95159    0.015
 5269.00    0.62295   0.95010    0.015
 5270.00    0.66209   0.94946    0.015
 5271.00    0.70435   0.94957    0.015
 5272.00    0.54439   0.95077    0.015
 5273.00    0.37765   0.95112    0.015
 5274.00    0.44661   0.94883    0.015
 5275.00    0.51491   0.94732    0.015
 5276.00    0.55377   0.94819    0.015
 5277.00    0.58748   0.94940    0.015
 5278.00    0.54252   0.94927    0.014
 5279.00    0.50020   0.94933    0.014
 5280.00    0.48363   0.94885    0.014
 5281.00    0.46816   0.94827    0.014
 5282.00    0.46042   0.94951    0.014
 5283.00    0.46541   0.95102    0.014
 5284.00    0.53937   0.95098    0.014
 5285.00    0.59722   0.95018    0.014
 5286.00    0.58504   0.94912    0.014
 5287.00    0.59126   0.94819    0.014
 5288.00    0.66336   0.94736    0.014
 5289.00    0.71019   0.94690    0.014
 5290.00    0.68115   0.94765    0.014
 5291.00    0.67141   0.94904    0.013
 5292.00    0.71101   0.94936    0.014
 5293.00    0.70156   0.94872    0.014
 5294.00    0.58420   0.94818    0.014
 5295.00    0.49781   0.94799    0.013
 5296.00    0.47053   0.94783    0.013
 5297.00    0.46342   0.94744    0.013
 5298.00    0.48986   0.94685    0.013
 5299.00    0.54712   0.94655    0.013
 5300.00    0.64932   0.94609    0.013
 5301.00    0.67771   0.94478    0.013
 5302.00    0.61137   0.94286    0.013
 5303.00    0.54620   0.94182    0.013
 5304.00    0.48237   0.94231    0.013
 5305.00    0.44708   0.94314    0.013
 5306.00    0.44026   0.94294    0.013
 5307.00    0.52521   0.94267    0.013
 5308.00    0.69090   0.94298    0.013
 5309.00    0.77658   0.94382    0.013
 5310.00    0.80028   0.94423    0.013
 5311.00    0.76624   0.94355    0.014
 5312.00    0.69288   0.94256    0.014
 5313.00    0.57928   0.94211    0.014
 5314.00    0.44165   0.94233    0.013
 5315.00    0.50318   0.94235    0.013
 5316.00    0.66847   0.94188    0.014
 5317.00    0.58341   0.94152    0.014
 5318.00    0.38528   0.94103    0.014
 5319.00    0.41771   0.94053    0.014
 5320.00    0.53973   0.93957    0.014
 5321.00    0.64263   0.93802    0.013
 5322.00    0.73922   0.93736    0.013
 5323.00    0.70605   0.93810    0.014
 5324.00    0.63690   0.93876    0.014
 5325.00    0.54111   0.93727    0.014
 5326.00    0.43925   0.93653    0.014
 5327.00    0.39252   0.93684    0.014
 5328.00    0.35586   0.93711    0.014
 5329.00    0.48135   0.93639    0.014
 5330.00    0.62958   0.93612    0.014
 5331.00    0.68078   0.93568    0.014
 5332.00    0.72219   0.93387    0.013
 5333.00    0.64604   0.93109    0.013
 5334.00    0.56235   0.93091    0.013
 5335.00    0.52200   0.93276    0.013
 5336.00    0.48332   0.93419    0.013
 5337.00    0.60239   0.93429    0.013
 5338.00    0.71658   0.93392    0.013
 5339.00    0.69120   0.93404    0.013
 5340.00    0.66803   0.93437    0.013
 5341.00    0.67651   0.93413    0.013
 5342.00    0.68645   0.93363    0.013
 5343.00    0.71014   0.93315    0.013
 5344.00    0.72657   0.93248    0.013
 5345.00    0.69343   0.93115    0.013
 5346.00    0.64568   0.93026    0.013
 5347.00    0.52075   0.93082    0.013
 5348.00    0.41886   0.93153    0.013
 5349.00    0.41485   0.93153    0.013
 5350.00    0.43707   0.93014    0.013
 5351.00    0.55124   0.92922    0.013
 5352.00    0.63739   0.92947    0.013
 5353.00    0.64091   0.92992    0.013
 5354.00    0.65767   0.92950    0.013
 5355.00    0.70768   0.92958    0.013
 5356.00    0.72177   0.93002    0.013
 5357.00    0.65814   0.92998    0.013
 5358.00    0.59795   0.92960    0.013
 5359.00    0.54422   0.92950    0.013
 5360.00    0.53425   0.92990    0.013
 5361.00    0.59603   0.92968    0.013
 5362.00    0.60217   0.92945    0.013
 5363.00    0.52831   0.92922    0.013
 5364.00    0.56337   0.92903    0.013
 5365.00    0.73621   0.92850    0.013
 5366.00    0.77386   0.92753    0.013
 5367.00    0.66079   0.92674    0.013
 5368.00    0.60396   0.92626   -2.000
 5369.00    0.60244   0.92588   -2.000
 5370.00    0.66389   0.92528   -2.000
 5371.00    0.77993   0.92476   -2.000
 5372.00    0.84997   0.92449   -2.000
 5373.00    0.88489   0.92425   -2.000
 5374.00    0.83422   0.92358   -2.000
 5375.00    0.72608   0.92223   -2.000
 5376.00    0.62363   0.92104   -2.000
 5377.00    0.52454   0.92118   -2.000
 5378.00    0.50041   0.92248   -2.000
 5379.00    0.51473   0.92344   -2.000
 5380.00    0.56580   0.92368   -2.000
 5381.00    0.63318   0.92337   -2.000
 5382.00    0.57619   0.92279   -2.000
 5383.00    0.47173   0.92267    0.013
 5384.00    0.46922   0.92228    0.013
 5385.00    0.49978   0.92139    0.013
 5386.00    0.55109   0.92076    0.013
 5387.00    0.60804   0.92043    0.013
 5388.00    0.60048   0.92014    0.013
 5389.00    0.57856   0.91990    0.013
 5390.00    0.60775   0.91985    0.013
 5391.00    0.64603   0.91975    0.013
 5392.00    0.57463   0.91925    0.013
 5393.00    0.48834   0.91866    0.013
 5394.00    0.53887   0.91799    0.013
 5395.00    0.60261   0.91744    0.012
 5396.00    0.63922   0.91713    0.012
 5397.00    0.67420   0.91653    0.012
 5398.00    0.61591   0.91603    0.012
 5399.00    0.55554   0.91556    0.012
 5400.00    0.55123   0.91490    0.012
 5401.00    0.54518   0.91385    0.012
 5402.00    0.49432   0.91255    0.012
 5403.00    0.45009   0.91265    0.012
 5404.00    0.49566   0.91343    0.012
 5405.00    0.54492   0.91306    0.012
 5406.00    0.62734   0.91175    0.012
 5407.00    0.69563   0.91084    0.012
 5408.00    0.67054   0.90971    0.012
 5409.00    0.64605   0.90741    0.012
 5410.00    0.62465   0.90404    0.012
 5411.00    0.60925   0.90048    0.012
 5412.00    0.61880   0.89633    0.012
 5413.00    0.61077   0.88799    0.012
 5414.00    0.54234   0.87076    0.012
 5415.00    0.52210   0.84057    0.012
 5416.00    0.64129   0.81121    0.012
 5417.00    0.69761   0.80649    0.012
 5418.00    0.59868   0.83015    0.012
 5419.00    0.53535   0.86091    0.012
 5420.00    0.54783   0.88155    0.012
 5421.00    0.57618   0.89290    0.013
 5422.00    0.63386   0.89942    0.013
 5423.00    0.63537   0.90296    0.013
 5424.00    0.54613   0.90461    0.013
 5425.00    0.51251   0.90531    0.013
 5426.00    0.55772   0.90605    0.013
 5427.00    0.58262   0.90689    0.013
 5428.00    0.58220   0.90698    0.013
 5429.00    0.60075   0.90626    0.013
 5430.00    0.64014   0.90568    0.013
 5431.00    0.65482   0.90608    0.013
 5432.00    0.64554   0.90680    0.012
 5433.00    0.64595   0.90616    0.012
 5434.00    0.65462   0.90428    0.013
 5435.00    0.66793   0.90369    0.013
 5436.00    0.68473   0.90437    0.013
 5437.00    0.63556   0.90428    0.013
 5438.00    0.54274   0.90342    0.012
 5439.00    0.49007   0.90282    0.012
 5440.00    0.46064   0.90296    0.012
 5441.00    0.49393   0.90317    0.012
 5442.00    0.55889   0.90367    0.012
 5443.00    0.57797   0.90452    0.012
 5444.00    0.57702   0.90504    0.012
 5445.00    0.60245   0.90493    0.012
 5446.00    0.63777   0.90463    0.012
 5447.00    0.58946   0.90439    0.012
 5448.00    0.51452   0.90389    0.012
 5449.00    0.50776   0.90325    0.012
 5450.00    0.51912   0.90199    0.012
 5451.00    0.56229   0.90012    0.012
 5452.00    0.61238   0.89937    0.012
 5453.00    0.56946   0.90031    0.012
 5454.00    0.51047   0.90148    0.012
 5455.00    0.54042   0.90183    0.012
 5456.00    0.58204   0.90142    0.012
 5457.00    0.59382   0.90022    0.012
 5458.00    0.60286   0.89849    0.012
 5459.00    0.58759   0.89703    0.012
 5460.00    0.57095   0.89631    0.012
 5461.00    0.51269   0.89688    0.012
 5462.00    0.45426   0.89816    0.012
 5463.00    0.47498   0.89925    0.012
 5464.00    0.50073   0.89946    0.012
 5465.00    0.64441   0.89879    0.012
 5466.00    0.77240   0.89793    0.012
 5467.00    0.69873   0.89717    0.012
 5468.00    0.63582   0.89645    0.012
 5469.00    0.66604   0.89625    0.012
 5470.00    0.68812   0.89637    0.012
 5471.00    0.65806   0.89594    0.012
 5472.00    0.62811   0.89548    0.012
 5473.00    0.59874   0.89564    0.012
 5474.00    0.56481   0.89570    0.012
 5475.00    0.51239   0.89523    0.012
 5476.00    0.47663   0.89474    0.012
 5477.00    0.49700   0.89430    0.012
 5478.00    0.51937   0.89329   -2.000
 5479.00    0.54748   0.89260   -2.000
 5480.00    0.56029   0.89252   -2.000
 5481.00    0.53597   0.89172   -2.000
 5482.00    0.57482   0.89071   -2.000
 5483.00    0.74596   0.89105   -2.000
 5484.00    0.89558   0.89209   -2.000
 5485.00    1.00600   0.89219   -2.000
 5486.00    1.13600   0.89123   -2.000
 5487.00    1.29714   0.89031   -2.000
 5488.00    1.24449   0.89034   -2.000
 5489.00    0.89318   0.89089   -2.000
 5490.00    0.80025   0.89141   -2.000
 5491.00    1.02496   0.89115   -2.000
 5492.00    0.95276   0.89014   -2.000
 5493.00    0.55877   0.88931   -2.000
 5494.00    0.39063   0.88927   -2.000
 5495.00    0.43838   0.88929   -2.000
 5496.00    0.50209   0.88914   -2.000
 5497.00    0.57924   0.88910   -2.000
 5498.00    0.65195   0.88878   -2.000
 5499.00    0.72136   0.88827   -2.000
 5500.00    0.76215   0.88816   -2.000
 5501.00    0.78428   0.88793   -2.000
 5502.00    0.73734   0.88719    0.011
 5503.00    0.65099   0.88689    0.011
 5504.00    0.60951   0.88747    0.011
 5505.00    0.59032   0.88754    0.011
 5506.00    0.61165   0.88662    0.011
 5507.00    0.65038   0.88569    0.011
 5508.00    0.60866   0.88548    0.011
 5509.00    0.53730   0.88562    0.011
 5510.00    0.48190   0.88516    0.011
 5511.00    0.43149   0.88396    0.012
 5512.00    0.44450   0.88273    0.012
 5513.00    0.47401   0.88300    0.012
 5514.00    0.51899   0.88345    0.012
 5515.00    0.56725   0.88343    0.012
 5516.00    0.54156   0.88299    0.012
 5517.00    0.50344   0.88218    0.012
 5518.00    0.56084   0.88159    0.012
 5519.00    0.63034   0.88137    0.012
 5520.00    0.62884   0.88165    0.012
 5521.00    0.62108   0.88200    0.012
 5522.00    0.58590   0.88212    0.012
 5523.00    0.54930   0.88218    0.012
 5524.00    0.51287   0.88230    0.012
 5525.00    0.47657   0.88207    0.012
 5526.00    0.44981   0.88164    0.012
 5527.00    0.42540   0.88128    0.012
 5528.00    0.45164   0.88088    0.012
 5529.00    0.47678   0.88044    0.012
 5530.00    0.48849   0.87984    0.012
 5531.00    0.49410   0.87902    0.012
 5532.00    0.44890   0.87800    0.012
 5533.00    0.42319   0.87705    0.012
 5534.00    0.51884   0.87690    0.012
 5535.00    0.60723   0.87762    0.011
 5536.00    0.66019   0.87807    0.011
 5537.00    0.68382   0.87777    0.011
 5538.00    0.59101   0.87726    0.011
 5539.00    0.52770   0.87673    0.011
 5540.00    0.56176   0.87625    0.011
 5541.00    0.59416   0.87603    0.011
 5542.00    0.62194   0.87601    0.011
 5543.00    0.64580   0.87597    0.011
 5544.00    0.66029   0.87611    0.011
 5545.00    0.67390   0.87629    0.011
 5546.00    0.68570   0.87620    0.011
 5547.00    0.68774   0.87570    0.011
 5548.00    0.67228   0.87491    0.011
 5549.00    0.66189   0.87431    0.011
 5550.00    0.65948   0.87409    0.011
 5551.00    0.64386   0.87386    0.011
 5552.00    0.61005   0.87375    0.011
 5553.00    0.56446   0.87385    0.011
 5554.00    0.50459   0.87387    0.011
 5555.00    0.48482   0.87364    0.011
 5556.00    0.50788   0.87350    0.011
 5557.00    0.50263   0.87323    0.011
 5558.00    0.47072   0.87254    0.011
 5559.00    0.46655   0.87161    0.011
 5560.00    0.48544   0.87121    0.011
 5561.00    0.47906   0.87129    0.012
 5562.00    0.45419   0.87121    0.012
 5563.00    0.47605   0.87102    0.012
 5564.00    0.52793   0.87087    0.012
 5565.00    0.55829   0.87054    0.011
 5566.00    0.57655   0.87014    0.011
 5567.00    0.61804   0.86972    0.011
 5568.00    0.67088   0.86897    0.011
 5569.00    0.63240   0.86824    0.011
 5570.00    0.55533   0.86776    0.012
 5571.00    0.51427   0.86747    0.012
 5572.00    0.48624   0.86754    0.012
 5573.00    0.44923   0.86762    0.011
 5574.00    0.40948   0.86704    0.011
 5575.00    0.44218   0.86652    0.011
 5576.00    0.49333   0.86657    0.012
 5577.00    0.52707   0.86629    0.011
 5578.00    0.55720   0.86552    0.011
 5579.00    0.50470   0.86543    0.011
 5580.00    0.43873   0.86583    0.011
 5581.00    0.50092   0.86589    0.011
 5582.00    0.57876   0.86565    0.011
 5583.00    0.64851   0.86519    0.011
 5584.00    0.71759   0.86462    0.011
 5585.00    0.56911   0.86458    0.011
 5586.00    0.41010   0.86449    0.011
 5587.00    0.44340   0.86398    0.011
 5588.00    0.47991   0.86365    0.011
 5589.00    0.53544   0.86364    0.011
 5590.00    0.58771   0.86329    0.011
 5591.00    0.57544   0.86223    0.011
 5592.00    0.56734   0.86072    0.011
 5593.00    0.60757   0.85967    0.011
 5594.00    0.64033   0.85963    0.011
 5595.00    0.61308   0.85972    0.011
 5596.00    0.59056   0.85590    0.012
 5597.00    0.59665   0.85001    0.012
 5598.00    0.60202   0.84813    0.012
 5599.00    0.60393   0.85283    0.012
 5600.00    0.59941   0.85819    0.012
 5601.00    0.56997   0.86002    0.012
 5602.00    0.54457   0.85999    0.012
 5603.00    0.53231   0.85913    0.012
 5604.00    0.52400   0.85828    0.012
 5605.00    0.52651   0.85795    0.012
 5606.00    0.53564   0.85756    0.012
 5607.00    0.56032   0.85689    0.012
 5608.00    0.55711   0.85643    0.011
 5609.00    0.49733   0.85680    0.011
 5610.00    0.48279   0.85722    0.011
 5611.00    0.54811   0.85722    0.012
 5612.00    0.60876   0.85723    0.012
 5613.00    0.66217   0.85737    0.011
 5614.00    0.66688   0.85727    0.011
 5615.00    0.60553   0.85689    0.011
 5616.00    0.57047   0.85664    0.011
 5617.00    0.56684   0.85652    0.011
 5618.00    0.56470   0.85614    0.011
 5619.00    0.56414   0.85514    0.011
 5620.00    0.58558   0.85344    0.011
 5621.00    0.62745   0.85236    0.011
 5622.00    0.61611   0.85276    0.011
 5623.00    0.56117   0.85353    0.011
 5624.00    0.53159   0.85350    0.011
 5625.00    0.52031   0.85306    0.011
 5626.00    0.52957   0.85298    0.011
 5627.00    0.55183   0.85302    0.011
 5628.00    0.60472   0.85259    0.011
 5629.00    0.67456   0.85144    0.011
 5630.00    0.70076   0.85046    0.011
 5631.00    0.70597   0.85046    0.011
 5632.00    0.64614   0.85080    0.011
 5633.00    0.55929   0.85088    0.011
 5634.00    0.50402   0.85105    0.011
 5635.00    0.45996   0.85128    0.011
 5636.00    0.48295   0.85117    0.011
 5637.00    0.52606   0.85078    0.011
 5638.00    0.57251   0.85036    0.011
 5639.00    0.61979   0.85002    0.010
 5640.00    0.62985   0.84968    0.011
 5641.00    0.63239   0.84903    0.011
 5642.00    0.65079   0.84824    0.011
 5643.00    0.67170   0.84767    0.011
 5644.00    0.55934   0.84687    0.011
 5645.00    0.43130   0.84586    0.011
 5646.00    0.41870   0.84524    0.011
 5647.00    0.41532   0.84563    0.011
 5648.00    0.43765   0.84635    0.011
 5649.00    0.46112   0.84633    0.011
 5650.00    0.44058   0.84579    0.011
 5651.00    0.41987   0.84507    0.011
 5652.00    0.41602   0.84462    0.011
 5653.00    0.41249   0.84455    0.011
 5654.00    0.41476   0.84458    0.011
 5655.00    0.42124   0.84459    0.011
 5656.00    0.47421   0.84460    0.011
 5657.00    0.51765   0.84466    0.011
 5658.00    0.48713   0.84456    0.011
 5659.00    0.46998   0.84418    0.011
 5660.00    0.53136   0.84359    0.011
 5661.00    0.57189   0.84312    0.010
 5662.00    0.51541   0.84241    0.011
 5663.00    0.47821   0.84078    0.011
 5664.00    0.51433   0.83941    0.011
 5665.00    0.55497   0.83972    0.011
 5666.00    0.60996   0.84045    0.011
 5667.00    0.64544   0.84019    0.011
 5668.00    0.62841   0.83962    0.010
 5669.00    0.59423   0.83971    0.010
 5670.00    0.52047   0.83990    0.010
 5671.00    0.46771   0.83935    0.010
 5672.00    0.45691   0.83845    0.010
 5673.00    0.47653   0.83800    0.010
 5674.00    0.54906   0.83832    0.011
 5675.00    0.57948   0.83866    0.011
 5676.00    0.54580   0.83858    0.011
 5677.00    0.54481   0.83859    0.011
 5678.00    0.58754   0.83889    0.011
 5679.00    0.61317   0.83882    0.011
 5680.00    0.61865   0.83805    0.011
 5681.00    0.59953   0.83727    0.011
 5682.00    0.55487   0.83709    0.011
 5683.00    0.54431   0.83679    0.011
 5684.00    0.56501   0.83559    0.011
 5685.00    0.57029   0.83464    0.011
 5686.00    0.56311   0.83485    0.011
 5687.00    0.55716   0.83539    0.011
 5688.00    0.55207   0.83525    0.011
 5689.00    0.53194   0.83484    0.011
 5690.00    0.50243   0.83450    0.011
 5691.00    0.48160   0.83392    0.011
 5692.00    0.46550   0.83327    0.011
 5693.00    0.51067   0.83304    0.011
 5694.00    0.58484   0.83324    0.011
 5695.00    0.58564   0.83341    0.011
 5696.00    0.55649   0.83343    0.011
 5697.00    0.52538   0.83341    0.011
 5698.00    0.49359   0.83347    0.011
 5699.00    0.52161   0.83315    0.011
 5700.00    0.56720   0.83170    0.011
 5701.00    0.58640   0.82975    0.011
 5702.00    0.59916   0.82887    0.011
 5703.00    0.62293   0.82939    0.011
 5704.00    0.64886   0.83026    0.010
 5705.00    0.61347   0.83025    0.010
 5706.00    0.56866   0.82956    0.010
 5707.00    0.49587   0.82898    0.010
 5708.00    0.41990   0.82875    0.010
 5709.00    0.44763   0.82893    0.010
 5710.00    0.48322   0.82887    0.010
 5711.00    0.52863   0.82823    0.010
 5712.00    0.57444   0.82749    0.010
 5713.00    0.53498   0.82671    0.010
 5714.00    0.49512   0.82585    0.010
 5715.00    0.46616   0.82533    0.010
 5716.00    0.44112   0.82514    0.010
 5717.00    0.48348   0.82498    0.010
 5718.00    0.52042   0.82540    0.010
 5719.00    0.50008   0.82633    0.010
 5720.00    0.47829   0.82672    0.010
 5721.00    0.44576   0.82668    0.011
 5722.00    0.42403   0.82646    0.011
 5723.00    0.46405   0.82611    0.011
 5724.00    0.49887   0.82606    0.011
 5725.00    0.51014   0.82597    0.011
 5726.00    0.51052   0.82556    0.011
 5727.00    0.47033   0.82501    0.011
 5728.00    0.44768   0.82456    0.011
 5729.00    0.47959   0.82438    0.011
 5730.00    0.51555   0.82442    0.011
 5731.00    0.56217   0.82411    0.011
 5732.00    0.59203   0.82310    0.011
 5733.00    0.58387   0.82256    0.011
 5734.00    0.58211   0.82275    0.011
 5735.00    0.59296   0.82294    0.011
 5736.00    0.59097   0.82236    0.011
 5737.00    0.56700   0.82163    0.011
 5738.00    0.55684   0.82166    0.010
 5739.00    0.56740   0.82188    0.010
 5740.00    0.57501   0.82180    0.000
 5741.00    0.57874   0.82164    0.000
 5742.00    0.57307   0.82142    0.000
 5743.00    0.55648   0.82067    0.000
 5744.00    0.56747   0.81907    0.000
 5745.00    0.60669   0.81749    0.000
 5746.00    0.63527   0.81730    0.000
 5747.00    0.65423   0.81839    0.000
 5748.00    0.64871   0.81904    0.000
 5749.00    0.62372   0.81877    0.000
 5750.00    0.60581   0.81878    0.000
 5751.00    0.59286   0.81880    0.000
 5752.00    0.61272   0.81831    0.000
 5753.00    0.65275   0.81740    0.000
 5754.00    0.66059   0.81692    0.000
 5755.00    0.65117   0.81728    0.000
 5756.00    0.61527   0.81747    0.000
 5757.00    0.56703   0.81683    0.000
 5758.00    0.50753   0.81566    0.000
 5759.00    0.44351   0.81479    0.000
 5760.00    0.42153   0.81454    0.000
 5761.00    0.41394   0.81498    0.000
 5762.00    0.40809   0.81552    0.000
 5763.00    0.40274   0.81565    0.000
 5764.00    0.43314   0.81551    0.000
 5765.00    0.47205   0.81505    0.000
 5766.00    0.49338   0.81440    0.000
 5767.00    0.51134   0.81356    0.000
 5768.00    0.55361   0.81284    0.000
 5769.00    0.59949   0.81286    0.000
 5770.00    0.61141   0.81338    0.000
 5771.00    0.61962   0.81356    0.000
 5772.00    0.63136   0.81335    0.000
 5773.00    0.64335   0.81298    0.000
 5774.00    0.61065   0.81260    0.000
 5775.00    0.57630   0.81229    0.000
 5776.00    0.56429   0.81199    0.000
 5777.00    0.55295   0.81146    0.000
 5778.00    0.56225   0.81113    0.000
 5779.00    0.57165   0.81085    0.000
 5780.00    0.58264   0.81027    0.000
 5781.00    0.58951   0.80984    0.000
 5782.00    0.55465   0.80979    0.000
 5783.00    0.52178   0.80967    0.000
 5784.00    0.50328   0.80911    0.000
 5785.00    0.48802   0.80813    0.000
 5786.00    0.49068   0.80678    0.000
 5787.00    0.49063   0.80585    0.000
 5788.00    0.47854   0.80591    0.000
 5789.00    0.51253   0.80603    0.000
 5790.00    0.71443   0.80563    0.000
 5791.00    0.88835   0.80538   -2.000
 5792.00    0.97684   0.80578   -2.000
 5793.00    1.03218   0.80627   -2.000
 5794.00    1.00146   0.80630   -2.000
 5795.00    1.00374   0.80601   -2.000
 5796.00    1.07969   0.80531   -2.000
 5797.00    1.32186   0.80490   -2.000
 5798.00    1.88560   0.80518   -2.000
 5799.00    2.02068   0.80531   -2.000
 5800.00    1.43253   0.80520   -2.000
 5801.00    1.00534   0.80490   -2.000
 5802.00    0.81608   0.80421   -2.000
 5803.00    0.70275   0.80321   -2.000
 5804.00    0.68811   0.80266   -2.000
 5805.00    0.65112   0.80104   -2.000
 5806.00    0.58857   0.79704   -2.000
 5807.00    0.54731   0.79492   -2.000
 5808.00    0.52755   0.79713   -2.000
 5809.00    0.50019   0.80103   -2.000
 5810.00    0.46605   0.80207   -2.000
 5811.00    0.43004   0.80172    0.000
 5812.00    0.39254   0.80164    0.000
 5813.00    0.39263   0.80148    0.000
 5814.00    0.41866   0.80133    0.000
 5815.00    0.46358   0.80075    0.000
 5816.00    0.51994   0.79826    0.000
 5817.00    0.54245   0.79489    0.000
 5818.00    0.54708   0.79417    0.000
 5819.00    0.52476   0.79658    0.000
 5820.00    0.49008   0.79945    0.000
 5821.00    0.49760   0.79950    0.000
 5822.00    0.52177   0.79927    0.000
 5823.00    0.55773   0.79922    0.000
 5824.00    0.59766   0.79936    0.000
 5825.00    0.58136   0.79928    0.000
 5826.00    0.54918   0.79909    0.000
 5827.00    0.50184   0.79880    0.000
 5828.00    0.45096   0.79856    0.000
 5829.00    0.45537   0.79822    0.000
 5830.00    0.47011   0.79879    0.000
 5831.00    0.51622   0.80072    0.000
 5832.00    0.56685   0.80168    0.000
 5833.00    0.56261   0.80045    0.000
 5834.00    0.55263   0.79814    0.000
 5835.00    0.59703   0.79681    0.000
 5836.00    0.64511   0.79643    0.000
 5837.00    0.61535   0.79618    0.000
 5838.00    0.58302   0.79586    0.000
 5839.00    0.55423   0.79540    0.000
 5840.00    0.52596   0.79504    0.000
 5841.00    0.51406   0.79502    0.000
 5842.00    0.50520   0.79497    0.000
 5843.00    0.54237   0.79457    0.000
 5844.00    0.57082   0.79413    0.000
 5845.00    0.51464   0.79393    0.000
 5846.00    0.46448   0.79396    0.000
 5847.00    0.45664   0.79382    0.000
 5848.00    0.45732   0.79346    0.000
 5849.00    0.50409   0.79300    0.000
 5850.00    0.54903   0.79261    0.000
 5851.00    0.58612   0.79203    0.000
 5852.00    0.60852   0.79137    0.000
 5853.00    0.57850   0.79099    0.000
 5854.00    0.54865   0.79101    0.000
 5855.00    0.51929   0.79104    0.000
 5856.00    0.49060   0.79074    0.000
 5857.00    0.46358   0.79004    0.000
 5858.00    0.44170   0.78906    0.000
 5859.00    0.43108   0.78829    0.000
 5860.00    0.44492   0.78834    0.000
 5861.00    0.50533   0.78878    0.000
 5862.00    0.55788   0.78836    0.000
 5863.00    0.59736   0.78744    0.000
 5864.00    0.61665   0.78708    0.000
 5865.00    0.60651   0.78748    0.000
 5866.00    0.59678   0.78760    0.000
 5867.00    0.58758   0.78735    0.000
 5868.00    0.59963   0.78712    0.000
 5869.00    0.63567   0.78700    0.000
 5870.00    0.64343   0.78686    0.000
 5871.00    0.62304   0.78635    0.000
 5872.00    0.60715   0.78554    0.000
 5873.00    0.59520   0.78497    0.000
 5874.00    0.58979   0.78503    0.000
 5875.00    0.58943   0.78501    0.000
 5876.00    0.56830   0.78453    0.000
 5877.00    0.53304   0.78335    0.000
 5878.00    0.52391   0.78078    0.000
 5879.00    0.53035   0.76651    0.000
 5880.00    0.52778   0.72030    0.000
 5881.00    0.52052   0.67815    0.000
 5882.00    0.50537   0.68278    0.000
 5883.00    0.48667   0.72751    0.000
 5884.00    0.45102   0.77135    0.000
 5885.00    0.40880   0.77887    0.000
 5886.00    0.37382   0.77999    0.000
 5887.00    0.34122   0.78038    0.000
 5888.00    0.33680   0.78080    0.000
 5889.00    0.34017   0.78064    0.000
 5890.00    0.36648   0.78043    0.000
 5891.00    0.39800   0.78062    0.000
 5892.00    0.45003   0.78070    0.000
 5893.00    0.50579   0.77970    0.000
 5894.00    0.55220   0.77645    0.000
 5895.00    0.59731   0.77142    0.000
 5896.00    0.60240   0.76894    0.000
 5897.00    0.60347   0.77171    0.000
 5898.00    0.58382   0.77567    0.000
 5899.00    0.56285   0.77723    0.000
 5900.00    0.59479   0.77640    0.000
 5901.00    0.62821   0.77296    0.010
 5902.00    0.63233   0.77086    0.010
 5903.00    0.63464   0.77294    0.010
 5904.00    0.58574   0.77558    0.010
 5905.00    0.54168   0.77625    0.010
 5906.00    0.56650   0.77637    0.010
 5907.00    0.58735   0.77658    0.010
 5908.00    0.57126   0.77638    0.010
 5909.00    0.55207   0.77610    0.010
 5910.00    0.51182   0.77596    0.010
 5911.00    0.47954   0.77582    0.010
 5912.00    0.48913   0.77543    0.010
 5913.00    0.49581   0.77556    0.010
 5914.00    0.49012   0.77549    0.010
 5915.00    0.48072   0.77508    0.010
 5916.00    0.45832   0.77474    0.010
 5917.00    0.44560   0.77468    0.010
 5918.00    0.46132   0.77427    0.009
 5919.00    0.47348   0.77321    0.009
 5920.00    0.47667   0.77224    0.009
 5921.00    0.48046   0.77210    0.010
 5922.00    0.48554   0.77223    0.010
 5923.00    0.50303   0.77235    0.010
 5924.00    0.54379   0.77207    0.010
 5925.00    0.57746   0.77190    0.009
 5926.00    0.59953   0.77191    0.010
 5927.00    0.61240   0.77155    0.010
 5928.00    0.61205   0.77133    0.010
 5929.00    0.59110   0.77126    0.010
 5930.00    0.54412   0.77131    0.010
 5931.00    0.51573   0.77115    0.010
 5932.00    0.50803   0.77086    0.010
 5933.00    0.49691   0.77029    0.010
 5934.00    0.48245   0.76957    0.010
 5935.00    0.47923   0.76914    0.010
 5936.00    0.48575   0.76868    0.010
 5937.00    0.51886   0.76886    0.010
 5938.00    0.57226   0.76904    0.010
 5939.00    0.58769   0.76872    0.010
 5940.00    0.57768   0.76801    0.010
 5941.00    0.53474   0.76776    0.010
 5942.00    0.47247   0.76802    0.010
 5943.00    0.45909   0.76800    0.010
 5944.00    0.47073   0.76789    0.010
 5945.00    0.46790   0.76729    0.010
 5946.00    0.45866   0.76627    0.010
 5947.00    0.46440   0.76518    0.010
 5948.00    0.47585   0.76526    0.009
 5949.00    0.50314   0.76561    0.009
 5950.00    0.53555   0.76570    0.009
 5951.00    0.54540   0.76568    0.010
 5952.00    0.54914   0.76543    0.010
 5953.00    0.54125   0.76519    0.010
 5954.00    0.53077   0.76438    0.009
 5955.00    0.51806   0.76384    0.009
 5956.00    0.50495   0.76398    0.009
 5957.00    0.50942   0.76382    0.009
 5958.00    0.51628   0.76298    0.009
 5959.00    0.48502   0.76256    0.009
 5960.00    0.45010   0.76297    0.010
 5961.00    0.44847   0.76278    0.010
 5962.00    0.44882   0.76158    0.010
 5963.00    0.44159   0.76080    0.010
 5964.00    0.43437   0.76109    0.010
 5965.00    0.45787   0.76194    0.010
 5966.00    0.48127   0.76252    0.010
 5967.00    0.50237   0.76226    0.010
 5968.00    0.52319   0.76203    0.010
 5969.00    0.54032   0.76187    0.010
 5970.00    0.55450   0.76139    0.010
 5971.00    0.54223   0.76078    0.010
 5972.00    0.52590   0.76036    0.010
 5973.00    0.48288   0.76041    0.010
 5974.00    0.44175   0.76043    0.010
 5975.00    0.41036   0.76030    0.010
 5976.00    0.38654   0.76027    0.010
 5977.00    0.39403   0.76001    0.010
 5978.00    0.41185   0.75964    0.009
 5979.00    0.46502   0.75918    0.009
 5980.00    0.51215   0.75859    0.009
 5981.00    0.54183   0.75789    0.009
 5982.00    0.56282   0.75705    0.009
 5983.00    0.56238   0.75596    0.009
 5984.00    0.55612   0.75489    0.009
 5985.00    0.53751   0.75481    0.009
 5986.00    0.52532   0.75567    0.009
 5987.00    0.52499   0.75658    0.009
 5988.00    0.52813   0.75637    0.009
 5989.00    0.53685   0.75530    0.009
 5990.00    0.54240   0.75453    0.009
 5991.00    0.54346   0.75468    0.009
 5992.00    0.53852   0.75519    0.009
 5993.00    0.52612   0.75510    0.009
 5994.00    0.52806   0.75464    0.009
 5995.00    0.54571   0.75440    0.010
 5996.00    0.55524   0.75418    0.010
 5997.00    0.55691   0.75402    0.010
 5998.00    0.55749   0.75395    0.010
 5999.00    0.55714   0.75397    0.010
 6000.00    0.56112   0.75399    0.010
 6001.00    0.56835   0.75360    0.010
 6002.00    0.55625   0.75305    0.010
 6003.00    0.53138   0.75244    0.010
 6004.00    0.50701   0.75210    0.010
 6005.00    0.48292   0.75190    0.010
 6006.00    0.45518   0.75175    0.010
 6007.00    0.42560   0.75146    0.009
 6008.00    0.44694   0.75068    0.009
 6009.00    0.49049   0.75018    0.009
 6010.00    0.51382   0.75033    0.009
 6011.00    0.52958   0.75030    0.009
 6012.00    0.52906   0.74976    0.009
 6013.00    0.52338   0.74890    0.009
 6014.00    0.51097   0.74839    0.009
 6015.00    0.49678   0.74862    0.009
 6016.00    0.47982   0.74927    0.009
 6017.00    0.46226   0.74921    0.009
 6018.00    0.46101   0.74839    0.009
 6019.00    0.46256   0.74782    0.009
 6020.00    0.48050   0.74793    0.009
 6021.00    0.50059   0.74799    0.009
 6022.00    0.50315   0.74751    0.009
 6023.00    0.50410   0.74724    0.009
 6024.00    0.51523   0.74718    0.010
 6025.00    0.52693   0.74684    0.010
 6026.00    0.55541   0.74620    0.010
 6027.00    0.58395   0.74600    0.010
 6028.00    0.58294   0.74599    0.010
 6029.00    0.58114   0.74594    0.010
 6030.00    0.56122   0.74563    0.010
 6031.00    0.54379   0.74566    0.010
 6032.00    0.55810   0.74573    0.010
 6033.00    0.57056   0.74518    0.010
 6034.00    0.56711   0.74482    0.010
 6035.00    0.56137   0.74480    0.010
 6036.00    0.54103   0.74462    0.009
 6037.00    0.52651   0.74422    0.009
 6038.00    0.54108   0.74388    0.009
 6039.00    0.54974   0.74396    0.009
 6040.00    0.53447   0.74369    0.009
 6041.00    0.52064   0.74323    0.009
 6042.00    0.51165   0.74302    0.009
 6043.00    0.50673   0.74279    0.009
 6044.00    0.51331   0.74229    0.009
 6045.00    0.51939   0.74190    0.009
 6046.00    0.52422   0.74173    0.009
 6047.00    0.53222   0.74168    0.009
 6048.00    0.54684   0.74163    0.009
 6049.00    0.55378   0.74152    0.009
 6050.00    0.54678   0.74146    0.009
 6051.00    0.52359   0.74129    0.009
 6052.00    0.47466   0.74098    0.009
 6053.00    0.42537   0.74075    0.009
 6054.00    0.37555   0.74070    0.009
 6055.00    0.36377   0.74047    0.009
 6056.00    0.39867   0.74021    0.010
 6057.00    0.44505   0.74011    0.010
 6058.00    0.50385   0.73995    0.010
 6059.00    0.52687   0.73969    0.010
 6060.00    0.51576   0.73928    0.010
 6061.00    0.50650   0.73849    0.010
 6062.00    0.49881   0.73800    0.010
 6063.00    0.49830   0.73786    0.010
 6064.00    0.50312   0.73797    0.010
 6065.00    0.50782   0.73790    0.010
 6066.00    0.51243   0.73766    0.010
 6067.00    0.53896   0.73741    0.009
 6068.00    0.57798   0.73710    0.009
 6069.00    0.59627   0.73634    0.009
 6070.00    0.60429   0.73542    0.009
 6071.00    0.57876   0.73462    0.009
 6072.00    0.53885   0.73474    0.009
 6073.00    0.53007   0.73541    0.009
 6074.00    0.53273   0.73546    0.009
 6075.00    0.52921   0.73519    0.009
 6076.00    0.52377   0.73464    0.009
 6077.00    0.51423   0.73425    0.009
 6078.00    0.50363   0.73419    0.009
 6079.00    0.51670   0.73365    0.009
 6080.00    0.53478   0.73337    0.009
 6081.00    0.54570   0.73331    0.009
 6082.00    0.55542   0.73315    0.009
 6083.00    0.55693   0.73288    0.009
 6084.00    0.55740   0.73224    0.009
 6085.00    0.57975   0.73184    0.009
 6086.00    0.60401   0.73177    0.009
 6087.00    0.61121   0.73127    0.009
 6088.00    0.61753   0.73063    0.010
 6089.00    0.61580   0.73064    0.010
 6090.00    0.61354   0.73102    0.010
 6091.00    0.58353   0.73079    0.010
 6092.00    0.55456   0.73053    0.010
 6093.00    0.54775   0.73069    0.009
 6094.00    0.53856   0.73057    0.009
 6095.00    0.50058   0.73000    0.009
 6096.00    0.46204   0.72916    0.009
 6097.00    0.41886   0.72884    0.009
 6098.00    0.38105   0.72888    0.009
 6099.00    0.37653   0.72885    0.009
 6100.00    0.37391   0.72886    0.009
 6101.00    0.38051   0.72906    0.009
 6102.00    0.39470   0.72874    0.009
 6103.00    0.43894   0.72849    0.009
 6104.00    0.47821   0.72852    0.009
 6105.00    0.50114   0.72869    0.009
 6106.00    0.50834   0.72840    0.009
 6107.00    0.47178   0.72722    0.009
 6108.00    0.44604   0.72559    0.009
 6109.00    0.44608   0.72493    0.009
 6110.00    0.45089   0.72584    0.009
 6111.00    0.46554   0.72676    0.009
 6112.00    0.47200   0.72657    0.009
 6113.00    0.46381   0.72580    0.009
 6114.00    0.46627   0.72486    0.009
 6115.00    0.48541   0.72503    0.009
 6116.00    0.49927   0.72509    0.009
 6117.00    0.50586   0.72443    0.009
 6118.00    0.50085   0.72370    0.009
 6119.00    0.48179   0.72390    0.009
 6120.00    0.46325   0.72395    0.009
 6121.00    0.44526   0.72363    0.009
 6122.00    0.44399   0.72259    0.009
 6123.00    0.45847   0.72201    0.009
 6124.00    0.47045   0.72193    0.009
 6125.00    0.48037   0.72170    0.009
 6126.00    0.48769   0.72109    0.009
 6127.00    0.49311   0.72053    0.009
 6128.00    0.48625   0.71960    0.009
 6129.00    0.47152   0.72032    0.009
 6130.00    0.45978   0.72145    0.009
 6131.00    0.44971   0.72121    0.009
 6132.00    0.45708   0.72049    0.009
 6133.00    0.47296   0.71998    0.009
 6134.00    0.48336   0.71973    0.009
 6135.00    0.49144   0.72012    0.009
 6136.00    0.49719   0.72051    0.009
 6137.00    0.50210   0.72058    0.009
 6138.00    0.55002   0.72075    0.009
 6139.00    0.61106   0.72037    0.009
 6140.00    0.60878   0.71955    0.009
 6141.00    0.59043   0.71814    0.009
 6142.00    0.56771   0.71621    0.009
 6143.00    0.54409   0.71472    0.010
 6144.00    0.55374   0.71574    0.010
 6145.00    0.56880   0.71785    0.009
 6146.00    0.57281   0.71842    0.009
 6147.00    0.57547   0.71715    0.009
 6148.00    0.54041   0.71608    0.009
 6149.00    0.50219   0.71663    0.009
 6150.00    0.49925   0.71720    0.009
 6151.00    0.49800   0.71736    0.009
 6152.00    0.51121   0.71722    0.009
 6153.00    0.52418   0.71673    0.009
 6154.00    0.51123   0.71614    0.009
 6155.00    0.49752   0.71534    0.009
 6156.00    0.46870   0.71458    0.009
 6157.00    0.44240   0.71438    0.009
 6158.00    0.44502   0.71492    0.009
 6159.00    0.45198   0.71513    0.009
 6160.00    0.49361   0.71482    0.009
 6161.00    0.53418   0.71412    0.009
 6162.00    0.56836   0.71397    0.009
 6163.00    0.59206   0.71341    0.009
 6164.00    0.56597   0.71334    0.009
 6165.00    0.53374   0.71336    0.009
 6166.00    0.47776   0.71258    0.009
 6167.00    0.43383   0.71060    0.009
 6168.00    0.42878   0.70906    0.009
 6169.00    0.43626   0.70904    0.009
 6170.00    0.47799   0.70955    0.009
 6171.00    0.51506   0.71004    0.009
 6172.00    0.54122   0.70996    0.009
 6173.00    0.54312   0.70956    0.009
 6174.00    0.49592   0.70893    0.009
 6175.00    0.45458   0.70683    0.009
 6176.00    0.42359   0.70591    0.009
 6177.00    0.42268   0.70729    0.009
 6178.00    0.46816   0.70838    0.009
 6179.00    0.50131   0.70806    0.009
 6180.00    0.51777   0.70814    0.009
 6181.00    0.50669   0.70857    0.009
 6182.00    0.46279   0.70831    0.009
 6183.00    0.44039   0.70778    0.009
 6184.00    0.44061   0.70810    0.009
 6185.00    0.45472   0.70828    0.009
 6186.00    0.48169   0.70777    0.009
 6187.00    0.49618   0.70793    0.009
 6188.00    0.50044   0.70818    0.009
 6189.00    0.49666   0.70811    0.009
 6190.00    0.48708   0.70806    0.009
 6191.00    0.48724   0.70769    0.009
 6192.00    0.49355   0.70705    0.009
 6193.00    0.53288   0.70677    0.009
 6194.00    0.59046   0.70598    0.009
 6195.00    0.71130   0.70580    0.010
 6196.00    0.86251   0.70528   -2.000
 6197.00    1.05918   0.70388   -2.000
 6198.00    1.27470   0.70366   -2.000
 6199.00    1.19462   0.70530   -2.000
 6200.00    1.00978   0.70608   -2.000
 6201.00    0.68426   0.70585   -2.000
 6202.00    0.31666   0.70546   -2.000
 6203.00    0.10908   0.70534   -2.000
 6204.00   -0.05874   0.70455   -2.000
 6205.00    0.06240   0.70324   -2.000
 6206.00    0.24171   0.70253   -2.000
 6207.00    0.36072   0.70318   -2.000
 6208.00    0.47023   0.70390    0.010
 6209.00    0.49145   0.70393    0.009
 6210.00    0.50233   0.70365    0.009
 6211.00    0.47317   0.70329    0.009
 6212.00    0.44083   0.70320    0.009
 6213.00    0.45156   0.70307    0.009
 6214.00    0.46419   0.70294    0.009
 6215.00    0.50444   0.70255    0.009
 6216.00    0.54440   0.70214    0.009
 6217.00    0.55611   0.70177    0.009
 6218.00    0.56655   0.70120    0.009
 6219.00    0.55381   0.69994    0.009
 6220.00    0.54233   0.69883    0.009
 6221.00    0.54479   0.69883    0.009
 6222.00    0.54708   0.69894    0.009
 6223.00    0.54822   0.69954    0.009
 6224.00    0.54876   0.69967    0.009
 6225.00    0.54584   0.69891    0.009
 6226.00    0.54389   0.69797    0.009
 6227.00    0.54642   0.69788    0.009
 6228.00    0.54788   0.69819    0.009
 6229.00    0.54527   0.69826    0.009
 6230.00    0.54151   0.69775    0.009
 6231.00    0.53415   0.69719    0.009
 6232.00    0.52337   0.69741    0.009
 6233.00    0.50340   0.69710    0.009
 6234.00    0.48083   0.69656    0.009
 6235.00    0.45228   0.69550    0.009
 6236.00    0.42464   0.69374    0.009
 6237.00    0.39881   0.69214    0.009
 6238.00    0.40022   0.69222    0.009
 6239.00    0.44894   0.69256    0.009
 6240.00    0.49433   0.69344    0.009
 6241.00    0.53466   0.69433    0.009
 6242.00    0.54435   0.69440    0.009
 6243.00    0.51312   0.69400    0.009
 6244.00    0.48205   0.69355    0.009
 6245.00    0.45118   0.69278    0.009
 6246.00    0.43855   0.69207    0.009
 6247.00    0.44482   0.69252    0.009
 6248.00    0.45948   0.69242    0.009
 6249.00    0.48180   0.69147    0.009
 6250.00    0.47597   0.69161    0.009
 6251.00    0.44745   0.69205    0.009
 6252.00    0.41216   0.69186    0.009
 6253.00    0.37208   0.69196    0.009
 6254.00    0.38029   0.69277    0.009
 6255.00    0.41857   0.69288    0.009
 6256.00    0.46431   0.69289    0.009
 6257.00    0.51412   0.69189    0.009
 6258.00    0.54072   0.69015    0.009
 6259.00    0.55635   0.68971    0.010
 6260.00    0.59143   0.68998    0.010
 6261.00    0.63445   0.69016    0.011
 6262.00    0.63721   0.68952    0.011
 6263.00    0.62597   0.68862    0.011
 6264.00    0.56476   0.68767    0.011
 6265.00    0.48889   0.68778    0.011
 6266.00    0.43499   0.68881    0.011
 6267.00    0.38641   0.68906    0.010
 6268.00    0.39732   0.68931    0.009
 6269.00    0.41991   0.68962    0.009
 6270.00    0.44711   0.68952    0.009
 6271.00    0.47502   0.68847    0.009
 6272.00    0.47626   0.68809    0.009
 6273.00    0.47449   0.68842    0.009
 6274.00    0.47670   0.68823    0.009
 6275.00    0.47920   0.68770    0.009
 6276.00    0.47865   0.68737    0.009
 6277.00    0.47797   0.68755    0.009
 6278.00    0.47935   0.68764    0.009
 6279.00    0.48126   0.68762    0.009
 6280.00    0.50383   0.68730    0.000
 6281.00    0.52349   0.68697    0.000
 6282.00    0.49354   0.68703    0.000
 6283.00    0.46336   0.68669    0.000
 6284.00    0.43076   0.68628    0.000
 6285.00    0.40356   0.68568    0.000
 6286.00    0.41661   0.68473    0.000
 6287.00    0.42670   0.68433    0.000
 6288.00    0.41996   0.68434    0.000
 6289.00    0.41592   0.68440    0.000
 6290.00    0.42403   0.68404    0.000
 6291.00    0.43925   0.68341    0.000
 6292.00    0.48089   0.68358    0.000
 6293.00    0.51375   0.68413    0.000
 6294.00    0.51936   0.68443    0.000
 6295.00    0.52146   0.68442    0.000
 6296.00    0.51431   0.68398    0.000
 6297.00    0.49511   0.68344    0.000
 6298.00    0.44868   0.68313    0.000
 6299.00    0.40873   0.68261    0.000
 6300.00    0.38150   0.68279    0.000
 6301.00    0.37346   0.68254    0.000
 6302.00    0.39822   0.68148    0.000
 6303.00    0.41213   0.68060    0.000
 6304.00    0.40980   0.68066    0.000
 6305.00    0.40095   0.68084    0.000
 6306.00    0.38355   0.68025    0.000
 6307.00    0.37927   0.67955    0.000
 6308.00    0.39021   0.67901    0.000
 6309.00    0.39260   0.67894    0.000
 6310.00    0.38625   0.67889    0.000
 6311.00    0.39150   0.67843    0.000
 6312.00    0.40720   0.67785    0.000
 6313.00    0.42289   0.67799    0.000
 6314.00    0.43856   0.67790    0.000
 6315.00    0.45240   0.67721    0.000
 6316.00    0.46496   0.67635    0.000
 6317.00    0.47756   0.67552    0.000
 6318.00    0.49018   0.67522    0.000
 6319.00    0.49474   0.67555    0.000
 6320.00    0.49499   0.67557    0.000
 6321.00    0.50613   0.67517    0.008
 6322.00    0.52235   0.67546    0.008
 6323.00    0.51062   0.67599    0.008
 6324.00    0.48771   0.67547    0.009
 6325.00    0.46958   0.67552    0.009
 6326.00    0.45310   0.67582    0.008
 6327.00    0.45493   0.67618    0.008
 6328.00    0.46204   0.67609    0.008
 6329.00    0.45923   0.67591    0.009
 6330.00    0.45408   0.67621    0.009
 6331.00    0.44516   0.67632    0.009
 6332.00    0.43553   0.67634    0.009
 6333.00    0.44356   0.67586    0.009
 6334.00    0.45421   0.67551    0.009
 6335.00    0.45492   0.67556    0.009
 6336.00    0.45455   0.67512    0.009
 6337.00    0.45502   0.67505    0.009
 6338.00    0.45554   0.67511    0.009
 6339.00    0.48688   0.67496    0.009
 6340.00    0.51934   0.67440    0.009
 6341.00    0.50802   0.67297    0.009
 6342.00    0.49625   0.67194    0.009
 6343.00    0.47414   0.67228    0.008
 6344.00    0.45378   0.67300    0.008
 6345.00    0.46135   0.67307    0.008
 6346.00    0.47048   0.67300    0.009
 6347.00    0.49535   0.67305    0.008
 6348.00    0.51733   0.67286    0.008
 6349.00    0.51846   0.67221    0.008
 6350.00    0.51591   0.67116    0.008
 6351.00    0.49298   0.67037    0.009
 6352.00    0.46817   0.66787    0.009
 6353.00    0.43501   0.66638    0.009
 6354.00    0.40691   0.66685    0.009
 6355.00    0.39721   0.66945    0.009
 6356.00    0.40101   0.67107    0.009
 6357.00    0.44593   0.67119    0.009
 6358.00    0.49188   0.67116    0.009
 6359.00    0.54053   0.67060    0.009
 6360.00    0.57187   0.66960    0.009
 6361.00    0.56471   0.66895    0.009
 6362.00    0.55894   0.66909    0.009
 6363.00    0.55587   0.66908    0.009
 6364.00    0.54748   0.66823    0.009
 6365.00    0.53014   0.66746    0.009
 6366.00    0.51645   0.66741    0.009
 6367.00    0.50814   0.66764    0.009
 6368.00    0.50604   0.66717    0.009
 6369.00    0.51199   0.66688    0.009
 6370.00    0.51854   0.66682    0.009
 6371.00    0.52578   0.66680    0.009
 6372.00    0.52739   0.66661    0.008
 6373.00    0.52333   0.66676    0.008
 6374.00    0.51370   0.66708    0.009
 6375.00    0.49913   0.66692    0.009
 6376.00    0.48714   0.66485    0.009
 6377.00    0.47718   0.66311    0.009
 6378.00    0.48221   0.66316    0.009
 6379.00    0.49757   0.66467    0.009
 6380.00    0.50418   0.66596    0.009
 6381.00    0.50551   0.66590    0.009
 6382.00    0.48646   0.66569    0.009
 6383.00    0.45666   0.66560    0.009
 6384.00    0.43310   0.66505    0.009
 6385.00    0.41240   0.66371    0.009
 6386.00    0.39717   0.66272    0.009
 6387.00    0.38410   0.66243    0.009
 6388.00    0.40118   0.66279    0.009
 6389.00    0.42837   0.66354    0.009
 6390.00    0.43981   0.66375    0.009
 6391.00    0.44682   0.66344    0.009
 6392.00    0.44773   0.66336    0.009
 6393.00    0.44723   0.66322    0.009
 6394.00    0.45693   0.66300    0.009
 6395.00    0.46852   0.66284    0.009
 6396.00    0.48844   0.66263    0.009
 6397.00    0.50954   0.66235    0.009
 6398.00    0.52459   0.66148    0.009
 6399.00    0.53900   0.66016    0.009
 6400.00    0.53009   0.65961    0.009
 6401.00    0.51961   0.66016    0.009
 6402.00    0.51965   0.66064    0.009
 6403.00    0.52004   0.66069    0.009
 6404.00    0.49106   0.66018    0.009
 6405.00    0.46160   0.65878    0.009
 6406.00    0.41743   0.65672    0.009
 6407.00    0.37714   0.65625    0.009
 6408.00    0.39511   0.65668    0.009
 6409.00    0.41516   0.65654    0.009
 6410.00    0.45531   0.65622    0.009
 6411.00    0.48806   0.65537    0.009
 6412.00    0.46900   0.65441    0.009
 6413.00    0.45496   0.65396    0.009
 6414.00    0.46793   0.65365    0.009
 6415.00    0.48196   0.65425    0.008
 6416.00    0.50058   0.65522    0.009
 6417.00    0.50776   0.65544    0.009
 6418.00    0.47427   0.65541    0.009
 6419.00    0.44933   0.65570    0.009
 6420.00    0.44994   0.65611    0.009
 6421.00    0.44992   0.65651    0.009
 6422.00    0.44830   0.65655    0.008
 6423.00    0.45204   0.65634    0.008
 6424.00    0.46754   0.65617    0.008
 6425.00    0.48747   0.65569    0.009
 6426.00    0.51583   0.65488    0.009
 6427.00    0.52591   0.65404    0.009
 6428.00    0.50568   0.65439    0.009
 6429.00    0.47615   0.65531    0.009
 6430.00    0.43310   0.65574    0.009
 6431.00    0.41738   0.65568    0.009
 6432.00    0.43660   0.65552    0.009
 6433.00    0.45595   0.65549    0.009
 6434.00    0.47546   0.65532    0.009
 6435.00    0.48906   0.65471    0.009
 6436.00    0.49680   0.65344    0.008
 6437.00    0.50511   0.65255    0.009
 6438.00    0.51390   0.65260    0.009
 6439.00    0.49928   0.65310    0.009
 6440.00    0.46659   0.65338    0.009
 6441.00    0.44846   0.65345    0.009
 6442.00    0.44023   0.65338    0.009
 6443.00    0.43927   0.65297    0.009
 6444.00    0.44264   0.65197    0.008
 6445.00    0.42688   0.65113    0.008
 6446.00    0.40120   0.65120    0.009
 6447.00    0.39543   0.65203    0.009
 6448.00    0.39863   0.65218    0.009
 6449.00    0.42347   0.65197    0.009
 6450.00    0.45668   0.65176    0.009
 6451.00    0.48637   0.65165    0.009
 6452.00    0.51490   0.65147    0.009
 6453.00    0.51688   0.65134    0.009
 6454.00    0.51154   0.65076    0.009
 6455.00    0.48742   0.64903    0.008
 6456.00    0.45904   0.64712    0.008
 6457.00    0.42793   0.64734    0.008
 6458.00    0.39632   0.64865    0.009
 6459.00    0.36766   0.64930    0.009
 6460.00    0.33940   0.64908    0.009
 6461.00    0.34057   0.64805    0.009
 6462.00    0.34468   0.64709    0.008
 6463.00    0.37766   0.64726    0.009
 6464.00    0.41245   0.64784    0.009
 6465.00    0.46338   0.64853    0.009
 6466.00    0.51468   0.64873    0.010
 6467.00    0.53514   0.64784    0.010
 6468.00    0.55442   0.64599    0.009
 6469.00    0.54062   0.64475    0.009
 6470.00    0.52696   0.64540    0.009
 6471.00    0.51513   0.64632    0.009
 6472.00    0.50377   0.64654    0.009
 6473.00    0.49670   0.64653    0.009
 6474.00    0.49179   0.64626    0.009
 6475.00    0.50149   0.64580    0.009
 6476.00    0.51207   0.64538    0.009
 6477.00    0.52722   0.64490    0.009
 6478.00    0.53658   0.64461    0.009
 6479.00    0.52148   0.64472    0.009
 6480.00    0.50608   0.64469    0.009
 6481.00    0.48963   0.64410    0.008
 6482.00    0.47609   0.64364    0.008
 6483.00    0.47106   0.64375    0.009
 6484.00    0.46947   0.64383    0.009
 6485.00    0.47649   0.64377    0.008
 6486.00    0.47920   0.64347    0.008
 6487.00    0.47261   0.64260    0.008
 6488.00    0.46701   0.64148    0.008
 6489.00    0.46326   0.64113    0.008
 6490.00    0.45573   0.64163    0.008
 6491.00    0.44203   0.64220    0.008
 6492.00    0.43517   0.64239    0.008
 6493.00    0.43811   0.64229    0.008
 6494.00    0.44787   0.64207    0.008
 6495.00    0.46623   0.64172    0.009
 6496.00    0.47117   0.64115    0.009
 6497.00    0.46119   0.64058    0.009
 6498.00    0.43965   0.64011    0.009
 6499.00    0.40679   0.63906    0.009
 6500.00    0.37433   0.63734    0.009
 6501.00    0.34222   0.63594    0.009
 6502.00    0.33929   0.63565    0.008
 6503.00    0.35857   0.63588    0.008
 6504.00    0.39153   0.63632    0.008
 6505.00    0.43365   0.63657    0.008
 6506.00    0.45660   0.63699    0.008
 6507.00    0.46833   0.63763    0.008
 6508.00    0.46425   0.63798    0.008
 6509.00    0.45210   0.63793    0.008
 6510.00    0.43367   0.63775    0.008
 6511.00    0.41248   0.63748    0.008
 6512.00    0.42950   0.63717    0.008
 6513.00    0.46105   0.63678    0.008
 6514.00    0.48727   0.63652    0.008
 6515.00    0.51176   0.63632    0.008
 6516.00    0.51163   0.63632    0.008
 6517.00    0.50484   0.63638    0.008
 6518.00    0.49030   0.63617    0.009
 6519.00    0.47403   0.63587    0.008
 6520.00    0.45031   0.63535    0.008
 6521.00    0.42527   0.63462    0.008
 6522.00    0.43563   0.63390    0.008
 6523.00    0.45076   0.63317    0.009
 6524.00    0.46130   0.63229    0.009
 6525.00    0.47140   0.63176    0.009
 6526.00    0.47768   0.63180    0.009
 6527.00    0.48373   0.63171    0.009
 6528.00    0.45899   0.63118    0.000
 6529.00    0.43360   0.63008    0.000
 6530.00    0.42551   0.62869    0.000
 6531.00    0.41916   0.62729    0.000
 6532.00    0.45659   0.62576    0.000
 6533.00    0.49147   0.62461    0.000
 6534.00    0.49233   0.62441    0.000
 6535.00    0.49303   0.62496    0.000
 6536.00    0.49231   0.62591    0.000
 6537.00    0.49308   0.62611    0.000
 6538.00    0.50365   0.62605    0.000
 6539.00    0.51445   0.62598    0.000
 6540.00    0.52638   0.62620    0.000
 6541.00    0.53808   0.62647    0.000
 6542.00    0.54879   0.62628    0.000
 6543.00    0.56041   0.62563    0.000
 6544.00    0.57509   0.62508    0.000
 6545.00    0.58236   0.62459    0.000
 6546.00    0.56826   0.62409    0.000
 6547.00    0.55210   0.62321    0.000
 6548.00    0.53082   0.62204    0.000
 6549.00    0.50863   0.62090    0.000
 6550.00    0.48450   0.61944    0.000
 6551.00    0.47243   0.61738    0.000
 6552.00    0.48260   0.61506    0.000
 6553.00    0.49751   0.61315    0.000
 6554.00    0.52005   0.61201    0.000
 6555.00    0.56288   0.61048    0.000
 6556.00    0.63437   0.60777    0.000
 6557.00    0.71893   0.60413    0.000
 6558.00    0.81973   0.59996    0.000
 6559.00    0.89506   0.59510    0.000
 6560.00    0.94248   0.58881    0.000
 6561.00    0.90999   0.58079    0.000
 6562.00    0.80029   0.57089    0.000
 6563.00    0.69503   0.55810    0.000
 6564.00    0.59353   0.54055    0.000
 6565.00    0.54257   0.51935    0.000
 6566.00    0.52951   0.49367    0.000
 6567.00    0.51065   0.46331    0.000
 6568.00    0.48796   0.43241    0.000
 6569.00    0.46129   0.41430    0.000
 6570.00    0.43232   0.42463    0.000
 6571.00    0.41559   0.45730    0.000
 6572.00    0.40501   0.49516    0.000
 6573.00    0.41779   0.52633    0.000
 6574.00    0.44074   0.54767    0.000
 6575.00    0.46702   0.56202    0.000
 6576.00    0.49453   0.57267    0.000
 6577.00    0.54894   0.58110    0.000
 6578.00    0.61185   0.58741    0.000
 6579.00    0.65029   0.59187    0.000
 6580.00    0.68225   0.59545    0.000
 6581.00    0.65447   0.59889    0.000
 6582.00    0.61378   0.60156    0.000
 6583.00    0.55748   0.60306    0.000
 6584.00    0.49852   0.60429    0.000
 6585.00    0.48982   0.60620    0.000
 6586.00    0.48766   0.60873    0.000
 6587.00    0.48824   0.61039    0.000
 6588.00    0.48907   0.61040    0.000
 6589.00    0.47135   0.61084    0.000
 6590.00    0.45261   0.61200    0.000
 6591.00    0.44665   0.61372    0.000
 6592.00    0.44107   0.61495    0.000
 6593.00    0.44568   0.61555    0.000
 6594.00    0.45091   0.61631    0.000
 6595.00    0.47016   0.61706    0.000
 6596.00    0.48968   0.61748    0.000
 6597.00    0.51246   0.61735    0.000
 6598.00    0.52888   0.61638    0.000
 6599.00    0.49072   0.61532    0.000
 6600.00    0.45672   0.61527    0.000
 6601.00    0.44914   0.61640    0.000
 6602.00    0.44524   0.61755    0.000
 6603.00    0.45963   0.61788    0.000
 6604.00    0.46803   0.61741    0.000
 6605.00    0.45221   0.61688    0.000
 6606.00    0.43574   0.61720    0.000
 6607.00    0.41711   0.61795    0.000
 6608.00    0.41013   0.61819    0.000
 6609.00    0.43607   0.61805    0.008
 6610.00    0.45870   0.61775    0.008
 6611.00    0.47332   0.61731    0.008
 6612.00    0.47914   0.61701    0.008
 6613.00    0.46661   0.61683    0.008
 6614.00    0.46712   0.61657    0.009
 6615.00    0.49127   0.61596    0.009
 6616.00    0.50913   0.61584    0.009
 6617.00    0.51704   0.61644    0.009
 6618.00    0.50990   0.61687    0.009
 6619.00    0.48182   0.61654    0.008
 6620.00    0.46093   0.61605    0.008
 6621.00    0.44885   0.61616    0.008
 6622.00    0.44018   0.61644    0.008
 6623.00    0.43521   0.61671    0.008
 6624.00    0.44400   0.61668    0.008
 6625.00    0.46589   0.61649    0.008
 6626.00    0.47351   0.61632    0.008
 6627.00    0.46915   0.61622    0.008
 6628.00    0.45687   0.61611    0.008
 6629.00    0.43875   0.61582    0.008
 6630.00    0.42819   0.61519    0.008
 6631.00    0.42254   0.61450    0.008
 6632.00    0.42306   0.61440    0.008
 6633.00    0.42709   0.61465    0.008
 6634.00    0.43948   0.61470    0.008
 6635.00    0.45601   0.61445    0.009
 6636.00    0.46192   0.61408    0.009
 6637.00    0.46327   0.61379    0.009
 6638.00    0.43766   0.61344    0.008
 6639.00    0.40216   0.61291    0.008
 6640.00    0.39075   0.61250    0.008
 6641.00    0.38683   0.61273    0.008
 6642.00    0.39880   0.61328    0.008
 6643.00    0.41488   0.61366    0.008
 6644.00    0.46382   0.61363    0.008
 6645.00    0.51970   0.61321    0.008
 6646.00    0.60759   0.61275    0.008
 6647.00    0.70082   0.61258    0.008
 6648.00    0.66964   0.61243    0.008
 6649.00    0.62285   0.61181    0.008
 6650.00    0.54535   0.61109    0.008
 6651.00    0.46518   0.61118    0.008
 6652.00    0.43752   0.61146    0.008
 6653.00    0.41256   0.61129    0.008
 6654.00    0.44071   0.61105    0.008
 6655.00    0.46925   0.61097    0.008
 6656.00    0.45826   0.61109    0.008
 6657.00    0.44677   0.61126    0.008
 6658.00    0.42494   0.61125    0.008
 6659.00    0.40516   0.61108    0.009
 6660.00    0.41010   0.61084    0.009
 6661.00    0.41276   0.61051    0.008
 6662.00    0.39653   0.61020    0.008
 6663.00    0.37858   0.61012    0.008
 6664.00    0.34998   0.61009    0.008
 6665.00    0.33186   0.60988    0.008
 6666.00    0.36461   0.60953    0.008
 6667.00    0.39400   0.60916    0.008
 6668.00    0.41018   0.60864    0.008
 6669.00    0.42683   0.60781    0.008
 6670.00    0.44503   0.60731    0.008
 6671.00    0.45812   0.60737    0.008
 6672.00    0.45706   0.60725    0.008
 6673.00    0.44451   0.60694    0.008
 6674.00    0.40467   0.60684    0.008
 6675.00    0.37722   0.60701    0.008
 6676.00    0.37519   0.60727    0.008
 6677.00    0.36946   0.60716    0.008
 6678.00    0.35713   0.60681    0.008
 6679.00    0.34613   0.60639    0.008
 6680.00    0.33719   0.60556    0.008
 6681.00    0.35100   0.60431    0.008
 6682.00    0.39601   0.59941    0.008
 6683.00    0.40704   0.58723    0.008
 6684.00    0.37704   0.57541    0.008
 6685.00    0.35895   0.57301    0.008
 6686.00    0.35352   0.58077    0.008
 6687.00    0.36845   0.59157    0.008
 6688.00    0.40250   0.59635    0.008
 6689.00    0.41892   0.59655    0.008
 6690.00    0.42074   0.59677    0.008
 6691.00    0.41737   0.59778    0.008
 6692.00    0.41021   0.59927    0.008
 6693.00    0.40918   0.60055    0.008
 6694.00    0.41207   0.60143    0.008
 6695.00    0.41500   0.60202    0.008
 6696.00    0.41796   0.60259    0.000
 6697.00    0.42890   0.60303    0.000
 6698.00    0.44373   0.60324    0.000
 6699.00    0.46419   0.60343    0.000
 6700.00    0.48702   0.60335    0.000
 6701.00    0.48112   0.60305    0.000
 6702.00    0.46487   0.60273    0.000
 6703.00    0.42729   0.60255    0.000
 6704.00    0.38320   0.60250    0.000
 6705.00    0.37351   0.60236    0.000
 6706.00    0.37255   0.60215    0.000
 6707.00    0.37673   0.60192    0.000
 6708.00    0.38196   0.60176    0.000
 6709.00    0.44335   0.60163    0.000
 6710.00    0.51383   0.60145    0.000
 6711.00    0.53964   0.60137    0.000
 6712.00    0.56005   0.60145    0.000
 6713.00    0.54938   0.60158    0.000
 6714.00    0.53614   0.60161    0.000
 6715.00    0.51114   0.60127    0.000
 6716.00    0.48558   0.60065    0.000
 6717.00    0.47471   0.60032    0.000
 6718.00    0.46413   0.60035    0.000
 6719.00    0.45783   0.60048    0.000
 6720.00    0.45235   0.60042    0.000
 6721.00    0.46292   0.60008    0.000
 6722.00    0.47350   0.59945    0.000
 6723.00    0.48432   0.59851    0.000
 6724.00    0.49933   0.59782    0.000
 6725.00    0.54765   0.59812    0.000
 6726.00    0.58719   0.59871    0.000
 6727.00    0.57401   0.59871    0.000
 6728.00    0.55104   0.59852    0.000
 6729.00    0.48171   0.59852    0.000
 6730.00    0.42176   0.59856    0.000
 6731.00    0.39799   0.59827    0.000
 6732.00    0.37526   0.59791    0.000
 6733.00    0.35588   0.59766    0.000
 6734.00    0.34840   0.59762    0.000
 6735.00    0.37335   0.59763    0.000
 6736.00    0.40616   0.59731    0.000
 6737.00    0.45733   0.59690    0.000
 6738.00    0.49910   0.59656    0.000
 6739.00    0.52188   0.59650    0.000
 6740.00    0.52265   0.59669    0.000
 6741.00    0.48469   0.59679    0.000
 6742.00    0.45173   0.59667    0.000
 6743.00    0.42643   0.59638    0.000
 6744.00    0.41784   0.59596    0.000
 6745.00    0.43181   0.59553    0.000
 6746.00    0.43215   0.59531    0.000
 6747.00    0.41628   0.59526    0.000
 6748.00    0.41363   0.59496    0.000
 6749.00    0.42485   0.59380    0.000
 6750.00    0.43647   0.59275    0.000
 6751.00    0.44848   0.59289    0.000
 6752.00    0.47092   0.59339    0.000
 6753.00    0.50188   0.59405    0.009
 6754.00    0.50898   0.59448    0.009
 6755.00    0.49893   0.59421    0.010
 6756.00    0.46721   0.59382    0.010
 6757.00    0.42181   0.59367    0.010
 6758.00    0.40706   0.59363    0.010
 6759.00    0.40920   0.59326    0.010
 6760.00    0.42523   0.59313    0.010
 6761.00    0.44793   0.59338    0.010
 6762.00    0.45671   0.59342    0.011
 6763.00    0.45974   0.59331    0.011
 6764.00    0.48494   0.59319    0.011
 6765.00    0.51798   0.59319    0.011
 6766.00    0.53185   0.59315    0.011
 6767.00    0.54000   0.59281    0.010
 6768.00    0.52631   0.59225    0.010
 6769.00    0.50720   0.59210    0.010
 6770.00    0.47916   0.59214    0.010
 6771.00    0.44933   0.59195    0.009
 6772.00    0.42424   0.59151    0.009
 6773.00    0.39989   0.59077    0.009
 6774.00    0.41318   0.59020    0.009
 6775.00    0.43085   0.59004    0.009
 6776.00    0.46342   0.59018    0.009
 6777.00    0.49715   0.59004    0.009
 6778.00    0.55226   0.58969    0.009
 6779.00    0.60830   0.58980    0.009
 6780.00    0.58735   0.59015    0.010
 6781.00    0.56518   0.59023    0.010
 6782.00    0.52390   0.59011    0.010
 6783.00    0.48407   0.58993    0.010
 6784.00    0.47045   0.58979    0.010
 6785.00    0.45597   0.58946    0.010
 6786.00    0.43219   0.58899    0.010
 6787.00    0.41042   0.58874    0.010
 6788.00    0.40414   0.58855    0.010
 6789.00    0.40037   0.58808    0.010
 6790.00    0.41126   0.58740    0.010
 6791.00    0.41879   0.58704    0.010
 6792.00    0.41082   0.58716    0.010
 6793.00    0.40447   0.58750    0.010
 6794.00    0.40422   0.58783    0.009
 6795.00    0.41109   0.58797    0.009
 6796.00    0.44042   0.58760    0.009
 6797.00    0.46260   0.58713    0.009
 6798.00    0.46562   0.58700    0.009
 6799.00    0.46646   0.58678    0.009
 6800.00    0.46228   0.58656    0.009
 6801.00    0.47170   0.58649    0.009
 6802.00    0.50815   0.58655    0.010
 6803.00    0.50622   0.58657    0.010
 6804.00    0.43778   0.58634    0.010
 6805.00    0.37636   0.58604    0.010
 6806.00    0.32559   0.58574    0.009
 6807.00    0.32744   0.58574    0.009
 6808.00    0.39943   0.58576    0.009
 6809.00    0.44709   0.58562    0.009
 6810.00    0.46619   0.58547    0.010
 6811.00    0.48570   0.58528    0.010
 6812.00    0.50566   0.58494    0.010
 6813.00    0.51364   0.58462    0.010
 6814.00    0.51068   0.58450    0.010
 6815.00    0.50102   0.58442    0.010
 6816.00    0.48595   0.58413    0.010
 6817.00    0.47692   0.58394    0.009
 6818.00    0.47216   0.58391    0.009
 6819.00    0.49375   0.58376    0.009
 6820.00    0.53170   0.58337    0.009
 6821.00    0.50326   0.58292    0.009
 6822.00    0.43879   0.58271    0.009
 6823.00    0.39186   0.58297    0.009
 6824.00    0.35319   0.58336    0.009
 6825.00    0.37034   0.58306    0.009
 6826.00    0.41019   0.58253    0.009
 6827.00    0.42405   0.58226    0.010
 6828.00    0.42889   0.58240    0.010
 6829.00    0.40509   0.58254    0.010
 6830.00    0.37292   0.58253    0.010
 6831.00    0.40707   0.58236    0.010
 6832.00    0.45729   0.58208    0.010
 6833.00    0.47307   0.58162    0.010
 6834.00    0.48211   0.58109    0.010
 6835.00    0.48151   0.58064    0.010
 6836.00    0.47945   0.58053    0.010
 6837.00    0.49764   0.58072    0.010
 6838.00    0.51810   0.58087    0.010
 6839.00    0.49299   0.58061    0.010
 6840.00    0.46447   0.58036    0.010
 6841.00    0.42952   0.58028    0.010
 6842.00    0.39432   0.58021    0.010
 6843.00    0.39952   0.58012    0.009
 6844.00    0.40605   0.57973    0.009
 6845.00    0.45428   0.57929    0.009
 6846.00    0.49376   0.57870    0.009
 6847.00    0.38538   0.57819    0.009
 6848.00    0.28924   0.57779    0.009
 6849.00    0.32111   0.57758    0.010
 6850.00    0.35338   0.57770    0.010
 6851.00    0.38859   0.57806    0.010
 6852.00    0.41709   0.57820    0.010
 6853.00    0.40753   0.57800    0.010
 6854.00    0.40595   0.57786    0.010
 6855.00    0.44041   0.57785    0.010
 6856.00    0.46007   0.57779    0.010
 6857.00    0.42496   0.57784    0.010
 6858.00    0.38337   0.57767    0.010
 6859.00    0.32168   0.57738    0.009
 6860.00    0.28291   0.57698    0.009
 6861.00    0.30443   0.57631    0.009
 6862.00    0.32916   0.57579    0.009
 6863.00    0.36117   0.57575    0.009
 6864.00    0.41362   0.57591    0.009
 6865.00    0.50608   0.57582    0.009
 6866.00    0.54781   0.57567    0.010
 6867.00    0.50298   0.57537    0.010
 6868.00    0.45323   0.57505    0.010
 6869.00    0.39614   0.57511    0.010
 6870.00    0.36186   0.57533    0.010
 6871.00    0.35756   0.57537    0.010
 6872.00    0.39772   0.57517    0.010
 6873.00    0.48932   0.57491    0.010
 6874.00    0.51163   0.57435    0.010
 6875.00    0.46323   0.57381    0.010
 6876.00    0.44984   0.57395    0.010
 6877.00    0.46795   0.57430    0.010
 6878.00    0.43596   0.57392    0.010
 6879.00    0.36423   0.57327    0.010
 6880.00    0.33970   0.57321    0.009
 6881.00    0.34810   0.57317    0.009
 6882.00    0.36530   0.57312    0.009
 6883.00    0.38789   0.57298    0.009
 6884.00    0.41214   0.57296    0.009
 6885.00    0.43727   0.57297    0.009
 6886.00    0.42505   0.57255    0.009
 6887.00    0.39551   0.57196    0.009
 6888.00    0.35932   0.57131    0.009
 6889.00    0.32049   0.57034    0.009
 6890.00    0.31440   0.56968    0.009
 6891.00    0.31947   0.56949    0.010
 6892.00    0.34977   0.56889    0.010
 6893.00    0.38731   0.56733    0.010
 6894.00    0.41939   0.56567    0.010
 6895.00    0.45018   0.56397    0.010
 6896.00    0.42382   0.56176    0.010
 6897.00    0.38657   0.56045    0.010
 6898.00    0.39478   0.56098    0.010
 6899.00    0.40971   0.56219    0.010
 6900.00    0.40899   0.56353    0.010
 6901.00    0.40657   0.56535    0.010
 6902.00    0.42689   0.56668    0.010
 6903.00    0.44880   0.56731    0.010
 6904.00    0.45241   0.56799    0.010
 6905.00    0.45536   0.56854    0.009
 6906.00    0.42597   0.56890    0.009
 6907.00    0.39577   0.56872    0.009
 6908.00    0.34138   0.56883    0.009
 6909.00    0.29091   0.56931    0.009
 6910.00    0.30264   0.56937    0.009
 6911.00    0.31389   0.56901    0.009
 6912.00    0.32026   0.56855    0.009
 6913.00    0.32954   0.56854    0.010
 6914.00    0.35982   0.56845    0.010
 6915.00    0.38712   0.56829    0.010
 6916.00    0.39801   0.56808    0.010
 6917.00    0.40782   0.56795    0.010
 6918.00    0.41290   0.56797    0.010
 6919.00    0.41309   0.56770    0.010
 6920.00    0.39556   0.56698    0.010
 6921.00    0.39147   0.56633    0.010
 6922.00    0.42826   0.56632    0.010
 6923.00    0.46735   0.56659    0.010
 6924.00    0.51236   0.56644    0.010
 6925.00    0.52508   0.56663    0.010
 6926.00    0.46602   0.56664    0.010
 6927.00    0.42914   0.56674    0.010
 6928.00    0.43496   0.56677    0.010
 6929.00    0.42835   0.56654    0.010
 6930.00    0.40084   0.56621    0.009
 6931.00    0.39838   0.56547    0.009
 6932.00    0.43283   0.56498    0.010
 6933.00    0.43904   0.56518    0.010
 6934.00    0.40870   0.56542    0.010
 6935.00    0.40280   0.56523    0.010
 6936.00    0.42478   0.56513    0.010
 6937.00    0.43480   0.56517    0.010
 6938.00    0.43278   0.56516    0.010
 6939.00    0.40367   0.56457    0.010
 6940.00    0.35051   0.56400    0.010
 6941.00    0.33638   0.56414    0.010
 6942.00    0.35275   0.56412    0.010
 6943.00    0.35230   0.56416    0.010
 6944.00    0.34029   0.56402    0.010
 6945.00    0.35644   0.56405    0.010
 6946.00    0.38957   0.56401    0.010
 6947.00    0.40353   0.56408    0.010
 6948.00    0.40739   0.56415    0.010
 6949.00    0.40606   0.56374    0.010
 6950.00    0.40237   0.56300    0.010
 6951.00    0.37674   0.56206    0.010
 6952.00    0.34249   0.56150    0.010
 6953.00    0.34188   0.56192    0.010
 6954.00    0.35253   0.56244    0.010
 6955.00    0.38689   0.56268    0.010
 6956.00    0.42790   0.56257    0.010
 6957.00    0.36236   0.56208    0.010
 6958.00    0.27216   0.56147    0.010
 6959.00    0.29550   0.56134    0.010
 6960.00    0.33991   0.56122    0.010
 6961.00    0.38150   0.56093    0.010
 6962.00    0.42270   0.56101    0.010
 6963.00    0.41201   0.56106    0.010
 6964.00    0.39595   0.56109    0.010
 6965.00    0.39176   0.56117    0.010
 6966.00    0.38837   0.56098    0.010
 6967.00    0.39332   0.56080    0.010
 6968.00    0.39855   0.56037    0.010
 6969.00    0.42156   0.56027    0.010
 6970.00    0.44283   0.56029    0.010
 6971.00    0.41062   0.56015    0.010
 6972.00    0.37639   0.55998    0.010
 6973.00    0.31206   0.55992    0.010
 6974.00    0.26068   0.55977    0.010
 6975.00    0.33375   0.55971    0.010
 6976.00    0.39871   0.55953    0.010
 6977.00    0.40730   0.55897    0.010
 6978.00    0.41068   0.55875    0.010
 6979.00    0.38615   0.55871    0.010
 6980.00    0.36251   0.55881    0.010
 6981.00    0.34278   0.55846    0.010
 6982.00    0.33376   0.55784    0.010
 6983.00    0.36281   0.55717    0.010
 6984.00    0.39163   0.55649    0.010
 6985.00    0.41972   0.55573    0.010
 6986.00    0.43416   0.55542    0.010
 6987.00    0.41392   0.55639    0.010
 6988.00    0.41865   0.55712    0.010
 6989.00    0.47797   0.55735    0.010
 6990.00    0.50315   0.55739    0.010
 6991.00    0.46355   0.55753    0.010
 6992.00    0.43060   0.55736    0.010
 6993.00    0.40866   0.55720    0.010
 6994.00    0.40364   0.55680    0.010
 6995.00    0.42318   0.55598    0.010
 6996.00    0.40501   0.55562    0.010
 6997.00    0.33871   0.55577    0.010
 6998.00    0.31391   0.55592    0.010
 6999.00    0.33580   0.55609    0.010
 7000.00    0.36679   0.55590    0.010
 7001.00    0.40682   0.55566    0.010
 7002.00    0.43355   0.55565    0.010
 7003.00    0.44865   0.55577    0.010
 7004.00    0.43364   0.55550    0.010
 7005.00    0.39543   0.55507    0.010
 7006.00    0.39637   0.55433    0.010
 7007.00    0.42383   0.55386    0.010
 7008.00    0.41522   0.55415    0.010
 7009.00    0.38518   0.55434    0.010
 7010.00    0.34198   0.55416    0.010
 7011.00    0.29196   0.55379    0.010
 7012.00    0.32331   0.55362    0.010
 7013.00    0.39120   0.55340    0.010
 7014.00    0.42092   0.55349    0.010
 7015.00    0.43591   0.55347    0.010
 7016.00    0.40337   0.55342    0.010
 7017.00    0.35523   0.55341    0.010
 7018.00    0.34022   0.55311    0.010
 7019.00    0.33432   0.55302    0.010
 7020.00    0.33622   0.55314    0.010
 7021.00    0.33988   0.55254    0.010
 7022.00    0.36805   0.55146    0.010
 7023.00    0.40065   0.55040    0.010
 7024.00    0.40822   0.55064    0.010
 7025.00    0.41233   0.55178    0.010
 7026.00    0.40692   0.55243    0.010
 7027.00    0.40056   0.55247    0.010
 7028.00    0.39920   0.55220    0.010
 7029.00    0.39815   0.55188    0.010
 7030.00    0.38294   0.55108    0.011
 7031.00    0.36709   0.55039    0.011
 7032.00    0.28695   0.55073    0.011
 7033.00    0.21120   0.55106    0.010
 7034.00    0.25593   0.55101    0.010
 7035.00    0.29977   0.55085    0.010
 7036.00    0.33102   0.55066    0.010
 7037.00    0.36299   0.55079    0.010
 7038.00    0.40153   0.55070    0.010
 7039.00    0.43044   0.55040    0.010
 7040.00    0.39452   0.54984    0.010
 7041.00    0.36586   0.54963    0.010
 7042.00    0.37515   0.54971    0.010
 7043.00    0.39289   0.54976    0.010
 7044.00    0.44613   0.54936    0.010
 7045.00    0.47624   0.54856    0.010
 7046.00    0.42588   0.54876    0.010
 7047.00    0.39252   0.54968    0.010
 7048.00    0.40889   0.55010    0.010
 7049.00    0.41000   0.55029    0.011
 7050.00    0.37302   0.55006   -2.000
 7051.00    0.37116   0.54947   -2.000
 7052.00    0.44483   0.54929   -2.000
 7053.00    0.47901   0.54925   -2.000
 7054.00    0.43941   0.54956   -2.000
 7055.00    0.42521   0.54955   -2.000
 7056.00    0.45242   0.54939   -2.000
 7057.00    0.43962   0.54921   -2.000
 7058.00    0.36958   0.54832   -2.000
 7059.00    0.37137   0.54752   -2.000
 7060.00    0.46354   0.54706   -2.000
 7061.00    0.46624   0.54728   -2.000
 7062.00    0.36971   0.54773   -2.000
 7063.00    0.36310   0.54794   -2.000
 7064.00    0.44443   0.54783   -2.000
 7065.00    0.49192   0.54758   -2.000
 7066.00    0.51020   0.54699   -2.000
 7067.00    0.51286   0.54648   -2.000
 7068.00    0.50365   0.54628   -2.000
 7069.00    0.49187   0.54661   -2.000
 7070.00    0.47837   0.54656   -2.000
 7071.00    0.49273   0.54656   -2.000
 7072.00    0.52338   0.54606   -2.000
 7073.00    0.49162   0.54606   -2.000
 7074.00    0.42803   0.54632   -2.000
 7075.00    0.43400   0.54548   -2.000
 7076.00    0.47066   0.54510   -2.000
 7077.00    0.43872   0.54541   -2.000
 7078.00    0.38076   0.54571   -2.000
 7079.00    0.38583   0.54580   -2.000
 7080.00    0.41119   0.54587   -2.000
 7081.00    0.43683   0.54565   -2.000
 7082.00    0.46254   0.54544   -2.000
 7083.00    0.42332   0.54526   -2.000
 7084.00    0.36978   0.54487   -2.000
 7085.00    0.43562   0.54445   -2.000
 7086.00    0.52244   0.54448   -2.000
 7087.00    0.49815   0.54454   -2.000
 7088.00    0.45898   0.54423   -2.000
 7089.00    0.43704   0.54367   -2.000
 7090.00    0.41674   0.54287   -2.000
 7091.00    0.37342   0.54193   -2.000
 7092.00    0.32875   0.54108   -2.000
 7093.00    0.37689   0.54122   -2.000
 7094.00    0.42742   0.54142   -2.000
 7095.00    0.49247   0.54148   -2.000
 7096.00    0.55174   0.54119   -2.000
 7097.00    0.46748   0.54079   -2.000
 7098.00    0.38692   0.54065   -2.000
 7099.00    0.35541   0.54076   -2.000
 7100.00    0.32986   0.54055   -2.000
 7101.00    0.35719   0.54048   -2.000
 7102.00    0.37737   0.54008   -2.000
 7103.00    0.35087   0.53988   -2.000
 7104.00    0.33293   0.53969   -2.000
 7105.00    0.35861   0.54003   -2.000
 7106.00    0.38207   0.54148   -2.000
 7107.00    0.39645   0.54172   -2.000
 7108.00    0.40395   0.54167   -2.000
 7109.00    0.38798   0.54111   -2.000
 7110.00    0.38855   0.54079   -2.000
 7111.00    0.43663   0.54091   -2.000
 7112.00    0.44269   0.54102   -2.000
 7113.00    0.34568   0.54089   -2.000
 7114.00    0.30995   0.54053   -2.000
 7115.00    0.40388   0.54038   -2.000
 7116.00    0.45792   0.54038   -2.000
 7117.00    0.43858   0.53973   -2.000
 7118.00    0.39907   0.53917   -2.000
 7119.00    0.32717   0.53935   -2.000
 7120.00    0.34785   0.53932   -2.000
 7121.00    0.49908   0.53965   -2.000
 7122.00    0.54279   0.53949   -2.000
 7123.00    0.45316   0.53969   -2.000
 7124.00    0.44140   0.53968   -2.000
 7125.00    0.51478   0.53975   -2.000
 7126.00    0.55568   0.53930   -2.000
 7127.00    0.56526   0.53883   -2.000
 7128.00    0.49718   0.53851   -2.000
 7129.00    0.36306   0.53786   -2.000
 7130.00    0.36060   0.53809   -2.000
 7131.00    0.45674   0.53847   -2.000
 7132.00    0.46899   0.53843   -2.000
 7133.00    0.42605   0.53830   -2.000
 7134.00    0.41738   0.53819   -2.000
 7135.00    0.42847   0.53823   -2.000
 7136.00    0.41703   0.53780   -2.000
 7137.00    0.39429   0.53700   -2.000
 7138.00    0.36143   0.53674   -2.000
 7139.00    0.32418   0.53708   -2.000
 7140.00    0.34683   0.53747   -2.000
 7141.00    0.39180   0.53784   -2.000
 7142.00    0.43000   0.53766   -2.000
 7143.00    0.46606   0.53749   -2.000
 7144.00    0.50876   0.53734   -2.000
 7145.00    0.55320   0.53699   -2.000
 7146.00    0.50708   0.53650   -2.000
 7147.00    0.44144   0.53671   -2.000
 7148.00    0.42937   0.53688   -2.000
 7149.00    0.42646   0.53683   -2.000
 7150.00    0.44827   0.53674   -2.000
 7151.00    0.47329   0.53658   -2.000
 7152.00    0.01424   0.53620   -2.000
 7153.00   -0.48875   0.53590   -2.000
 7154.00   -0.01344   0.53533   -2.000
 7155.00    0.51540   0.53455   -2.000
 7156.00    0.46287   0.53499   -2.000
 7157.00    0.39916   0.53558   -2.000
 7158.00    0.42638   0.53555   -2.000
 7159.00    0.45474   0.53568   -2.000
 7160.00    0.50873   0.53592   -2.000
 7161.00    0.56385   0.53557   -2.000
 7162.00    0.63322   0.53496   -2.000
 7163.00    0.68169   0.53495   -2.000
 7164.00    0.55184   0.53539   -2.000
 7165.00    0.44255   0.53529   -2.000
 7166.00    0.46357   0.53470   -2.000
 7167.00    0.45733   0.53441   -2.000
 7168.00    0.31572   0.53454   -2.000
 7169.00    0.24631   0.53466   -2.000
 7170.00    0.46750   0.53388   -2.000
 7171.00    0.61631   0.53285   -2.000
 7172.00    0.52332   0.53230   -2.000
 7173.00    0.43497   0.53282   -2.000
 7174.00    0.35969   0.53356   -2.000
 7175.00    0.33514   0.53329   -2.000
 7176.00    0.43291   0.53305   -2.000
 7177.00    0.50304   0.53294   -2.000
 7178.00    0.51563   0.53305   -2.000
 7179.00    0.55636   0.53336   -2.000
 7180.00    0.64805   0.53327   -2.000
 7181.00    0.66564   0.53302   -2.000
 7182.00    0.56594   0.53253   -2.000
 7183.00    0.47294   0.53223   -2.000
 7184.00    0.38926   0.53229   -2.000
 7185.00    0.36904   0.53212   -2.000
 7186.00    0.42641   0.53141   -2.000
 7187.00    0.45241   0.53032   -2.000
 7188.00    0.44460   0.52984   -2.000
 7189.00    0.46094   0.53020   -2.000
 7190.00    0.50026   0.53117   -2.000
 7191.00    0.49313   0.53139   -2.000
 7192.00    0.44707   0.53115   -2.000
 7193.00    0.48708   0.53055   -2.000
 7194.00    0.59064   0.52973   -2.000
 7195.00    0.55262   0.52878   -2.000
 7196.00    0.42282   0.52875   -2.000
 7197.00    0.39578   0.52919   -2.000
 7198.00    0.42703   0.52971   -2.000
 7199.00    0.54656   0.52986   -2.000
 7200.00    0.70969   0.52967   -2.000
 7201.00    0.69620   0.52962   -2.000
 7202.00    0.60729   0.52985   -2.000
 7203.00    0.44641   0.52946   -2.000
 7204.00    0.25920   0.52891   -2.000
 7205.00    0.21620   0.52894   -2.000
 7206.00    0.21788   0.52947   -2.000
 7207.00    0.21155   0.52978   -2.000
 7208.00    0.20314   0.52912   -2.000
 7209.00    0.28096   0.52867   -2.000
 7210.00    0.37690   0.52855   -2.000
 7211.00    0.44901   0.52912   -2.000
 7212.00    0.51716   0.52905   -2.000
 7213.00    0.51339   0.52836   -2.000
 7214.00    0.50063   0.52708   -2.000
 7215.00    0.47109   0.52680   -2.000
 7216.00    0.44010   0.52734   -2.000
 7217.00    0.38568   0.52777   -2.000
 7218.00    0.33006   0.52866   -2.000
