###################################################################
## OUTPUT of StarlightChains_v04.for    [Cid@UFSC - 01/Apr/2007] ##
###################################################################

## Some input info
KUG0210-078._31_21.txt                   [arq_obs]
Base.CB07.vall.4m                        [arq_base]
Masks.EmLines.NEW.gm                     [arq_masks]
StCv04.C11.config                        [arq_config]
   66                                    [N_base]
    0                                    [N_YAV_components = # of components with extra extinction!]
    0                                    [i_FitPowerLaw (1/0 = Yes/No)]
-9.99                                    [alpha_PowerLaw]
CCM                                      [red_law_option]
 1.458241                                [q_norm = A(l_norm)/A(V)]

## (Re)Sampling Parameters
 3741.00                                 [l_ini (A)]
 7218.00                                 [l_fin (A)]
    1.00                                 [dl    (A)]     (OBS: dl_cushion =    50.00 A)

## Normalization info
 4020.00                                 [l_norm (A) - for base]
 4010.00                                 [llow_norm (A) - window for f_obs]
 4060.00                                 [lupp_norm (A) - window for f_obs]
8.987124E-18                             [fobs_norm (in input units)]

## S/N
 3691.00                                 [llow_SN (A) - window for S/N]
 7268.00                                 [lupp_SN (A) - window for S/N]
   1.373                                 [S/N in S/N window]
   2.062                                 [S/N in norm. window]
   0.008                                 [S/N_err in S/N window]
   0.012                                 [S/N_err in norm. window]
  1.0000                                 [fscale_chi2]

## etc...
    -2007446                             [idum_orig]
  2405                                   [NOl_eff]
  2363                                   [Nl_eff]
    42    NSIGMA                         [Ntot_cliped & clip_method]
  2015720                                [Nglobal_steps]
   7                                     [N_chains]
  43                                     [NEX0s_base = N_base in EX0s-fits]
 0   0   1       42   2.0   2.472E+03    [Clip-Bug, RC-Crash & Burn-In warning-flags, n_censored_weights, wei_nsig_threshold & wei_limit]
    37     37.565     37.090      0.474  [idt_all, wdt_TotTime, wdt_UsrTime & wdt_SysTime (sec)]

## Synthesis Results - Best model ##

 1.40944E-05                             [chi2/Nl_eff]
    38.02538                             [adev (%)]

    82.83377                             [sum-of-x (%)]
 4.06706E-17                             [Flux_tot (units of input spectrum!)]
 2.50323E-14                             [Mini_tot (???)]
 1.59594E-14                             [Mcor_tot (???)]

   0.00                                  [v0_min  (km/s)]
  16.03                                  [vd_min  (km/s)]
 1.2643                                  [AV_min  (mag)]
 0.0000                                  [YAV_min (mag)]

# j     x_j(%)      Mini_j(%)     Mcor_j(%)     age_j(yr)     Z_j      (L/M)_j    YAV?  Mstars   component_j        a/Fe...       SSP_chi2r SSP_adev(%)   SSP_AV   SSP_x(%)
  1      0.0000     0.0000E+00    0.0000E+00    1.000000E+06  0.00400  1.094E-02    0   1.0000   age020_m42            0.0000     1.5737E-05    40.6281   2.8256    73.6743
  2      0.0262     1.2811E-03    2.0093E-03    3.160000E+06  0.00400  4.007E-02    0   0.9999   age045_m42            0.0000     1.5823E-05    39.6262   2.0865    78.7905
  3      0.0000     0.0000E+00    0.0000E+00    5.010000E+06  0.00400  2.539E-02    0   0.9488   age055_m42            0.0000     1.5744E-05    39.9685   2.4154    76.6483
  4      0.0000     0.0000E+00    0.0000E+00    6.610000E+06  0.00400  2.620E-02    0   0.9220   age061_m42            0.0000     1.5890E-05    39.4197   2.0235    78.5973
  5      0.0000     0.0000E+00    0.0000E+00    1.000000E+07  0.00400  1.322E-02    0   0.8862   age070_m42            0.0000     1.5018E-05    38.4472   1.7311    79.9024
  6      0.0000     0.0000E+00    0.0000E+00    1.445000E+07  0.00400  7.883E-03    0   0.8571   age078_m42            0.0000     1.5097E-05    38.8510   2.0614    77.9176
  7      0.0000     0.0000E+00    0.0000E+00    2.512000E+07  0.00400  5.251E-03    0   0.8174   age090_m42            0.0000     1.4951E-05    38.3204   1.6023    80.2692
  8      2.8210     1.5164E+00    1.8673E+00    4.000000E+07  0.00400  3.649E-03    0   0.7851   age104_m42            0.0000     1.5089E-05    38.3375   1.3767    81.0188
  9      0.0000     0.0000E+00    0.0000E+00    5.500000E+07  0.00400  3.098E-03    0   0.7629   age110_m42            0.0000     1.5574E-05    38.4759   1.5315    81.1943
 10      0.0000     0.0000E+00    0.0000E+00    1.015200E+08  0.00400  2.228E-03    0   0.7207   age116_m42            0.0000     1.5967E-05    38.5160   1.5552    81.3526
 11      3.5793     6.4232E+00    6.6977E+00    2.861200E+08  0.00400  1.093E-03    0   0.6648   age125_m42            0.0000     1.5689E-05    37.6684   0.9737    83.7208
 12      0.0000     0.0000E+00    0.0000E+00    5.088000E+08  0.00400  6.597E-04    0   0.6365   age130_m42            0.0000     1.6362E-05    38.1007   0.9742    84.5378
 13      1.6187     1.4892E+01    1.3543E+01    1.434000E+09  0.00400  2.132E-04    0   0.5798   age139_m42            0.0000     1.6785E-05    38.9180   0.0216    86.3517
 14      0.0000     0.0000E+00    0.0000E+00    4.250000E+09  0.00400  5.895E-05    0   0.5377   age158_m42            0.0000     1.7211E-05    40.4994  -0.4078    83.5069
 15      0.0000     0.0000E+00    0.0000E+00    7.500000E+09  0.00400  3.510E-05    0   0.5212   age171_m42            0.0000     1.7549E-05    40.6545  -0.5987    83.0892
 16      0.0000     0.0000E+00    0.0000E+00    1.300000E+10  0.00400  2.005E-05    0   0.5034   age193_m42            0.0000     1.7932E-05    40.7811  -0.7639    82.6866
 17      0.0000     0.0000E+00    0.0000E+00    1.800000E+10  0.00400  1.525E-05    0   0.4967   age213_m42            0.0000     1.7863E-05    40.9105  -0.7840    82.3082
 18      0.0000     0.0000E+00    0.0000E+00    1.000000E+06  0.00800  1.238E-02    0   1.0000   age020_m52            0.0000     1.5747E-05    40.6344   2.8233    73.7822
 19      3.4264     2.1863E-01    3.4175E-01    3.160000E+06  0.00800  3.074E-02    0   0.9966   age045_m52            0.0000     1.5837E-05    40.6696   2.7525    74.2943
 20      0.0000     0.0000E+00    0.0000E+00    5.010000E+06  0.00800  2.668E-02    0   0.9443   age055_m52            0.0000     1.5800E-05    40.2052   2.5100    75.7582
 21      0.0000     0.0000E+00    0.0000E+00    6.610000E+06  0.00800  2.136E-02    0   0.9177   age061_m52            0.0000     1.4995E-05    39.1842   1.2415    81.0611
 22      0.0000     0.0000E+00    0.0000E+00    1.000000E+07  0.00800  1.215E-02    0   0.8827   age070_m52            0.0000     1.4799E-05    38.4530   1.9120    79.5824
 23      0.0000     0.0000E+00    0.0000E+00    1.445000E+07  0.00800  8.717E-03    0   0.8552   age078_m52            0.0000     1.5113E-05    38.8533   2.0317    78.9191
 24      0.0000     0.0000E+00    0.0000E+00    2.512000E+07  0.00800  5.592E-03    0   0.8162   age090_m52            0.0000     1.4968E-05    38.3108   1.6704    81.1163
 25      0.0000     0.0000E+00    0.0000E+00    4.000000E+07  0.00800  3.896E-03    0   0.7841   age104_m52            0.0000     1.5164E-05    38.2181   1.5795    81.9161
 26      0.0594     5.4238E-02    6.1473E-02    1.015200E+08  0.00800  2.148E-03    0   0.7226   age116_m52            0.0000     1.5682E-05    38.4121   1.5247    81.8722
 27      0.8283     1.6370E+00    1.7160E+00    2.861200E+08  0.00800  9.925E-04    0   0.6683   age125_m52            0.0000     1.6463E-05    38.1654   1.0479    85.1768
 28      1.1049     6.8994E+00    6.6424E+00    9.047900E+08  0.00800  3.141E-04    0   0.6138   age135_m52            0.0000     1.7385E-05    39.1094   0.2585    89.2033
 29      0.0000     0.0000E+00    0.0000E+00    1.434000E+09  0.00800  1.719E-04    0   0.5853   age139_m52            0.0000     1.7241E-05    39.8142  -0.3107    87.4287
 30      0.0039     9.6873E-02    8.5089E-02    2.500000E+09  0.00800  7.872E-05    0   0.5600   age150_m52            0.0000     1.8026E-05    40.6869  -0.5719    85.3903
 31      0.0000     0.0000E+00    0.0000E+00    4.250000E+09  0.00800  4.336E-05    0   0.5426   age158_m52            0.0000     1.8048E-05    40.8088  -0.5917    84.7326
 32      0.0000     0.0000E+00    0.0000E+00    6.250000E+09  0.00800  3.159E-05    0   0.5319   age166_m52            0.0000     1.8905E-05    41.2544  -0.7802    84.6163
 33      0.0000     0.0000E+00    0.0000E+00    1.300000E+10  0.00800  1.361E-05    0   0.5073   age193_m52            0.0000     2.0469E-05    42.0282  -1.0000    76.7269
 34      0.0000     0.0000E+00    0.0000E+00    1.800000E+10  0.00800  9.886E-06    0   0.4990   age213_m52            0.0000     2.1776E-05    42.3098  -1.0000    73.2032
 35      0.0000     0.0000E+00    0.0000E+00    1.000000E+06  0.02000  1.544E-02    0   1.0000   age020_m62            0.0000     1.5765E-05    40.6683   2.8219    73.8891
 36      0.3238     1.6880E-02    2.6101E-02    3.160000E+06  0.02000  3.762E-02    0   0.9858   age045_m62            0.0000     1.5846E-05    40.7034   2.7649    74.4121
 37      0.0000     0.0000E+00    0.0000E+00    5.010000E+06  0.02000  3.296E-02    0   0.9342   age055_m62            0.0000     1.6047E-05    40.0150   2.3889    77.3985
 38     54.1381     9.2017E+00    1.2789E+01    8.710000E+06  0.02000  1.154E-02    0   0.8861   age067_m62            0.0000     1.3731E-05    37.3319   1.3570    80.8125
 39      0.4769     1.2205E-01    1.6219E-01    1.445000E+07  0.02000  7.663E-03    0   0.8472   age078_m62            0.0000     1.4411E-05    38.1113   1.5580    81.1486
 40      0.0000     0.0000E+00    0.0000E+00    2.512000E+07  0.02000  4.532E-03    0   0.8099   age090_m62            0.0000     1.4428E-05    37.8249   1.5498    80.7545
 41      0.0186     1.3314E-02    1.5861E-02    5.500000E+07  0.02000  2.733E-03    0   0.7595   age110_m62            0.0000     1.5275E-05    38.4151   1.5744    81.0838
 42      2.4726     3.5426E+00    3.8812E+00    1.609000E+08  0.02000  1.369E-03    0   0.6985   age120_m62            0.0000     1.6156E-05    38.2016   1.4160    83.4447
 43      0.0000     0.0000E+00    0.0000E+00    2.861200E+08  0.02000  9.013E-04    0   0.6714   age125_m62            0.0000     1.6840E-05    38.2011   1.1701    85.9816
 44      0.0000     0.0000E+00    0.0000E+00    5.088000E+08  0.02000  5.028E-04    0   0.6449   age130_m62            0.0000     1.7788E-05    38.8939   0.7983    88.7349
 45      0.0000     0.0000E+00    0.0000E+00    9.047900E+08  0.02000  2.428E-04    0   0.6179   age135_m62            0.0000     1.7904E-05    39.8817   0.2145    88.6438
 46      0.0000     0.0000E+00    0.0000E+00    1.434000E+09  0.02000  1.263E-04    0   0.5908   age139_m62            0.0000     1.8074E-05    40.5592  -0.2213    87.4598
 47      0.0000     0.0000E+00    0.0000E+00    2.500000E+09  0.02000  5.985E-05    0   0.5673   age150_m62            0.0000     1.8986E-05    41.4174  -0.5703    86.2403
 48      0.0000     0.0000E+00    0.0000E+00    4.250000E+09  0.02000  3.271E-05    0   0.5468   age158_m62            0.0000     2.0274E-05    41.9208  -0.8588    85.2914
 49      0.0000     0.0000E+00    0.0000E+00    1.000000E+10  0.02000  1.360E-05    0   0.5167   age181_m62            0.0000     2.2272E-05    42.5209  -1.0000    78.7268
 50      0.0000     0.0000E+00    0.0000E+00    1.800000E+10  0.02000  7.124E-06    0   0.5013   age213_m62            0.0000     2.4332E-05    42.9326  -1.0000    71.8088
 51      0.0000     0.0000E+00    0.0000E+00    1.000000E+06  0.05000  2.592E-02    0   0.9998   age020_m72            0.0000     1.5737E-05    40.7007   2.8160    73.8336
 52      0.0000     0.0000E+00    0.0000E+00    3.160000E+06  0.05000  4.845E-02    0   0.9577   age045_m72            0.0000     1.6026E-05    40.5261   2.6520    75.2856
 53      0.0173     1.1065E-03    1.5876E-03    5.010000E+06  0.05000  3.072E-02    0   0.9147   age055_m72            0.0000     1.4790E-05    38.5919   2.1382    78.3508
 54      0.0000     0.0000E+00    0.0000E+00    6.610000E+06  0.05000  1.455E-02    0   0.8877   age061_m72            0.0000     1.3326E-05    36.2002   1.3739    81.1451
 55      0.0000     0.0000E+00    0.0000E+00    1.000000E+07  0.05000  9.074E-03    0   0.8524   age070_m72            0.0000     1.4894E-05    38.6794   2.3186    78.0886
 56      3.8025     1.7549E+00    2.1751E+00    2.512000E+07  0.05000  4.250E-03    0   0.7902   age090_m72            0.0000     1.4910E-05    37.9852   2.0171    79.4766
 57      2.8429     1.8063E+00    2.1583E+00    4.000000E+07  0.05000  3.087E-03    0   0.7618   age104_m72            0.0000     1.4880E-05    37.6015   1.7878    80.7214
 58      2.3390     2.6987E+00    3.0036E+00    1.015200E+08  0.05000  1.700E-03    0   0.7096   age116_m72            0.0000     1.5810E-05    37.9922   1.5543    82.9880
 59      0.0000     0.0000E+00    0.0000E+00    2.861200E+08  0.05000  7.384E-04    0   0.6633   age125_m72            0.0000     1.7389E-05    38.5123   1.0428    87.3598
 60      0.0626     3.2165E-01    3.2147E-01    5.088000E+08  0.05000  3.819E-04    0   0.6372   age130_m72            0.0000     1.8080E-05    39.7346   0.5617    89.2430
 61      2.7501     3.2184E+01    3.0844E+01    9.047900E+08  0.05000  1.676E-04    0   0.6110   age135_m72            0.0000     1.9074E-05    41.2811  -0.1155    87.9622
 62      0.0000     0.0000E+00    0.0000E+00    1.434000E+09  0.05000  8.837E-05    0   0.5874   age139_m72            0.0000     1.9438E-05    41.6236  -0.5654    87.4533
 63      0.0000     0.0000E+00    0.0000E+00    2.500000E+09  0.05000  4.233E-05    0   0.5598   age150_m72            0.0000     2.0913E-05    42.3307  -0.8479    85.9489
 64      0.1214     1.6597E+01    1.3665E+01    6.250000E+09  0.05000  1.435E-05    0   0.5249   age166_m72            0.0000     2.3072E-05    43.0249  -1.0000    75.6934
 65      0.0000     0.0000E+00    0.0000E+00    1.300000E+10  0.05000  6.513E-06    0   0.5036   age193_m72            0.0000     2.5947E-05    43.4234  -1.0000    67.9007
 66      0.0000     0.0000E+00    0.0000E+00    1.800000E+10  0.05000  4.527E-06    0   0.4945   age213_m72            0.0000     2.7838E-05    43.5852  -1.0000    63.0920


## Synthesis Results - Average & Chains ##

# j      x_j: min, <> & last-chain-values for 1 ...  7 chains
  1      0.0000      3.5711      0.2630      8.6902      1.9030      0.0000      1.8839      1.0877      0.0000
  2      0.0262      1.5515      1.0199      0.9440      0.0000      4.0029      6.8084      0.0000      5.4470
  3      0.0000      1.0497      4.5343      1.6409      0.0000      1.2036      0.0000      0.0139      0.1156
  4      0.0000      1.7834      1.3135      6.3990      0.0000      2.7100      5.3230      2.5938      3.3935
  5      0.0000      1.4412      0.5282      2.2240      2.2634      4.3781      0.0000      6.6360      3.4718
  6      0.0000      1.6709      0.6059      0.0000      5.3902      5.1561      6.0746      7.7599      1.6337
  7      0.0000      1.2350      2.0661      0.0000      1.0823      0.1278      0.0000      0.0000      1.4144
  8      2.8210      1.1631      0.3587      0.0000      2.1659      6.3248      0.3151      0.0925      2.3913
  9      0.0000      1.3978      3.7016      7.5007      3.6093      0.5233      0.0000      3.5529      1.6537
 10      0.0000      1.2803      8.6279      3.2485      0.0000      0.0000      1.9102      1.5428      1.4605
 11      3.5793      1.2001      0.3151      3.9749      0.0000      1.1931      0.0000      5.6136      0.0000
 12      0.0000      1.4581      0.0000      1.5037      1.1476      8.4509      0.6624      0.0000      1.5815
 13      1.6187      1.8539      5.3420      4.0711      0.9330      2.5273      0.0000      2.4886      0.0000
 14      0.0000      1.3596      1.4980      0.0000      2.8048      0.0000      0.0000      3.1712      9.7905
 15      0.0000      1.4623      0.3953      0.1974      0.3385      0.0000      0.0000      0.0137      0.3083
 16      0.0000      1.0405      0.0000      0.0000      0.1423      0.0000      2.3863      0.0000      0.0000
 17      0.0000      1.6870      5.1080      0.0000      1.4340      0.4250      4.4715      1.5449      0.0000
 18      0.0000      4.0433      1.9292      0.0000      1.7600      0.4387      2.4692      3.1559      2.6526
 19      3.4264      0.9762      5.1422      0.0000      2.5607      1.7794      0.6095      0.0000      0.3608
 20      0.0000      1.5795      0.0000      2.4700      1.4447      0.0000      3.6508      1.3555      1.1083
 21      0.0000      1.7961      4.2980      0.0000      0.4208      0.9687      3.7674      1.0758      2.4141
 22      0.0000      1.1129      0.0000      0.0000      5.5984      0.0000      1.3860      4.6359      0.0000
 23      0.0000      1.6950      0.7708      0.0000      8.0302      0.3584      0.8250      0.0000      1.2318
 24      0.0000      1.1047      0.0374      2.3835      3.3513      2.4010      0.0000      0.4810      0.0000
 25      0.0000      1.5339      0.6465      1.2020      6.0688      0.8490      0.0000      2.0047      2.9561
 26      0.0594      1.4867      0.0000      0.0000      0.3423      1.9606      0.8193      1.3816      0.6055
 27      0.8283      2.0241     12.1841      0.0000      1.4533      0.5760      7.4615      0.7511      0.7677
 28      1.1049      1.5127      3.6840      0.0000      3.1967      2.5079      0.0000      2.3369      0.3555
 29      0.0000      1.7714      1.4163      1.9022      4.4155      3.0518      1.8525      0.0000      0.7736
 30      0.0039      1.3465      0.0000      0.0000      1.5894      2.8827      3.7000     10.4064      0.0000
 31      0.0000      1.5902      2.7337      0.0000      1.1834      2.5742      1.7936      1.1327      1.5449
 32      0.0000      2.4326      0.0000      0.0000      5.9256      0.0705      2.2595      3.7369      5.2278
 33      0.0000      1.4319      0.0000      2.4270      2.6575      1.9058      0.3800      1.6321      1.4766
 34      0.0000      1.1690      0.0000      1.5316      0.0000      0.0000      0.7534      0.5796      1.0431
 35      0.0000      3.8134      3.2330     12.6824      3.6700      0.0000      5.4081      4.5368      0.0000
 36      0.3238      1.6158      5.0534      6.3901      0.0000      1.7546      0.9138      0.8197      1.6496
 37      0.0000      1.4150      0.0000      0.4792      0.0000      5.6924      2.0357      0.0000     10.5053
 38     54.1381      1.6213      0.2687      0.0544      0.0000      3.0387      4.0059      3.4927      0.5640
 39      0.4769      1.7510      0.0000      0.0000      2.9990      2.7681      2.7055      0.5221      0.5221
 40      0.0000      1.3809      0.0000      5.0863      0.0000      0.0000      0.8477      3.9092      2.2518
 41      0.0186      1.8923      4.1956      1.5656      3.0666      4.1716      4.5154      0.2437      0.0000
 42      2.4726      1.7291      1.8390      1.1740      4.2012      2.1327      5.6062      0.0000      2.9544
 43      0.0000      1.1316      1.7607      2.3061      2.9312      2.2671      0.6939      0.0000      8.0444
 44      0.0000      1.5007      0.6682      1.3351      0.0388      5.5927      0.1403      0.0000      0.0000
 45      0.0000      1.9188      2.4631      2.1838      0.1277      0.0209      1.6488      4.1935      4.1561
 46      0.0000      1.0033      0.0000      1.0310      0.0000      3.9780      0.0000      0.0000      1.6023
 47      0.0000      1.3318      0.0000      1.2299      0.0000      0.0000      3.6821      1.9762      0.0000
 48      0.0000      2.2184      0.2573      1.7285      0.0000      2.0595      4.6236      0.5700      1.8803
 49      0.0000      1.7125      0.0000      3.1102      0.0000      0.0000      0.0000      1.5516      1.5045
 50      0.0000      4.2935      1.6476      1.8004      0.0000      0.8153      3.9666      0.7719      0.0000
 51      0.0000      7.1537      6.4361      0.0000      0.4678      1.9936      2.2018      6.4330      5.0396
 52      0.0000      2.0245      2.5511      1.0783      2.7636      2.2203      2.0048     10.3141      4.9993
 53      0.0173      1.2251      4.1472      0.1182      0.6409      4.8213      4.3728      0.0000      0.3880
 54      0.0000      1.5625      2.7152      2.9573      1.5047      0.4565      2.5204      0.0000      0.0000
 55      0.0000      1.5335      1.6957     10.8765      8.8748      2.9538      0.0000      1.5975      1.8414
 56      3.8025      1.0573      0.0000      0.0000      0.0000      0.9104      0.0000      0.0000      0.2989
 57      2.8429      1.5654      2.2212      0.5759      4.3015      3.0267      3.1677      0.5595      0.0000
 58      2.3390      1.7090      2.1187      2.2090      0.3777      7.9135      2.9161      2.0249      3.8407
 59      0.0000      1.4004      1.1907      4.6743      2.4161      2.2549      0.0000      0.0000      2.0218
 60      0.0626      2.2685      0.0000      3.6396      2.5359      0.5398      0.0000      6.5938      0.4360
 61      2.7501      2.5172      1.9224      2.6242      5.4021      4.5070      4.2064      1.0844      5.0114
 62      0.0000      1.8235      2.1574      2.0286      0.4797      0.0000      0.0000      4.4073      4.1899
 63      0.0000      1.0819      0.1963      1.6256      0.0608      2.5510      1.7528      0.1383      4.0687
 64      0.1214     14.0996      0.0000      0.0000      0.7921      0.5319      0.8658      0.4434      1.5305
 65      0.0000      1.2212      1.7041      0.0000      0.9011      0.0000      0.0000      2.6902      0.0000
 66      0.0000      1.3621      2.2461      1.0490      6.0690      0.0000      0.0000      0.3485      0.0000

# j      m_j: min, <> & last-chain-values for 1 ...  7 chains
  1  0.0000E+00  2.1030E-02  3.0217E-03  1.1842E-01  1.5292E-02  0.0000E+00  2.0661E-02  1.2366E-02  0.0000E+00
  2  2.0093E-03  2.4942E-03  3.1986E-03  3.5116E-03  0.0000E+00  2.6720E-02  2.0384E-02  0.0000E+00  2.2903E-02
  3  0.0000E+00  2.5272E-03  2.1295E-02  9.1409E-03  0.0000E+00  1.2031E-02  0.0000E+00  6.4706E-05  7.2772E-04
  4  0.0000E+00  4.0432E-03  5.8091E-03  3.3569E-02  0.0000E+00  2.5511E-02  2.2475E-02  1.1353E-02  2.0122E-02
  5  0.0000E+00  6.2241E-03  4.4496E-03  2.2224E-02  1.3338E-02  7.8508E-02  0.0000E+00  5.5330E-02  3.9216E-02
  6  0.0000E+00  1.1704E-02  8.2791E-03  0.0000E+00  5.1521E-02  1.4996E-01  7.9245E-02  1.0494E-01  2.9931E-02
  7  0.0000E+00  1.2386E-02  4.0420E-02  0.0000E+00  1.4810E-02  5.3226E-03  0.0000E+00  0.0000E+00  3.7100E-02
  8  1.8673E+00  1.6122E-02  9.7005E-03  0.0000E+00  4.0967E-02  3.6402E-01  8.1339E-03  2.4766E-03  8.6692E-02
  9  0.0000E+00  2.2176E-02  1.1456E-01  2.7535E-01  7.8135E-02  3.4471E-02  0.0000E+00  1.0882E-01  6.8618E-02
 10  0.0000E+00  2.6681E-02  3.5075E-01  1.5664E-01  0.0000E+00  0.0000E+00  7.4138E-02  6.2072E-02  7.9607E-02
 11  6.6977E+00  4.7026E-02  2.4088E-02  3.6041E-01  0.0000E+00  1.9413E-01  0.0000E+00  4.2468E-01  0.0000E+00
 12  0.0000E+00  9.0633E-02  0.0000E+00  2.1628E-01  9.7334E-02  2.1811E+00  7.6684E-02  0.0000E+00  2.5712E-01
 13  1.3543E+01  3.2480E-01  1.8258E+00  1.6505E+00  2.2306E-01  1.8386E+00  0.0000E+00  8.4178E-01  0.0000E+00
 14  0.0000E+00  7.9894E-01  1.7172E+00  0.0000E+00  2.2490E+00  0.0000E+00  0.0000E+00  3.5978E+00  1.5047E+01
 15  0.0000E+00  1.3989E+00  7.3764E-01  4.3705E-01  4.4188E-01  0.0000E+00  0.0000E+00  2.5264E-02  7.7136E-01
 16  0.0000E+00  1.6831E+00  0.0000E+00  0.0000E+00  3.1398E-01  0.0000E+00  7.1884E+00  0.0000E+00  0.0000E+00
 17  0.0000E+00  3.5398E+00  2.0909E+01  0.0000E+00  4.1059E+00  3.7027E+00  1.7474E+01  6.2586E+00  0.0000E+00
 18  0.0000E+00  2.1041E-02  1.9584E-02  0.0000E+00  1.2497E-02  9.4801E-03  2.3930E-02  3.1707E-02  3.6104E-02
 19  3.4175E-01  2.0390E-03  2.0952E-02  0.0000E+00  7.2983E-03  1.5432E-02  2.3707E-03  0.0000E+00  1.9707E-03
 20  0.0000E+00  3.6016E-03  0.0000E+00  1.3032E-02  4.4952E-03  0.0000E+00  1.5503E-02  5.9672E-03  6.6099E-03
 21  0.0000E+00  4.9715E-03  2.3207E-02  0.0000E+00  1.5893E-03  1.1133E-02  1.9420E-02  5.7488E-03  1.7476E-02
 22  0.0000E+00  5.2088E-03  0.0000E+00  0.0000E+00  3.5755E-02  0.0000E+00  1.2081E-02  4.1891E-02  0.0000E+00
 23  0.0000E+00  1.0713E-02  9.5042E-03  0.0000E+00  6.9258E-02  9.4049E-03  9.7110E-03  0.0000E+00  2.0363E-02
 24  0.0000E+00  1.0388E-02  6.8577E-04  5.1861E-02  4.3002E-02  9.3745E-02  0.0000E+00  8.7326E-03  0.0000E+00
 25  0.0000E+00  1.9888E-02  1.6351E-02  3.6061E-02  1.0737E-01  4.5710E-02  0.0000E+00  5.0182E-02  1.0025E-01
 26  6.1473E-02  3.2222E-02  0.0000E+00  0.0000E+00  1.0123E-02  1.7643E-01  3.3068E-02  5.7811E-02  3.4320E-02
 27  1.7160E+00  8.7806E-02  1.0311E+00  0.0000E+00  8.6027E-02  1.0375E-01  6.0280E-01  6.2908E-02  8.7099E-02
 28  6.6424E+00  1.9044E-01  9.0476E-01  0.0000E+00  5.4917E-01  1.3110E+00  0.0000E+00  5.6801E-01  1.1707E-01
 29  0.0000E+00  3.8856E-01  6.0606E-01  9.6552E-01  1.3217E+00  2.7797E+00  7.5677E-01  0.0000E+00  4.4381E-01
 30  8.5089E-02  6.1709E-01  0.0000E+00  0.0000E+00  9.9397E-01  5.4858E+00  3.1580E+00  9.2078E+00  0.0000E+00
 31  0.0000E+00  1.2820E+00  4.2993E+00  0.0000E+00  1.3019E+00  8.6171E+00  2.6929E+00  1.7631E+00  3.2576E+00
 32  0.0000E+00  2.6388E+00  0.0000E+00  0.0000E+00  8.7711E+00  3.1747E-01  4.5647E+00  7.8262E+00  1.4832E+01
 33  0.0000E+00  3.4385E+00  0.0000E+00  1.3485E+01  8.7082E+00  1.9003E+01  1.6996E+00  7.5666E+00  9.2741E+00
 34  0.0000E+00  3.8013E+00  0.0000E+00  1.1525E+01  0.0000E+00  0.0000E+00  4.5627E+00  3.6387E+00  8.8719E+00
 35  0.0000E+00  1.5912E-02  2.6316E-02  1.2245E-01  2.0896E-02  0.0000E+00  4.2025E-02  3.6547E-02  0.0000E+00
 36  2.6101E-02  2.7278E-03  1.6642E-02  2.4962E-02  0.0000E+00  1.2300E-02  2.8729E-03  2.6716E-03  7.2837E-03
 37  0.0000E+00  2.5837E-03  0.0000E+00  2.0248E-03  0.0000E+00  4.3160E-02  6.9228E-03  0.0000E+00  5.0172E-02
 38  1.2789E+01  8.0203E-03  2.5926E-03  6.2241E-04  0.0000E+00  6.2416E-02  3.6905E-02  3.3358E-02  7.2966E-03
 39  1.6219E-01  1.2472E-02  0.0000E+00  0.0000E+00  2.9147E-02  8.1865E-02  3.5887E-02  7.1799E-03  9.7258E-03
 40  0.0000E+00  1.5898E-02  0.0000E+00  1.3550E-01  0.0000E+00  0.0000E+00  1.8175E-02  8.6893E-02  6.7807E-02
 41  1.5861E-02  3.3879E-02  1.4653E-01  6.4859E-02  7.4917E-02  3.1012E-01  1.5056E-01  8.4241E-03  0.0000E+00
 42  3.8812E+00  5.6837E-02  1.1792E-01  8.9297E-02  1.8844E-01  2.9109E-01  3.4319E-01  0.0000E+00  2.5400E-01
 43  0.0000E+00  5.4307E-02  1.6483E-01  2.5609E-01  1.9195E-01  4.5176E-01  6.2019E-02  0.0000E+00  1.0097E+00
 44  0.0000E+00  1.2401E-01  1.0772E-01  2.5528E-01  4.3739E-03  1.9189E+00  2.1597E-02  0.0000E+00  0.0000E+00
 45  0.0000E+00  3.1459E-01  7.8779E-01  8.2849E-01  2.8564E-02  1.4261E-02  5.0344E-01  1.3274E+00  1.7822E+00
 46  0.0000E+00  3.0236E-01  0.0000E+00  7.1894E-01  0.0000E+00  4.9777E+00  0.0000E+00  0.0000E+00  1.2629E+00
 47  0.0000E+00  8.1330E-01  0.0000E+00  1.7378E+00  0.0000E+00  0.0000E+00  4.1875E+00  2.3298E+00  0.0000E+00
 48  0.0000E+00  2.3891E+00  5.4056E-01  4.3075E+00  0.0000E+00  9.2097E+00  9.2733E+00  1.1852E+00  5.2964E+00
 49  0.0000E+00  4.1917E+00  0.0000E+00  1.7615E+01  0.0000E+00  0.0000E+00  0.0000E+00  7.3322E+00  9.6314E+00
 50  0.0000E+00  1.9464E+01  1.4571E+01  1.8885E+01  0.0000E+00  1.5347E+01  3.3489E+01  6.7556E+00  0.0000E+00
 51  0.0000E+00  1.7777E-02  3.1200E-02  0.0000E+00  1.5864E-03  2.0571E-02  1.0190E-02  3.0863E-02  3.2755E-02
 52  0.0000E+00  2.5782E-03  6.3375E-03  3.1774E-03  4.8023E-03  1.1740E-02  4.7547E-03  2.5358E-02  1.6651E-02
 53  1.5876E-03  2.3500E-03  1.5519E-02  5.2452E-04  1.6776E-03  3.8402E-02  1.5622E-02  0.0000E+00  1.9469E-03
 54  0.0000E+00  6.1416E-03  2.0819E-02  2.6897E-02  8.0701E-03  7.4507E-03  1.8450E-02  0.0000E+00  0.0000E+00
 55  0.0000E+00  9.2809E-03  2.0020E-02  1.5231E-01  7.3289E-02  7.4226E-02  0.0000E+00  1.8666E-02  2.9146E-02
 56  2.1751E+00  1.2665E-02  0.0000E+00  0.0000E+00  0.0000E+00  4.5278E-02  0.0000E+00  0.0000E+00  9.3650E-03
 57  2.1583E+00  2.4888E-02  6.8889E-02  2.1187E-02  9.3317E-02  1.9980E-01  9.3789E-02  1.7175E-02  0.0000E+00
 58  3.0036E+00  4.5958E-02  1.1114E-01  1.3746E-01  1.3860E-02  8.8361E-01  1.4604E-01  1.0513E-01  2.7013E-01
 59  0.0000E+00  8.1044E-02  1.3442E-01  6.2594E-01  1.9080E-01  5.4185E-01  0.0000E+00  0.0000E+00  3.0603E-01
 60  3.2147E-01  2.4385E-01  0.0000E+00  9.0527E-01  3.7196E-01  2.4093E-01  0.0000E+00  1.3684E+00  1.2258E-01
 61  3.0844E+01  5.9120E-01  8.8077E-01  1.4261E+00  1.7313E+00  4.3953E+00  1.8399E+00  4.9170E-01  3.0784E+00
 62  0.0000E+00  7.8087E-01  1.8022E+00  2.0101E+00  2.8031E-01  0.0000E+00  0.0000E+00  3.6438E+00  4.6928E+00
 63  0.0000E+00  9.2174E-01  3.2633E-01  3.2048E+00  7.0714E-02  9.0244E+00  2.7811E+00  2.2752E-01  9.0665E+00
 64  1.3665E+01  3.3226E+01  0.0000E+00  0.0000E+00  2.5469E+00  5.2041E+00  3.7998E+00  2.0171E+00  9.4332E+00
 65  0.0000E+00  6.0833E+00  1.6560E+01  0.0000E+00  6.1253E+00  0.0000E+00  0.0000E+00  2.5873E+01  0.0000E+00
 66  0.0000E+00  9.5855E+00  3.0834E+01  1.7082E+01  5.8279E+01  0.0000E+00  0.0000E+00  4.7353E+00  0.0000E+00

# AV, chi2 & Mass for <> & i_chain = 1 ...  7 solutions
AV       1.2643      1.1320      0.8494      0.9031      0.7550      0.2168      0.6327      0.3290      0.2224
chi2 1.4094E-05  2.5504E-04  4.8096E-05  5.7426E-05  6.9907E-05  2.8630E-05  5.3429E-05  4.2312E-05  3.0637E-05
Mass 1.5959E-14  6.3806E-13  2.2378E-13  2.0277E-13  2.8183E-13  4.4949E-14  1.7522E-13  1.1240E-13  7.1901E-14
   0.00                                  [v0_min (km/s) before EX0s...]
  16.03                                  [vd_min (km/s) before EX0s...]


## Synthetic spectrum (Best Model) ##l_obs f_obs f_syn wei
 3478    [Nl_obs]
 3741.00    0.24502   0.73729    0.000
 3742.00    0.72405   0.74021    0.000
 3743.00    1.18979   0.73388    0.000
 3744.00    1.85342   0.72064    0.000
 3745.00    2.63235   0.69834   -1.000
 3746.00    2.33344   0.66802   -1.000
 3747.00    1.48720   0.63086   -1.000
 3748.00    1.29651   0.58020   -1.000
 3749.00    1.39408   0.52390   -1.000
 3750.00    1.27847   0.49772   -1.000
 3751.00    1.08238   0.52453   -1.000
 3752.00    1.14889   0.58074   -1.000
 3753.00    1.29955   0.63478   -1.000
 3754.00    1.10685   0.67807   -1.000
 3755.00    0.82213   0.70854   -1.000
 3756.00    0.36217   0.72863   -1.000
 3757.00   -0.13626   0.73913    0.000
 3758.00    0.29405   0.74469   -1.000
 3759.00    0.88650   0.74886   -1.000
 3760.00    0.35227   0.75476   -1.000
 3761.00   -0.33162   0.75972    0.000
 3762.00   -0.59959   0.75811    0.000
 3763.00   -0.82848   0.75177    0.000
 3764.00    0.30037   0.74179   -1.000
 3765.00    1.50754   0.72435   -1.000
 3766.00    1.24493   0.69420   -1.000
 3767.00    0.94225   0.65500   -1.000
 3768.00    0.01106   0.60885   -1.000
 3769.00   -0.87157   0.55361    0.000
 3770.00   -0.57445   0.50495    0.000
 3771.00   -0.30937   0.49953    0.000
 3772.00   -0.46428   0.54457    0.000
 3773.00   -0.54624   0.60452    0.000
 3774.00    0.01222   0.65470    0.028
 3775.00    0.56422   0.69378    0.028
 3776.00    1.07437   0.72359    0.029
 3777.00    1.34093   0.74610    0.029
 3778.00    0.37468   0.76259    0.029
 3779.00   -0.34715   0.77914    0.000
 3780.00   -0.06852   0.79697    0.000
 3781.00    0.18951   0.80884    0.030
 3782.00    0.37773   0.81324    0.030
 3783.00    0.71212   0.81429    0.030
 3784.00    1.46460   0.81078    0.031
 3785.00    1.73853   0.80464    0.031
 3786.00    0.84326   0.79845    0.030
 3787.00    0.35722   0.79234    0.030
 3788.00    0.73371   0.78484    0.030
 3789.00    0.84408   0.77561    0.029
 3790.00    0.46702   0.76106    0.029
 3791.00    0.17952   0.74128    0.028
 3792.00    0.03540   0.72048    0.028
 3793.00   -0.02238   0.69376    0.000
 3794.00    0.04111   0.65347    0.027
 3795.00    0.15348   0.60195    0.027
 3796.00    0.32625   0.54246    0.027
 3797.00    0.60781   0.48554    0.027
 3798.00    1.00790   0.46377    0.027
 3799.00    1.20857   0.49800    0.026
 3800.00    1.21761   0.56303    0.027
 3801.00    0.74783   0.62406    0.027
 3802.00   -0.12771   0.67065    0.000
 3803.00   -0.46747   0.70770    0.000
 3804.00   -0.40741   0.73417    0.000
 3805.00    0.17593   0.74278    0.026
 3806.00    1.10230   0.74127    0.026
 3807.00    1.58542   0.75590    0.026
 3808.00    1.81419   0.78468    0.026
 3809.00    1.70957   0.80567    0.026
 3810.00    1.43830   0.81715    0.026
 3811.00    0.74265   0.82265    0.026
 3812.00   -0.13652   0.82156    0.000
 3813.00    0.21903   0.81588    0.026
 3814.00    1.03249   0.81067    0.026
 3815.00    0.94309   0.80753    0.027
 3816.00    0.56987   0.80456    0.027
 3817.00    0.76642   0.79434    0.027
 3818.00    1.11243   0.75948    0.027
 3819.00    0.54351   0.70474    0.027
 3820.00   -0.22145   0.69001    0.000
 3821.00   -0.23135   0.73158    0.000
 3822.00   -0.11311   0.77467    0.000
 3823.00   -0.02601   0.79124    0.000
 3824.00    0.05708   0.78706    0.026
 3825.00    0.53629   0.77672    0.026
 3826.00    1.05106   0.76692    0.026
 3827.00    0.90753   0.75535    0.026
 3828.00    0.72862   0.74036    0.026
 3829.00    0.49864   0.72026    0.025
 3830.00    0.27350   0.69450    0.025
 3831.00    0.54461   0.65913    0.025
 3832.00    0.80834   0.61105    0.026
 3833.00    0.90829   0.55391    0.025
 3834.00    1.00472   0.49302    0.025
 3835.00    1.05745   0.45075    0.025
 3836.00    1.09741   0.46029    0.025
 3837.00    1.02943   0.50956    0.025
 3838.00    0.91363   0.56487    0.025
 3839.00    0.49706   0.61727    0.025
 3840.00    0.16109   0.66298    0.025
 3841.00    0.22285   0.69932    0.024
 3842.00    0.32482   0.72717    0.024
 3843.00    0.58778   0.75002    0.025
 3844.00    0.75814   0.76815    0.025
 3845.00    0.62069   0.78161    0.025
 3846.00    0.60391   0.79134    0.025
 3847.00    0.92599   0.79930    0.000
 3848.00    1.22780   0.80490    0.000
 3849.00    1.48093   0.80678    0.000
 3850.00    1.54396   0.80514    0.000
 3851.00    1.21274   0.80793    0.000
 3852.00    1.00701   0.81752    0.000
 3853.00    1.02759   0.82236    0.000
 3854.00    1.19614   0.81942    0.000
 3855.00    1.59805   0.81192    0.000
 3856.00    1.55936   0.80515    0.000
 3857.00    0.91075   0.81219    0.000
 3858.00    0.38871   0.82180    0.000
 3859.00    0.02092   0.82013    0.000
 3860.00    0.22590   0.81388    0.000
 3861.00    1.04615   0.81417    0.000
 3862.00    1.22466   0.81598    0.000
 3863.00    0.79512   0.81335    0.000
 3864.00    0.53726   0.81139    0.000
 3865.00    0.42280   0.81283    0.000
 3866.00    0.60874   0.80941    0.000
 3867.00    1.01561   0.79775    0.000
 3868.00    1.27752   0.79931    0.000
 3869.00    1.44578   0.81498    0.000
 3870.00    1.09426   0.81402    0.000
 3871.00    0.44898   0.79349    0.000
 3872.00    0.03061   0.77690    0.000
 3873.00   -0.27614   0.78356    0.000
 3874.00   -0.06875   0.79545    0.000
 3875.00    0.35726   0.79081    0.000
 3876.00    0.99734   0.77570    0.000
 3877.00    1.71540   0.76842    0.000
 3878.00    1.61665   0.76506    0.000
 3879.00    1.26611   0.76099    0.000
 3880.00    0.60012   0.75630    0.000
 3881.00   -0.14685   0.74151    0.000
 3882.00    0.14091   0.71677    0.021
 3883.00    0.64498   0.69558    0.021
 3884.00    1.14532   0.67448    0.022
 3885.00    1.64505   0.63854    0.023
 3886.00    1.32660   0.58670    0.023
 3887.00    0.90682   0.52599    0.023
 3888.00    0.92172   0.46428    0.023
 3889.00    0.97381   0.43476    0.023
 3890.00    0.97126   0.46660    0.023
 3891.00    0.96599   0.53275    0.023
 3892.00    0.93123   0.59447    0.023
 3893.00    0.89880   0.64132    0.023
 3894.00    1.04855   0.67593    0.023
 3895.00    1.20411   0.70186    0.023
 3896.00    1.47852   0.72389    0.023
 3897.00    1.69330   0.74285    0.023
 3898.00    1.20288   0.75155    0.022
 3899.00    0.77036   0.75454    0.022
 3900.00    0.80943   0.76547    0.021
 3901.00    0.76872   0.78280    0.021
 3902.00    0.24067   0.79485    0.020
 3903.00   -0.17399   0.79985    0.000
 3904.00   -0.04298   0.80367    0.000
 3905.00    0.17560   0.80399    0.018
 3906.00    0.73709   0.80310    0.019
 3907.00    1.07065   0.80887    0.019
 3908.00    0.66128   0.81812    0.019
 3909.00    0.36717   0.82625    0.019
 3910.00    0.39092   0.82797    0.020
 3911.00    0.40589   0.82173    0.020
 3912.00    0.40015   0.81616    0.020
 3913.00    0.40263   0.81912    0.020
 3914.00    0.42190   0.82392    0.021
 3915.00    0.44720   0.82721    0.021
 3916.00    0.48324   0.82731    0.021
 3917.00    0.57798   0.82142    0.021
 3918.00    0.76393   0.80429    0.021
 3919.00    0.95749   0.78133    0.022
 3920.00    1.16141   0.76996    0.021
 3921.00    1.22492   0.78025    0.021
 3922.00    1.11975   0.80081    0.021
 3923.00    1.06524   0.80739    0.021
 3924.00    1.06437   0.80050    0.021
 3925.00    1.01672   0.79031    0.021
 3926.00    0.92536   0.77483    0.021
 3927.00    0.86700   0.77065    0.021
 3928.00    0.83581   0.77911    0.021
 3929.00    0.89749   0.78485    0.021
 3930.00    1.02649   0.78659    0.021
 3931.00    0.60183   0.78165    0.021
 3932.00   -0.17519   0.76518    0.000
 3933.00   -0.13647   0.74205    0.000
 3934.00    0.35623   0.73643    0.022
 3935.00    0.43044   0.75295    0.022
 3936.00    0.30207   0.77182    0.022
 3937.00    0.25165   0.78602    0.022
 3938.00    0.23381   0.79557    0.022
 3939.00    0.43380   0.80179    0.022
 3940.00    0.71170   0.80745    0.022
 3941.00    0.94164   0.80940    0.022
 3942.00    1.15708   0.80812    0.022
 3943.00    1.06570   0.80365    0.022
 3944.00    0.89726   0.79545    0.022
 3945.00    0.69602   0.79381    0.022
 3946.00    0.48810   0.80179    0.022
 3947.00    1.05361   0.80619    0.022
 3948.00    1.74297   0.80454    0.022
 3949.00    1.30216   0.80440    0.022
 3950.00    0.72642   0.80641    0.022
 3951.00    0.62790   0.80640    0.022
 3952.00    0.56825   0.80052    0.022
 3953.00    0.87194   0.79190    0.022
 3954.00    1.19233   0.78452    0.022
 3955.00    0.87775   0.78057    0.021
 3956.00    0.55872   0.77802    0.021
 3957.00    0.43013   0.77496    0.021
 3958.00    0.31270   0.77195    0.020
 3959.00    0.40681   0.76647    0.021
 3960.00    0.49275   0.75217    0.000
 3961.00    0.48669   0.72787    0.000
 3962.00    0.49374   0.70537    0.000
 3963.00    0.60384   0.68310    0.000
 3964.00    0.69657   0.64798    0.000
 3965.00    0.68630   0.61470    0.000
 3966.00    0.68122   0.58929    0.000
 3967.00    0.70055   0.54970    0.000
 3968.00    0.73221   0.49163    0.000
 3969.00    0.81113   0.43318    0.000
 3970.00    0.88934   0.40722    0.000
 3971.00    0.96525   0.43726    0.000
 3972.00    0.93554   0.49651    0.000
 3973.00    0.61980   0.55149    0.000
 3974.00    0.33939   0.60168    0.000
 3975.00    0.14098   0.64655    0.000
 3976.00    0.15205   0.67970    0.000
 3977.00    0.58385   0.70409    0.000
 3978.00    0.81235   0.72428    0.000
 3979.00    0.68523   0.74112    0.000
 3980.00    0.60671   0.75478    0.000
 3981.00    0.60259   0.76263    0.021
 3982.00    0.54318   0.76228    0.021
 3983.00    0.40940   0.76332    0.021
 3984.00    0.41537   0.77439    0.021
 3985.00    0.58685   0.78762    0.021
 3986.00    0.89869   0.79509    0.021
 3987.00    1.35711   0.80155    0.021
 3988.00    1.38940   0.80733    0.021
 3989.00    1.02920   0.80854    0.021
 3990.00    0.92948   0.80774    0.021
 3991.00    1.04126   0.81018    0.021
 3992.00    1.19274   0.81524    0.021
 3993.00    1.37257   0.81693    0.021
 3994.00    1.37468   0.80936    0.021
 3995.00    1.26537   0.80206    0.020
 3996.00    1.03964   0.80452    0.020
 3997.00    0.75012   0.80858    0.020
 3998.00    0.75259   0.80894    0.020
 3999.00    0.89414   0.81323    0.020
 4000.00    1.16185   0.81965    0.020
 4001.00    1.48141   0.82167    0.020
 4002.00    1.33332   0.81967    0.020
 4003.00    1.02099   0.81709    0.020
 4004.00    1.01192   0.81201    0.020
 4005.00    1.09271   0.80203    0.020
 4006.00    1.29561   0.79736    0.020
 4007.00    1.52851   0.79500    0.020
 4008.00    1.00971   0.78022    0.019
 4009.00    0.34145   0.76336    0.019
 4010.00    0.60974   0.77146    0.019
 4011.00    1.02354   0.79565    0.019
 4012.00    1.05736   0.81103    0.019
 4013.00    1.04749   0.81843    0.019
 4014.00    1.04278   0.82225    0.019
 4015.00    1.03847   0.82500    0.019
 4016.00    1.05597   0.82608    0.019
 4017.00    1.07439   0.82379    0.019
 4018.00    1.17227   0.82336    0.019
 4019.00    1.26608   0.82676    0.019
 4020.00    1.15003   0.82763    0.019
 4021.00    1.02319   0.82110    0.019
 4022.00    0.70623   0.81094    0.019
 4023.00    0.42817   0.79579    0.019
 4024.00    0.56863   0.76502    0.019
 4025.00    0.68943   0.71796    0.019
 4026.00    0.66087   0.68740    0.019
 4027.00    0.68269   0.71306    0.019
 4028.00    0.99510   0.76491    0.019
 4029.00    1.21333   0.79432    0.019
 4030.00    1.00000   0.80022    0.019
 4031.00    0.86104   0.79781    0.019
 4032.00    1.00106   0.79676    0.019
 4033.00    1.13646   0.79592    0.019
 4034.00    1.25736   0.79612    0.019
 4035.00    1.30345   0.79967    0.019
 4036.00    1.15053   0.81209    0.019
 4037.00    1.05593   0.82625    0.019
 4038.00    1.09452   0.83214    0.019
 4039.00    1.07156   0.83009    0.019
 4040.00    0.92694   0.82341    0.019
 4041.00    0.78117   0.81645    0.019
 4042.00    0.63342   0.81529    0.020
 4043.00    0.69355   0.81337    0.020
 4044.00    1.06728   0.80412    0.020
 4045.00    1.33224   0.79480    0.020
 4046.00    1.45301   0.79348    0.020
 4047.00    1.40103   0.80277    0.020
 4048.00    1.14738   0.81255    0.020
 4049.00    0.94099   0.81815    0.020
 4050.00    0.78326   0.82227    0.020
 4051.00    0.61673   0.82441    0.020
 4052.00    0.44222   0.82139    0.019
 4053.00    0.39619   0.81488    0.019
 4054.00    0.45302   0.80856    0.019
 4055.00    0.45535   0.80613    0.019
 4056.00    0.41929   0.80747    0.019
 4057.00    0.39847   0.80702    0.019
 4058.00    0.38705   0.80563    0.019
 4059.00    0.55482   0.80553    0.019
 4060.00    0.81926   0.80445    0.019
 4061.00    0.80263   0.80316    0.019
 4062.00    0.65426   0.79901    0.019
 4063.00    0.79293   0.79100    0.019
 4064.00    1.04756   0.78956    0.019
 4065.00    1.27526   0.79825    0.018
 4066.00    1.49368   0.80348    0.018
 4067.00    1.29586   0.80106    0.018
 4068.00    0.97716   0.79619    0.018
 4069.00    0.88018   0.78844    0.018
 4070.00    0.83644   0.77870    0.018
 4071.00    0.94738   0.77022    0.018
 4072.00    1.08829   0.76807    0.018
 4073.00    1.14432   0.77940    0.018
 4074.00    1.18756   0.78538    0.018
 4075.00    1.19924   0.77118    0.018
 4076.00    1.20744   0.75883    0.018
 4077.00    0.83960   0.76156    0.018
 4078.00    0.44422   0.76882    0.018
 4079.00    0.40986   0.77720    0.018
 4080.00    0.38931   0.78907    0.018
 4081.00    0.63722   0.79659    0.018
 4082.00    0.87796   0.79437    0.018
 4083.00    0.79254   0.78569    0.018
 4084.00    0.71299   0.77473    0.018
 4085.00    0.73024   0.76911    0.018
 4086.00    0.76049   0.77115    0.018
 4087.00    0.92442   0.77127    0.018
 4088.00    1.05964   0.76344    0.018
 4089.00    0.98423   0.75601    0.018
 4090.00    0.93684   0.75778    0.018
 4091.00    1.04670   0.75764    0.019
 4092.00    1.11475   0.74527    0.000
 4093.00    0.99575   0.73033    0.000
 4094.00    0.84183   0.71810    0.000
 4095.00    0.55971   0.69431    0.000
 4096.00    0.49374   0.65916    0.000
 4097.00    1.09252   0.62680    0.000
 4098.00    1.40163   0.59824    0.000
 4099.00    0.95364   0.56144    0.000
 4100.00    0.59437   0.50537    0.000
 4101.00    0.43437   0.44547    0.000
 4102.00    0.43137   0.42971    0.000
 4103.00    0.73392   0.47254    0.000
 4104.00    0.89492   0.53216    0.000
 4105.00    0.81576   0.58413    0.000
 4106.00    0.75914   0.62867    0.000
 4107.00    0.73604   0.66244    0.000
 4108.00    0.73674   0.68539    0.000
 4109.00    0.76853   0.70108    0.000
 4110.00    0.77658   0.71079    0.000
 4111.00    0.75728   0.71884    0.000
 4112.00    0.73884   0.73099    0.000
 4113.00    0.72126   0.74533    0.018
 4114.00    0.62940   0.75462    0.018
 4115.00    0.47101   0.75720    0.018
 4116.00    0.56550   0.76011    0.018
 4117.00    0.85949   0.76633    0.018
 4118.00    0.92382   0.76207    0.018
 4119.00    0.82878   0.74388    0.017
 4120.00    0.88206   0.72586    0.018
 4121.00    1.02561   0.72628    0.018
 4122.00    0.97261   0.74864    0.018
 4123.00    0.81520   0.77349    0.018
 4124.00    0.56074   0.78742    0.017
 4125.00    0.26153   0.79574    0.017
 4126.00    0.47944   0.79543    0.017
 4127.00    0.90268   0.78315    0.017
 4128.00    1.03494   0.77005    0.017
 4129.00    1.06872   0.76865    0.017
 4130.00    1.18974   0.76671    0.017
 4131.00    1.33557   0.75953    0.017
 4132.00    1.21091   0.75816    0.017
 4133.00    1.02274   0.76516    0.017
 4134.00    0.75107   0.77642    0.017
 4135.00    0.46365   0.78863    0.017
 4136.00    0.67961   0.79527    0.017
 4137.00    0.96909   0.79474    0.017
 4138.00    0.94655   0.79373    0.017
 4139.00    0.89086   0.79540    0.017
 4140.00    0.81879   0.79490    0.017
 4141.00    0.74559   0.78583    0.017
 4142.00    0.66059   0.75574    0.017
 4143.00    0.57518   0.71153    0.017
 4144.00    0.36558   0.69791    0.017
 4145.00    0.17096   0.73089    0.017
 4146.00    0.47973   0.76724    0.017
 4147.00    0.77688   0.78471    0.017
 4148.00    0.89450   0.79019    0.017
 4149.00    0.99732   0.78658    0.017
 4150.00    0.95438   0.78236    0.017
 4151.00    0.87615   0.78423    0.017
 4152.00    0.54729   0.78261    0.017
 4153.00    0.29443   0.77545    0.017
 4154.00    0.45642   0.77601    0.017
 4155.00    0.63239   0.78084    0.017
 4156.00    0.86951   0.78222    0.017
 4157.00    1.05561   0.78570    0.017
 4158.00    1.05817   0.79359    0.017
 4159.00    1.07852   0.79975    0.017
 4160.00    1.15258   0.79991    0.017
 4161.00    1.07214   0.79696    0.017
 4162.00    0.59495   0.79346    0.017
 4163.00    0.28536   0.79234    0.017
 4164.00    0.34603   0.79131    0.017
 4165.00    0.45220   0.79006    0.017
 4166.00    0.64550   0.78943    0.017
 4167.00    0.82455   0.78605    0.017
 4168.00    0.97974   0.77771    0.017
 4169.00    1.04856   0.77477    0.017
 4170.00    0.99086   0.78148    0.017
 4171.00    0.90832   0.78214    0.017
 4172.00    0.79377   0.77205    0.017
 4173.00    0.67328   0.76538    0.017
 4174.00    0.54604   0.76803    0.018
 4175.00    0.45157   0.77424    0.018
 4176.00    0.38990   0.77767    0.017
 4177.00    0.52105   0.77738    0.017
 4178.00    0.82241   0.77619    0.017
 4179.00    0.86340   0.78009    0.017
 4180.00    0.70189   0.78803    0.017
 4181.00    0.75023   0.79046    0.017
 4182.00    0.94210   0.78739    0.017
 4183.00    1.06609   0.78666    0.017
 4184.00    1.14941   0.78580    0.017
 4185.00    0.91385   0.78402    0.017
 4186.00    0.51149   0.78146    0.017
 4187.00    0.38065   0.77715    0.017
 4188.00    0.37297   0.77563    0.017
 4189.00    0.52374   0.77475    0.017
 4190.00    0.73635   0.77569    0.017
 4191.00    0.85665   0.78187    0.017
 4192.00    0.94630   0.78907    0.017
 4193.00    1.05287   0.79630    0.017
 4194.00    1.16416   0.79787    0.017
 4195.00    1.00727   0.79167    0.017
 4196.00    0.78885   0.78397    0.016
 4197.00    0.60094   0.77841    0.016
 4198.00    0.41865   0.77211    0.017
 4199.00    0.47710   0.76679    0.016
 4200.00    0.56958   0.76677    0.016
 4201.00    0.76761   0.76844    0.016
 4202.00    0.97639   0.77022    0.016
 4203.00    1.07755   0.77435    0.016
 4204.00    1.17170   0.77889    0.016
 4205.00    1.02721   0.78123    0.016
 4206.00    0.87548   0.78542    0.016
 4207.00    0.78661   0.79037    0.016
 4208.00    0.70026   0.79382    0.016
 4209.00    0.68767   0.79314    0.016
 4210.00    0.68179   0.78987    0.016
 4211.00    0.77346   0.78915    0.016
 4212.00    0.86447   0.79088    0.016
 4213.00    0.94919   0.79092    0.016
 4214.00    0.98872   0.78679    0.016
 4215.00    0.71755   0.77687    0.016
 4216.00    0.53115   0.77279    0.016
 4217.00    0.79535   0.78049    0.016
 4218.00    1.03699   0.78948    0.016
 4219.00    1.18229   0.79315    0.016
 4220.00    1.25302   0.79238    0.016
 4221.00    1.06098   0.78900    0.015
 4222.00    0.94064   0.78132    0.015
 4223.00    1.03264   0.77343    0.015
 4224.00    1.00198   0.76461    0.015
 4225.00    0.66179   0.75188    0.016
 4226.00    0.43624   0.73897    0.016
 4227.00    0.45978   0.73407    0.015
 4228.00    0.53450   0.74492    0.015
 4229.00    0.70571   0.76257    0.015
 4230.00    0.80823   0.77437    0.015
 4231.00    0.79766   0.77874    0.015
 4232.00    0.70059   0.77453    0.015
 4233.00    0.47864   0.76624    0.015
 4234.00    0.43160   0.76643    0.015
 4235.00    0.60664   0.77062    0.015
 4236.00    0.72751   0.76742    0.015
 4237.00    0.78778   0.76563    0.015
 4238.00    0.79495   0.77095    0.015
 4239.00    0.74971   0.77541    0.015
 4240.00    0.76853   0.77650    0.015
 4241.00    0.84311   0.77546    0.015
 4242.00    1.02295   0.77541    0.015
 4243.00    1.28349   0.78300    0.015
 4244.00    1.21776   0.79417    0.016
 4245.00    0.93215   0.79648    0.016
 4246.00    0.67656   0.78765    0.016
 4247.00    0.43869   0.77891    0.016
 4248.00    0.32317   0.77709    0.016
 4249.00    0.27066   0.77584    0.016
 4250.00    0.32009   0.76889    0.017
 4251.00    0.41502   0.76510    0.017
 4252.00    0.53474   0.76478    0.017
 4253.00    0.66397   0.75499    0.016
 4254.00    0.71478   0.74615    0.016
 4255.00    0.74003   0.75393    0.016
 4256.00    0.64374   0.76911    0.016
 4257.00    0.51428   0.77827    0.016
 4258.00    0.34381   0.77734    0.016
 4259.00    0.16414   0.77087    0.016
 4260.00    0.05308   0.76415    0.016
 4261.00   -0.04572   0.76266    0.000
 4262.00    0.08182   0.77109    0.016
 4263.00    0.24033   0.78388    0.016
 4264.00    0.09838   0.79131    0.017
 4265.00   -0.07292   0.78776    0.000
 4266.00    0.15489   0.76351    0.016
 4267.00    0.40710   0.73595    0.016
 4268.00    0.47975   0.74097    0.016
 4269.00    0.54793   0.76202    0.016
 4270.00    0.68837   0.76496    0.016
 4271.00    0.81908   0.75342    0.016
 4272.00    0.69280   0.74500    0.016
 4273.00    0.59405   0.74658    0.016
 4274.00    0.87362   0.74622    0.018
 4275.00    1.12358   0.74030    0.019
 4276.00    1.10468   0.74070    0.019
 4277.00    1.09336   0.75253    0.019
 4278.00    1.13251   0.76929    0.019
 4279.00    1.15379   0.77949    0.019
 4280.00    1.08257   0.77789    0.017
 4281.00    0.99364   0.77091    0.016
 4282.00    0.83082   0.76300   -2.000
 4283.00    0.74239   0.75741   -2.000
 4284.00    0.91080   0.75594   -2.000
 4285.00    0.96587   0.75692   -2.000
 4286.00    0.69150   0.76187   -2.000
 4287.00    0.51880   0.76602   -2.000
 4288.00    0.59826   0.75855   -2.000
 4289.00    0.65303   0.74359   -2.000
 4290.00    0.65499   0.73441   -2.000
 4291.00    0.66310   0.73978   -2.000
 4292.00    0.68264   0.75537   -2.000
 4293.00    0.75610   0.76443   -2.000
 4294.00    0.91704   0.75757   -2.000
 4295.00    0.94096   0.75297   -2.000
 4296.00    0.76998   0.75804   -2.000
 4297.00    0.66146   0.76109   -2.000
 4298.00    0.63112   0.75609    0.016
 4299.00    0.68577   0.74332    0.016
 4300.00    0.83417   0.73400    0.016
 4301.00    0.95779   0.73516    0.016
 4302.00    1.05730   0.73372    0.016
 4303.00    1.00443   0.72684    0.015
 4304.00    0.82082   0.72964    0.015
 4305.00    0.53345   0.73842    0.015
 4306.00    0.16766   0.73945    0.015
 4307.00    0.18410   0.73127    0.015
 4308.00    0.45437   0.72199    0.015
 4309.00    0.69412   0.72265    0.015
 4310.00    0.91611   0.73434    0.015
 4311.00    0.86444   0.74769    0.015
 4312.00    0.67407   0.75278    0.015
 4313.00    0.57912   0.74887    0.015
 4314.00    0.52604   0.74500    0.015
 4315.00    0.55081   0.75001    0.015
 4316.00    0.60491   0.76117    0.015
 4317.00    0.74180   0.76788    0.015
 4318.00    0.90516   0.76729    0.015
 4319.00    0.83677   0.76096    0.015
 4320.00    0.70644   0.75657    0.015
 4321.00    0.71852   0.75855    0.015
 4322.00    0.76175   0.76165    0.015
 4323.00    0.62479   0.75624    0.015
 4324.00    0.45648   0.73791    0.015
 4325.00    0.58260   0.71238    0.015
 4326.00    0.74766   0.70007    0.015
 4327.00    0.78535   0.71195    0.016
 4328.00    0.81115   0.73079    0.016
 4329.00    0.62769   0.73727    0.016
 4330.00    0.43228   0.72972    0.000
 4331.00    0.46496   0.71720    0.000
 4332.00    0.50476   0.70522    0.000
 4333.00    0.75300   0.69446    0.000
 4334.00    0.99462   0.68492    0.000
 4335.00    1.07701   0.67059    0.000
 4336.00    1.14293   0.63908    0.000
 4337.00    0.99433   0.58859    0.000
 4338.00    0.86141   0.53350    0.000
 4339.00    0.86558   0.47817    0.000
 4340.00    0.82048   0.43290    0.000
 4341.00    0.45721   0.43830    0.000
 4342.00    0.17500   0.49502    0.000
 4343.00    0.30179   0.55413    0.000
 4344.00    0.43741   0.59313    0.000
 4345.00    0.60906   0.62191    0.000
 4346.00    0.76291   0.64618    0.000
 4347.00    0.85649   0.66613    0.000
 4348.00    0.82021   0.68577    0.000
 4349.00    0.41335   0.70250    0.000
 4350.00    0.22722   0.70620    0.000
 4351.00    0.57925   0.69635    0.016
 4352.00    0.75617   0.69328    0.016
 4353.00    0.56473   0.70866    0.016
 4354.00    0.49577   0.72869    0.016
 4355.00    0.65071   0.74494    0.016
 4356.00    0.77101   0.75834    0.016
 4357.00    0.83596   0.76599    0.016
 4358.00    0.78758   0.76408    0.016
 4359.00    0.58030   0.75859    0.016
 4360.00    0.45235   0.75837    0.016
 4361.00    0.42225   0.76328    0.016
 4362.00    0.49279   0.77116    0.016
 4363.00    0.67278   0.77821    0.016
 4364.00    0.60485   0.78205    0.016
 4365.00    0.29909   0.78399    0.016
 4366.00    0.25319   0.77680    0.016
 4367.00    0.42710   0.76419    0.016
 4368.00    0.54222   0.75875    0.016
 4369.00    0.61355   0.76295    0.016
 4370.00    0.71106   0.76846    0.016
 4371.00    0.82572   0.77004    0.016
 4372.00    0.77894   0.76771    0.016
 4373.00    0.63969   0.76262    0.016
 4374.00    0.55227   0.75411    0.016
 4375.00    0.49070   0.74909    0.016
 4376.00    0.54821   0.75548    0.016
 4377.00    0.65712   0.76901    0.016
 4378.00    0.64523   0.77718    0.016
 4379.00    0.58863   0.77646    0.016
 4380.00    0.63470   0.77324    0.016
 4381.00    0.71297   0.76859    0.016
 4382.00    0.70214   0.75362    0.016
 4383.00    0.66799   0.72801    0.015
 4384.00    0.69945   0.71019    0.015
 4385.00    0.74493   0.71295    0.015
 4386.00    0.79251   0.71964    0.015
 4387.00    0.84046   0.70469    0.015
 4388.00    0.78026   0.69295    0.015
 4389.00    0.70625   0.71362    0.016
 4390.00    0.64425   0.73979    0.015
 4391.00    0.58333   0.75356    0.015
 4392.00    0.37362   0.76608    0.015
 4393.00    0.15599   0.77248    0.015
 4394.00    0.38751   0.76579    0.015
 4395.00    0.62802   0.75631    0.015
 4396.00    0.88401   0.76300    0.015
 4397.00    1.12071   0.78133    0.015
 4398.00    0.93346   0.78917    0.015
 4399.00    0.75235   0.78229    0.015
 4400.00    0.64715   0.77038    0.015
 4401.00    0.54453   0.76770    0.015
 4402.00    0.46366   0.77539    0.015
 4403.00    0.40127   0.77283    0.015
 4404.00    0.45469   0.75336    0.015
 4405.00    0.48406   0.73954    0.015
 4406.00    0.39509   0.74402    0.015
 4407.00    0.32147   0.75215    0.015
 4408.00    0.30911   0.75443    0.015
 4409.00    0.33262   0.76013    0.015
 4410.00    0.47504   0.77066    0.015
 4411.00    0.63226   0.77776    0.015
 4412.00    0.83093   0.78309    0.015
 4413.00    0.94634   0.78124    0.015
 4414.00    0.86222   0.75881    0.015
 4415.00    0.77704   0.73409    0.015
 4416.00    0.68967   0.72877    0.015
 4417.00    0.63888   0.73920    0.015
 4418.00    0.65395   0.75902    0.015
 4419.00    0.73294   0.77752    0.015
 4420.00    0.91255   0.78567    0.015
 4421.00    0.94903   0.78425    0.015
 4422.00    0.78774   0.77561    0.015
 4423.00    0.67662   0.77137    0.015
 4424.00    0.62652   0.77587    0.015
 4425.00    0.65285   0.77853    0.015
 4426.00    0.76115   0.77322    0.015
 4427.00    0.68028   0.76710    0.015
 4428.00    0.42049   0.76922    0.015
 4429.00    0.22103   0.77254    0.015
 4430.00    0.07189   0.76777    0.015
 4431.00    0.08270   0.76594    0.015
 4432.00    0.21093   0.77108    0.015
 4433.00    0.28437   0.76964    0.015
 4434.00    0.32248   0.75910    0.015
 4435.00    0.39528   0.74876    0.015
 4436.00    0.48764   0.74511    0.015
 4437.00    0.56033   0.75100    0.015
 4438.00    0.62337   0.76802    0.016
 4439.00    0.56509   0.78704    0.015
 4440.00    0.45533   0.79113    0.015
 4441.00    0.34683   0.77818    0.015
 4442.00    0.23878   0.76061    0.015
 4443.00    0.28251   0.75187    0.015
 4444.00    0.37292   0.75977    0.015
 4445.00    0.46195   0.77713    0.015
 4446.00    0.55063   0.78409    0.015
 4447.00    0.59682   0.77806    0.015
 4448.00    0.63416   0.77660    0.015
 4449.00    0.72774   0.78063    0.015
 4450.00    0.83057   0.78013    0.015
 4451.00    0.83775   0.77833    0.015
 4452.00    0.83314   0.77668    0.015
 4453.00    0.78466   0.77251    0.015
 4454.00    0.73245   0.76354    0.015
 4455.00    0.76662   0.75220    0.015
 4456.00    0.80505   0.75028    0.015
 4457.00    0.64282   0.75581    0.015
 4458.00    0.48182   0.75872    0.015
 4459.00    0.59842   0.75770    0.015
 4460.00    0.70957   0.75595    0.015
 4461.00    0.71024   0.75254    0.000
 4462.00    0.69853   0.75037    0.000
 4463.00    0.54143   0.75995    0.000
 4464.00    0.41843   0.77054    0.000
 4465.00    0.57202   0.76932    0.000
 4466.00    0.70786   0.76345    0.000
 4467.00    0.73564   0.75830    0.000
 4468.00    0.73181   0.74987    0.000
 4469.00    0.57631   0.73438    0.000
 4470.00    0.48094   0.70482    0.000
 4471.00    0.62039   0.67206    0.000
 4472.00    0.73426   0.68041    0.000
 4473.00    0.76494   0.73069    0.000
 4474.00    0.76671   0.76943    0.000
 4475.00    0.68891   0.78089    0.000
 4476.00    0.60187   0.78653    0.000
 4477.00    0.49307   0.79428    0.000
 4478.00    0.42994   0.79565    0.000
 4479.00    0.45983   0.78059    0.000
 4480.00    0.54094   0.74769    0.000
 4481.00    0.71288   0.72200    0.000
 4482.00    0.81396   0.73054    0.015
 4483.00    0.80516   0.76182    0.015
 4484.00    0.75560   0.78530    0.015
 4485.00    0.65056   0.79764    0.015
 4486.00    0.53665   0.80237    0.015
 4487.00    0.41211   0.79677    0.015
 4488.00    0.34985   0.78189    0.015
 4489.00    0.35342   0.76838    0.015
 4490.00    0.38541   0.76550    0.015
 4491.00    0.44390   0.77323    0.014
 4492.00    0.42230   0.78399    0.014
 4493.00    0.33487   0.78637    0.014
 4494.00    0.53666   0.77689    0.014
 4495.00    0.94774   0.76746    0.014
 4496.00    1.00565   0.76651    0.015
 4497.00    0.83922   0.77314    0.015
 4498.00    0.79533   0.78339    0.015
 4499.00    0.81950   0.79184    0.014
 4500.00    0.81111   0.79072    0.014
 4501.00    0.78697   0.78342    0.015
 4502.00    0.63778   0.78599    0.015
 4503.00    0.43642   0.80113    0.015
 4504.00    0.51659   0.81237    0.015
 4505.00    0.69725   0.81213    0.015
 4506.00    0.62137   0.80419    0.015
 4507.00    0.46813   0.79477    0.015
 4508.00    0.45601   0.79117    0.015
 4509.00    0.47924   0.79500    0.014
 4510.00    0.75047   0.80045    0.014
 4511.00    1.07212   0.79913    0.014
 4512.00    1.05989   0.78973    0.014
 4513.00    0.99439   0.78050    0.014
 4514.00    1.01980   0.77529    0.015
 4515.00    1.05600   0.77557    0.015
 4516.00    0.84464   0.78175    0.015
 4517.00    0.61324   0.78450    0.014
 4518.00    0.55284   0.78242    0.014
 4519.00    0.50021   0.78415    0.014
 4520.00    0.40672   0.79062    0.015
 4521.00    0.31729   0.79557    0.015
 4522.00    0.46107   0.78948    0.015
 4523.00    0.60326   0.77801    0.015
 4524.00    0.71547   0.77397    0.015
 4525.00    0.81193   0.77249    0.015
 4526.00    0.73186   0.76718    0.015
 4527.00    0.67537   0.75724    0.015
 4528.00    0.80337   0.74420    0.015
 4529.00    0.91133   0.73703    0.015
 4530.00    0.90084   0.74266    0.015
 4531.00    0.86673   0.75513    0.015
 4532.00    0.72208   0.76527    0.015
 4533.00    0.59508   0.76232    0.015
 4534.00    0.53556   0.74956    0.015
 4535.00    0.55397   0.74394    0.015
 4536.00    0.82088   0.75632    0.015
 4537.00    0.96831   0.77883    0.015
 4538.00    0.79289   0.79140    0.015
 4539.00    0.62126   0.78871    0.014
 4540.00    0.45841   0.77791    0.014
 4541.00    0.46626   0.76967    0.014
 4542.00    0.81630   0.77377    0.014
 4543.00    0.95595   0.78312    0.014
 4544.00    0.72830   0.78313    0.015
 4545.00    0.61052   0.77681    0.015
 4546.00    0.66061   0.77641    0.015
 4547.00    0.71081   0.77916    0.015
 4548.00    0.76114   0.77382    0.015
 4549.00    0.72245   0.76227    0.015
 4550.00    0.57850   0.76240    0.000
 4551.00    0.61100   0.76944    0.000
 4552.00    0.82740   0.76184    0.000
 4553.00    0.82664   0.75296    0.000
 4554.00    0.62623   0.75466    0.000
 4555.00    0.57782   0.75778    0.000
 4556.00    0.65259   0.76634    0.000
 4557.00    0.64254   0.78214    0.000
 4558.00    0.57198   0.79245    0.000
 4559.00    0.60460   0.79555    0.000
 4560.00    0.70178   0.79615    0.000
 4561.00    0.77744   0.79696    0.000
 4562.00    0.84135   0.79578    0.000
 4563.00    0.82054   0.78631    0.000
 4564.00    0.75947   0.77551    0.000
 4565.00    0.69309   0.77356    0.000
 4566.00    0.62452   0.77875    0.000
 4567.00    0.71374   0.78397    0.000
 4568.00    0.85824   0.78806    0.000
 4569.00    0.91535   0.79338    0.000
 4570.00    0.94663   0.79171    0.000
 4571.00    0.84633   0.77827    0.000
 4572.00    0.71380   0.77303    0.000
 4573.00    0.56792   0.78293    0.000
 4574.00    0.41939   0.78678    0.000
 4575.00    0.40257   0.78326    0.000
 4576.00    0.40614   0.78626    0.000
 4577.00    0.45636   0.79093    0.000
 4578.00    0.51192   0.78793    0.000
 4579.00    0.52082   0.77763    0.000
 4580.00    0.52615   0.76870    0.000
 4581.00    0.49659   0.76883    0.000
 4582.00    0.46558   0.77367    0.000
 4583.00    0.64071   0.77465    0.000
 4584.00    0.81047   0.77366    0.000
 4585.00    0.67312   0.77519    0.000
 4586.00    0.54529   0.77626    0.000
 4587.00    0.58391   0.77860    0.000
 4588.00    0.60626   0.78539    0.000
 4589.00    0.45468   0.79065    0.000
 4590.00    0.35224   0.78465    0.000
 4591.00    0.62128   0.77362    0.000
 4592.00    0.85718   0.77057    0.000
 4593.00    0.90260   0.77414    0.000
 4594.00    0.89761   0.77399    0.000
 4595.00    0.66228   0.76773    0.000
 4596.00    0.49444   0.76465    0.000
 4597.00    0.57908   0.77071    0.000
 4598.00    0.67954   0.78015    0.000
 4599.00    0.82952   0.78375    0.000
 4600.00    0.90244   0.77802    0.000
 4601.00    0.77083   0.76791    0.000
 4602.00    0.67670   0.76624    0.000
 4603.00    0.66794   0.77217    0.000
 4604.00    0.68281   0.77713    0.000
 4605.00    0.74430   0.77577    0.000
 4606.00    0.73918   0.77376    0.000
 4607.00    0.61949   0.77890    0.000
 4608.00    0.53494   0.78969    0.000
 4609.00    0.50330   0.79650    0.000
 4610.00    0.58060   0.79701    0.000
 4611.00    0.80205   0.79527    0.000
 4612.00    0.89319   0.79141    0.000
 4613.00    0.83248   0.78595    0.000
 4614.00    0.76729   0.78728    0.000
 4615.00    0.69749   0.79424    0.000
 4616.00    0.56064   0.79640    0.000
 4617.00    0.36302   0.79497    0.000
 4618.00    0.41854   0.78688    0.000
 4619.00    0.67631   0.77576    0.000
 4620.00    0.78452   0.77714    0.000
 4621.00    0.78762   0.78769    0.000
 4622.00    0.89700   0.79371    0.000
 4623.00    1.07191   0.79691    0.000
 4624.00    1.03462   0.79770    0.000
 4625.00    0.88304   0.79427    0.000
 4626.00    0.87220   0.78950    0.000
 4627.00    0.92718   0.78967    0.000
 4628.00    0.95058   0.78879    0.000
 4629.00    0.96124   0.78072    0.000
 4630.00    0.92483   0.77684    0.000
 4631.00    0.87224   0.78549    0.000
 4632.00    0.92573   0.79253    0.000
 4633.00    1.00995   0.78621    0.000
 4634.00    1.02715   0.77794    0.000
 4635.00    1.02829   0.77779    0.000
 4636.00    0.91984   0.78121    0.000
 4637.00    0.79023   0.77756    0.000
 4638.00    0.67915   0.76577    0.000
 4639.00    0.57085   0.75631    0.000
 4640.00    0.61328   0.75386    0.000
 4641.00    0.67230   0.75668    0.000
 4642.00    0.69449   0.76332    0.000
 4643.00    0.71400   0.77157    0.000
 4644.00    0.89303   0.77641    0.000
 4645.00    1.07810   0.77153    0.000
 4646.00    0.93292   0.75460    0.000
 4647.00    0.78770   0.73793    0.000
 4648.00    0.70348   0.73155    0.000
 4649.00    0.62254   0.73307    0.000
 4650.00    0.59522   0.73930    0.000
 4651.00    0.57231   0.75206    0.000
 4652.00    0.59456   0.76794    0.000
 4653.00    0.62033   0.77779    0.000
 4654.00    0.67185   0.77327    0.000
 4655.00    0.72821   0.76589    0.000
 4656.00    0.81162   0.76526    0.000
 4657.00    0.86005   0.77279    0.000
 4658.00    0.75248   0.78777    0.000
 4659.00    0.68716   0.80193    0.000
 4660.00    0.77663   0.80500    0.000
 4661.00    0.85942   0.79351    0.000
 4662.00    0.92171   0.78021    0.000
 4663.00    0.96419   0.77548    0.000
 4664.00    0.95497   0.77681    0.000
 4665.00    0.94383   0.77537    0.000
 4666.00    0.92840   0.76370    0.000
 4667.00    0.92423   0.74730    0.000
 4668.00    0.94194   0.74125    0.000
 4669.00    0.86805   0.74948    0.000
 4670.00    0.63903   0.76572    0.000
 4671.00    0.58750   0.77945    0.000
 4672.00    0.79932   0.78229    0.000
 4673.00    0.90411   0.77582    0.000
 4674.00    0.86931   0.77024    0.000
 4675.00    0.86491   0.76952    0.000
 4676.00    0.89542   0.77390    0.000
 4677.00    0.84063   0.77868    0.000
 4678.00    0.69940   0.78000    0.000
 4679.00    0.80903   0.77664    0.000
 4680.00    1.14288   0.77187    0.000
 4681.00    1.12303   0.76746    0.000
 4682.00    0.82463   0.76683    0.000
 4683.00    0.81381   0.77163    0.000
 4684.00    1.00220   0.77400    0.000
 4685.00    1.02210   0.77021    0.000
 4686.00    0.93966   0.76750    0.000
 4687.00    0.84971   0.76912    0.000
 4688.00    0.75577   0.77258    0.000
 4689.00    0.76636   0.77628    0.000
 4690.00    0.82505   0.77593    0.000
 4691.00    0.84849   0.77162    0.000
 4692.00    0.85798   0.77147    0.000
 4693.00    0.85407   0.77489    0.000
 4694.00    0.84564   0.77920    0.000
 4695.00    0.67374   0.78498    0.000
 4696.00    0.45546   0.78870    0.000
 4697.00    0.30086   0.78335    0.000
 4698.00    0.16117   0.76607    0.000
 4699.00    0.35306   0.75241    0.000
 4700.00    0.60733   0.75511    0.000
 4701.00    0.47917   0.76200    0.000
 4702.00    0.29539   0.76067    0.000
 4703.00    0.38094   0.75718    0.000
 4704.00    0.49496   0.75733    0.000
 4705.00    0.83320   0.75993    0.000
 4706.00    1.18683   0.76147    0.000
 4707.00    0.99298   0.76144    0.000
 4708.00    0.78050   0.75898    0.000
 4709.00    0.66502   0.75663    0.000
 4710.00    0.55373   0.76077    0.000
 4711.00    0.57418   0.76869    0.000
 4712.00    0.59460   0.75783    0.000
 4713.00    0.61470   0.73877    0.000
 4714.00    0.63987   0.73872    0.000
 4715.00    0.71471   0.75477    0.000
 4716.00    0.77457   0.76663    0.000
 4717.00    0.72853   0.77630    0.000
 4718.00    0.69060   0.78422    0.000
 4719.00    0.69676   0.79023    0.000
 4720.00    0.70194   0.79338    0.000
 4721.00    0.70290   0.79255    0.000
 4722.00    0.70474   0.78769    0.000
 4723.00    0.70976   0.78539    0.000
 4724.00    0.70722   0.78997    0.000
 4725.00    0.68188   0.79443    0.000
 4726.00    0.66779   0.78926    0.000
 4727.00    0.68253   0.77301    0.000
 4728.00    0.74617   0.75782    0.000
 4729.00    0.91764   0.75376    0.000
 4730.00    1.00023   0.75611    0.000
 4731.00    0.91288   0.75957    0.000
 4732.00    0.86688   0.76543    0.000
 4733.00    0.88985   0.77185    0.000
 4734.00    0.94773   0.77542    0.000
 4735.00    1.05665   0.77866    0.000
 4736.00    1.07602   0.77569    0.000
 4737.00    0.98024   0.77148    0.000
 4738.00    0.84449   0.77615    0.000
 4739.00    0.66345   0.78078    0.000
 4740.00    0.60033   0.77773    0.000
 4741.00    0.65503   0.77211    0.000
 4742.00    0.70090   0.77080    0.000
 4743.00    0.73899   0.77550    0.000
 4744.00    0.78638   0.77868    0.000
 4745.00    0.84098   0.77814    0.000
 4746.00    0.87137   0.78133    0.000
 4747.00    0.88523   0.78442    0.000
 4748.00    0.90310   0.78340    0.000
 4749.00    0.92336   0.78321    0.000
 4750.00    0.87022   0.78414    0.000
 4751.00    0.77877   0.78173    0.000
 4752.00    0.81697   0.77663    0.000
 4753.00    0.91387   0.77302    0.000
 4754.00    0.89627   0.77034    0.000
 4755.00    0.83409   0.76950    0.000
 4756.00    0.93102   0.76962    0.000
 4757.00    1.08066   0.76944    0.000
 4758.00    1.03104   0.76938    0.000
 4759.00    0.92601   0.77133    0.000
 4760.00    0.84542   0.77332    0.000
 4761.00    0.77041   0.76986    0.013
 4762.00    0.80704   0.76078    0.013
 4763.00    0.86412   0.75452    0.013
 4764.00    0.93612   0.75123    0.013
 4765.00    1.01022   0.74774    0.013
 4766.00    0.90435   0.74642    0.013
 4767.00    0.78021   0.75013    0.013
 4768.00    0.80545   0.75730    0.013
 4769.00    0.84034   0.76532    0.013
 4770.00    0.86102   0.76863    0.013
 4771.00    0.88129   0.76341    0.013
 4772.00    0.90725   0.75786    0.013
 4773.00    0.93396   0.76041    0.013
 4774.00    0.98245   0.76828    0.013
 4775.00    1.02819   0.77219    0.013
 4776.00    1.03421   0.77066    0.013
 4777.00    1.05131   0.77029    0.013
 4778.00    1.17266   0.76941    0.013
 4779.00    1.25618   0.76488    0.013
 4780.00    1.08077   0.76079    0.013
 4781.00    0.92420   0.75934    0.013
 4782.00    0.86742   0.75654    0.013
 4783.00    0.79206   0.75140    0.013
 4784.00    0.63756   0.75124    0.012
 4785.00    0.53783   0.75467    0.012
 4786.00    0.63057   0.75371    0.012
 4787.00    0.72914   0.75279    0.013
 4788.00    0.84497   0.75423    0.013
 4789.00    0.92572   0.75375    0.013
 4790.00    0.91813   0.75490    0.013
 4791.00    0.91160   0.75849    0.013
 4792.00    0.90736   0.76280    0.013
 4793.00    0.89261   0.77080    0.013
 4794.00    0.85810   0.78036    0.013
 4795.00    0.87995   0.78446    0.013
 4796.00    0.99442   0.78136    0.013
 4797.00    1.02116   0.77530    0.013
 4798.00    0.92150   0.76835    0.013
 4799.00    0.81656   0.76153    0.014
 4800.00    0.70491   0.75991    0.014
 4801.00    0.68896   0.76586    0.013
 4802.00    0.77990   0.77280    0.013
 4803.00    0.79526   0.77505    0.013
 4804.00    0.73618   0.77158    0.013
 4805.00    0.67944   0.76488    0.013
 4806.00    0.62473   0.76166    0.013
 4807.00    0.60580   0.76061    0.013
 4808.00    0.61424   0.75960    0.014
 4809.00    0.69217   0.76152    0.014
 4810.00    0.81684   0.76537    0.014
 4811.00    0.84342   0.76638    0.014
 4812.00    0.81219   0.76287    0.013
 4813.00    0.71809   0.75956    0.013
 4814.00    0.59168   0.75960    0.013
 4815.00    0.54591   0.76081    0.013
 4816.00    0.53605   0.76426    0.013
 4817.00    0.47270   0.77123    0.013
 4818.00    0.38890   0.77454    0.013
 4819.00    0.49288   0.77153    0.014
 4820.00    0.65792   0.76951    0.014
 4821.00    0.60119   0.77106    0.014
 4822.00    0.48408   0.76715    0.014
 4823.00    0.69397   0.75286    0.014
 4824.00    0.97693   0.74464    0.014
 4825.00    0.97720   0.75199    0.014
 4826.00    0.92708   0.76190    0.014
 4827.00    0.84055   0.76194    0.014
 4828.00    0.74905   0.75347    0.014
 4829.00    0.69508   0.74903    0.014
 4830.00    0.64475   0.75315    0.014
 4831.00    0.57471   0.75314    0.014
 4832.00    0.50348   0.74623    0.014
 4833.00    0.57599   0.74742    0.014
 4834.00    0.65224   0.75575    0.014
 4835.00    0.71725   0.75935    0.014
 4836.00    0.78568   0.75730    0.014
 4837.00    0.94336   0.75551    0.014
 4838.00    1.07769   0.75249    0.014
 4839.00    0.89320   0.74582    0.014
 4840.00    0.72537   0.74113    0.014
 4841.00    0.70815   0.74165    0.014
 4842.00    0.69062   0.74097    0.013
 4843.00    0.67103   0.73511    0.013
 4844.00    0.63929   0.73386    0.013
 4845.00    0.54488   0.74005    0.013
 4846.00    0.50438   0.74246    0.014
 4847.00    0.68832   0.73460    0.014
 4848.00    0.77925   0.72150    0.000
 4849.00    0.54992   0.71491    0.000
 4850.00    0.45876   0.71680    0.000
 4851.00    0.76829   0.71433    0.000
 4852.00    0.94872   0.70564    0.000
 4853.00    0.80969   0.69539    0.000
 4854.00    0.66992   0.67614    0.000
 4855.00    0.52860   0.65033    0.000
 4856.00    0.55274   0.63285    0.000
 4857.00    0.88350   0.62229    0.000
 4858.00    1.05590   0.60134    0.000
 4859.00    0.97192   0.56126    0.000
 4860.00    0.88679   0.50119    0.000
 4861.00    0.80002   0.45391    0.000
 4862.00    0.74105   0.46374    0.000
 4863.00    0.71682   0.51760    0.000
 4864.00    0.70040   0.56550    0.000
 4865.00    0.69260   0.59958    0.000
 4866.00    0.67835   0.62946    0.000
 4867.00    0.65784   0.65158    0.000
 4868.00    0.62853   0.66679    0.000
 4869.00    0.59168   0.67966    0.000
 4870.00    0.57280   0.68354    0.000
 4871.00    0.56749   0.67612    0.000
 4872.00    0.59173   0.67641    0.000
 4873.00    0.63556   0.69237    0.000
 4874.00    0.76556   0.70714    0.000
 4875.00    0.94557   0.71338    0.014
 4876.00    0.99055   0.71996    0.014
 4877.00    0.96722   0.72926    0.014
 4878.00    0.89919   0.73711    0.014
 4879.00    0.81159   0.74523    0.013
 4880.00    0.72283   0.74698    0.013
 4881.00    0.63363   0.73863    0.013
 4882.00    0.68423   0.73496    0.013
 4883.00    0.77943   0.73919    0.014
 4884.00    0.77015   0.73988    0.013
 4885.00    0.73304   0.73350    0.013
 4886.00    0.65347   0.72855    0.013
 4887.00    0.56464   0.73149    0.013
 4888.00    0.59311   0.73773    0.013
 4889.00    0.64191   0.73818    0.013
 4890.00    0.68538   0.72779    0.013
 4891.00    0.72816   0.71691    0.014
 4892.00    0.85342   0.72531    0.013
 4893.00    0.98635   0.74629    0.013
 4894.00    1.01313   0.76376    0.013
 4895.00    1.03390   0.77671    0.014
 4896.00    0.80997   0.78290    0.014
 4897.00    0.58275   0.78348    0.013
 4898.00    0.60526   0.77993    0.013
 4899.00    0.62877   0.76939    0.013
 4900.00    0.67624   0.75910    0.013
 4901.00    0.72643   0.75948    0.013
 4902.00    0.81186   0.76158    0.013
 4903.00    0.88989   0.75769    0.013
 4904.00    0.90352   0.75668    0.013
 4905.00    0.90720   0.76456    0.014
 4906.00    0.84693   0.77247    0.013
 4907.00    0.79106   0.77164    0.013
 4908.00    0.75733   0.76519    0.013
 4909.00    0.74832   0.75716    0.013
 4910.00    0.83995   0.75074    0.013
 4911.00    0.89210   0.75162    0.013
 4912.00    0.81103   0.75799    0.013
 4913.00    0.73337   0.76310    0.013
 4914.00    0.66540   0.76722    0.013
 4915.00    0.65596   0.77246    0.013
 4916.00    0.78889   0.77390    0.013
 4917.00    0.83410   0.76541    0.013
 4918.00    0.69518   0.74581    0.013
 4919.00    0.64372   0.72031    0.013
 4920.00    0.75186   0.69325    0.013
 4921.00    0.80638   0.66810    0.013
 4922.00    0.77537   0.67058    0.013
 4923.00    0.75339   0.69481    0.013
 4924.00    0.74406   0.71597    0.013
 4925.00    0.81871   0.72830    0.013
 4926.00    0.99681   0.74944    0.013
 4927.00    1.02834   0.76712    0.013
 4928.00    0.90075   0.77614    0.012
 4929.00    0.88308   0.78325    0.012
 4930.00    0.97066   0.78567    0.013
 4931.00    0.86934   0.78324    0.013
 4932.00    0.60852   0.77462    0.013
 4933.00    0.50597   0.75825    0.013
 4934.00    0.52108   0.74962    0.013
 4935.00    0.67459   0.75732    0.013
 4936.00    0.91849   0.76351    0.013
 4937.00    0.97158   0.75502    0.013
 4938.00    0.91561   0.73954    0.013
 4939.00    0.74338   0.73253    0.013
 4940.00    0.51327   0.73900    0.000
 4941.00    0.57171   0.75149    0.000
 4942.00    0.75439   0.75663    0.000
 4943.00    0.72278   0.76204    0.000
 4944.00    0.61205   0.76985    0.000
 4945.00    0.62522   0.77231    0.000
 4946.00    0.67715   0.77062    0.000
 4947.00    0.69567   0.77232    0.000
 4948.00    0.70546   0.77564    0.000
 4949.00    0.70935   0.77906    0.000
 4950.00    0.71198   0.78304    0.000
 4951.00    0.93544   0.78575    0.000
 4952.00    1.19611   0.78218    0.000
 4953.00    1.13273   0.77516    0.000
 4954.00    1.02813   0.76966    0.000
 4955.00    0.96837   0.76298    0.000
 4956.00    0.91258   0.74796    0.000
 4957.00    0.83701   0.72322    0.000
 4958.00    0.76041   0.71401    0.000
 4959.00    0.76184   0.73315    0.000
 4960.00    0.76406   0.75571    0.000
 4961.00    0.71003   0.76405    0.000
 4962.00    0.65955   0.76414    0.000
 4963.00    0.68629   0.76376    0.000
 4964.00    0.71782   0.75873    0.000
 4965.00    0.80810   0.74811    0.000
 4966.00    0.90667   0.74163    0.000
 4967.00    1.07462   0.74174    0.000
 4968.00    1.17782   0.74340    0.000
 4969.00    0.87662   0.74721    0.000
 4970.00    0.59849   0.75160    0.000
 4971.00    0.43351   0.75680    0.000
 4972.00    0.34400   0.76272    0.000
 4973.00    0.55501   0.76645    0.000
 4974.00    0.71705   0.76905    0.000
 4975.00    0.71716   0.76883    0.000
 4976.00    0.73115   0.76581    0.000
 4977.00    0.78392   0.76108    0.000
 4978.00    0.82507   0.75332    0.000
 4979.00    0.83839   0.74759    0.000
 4980.00    0.77752   0.74457    0.000
 4981.00    0.56337   0.73500    0.000
 4982.00    0.42434   0.71843    0.000
 4983.00    0.42024   0.70963    0.000
 4984.00    0.48292   0.71499    0.000
 4985.00    0.65049   0.72519    0.000
 4986.00    0.74228   0.73507    0.000
 4987.00    0.72952   0.74524    0.000
 4988.00    0.72035   0.75091    0.000
 4989.00    0.71555   0.74996    0.000
 4990.00    0.74774   0.74406    0.000
 4991.00    0.81954   0.73901    0.000
 4992.00    0.77741   0.74199    0.000
 4993.00    0.62772   0.74439    0.000
 4994.00    0.57499   0.74267    0.000
 4995.00    0.60295   0.74563    0.000
 4996.00    0.50682   0.75119    0.000
 4997.00    0.31973   0.75248    0.000
 4998.00    0.33321   0.74890    0.000
 4999.00    0.47575   0.73780    0.000
 5000.00    0.58706   0.72164    0.000
 5001.00    0.68078   0.71174    0.000
 5002.00    0.61354   0.71327    0.000
 5003.00    0.46744   0.72316    0.000
 5004.00    0.47107   0.72391    0.000
 5005.00    0.53810   0.71463    0.000
 5006.00    0.59905   0.70667    0.000
 5007.00    0.65779   0.71133    0.000
 5008.00    0.60143   0.72469    0.000
 5009.00    0.50977   0.73312    0.000
 5010.00    0.58149   0.73343    0.000
 5011.00    0.69491   0.73046    0.000
 5012.00    0.80351   0.72180    0.000
 5013.00    0.91111   0.70840    0.000
 5014.00    0.83009   0.69103    0.000
 5015.00    0.71821   0.67499    0.000
 5016.00    0.63869   0.68100    0.000
 5017.00    0.56315   0.69916    0.000
 5018.00    0.60792   0.71095    0.000
 5019.00    0.66287   0.71704    0.000
 5020.00    0.59523   0.72527    0.000
 5021.00    0.52160   0.72650    0.000
 5022.00    0.51813   0.72071    0.000
 5023.00    0.51819   0.72183    0.000
 5024.00    0.66752   0.73079    0.000
 5025.00    0.80262   0.73624    0.000
 5026.00    0.65195   0.73532    0.000
 5027.00    0.51489   0.72829    0.000
 5028.00    0.53669   0.72524    0.000
 5029.00    0.56151   0.73218    0.012
 5030.00    0.61060   0.73863    0.012
 5031.00    0.63336   0.74283    0.013
 5032.00    0.49653   0.74899    0.013
 5033.00    0.40973   0.75604    0.013
 5034.00    0.56225   0.75426    0.013
 5035.00    0.67959   0.73902    0.013
 5036.00    0.65992   0.72460    0.013
 5037.00    0.64582   0.72560    0.012
 5038.00    0.64980   0.72762    0.012
 5039.00    0.67434   0.71637    0.012
 5040.00    0.75531   0.69214    0.013
 5041.00    0.80162   0.67678    0.013
 5042.00    0.76646   0.69029    0.012
 5043.00    0.76537   0.71866    0.012
 5044.00    0.83356   0.73519    0.012
 5045.00    0.86851   0.74521    0.013
 5046.00    0.84468   0.74914    0.013
 5047.00    0.78928   0.73830    0.013
 5048.00    0.68500   0.72306    0.013
 5049.00    0.64129   0.71782    0.013
 5050.00    0.67993   0.72022    0.013
 5051.00    0.70650   0.72058    0.013
 5052.00    0.71864   0.72347    0.013
 5053.00    0.66315   0.73099    0.013
 5054.00    0.53630   0.73767    0.013
 5055.00    0.56462   0.73278    0.013
 5056.00    0.73738   0.72678    0.013
 5057.00    0.83080   0.73211    0.013
 5058.00    0.85913   0.74619    0.013
 5059.00    0.78908   0.75107    0.013
 5060.00    0.64797   0.75351    0.013
 5061.00    0.68216   0.75787    0.013
 5062.00    0.82749   0.75793    0.013
 5063.00    0.86197   0.74762    0.013
 5064.00    0.83498   0.72884    0.013
 5065.00    0.71810   0.71670    0.013
 5066.00    0.55788   0.72063    0.013
 5067.00    0.48473   0.72585    0.013
 5068.00    0.44783   0.72455    0.013
 5069.00    0.60239   0.72531    0.013
 5070.00    0.82513   0.73065    0.013
 5071.00    0.86268   0.73040    0.013
 5072.00    0.84454   0.72404    0.013
 5073.00    0.68370   0.72448    0.013
 5074.00    0.48722   0.73068    0.013
 5075.00    0.45709   0.73163    0.013
 5076.00    0.46067   0.72943    0.013
 5077.00    0.49252   0.73006    0.013
 5078.00    0.52885   0.72703    0.013
 5079.00    0.63324   0.71117    0.013
 5080.00    0.74569   0.69980    0.013
 5081.00    0.65048   0.70282    0.013
 5082.00    0.53858   0.70872    0.012
 5083.00    0.53341   0.71078    0.012
 5084.00    0.53304   0.71474    0.012
 5085.00    0.57491   0.72149    0.012
 5086.00    0.61813   0.72581    0.012
 5087.00    0.70336   0.72763    0.012
 5088.00    0.78015   0.73028    0.012
 5089.00    0.69992   0.73358    0.012
 5090.00    0.63743   0.73337    0.012
 5091.00    0.77252   0.73257    0.012
 5092.00    0.88433   0.73620    0.012
 5093.00    0.81471   0.74305    0.012
 5094.00    0.75471   0.74428    0.012
 5095.00    0.75143   0.73693    0.012
 5096.00    0.76553   0.72774    0.012
 5097.00    0.86076   0.72104    0.012
 5098.00    0.93183   0.71390    0.012
 5099.00    0.91080   0.70663    0.012
 5100.00    0.86276   0.70823    0.012
 5101.00    0.72882   0.71697    0.012
 5102.00    0.59756   0.72309    0.012
 5103.00    0.47355   0.72340    0.012
 5104.00    0.40720   0.72063    0.012
 5105.00    0.47420   0.71946    0.012
 5106.00    0.53557   0.71741    0.012
 5107.00    0.58569   0.71213    0.012
 5108.00    0.59977   0.70953    0.012
 5109.00    0.55103   0.71010    0.012
 5110.00    0.51460   0.70998    0.012
 5111.00    0.49693   0.71424    0.012
 5112.00    0.51625   0.71927    0.012
 5113.00    0.58516   0.71985    0.012
 5114.00    0.64841   0.72308    0.013
 5115.00    0.70498   0.72984    0.013
 5116.00    0.67141   0.73587    0.013
 5117.00    0.54403   0.74157    0.012
 5118.00    0.55332   0.74309    0.013
 5119.00    0.68802   0.73840    0.013
 5120.00    0.70973   0.73085    0.013
 5121.00    0.64004   0.72172    0.012
 5122.00    0.64248   0.71264    0.012
 5123.00    0.69627   0.70266    0.012
 5124.00    0.62839   0.69691    0.012
 5125.00    0.48450   0.69964    0.012
 5126.00    0.57498   0.70105    0.012
 5127.00    0.79340   0.69799    0.013
 5128.00    0.76690   0.69677    0.013
 5129.00    0.62421   0.69897    0.013
 5130.00    0.67313   0.70256    0.013
 5131.00    0.80047   0.71015    0.013
 5132.00    0.71728   0.71438    0.013
 5133.00    0.56049   0.71437    0.013
 5134.00    0.56909   0.71891    0.013
 5135.00    0.62644   0.72823    0.013
 5136.00    0.46172   0.72887    0.013
 5137.00    0.24276   0.72190    0.013
 5138.00    0.38502   0.71346    0.013
 5139.00    0.59863   0.70664    0.013
 5140.00    0.56091   0.71088    0.013
 5141.00    0.48444   0.71698    0.013
 5142.00    0.65303   0.70874    0.013
 5143.00    0.84954   0.70154    0.013
 5144.00    0.72672   0.70409    0.013
 5145.00    0.57953   0.70419    0.013
 5146.00    0.51414   0.70059    0.013
 5147.00    0.45211   0.70066    0.013
 5148.00    0.47568   0.70310    0.013
 5149.00    0.50134   0.70769    0.013
 5150.00    0.58483   0.70585    0.013
 5151.00    0.66942   0.69956    0.013
 5152.00    0.77307   0.69509    0.013
 5153.00    0.85902   0.69291    0.013
 5154.00    0.75679   0.69291    0.013
 5155.00    0.66138   0.69780    0.013
 5156.00    0.61731   0.70983    0.013
 5157.00    0.57842   0.72344    0.012
 5158.00    0.56911   0.73295    0.012
 5159.00    0.54979   0.73214    0.012
 5160.00    0.48483   0.73166    0.012
 5161.00    0.42828   0.73320    0.012
 5162.00    0.40310   0.72937    0.012
 5163.00    0.38412   0.72392    0.012
 5164.00    0.38451   0.71805    0.012
 5165.00    0.39677   0.70129    0.012
 5166.00    0.44048   0.67337    0.012
 5167.00    0.48181   0.64599    0.012
 5168.00    0.51773   0.63411    0.012
 5169.00    0.48508   0.64534    0.012
 5170.00    0.31741   0.66324    0.012
 5171.00    0.23863   0.66126    0.012
 5172.00    0.31242   0.64078    0.012
 5173.00    0.37411   0.63459    0.012
 5174.00    0.41765   0.65519    0.012
 5175.00    0.41580   0.67987    0.012
 5176.00    0.35400   0.69205    0.012
 5177.00    0.37369   0.69806    0.012
 5178.00    0.48817   0.70219    0.012
 5179.00    0.54877   0.70069    0.012
 5180.00    0.55411   0.69479    0.012
 5181.00    0.50379   0.68438    0.012
 5182.00    0.40310   0.66422    0.011
 5183.00    0.40027   0.63897    0.012
 5184.00    0.47547   0.63371    0.012
 5185.00    0.49289   0.65826    0.012
 5186.00    0.46977   0.68960    0.012
 5187.00    0.43604   0.70757    0.012
 5188.00    0.39579   0.71251    0.012
 5189.00    0.44073   0.71620    0.012
 5190.00    0.53144   0.71949    0.000
 5191.00    0.67726   0.70712    0.000
 5192.00    0.84881   0.68778    0.000
 5193.00    0.82838   0.68280    0.000
 5194.00    0.73071   0.69098    0.000
 5195.00    0.67863   0.69714    0.000
 5196.00    0.64220   0.70402    0.000
 5197.00    0.58095   0.71307    0.000
 5198.00    0.51253   0.71995    0.000
 5199.00    0.55030   0.72541    0.000
 5200.00    0.61342   0.72435    0.000
 5201.00    0.69046   0.71948    0.000
 5202.00    0.77017   0.71472    0.000
 5203.00    0.69823   0.70913    0.000
 5204.00    0.60360   0.69276    0.000
 5205.00    0.62048   0.67109    0.000
 5206.00    0.64957   0.65980    0.000
 5207.00    0.60877   0.65874    0.000
 5208.00    0.56294   0.65605    0.000
 5209.00    0.57355   0.65718    0.000
 5210.00    0.58628   0.66781    0.000
 5211.00    0.70202   0.68413    0.013
 5212.00    0.81280   0.70406    0.013
 5213.00    0.72502   0.72171    0.013
 5214.00    0.64497   0.73016    0.013
 5215.00    0.69007   0.72487    0.013
 5216.00    0.71467   0.71627    0.013
 5217.00    0.53060   0.71770    0.012
 5218.00    0.39776   0.72752    0.012
 5219.00    0.63774   0.73706    0.013
 5220.00    0.81333   0.74287    0.013
 5221.00    0.63012   0.74740    0.013
 5222.00    0.50192   0.74626    0.012
 5223.00    0.61839   0.73504    0.012
 5224.00    0.70482   0.71680    0.012
 5225.00    0.68144   0.69732    0.012
 5226.00    0.66026   0.67936    0.012
 5227.00    0.64583   0.67395    0.012
 5228.00    0.62690   0.69172    0.012
 5229.00    0.59626   0.71851    0.012
 5230.00    0.62140   0.73409    0.012
 5231.00    0.77128   0.73971    0.012
 5232.00    0.74746   0.73261    0.012
 5233.00    0.38694   0.71647    0.012
 5234.00    0.22232   0.70850    0.012
 5235.00    0.38885   0.71580    0.012
 5236.00    0.55480   0.73186    0.012
 5237.00    0.71987   0.74499    0.012
 5238.00    0.80905   0.74840    0.012
 5239.00    0.79942   0.74564    0.012
 5240.00    0.76741   0.74301    0.012
 5241.00    0.70974   0.74400    0.012
 5242.00    0.62828   0.74467    0.012
 5243.00    0.52274   0.74479    0.012
 5244.00    0.45155   0.74958    0.012
 5245.00    0.41101   0.75016    0.012
 5246.00    0.43448   0.73300    0.012
 5247.00    0.50828   0.71246    0.012
 5248.00    0.58250   0.71096    0.012
 5249.00    0.65701   0.71628    0.012
 5250.00    0.74261   0.71121    0.012
 5251.00    0.83495   0.70843    0.012
 5252.00    0.77886   0.71653    0.012
 5253.00    0.64423   0.72493    0.012
 5254.00    0.60684   0.72331    0.012
 5255.00    0.61410   0.71838    0.012
 5256.00    0.64015   0.72574    0.012
 5257.00    0.67363   0.74205    0.012
 5258.00    0.66758   0.75358    0.012
 5259.00    0.64822   0.75382    0.012
 5260.00    0.68877   0.74488    0.012
 5261.00    0.74628   0.73154    0.012
 5262.00    0.55417   0.71534    0.013
 5263.00    0.30379   0.69552    0.013
 5264.00    0.30653   0.67876    0.013
 5265.00    0.35674   0.66978    0.013
 5266.00    0.41110   0.67161    0.013
 5267.00    0.46605   0.68562    0.013
 5268.00    0.49799   0.68819    0.013
 5269.00    0.52751   0.66504    0.013
 5270.00    0.43203   0.64992    0.013
 5271.00    0.32802   0.66744    0.013
 5272.00    0.42898   0.69472    0.013
 5273.00    0.53682   0.70983    0.013
 5274.00    0.42640   0.71420    0.013
 5275.00    0.31970   0.71102    0.013
 5276.00    0.34000   0.71378    0.013
 5277.00    0.36598   0.73135    0.013
 5278.00    0.47840   0.74778    0.013
 5279.00    0.58752   0.75101    0.013
 5280.00    0.66443   0.74407    0.013
 5281.00    0.71985   0.73281    0.013
 5282.00    0.62393   0.72249    0.013
 5283.00    0.55546   0.71424    0.012
 5284.00    0.63576   0.71467    0.013
 5285.00    0.68689   0.73142    0.013
 5286.00    0.61123   0.75253    0.012
 5287.00    0.54027   0.76120    0.012
 5288.00    0.48612   0.75792    0.012
 5289.00    0.49929   0.75501    0.012
 5290.00    0.71462   0.75709    0.012
 5291.00    0.78294   0.75881    0.012
 5292.00    0.47538   0.75616    0.012
 5293.00    0.28824   0.75210    0.012
 5294.00    0.36599   0.75178    0.012
 5295.00    0.45584   0.74740    0.012
 5296.00    0.56880   0.73060    0.012
 5297.00    0.62156   0.70719    0.012
 5298.00    0.57410   0.69591    0.012
 5299.00    0.49120   0.70501    0.012
 5300.00    0.35656   0.71829    0.012
 5301.00    0.30356   0.72188    0.012
 5302.00    0.35533   0.72533    0.012
 5303.00    0.40473   0.73652    0.012
 5304.00    0.45145   0.75167    0.012
 5305.00    0.47069   0.76088    0.012
 5306.00    0.46251   0.75902    0.012
 5307.00    0.49314   0.75235    0.012
 5308.00    0.55791   0.75099    0.012
 5309.00    0.53295   0.75642    0.012
 5310.00    0.43845   0.76078    0.012
 5311.00    0.47596   0.75999    0.012
 5312.00    0.60343   0.75675    0.012
 5313.00    0.68610   0.75288    0.013
 5314.00    0.74201   0.75092    0.012
 5315.00    0.73592   0.74755    0.012
 5316.00    0.69753   0.74098    0.012
 5317.00    0.70596   0.73813    0.012
 5318.00    0.73555   0.74192    0.012
 5319.00    0.63103   0.74515    0.012
 5320.00    0.47442   0.74392    0.012
 5321.00    0.40776   0.74324    0.012
 5322.00    0.37084   0.74169    0.012
 5323.00    0.46959   0.73473    0.012
 5324.00    0.60594   0.72488    0.012
 5325.00    0.63944   0.72298    0.012
 5326.00    0.64946   0.72048    0.013
 5327.00    0.66648   0.69783    0.013
 5328.00    0.68478   0.66704    0.013
 5329.00    0.63785   0.66406    0.013
 5330.00    0.58178   0.68983    0.012
 5331.00    0.58894   0.71748    0.012
 5332.00    0.60248   0.72843    0.013
 5333.00    0.69642   0.73140    0.013
 5334.00    0.79552   0.73934    0.012
 5335.00    0.74119   0.74719    0.012
 5336.00    0.68244   0.74765    0.012
 5337.00    0.68429   0.74429    0.012
 5338.00    0.69043   0.74110    0.012
 5339.00    0.81946   0.73098    0.012
 5340.00    0.92826   0.71428    0.012
 5341.00    0.74687   0.70824    0.012
 5342.00    0.59099   0.71936    0.012
 5343.00    0.67392   0.73136    0.012
 5344.00    0.74728   0.73528    0.012
 5345.00    0.75539   0.72912    0.012
 5346.00    0.75753   0.72398    0.012
 5347.00    0.72810   0.72630    0.012
 5348.00    0.68007   0.72540    0.012
 5349.00    0.55302   0.71972    0.012
 5350.00    0.44418   0.72387    0.012
 5351.00    0.39912   0.73786    0.012
 5352.00    0.40746   0.75085    0.012
 5353.00    0.57318   0.75604    0.011
 5354.00    0.68024   0.76095    0.011
 5355.00    0.63992   0.76677    0.011
 5356.00    0.63462   0.76927    0.011
 5357.00    0.70511   0.77065    0.011
 5358.00    0.73249   0.77218    0.011
 5359.00    0.67889   0.77192    0.011
 5360.00    0.62674   0.76749    0.012
 5361.00    0.57700   0.75752    0.012
 5362.00    0.59475   0.74738    0.012
 5363.00    0.70957   0.74481    0.012
 5364.00    0.84645   0.74407    0.012
 5365.00    1.01123   0.74109    0.013
 5366.00    1.02521   0.73942    0.014
 5367.00    0.87108   0.73963    0.014
 5368.00    0.77484   0.73809   -2.000
 5369.00    0.73553   0.72818   -2.000
 5370.00    0.64948   0.70862   -2.000
 5371.00    0.52290   0.69298   -2.000
 5372.00    0.52074   0.69795   -2.000
 5373.00    0.61361   0.72063   -2.000
 5374.00    0.53980   0.74319   -2.000
 5375.00    0.35408   0.75364   -2.000
 5376.00    0.48273   0.75351   -2.000
 5377.00    0.79627   0.75130   -2.000
 5378.00    0.92146   0.75541   -2.000
 5379.00    0.95004   0.75962   -2.000
 5380.00    0.77384   0.75666   -2.000
 5381.00    0.50665   0.75088   -2.000
 5382.00    0.63424   0.74669   -2.000
 5383.00    0.91252   0.74281    0.013
 5384.00    0.85258   0.74125    0.013
 5385.00    0.68293   0.74474    0.012
 5386.00    0.57136   0.74781    0.012
 5387.00    0.47556   0.74888    0.012
 5388.00    0.51522   0.74682    0.012
 5389.00    0.58506   0.73974    0.012
 5390.00    0.60071   0.72981    0.012
 5391.00    0.60674   0.72590    0.012
 5392.00    0.57450   0.72743    0.012
 5393.00    0.53707   0.72824    0.012
 5394.00    0.48945   0.72635    0.012
 5395.00    0.44083   0.72179    0.012
 5396.00    0.53544   0.70865    0.012
 5397.00    0.63867   0.69587    0.012
 5398.00    0.68982   0.70378    0.012
 5399.00    0.73871   0.72175    0.012
 5400.00    0.63782   0.72920    0.012
 5401.00    0.53945   0.72964    0.012
 5402.00    0.50612   0.73210    0.012
 5403.00    0.48514   0.72810    0.011
 5404.00    0.63153   0.71141    0.011
 5405.00    0.74978   0.69105    0.011
 5406.00    0.61488   0.68428    0.011
 5407.00    0.48451   0.69503    0.011
 5408.00    0.38401   0.70593    0.011
 5409.00    0.31815   0.70389    0.011
 5410.00    0.43036   0.69883    0.011
 5411.00    0.51820   0.70783    0.011
 5412.00    0.50485   0.72434    0.011
 5413.00    0.48137   0.73577    0.011
 5414.00    0.42312   0.74030    0.012
 5415.00    0.43308   0.74346    0.012
 5416.00    0.64042   0.75023    0.012
 5417.00    0.79530   0.75584    0.012
 5418.00    0.82061   0.75495    0.012
 5419.00    0.79020   0.74989    0.012
 5420.00    0.64112   0.74372    0.012
 5421.00    0.52574   0.74334    0.012
 5422.00    0.47268   0.74787    0.012
 5423.00    0.48609   0.74518    0.012
 5424.00    0.60690   0.73613    0.012
 5425.00    0.68033   0.73617    0.012
 5426.00    0.68658   0.74634    0.012
 5427.00    0.68994   0.75430    0.012
 5428.00    0.68966   0.74394    0.012
 5429.00    0.69642   0.71694    0.012
 5430.00    0.71092   0.70498    0.012
 5431.00    0.77759   0.71371    0.012
 5432.00    0.89485   0.71654    0.012
 5433.00    0.78991   0.71021    0.012
 5434.00    0.49501   0.70451    0.012
 5435.00    0.44035   0.70279    0.012
 5436.00    0.56660   0.70858    0.012
 5437.00    0.62652   0.72074    0.012
 5438.00    0.64255   0.73650    0.012
 5439.00    0.64504   0.74970    0.012
 5440.00    0.63967   0.75718    0.012
 5441.00    0.64327   0.76042    0.012
 5442.00    0.65142   0.76216    0.012
 5443.00    0.57695   0.76302    0.012
 5444.00    0.46638   0.75643    0.011
 5445.00    0.50472   0.73736    0.011
 5446.00    0.59889   0.71034    0.011
 5447.00    0.55031   0.69497    0.011
 5448.00    0.45630   0.70322    0.011
 5449.00    0.43413   0.72067    0.011
 5450.00    0.43105   0.73217    0.011
 5451.00    0.52495   0.73496    0.011
 5452.00    0.63996   0.73278    0.011
 5453.00    0.59879   0.72563    0.011
 5454.00    0.53064   0.71290    0.011
 5455.00    0.54168   0.69710    0.011
 5456.00    0.56311   0.69491    0.011
 5457.00    0.57862   0.70999    0.011
 5458.00    0.59359   0.72919    0.011
 5459.00    0.57151   0.73800    0.011
 5460.00    0.54734   0.73524    0.011
 5461.00    0.57039   0.72937    0.011
 5462.00    0.59423   0.72306    0.011
 5463.00    0.59143   0.71710    0.011
 5464.00    0.58962   0.71996    0.011
 5465.00    0.61105   0.72682    0.011
 5466.00    0.62661   0.72810    0.011
 5467.00    0.56676   0.73044    0.011
 5468.00    0.51334   0.73576    0.011
 5469.00    0.51556   0.73534    0.011
 5470.00    0.52270   0.72871    0.011
 5471.00    0.56139   0.72579    0.012
 5472.00    0.57741   0.72427    0.012
 5473.00    0.47978   0.71784    0.012
 5474.00    0.41250   0.71415    0.012
 5475.00    0.46840   0.71296    0.012
 5476.00    0.49309   0.70245    0.012
 5477.00    0.41270   0.69522    0.012
 5478.00    0.39324   0.70713   -2.000
 5479.00    0.54679   0.72264   -2.000
 5480.00    0.68676   0.72301   -2.000
 5481.00    0.79373   0.71177   -2.000
 5482.00    0.74832   0.70845   -2.000
 5483.00    0.38371   0.71694   -2.000
 5484.00    0.19349   0.72939   -2.000
 5485.00    0.32087   0.73854   -2.000
 5486.00    0.24311   0.73704   -2.000
 5487.00   -0.16115   0.72680   -2.000
 5488.00   -0.49444   0.72144   -2.000
 5489.00   -0.72857   0.72577   -2.000
 5490.00   -0.49244   0.72876   -2.000
 5491.00    0.32183   0.73112   -2.000
 5492.00    0.78944   0.73492   -2.000
 5493.00    0.88138   0.73266   -2.000
 5494.00    0.75883   0.72989   -2.000
 5495.00    0.43125   0.73109   -2.000
 5496.00    0.32197   0.72848   -2.000
 5497.00    0.39666   0.72206   -2.000
 5498.00    0.43621   0.72339   -2.000
 5499.00    0.44968   0.73366   -2.000
 5500.00    0.47444   0.73519   -2.000
 5501.00    0.50656   0.72527   -2.000
 5502.00    0.54435   0.71785    0.011
 5503.00    0.58537   0.71863    0.011
 5504.00    0.63230   0.72165    0.016
 5505.00    0.68217   0.71827    0.071
 5506.00    0.71818   0.70861   -1.000
 5507.00    0.74824   0.70680   -1.000
 5508.00    0.74282   0.71783   -1.000
 5509.00    0.72433   0.72560   -1.000
 5510.00    0.64836   0.72555   -1.000
 5511.00    0.55445   0.71901   -1.000
 5512.00    0.56613   0.70820    0.027
 5513.00    0.60528   0.70095    0.012
 5514.00    0.60615   0.69958    0.011
 5515.00    0.59888   0.70254    0.011
 5516.00    0.54916   0.70993    0.011
 5517.00    0.49231   0.72009    0.011
 5518.00    0.49299   0.73338    0.011
 5519.00    0.50096   0.74229    0.011
 5520.00    0.39416   0.74250    0.011
 5521.00    0.27725   0.74008    0.011
 5522.00    0.35757   0.73978    0.011
 5523.00    0.44820   0.74040    0.011
 5524.00    0.50989   0.73980    0.011
 5525.00    0.57079   0.73572    0.011
 5526.00    0.61358   0.72870    0.011
 5527.00    0.64840   0.71798    0.011
 5528.00    0.51177   0.70845    0.011
 5529.00    0.38968   0.71131    0.011
 5530.00    0.44497   0.72352    0.011
 5531.00    0.49804   0.73215    0.011
 5532.00    0.53261   0.73275    0.011
 5533.00    0.57465   0.73021    0.011
 5534.00    0.66308   0.72644    0.011
 5535.00    0.74649   0.72304    0.011
 5536.00    0.80532   0.72491    0.011
 5537.00    0.81722   0.72866    0.011
 5538.00    0.64281   0.72997    0.011
 5539.00    0.52485   0.73445    0.011
 5540.00    0.59317   0.74161    0.011
 5541.00    0.62863   0.74504    0.011
 5542.00    0.57241   0.74114    0.011
 5543.00    0.54006   0.73405    0.011
 5544.00    0.56464   0.73045    0.011
 5545.00    0.56796   0.72959    0.011
 5546.00    0.52745   0.72910    0.010
 5547.00    0.48871   0.73342    0.010
 5548.00    0.45316   0.74172    0.010
 5549.00    0.49292   0.74685    0.010
 5550.00    0.65078   0.74808    0.010
 5551.00    0.70716   0.74771    0.010
 5552.00    0.62381   0.74481    0.011
 5553.00    0.55923   0.73957    0.011
 5554.00    0.51739   0.73544    0.011
 5555.00    0.51903   0.73460    0.011
 5556.00    0.56713   0.73415    0.011
 5557.00    0.57485   0.73122    0.011
 5558.00    0.54453   0.73000    0.011
 5559.00    0.55187   0.73282    0.011
 5560.00    0.59050   0.73430    0.011
 5561.00    0.56263   0.73258    0.011
 5562.00    0.48611   0.72849    0.011
 5563.00    0.52903   0.72516    0.011
 5564.00    0.64868   0.72447    0.011
 5565.00    0.71263   0.72160    0.011
 5566.00    0.74528   0.71701    0.011
 5567.00    0.69472   0.71672    0.011
 5568.00    0.60346   0.71853    0.011
 5569.00    0.48931   0.71824    0.011
 5570.00    0.36549   0.72072    0.011
 5571.00    0.44622   0.72659    0.011
 5572.00    0.60095   0.72432    0.011
 5573.00    0.63090   0.71871    0.011
 5574.00    0.62266   0.72351    0.011
 5575.00    0.55003   0.72880    0.011
 5576.00    0.46100   0.72835    0.011
 5577.00    0.54059   0.72937    0.011
 5578.00    0.65510   0.72940    0.011
 5579.00    0.65680   0.72904    0.011
 5580.00    0.64010   0.73254    0.011
 5581.00    0.56107   0.73273    0.011
 5582.00    0.47442   0.72896    0.011
 5583.00    0.55422   0.72748    0.011
 5584.00    0.64801   0.72515    0.010
 5585.00    0.66434   0.71893    0.010
 5586.00    0.67691   0.70825    0.011
 5587.00    0.68089   0.69484    0.011
 5588.00    0.68174   0.68564    0.010
 5589.00    0.50483   0.68367    0.010
 5590.00    0.33723   0.68988    0.010
 5591.00    0.35473   0.69891    0.010
 5592.00    0.37568   0.70377    0.010
 5593.00    0.43664   0.70626    0.011
 5594.00    0.48532   0.70906    0.011
 5595.00    0.43527   0.71633    0.011
 5596.00    0.37717   0.72664    0.011
 5597.00    0.27039   0.72517    0.011
 5598.00    0.20857   0.71315    0.011
 5599.00    0.36110   0.70527    0.011
 5600.00    0.50310   0.70262    0.011
 5601.00    0.60417   0.69932    0.011
 5602.00    0.66875   0.69708    0.011
 5603.00    0.61531   0.69916    0.011
 5604.00    0.57971   0.70920    0.011
 5605.00    0.59300   0.72191    0.011
 5606.00    0.60324   0.73356    0.011
 5607.00    0.60631   0.74029    0.011
 5608.00    0.60957   0.74153    0.011
 5609.00    0.61322   0.73934    0.011
 5610.00    0.63669   0.73776    0.011
 5611.00    0.69517   0.73978    0.011
 5612.00    0.70673   0.74333    0.011
 5613.00    0.64579   0.74205    0.011
 5614.00    0.56571   0.72709    0.011
 5615.00    0.45964   0.70412    0.010
 5616.00    0.39297   0.69529    0.010
 5617.00    0.37336   0.70344    0.011
 5618.00    0.41850   0.71102    0.011
 5619.00    0.53186   0.71157    0.010
 5620.00    0.63921   0.71248    0.010
 5621.00    0.74097   0.71905    0.010
 5622.00    0.74470   0.72525    0.010
 5623.00    0.66813   0.72068    0.010
 5624.00    0.60243   0.70670    0.010
 5625.00    0.54456   0.69819    0.010
 5626.00    0.56685   0.70414    0.010
 5627.00    0.63987   0.71347    0.010
 5628.00    0.62824   0.71919    0.010
 5629.00    0.56978   0.72462    0.010
 5630.00    0.56680   0.72913    0.010
 5631.00    0.59051   0.73139    0.010
 5632.00    0.60705   0.73185    0.010
 5633.00    0.62060   0.73161    0.010
 5634.00    0.56735   0.73026    0.010
 5635.00    0.49038   0.72571    0.010
 5636.00    0.55331   0.71916    0.010
 5637.00    0.65821   0.71477    0.010
 5638.00    0.61443   0.71466    0.010
 5639.00    0.53362   0.71427    0.010
 5640.00    0.47293   0.71092    0.010
 5641.00    0.41629   0.70737    0.010
 5642.00    0.40568   0.71075    0.010
 5643.00    0.40236   0.71503    0.010
 5644.00    0.48702   0.71617    0.010
 5645.00    0.58205   0.71642    0.011
 5646.00    0.53990   0.71645    0.011
 5647.00    0.48679   0.71696    0.011
 5648.00    0.48133   0.71765    0.011
 5649.00    0.47799   0.71844    0.010
 5650.00    0.49810   0.72133    0.011
 5651.00    0.51744   0.72720    0.011
 5652.00    0.48615   0.73365    0.011
 5653.00    0.45391   0.73528    0.011
 5654.00    0.40416   0.73007    0.010
 5655.00    0.36232   0.72500    0.010
 5656.00    0.40812   0.72439    0.010
 5657.00    0.44791   0.71554    0.010
 5658.00    0.44117   0.69664    0.010
 5659.00    0.44078   0.69056    0.010
 5660.00    0.47770   0.70233    0.010
 5661.00    0.50808   0.70803    0.010
 5662.00    0.50797   0.70296    0.010
 5663.00    0.51685   0.70226    0.010
 5664.00    0.55992   0.71034    0.010
 5665.00    0.58326   0.71801    0.010
 5666.00    0.54399   0.71872    0.010
 5667.00    0.49165   0.71435    0.010
 5668.00    0.40418   0.71167    0.010
 5669.00    0.36052   0.71448    0.010
 5670.00    0.41798   0.71658    0.010
 5671.00    0.49005   0.71746    0.010
 5672.00    0.59128   0.72253    0.010
 5673.00    0.61562   0.73079    0.010
 5674.00    0.50626   0.73347    0.010
 5675.00    0.45271   0.72995    0.010
 5676.00    0.48414   0.72993    0.010
 5677.00    0.49899   0.73290    0.010
 5678.00    0.49165   0.73090    0.010
 5679.00    0.47790   0.72416    0.010
 5680.00    0.45657   0.72164    0.010
 5681.00    0.50897   0.72144    0.010
 5682.00    0.63795   0.71704    0.011
 5683.00    0.68712   0.71328    0.011
 5684.00    0.66316   0.71799    0.010
 5685.00    0.65046   0.72158    0.010
 5686.00    0.64684   0.71803    0.010
 5687.00    0.60832   0.71104    0.010
 5688.00    0.54500   0.70837    0.010
 5689.00    0.57166   0.71141    0.010
 5690.00    0.65444   0.71953    0.010
 5691.00    0.59187   0.72760    0.010
 5692.00    0.45010   0.73432    0.010
 5693.00    0.49953   0.73733    0.010
 5694.00    0.63947   0.73445    0.010
 5695.00    0.72656   0.72785    0.011
 5696.00    0.79207   0.72352    0.010
 5697.00    0.81957   0.72073    0.010
 5698.00    0.83381   0.71674    0.010
 5699.00    0.73892   0.71443    0.010
 5700.00    0.61193   0.71193    0.010
 5701.00    0.54923   0.70597    0.010
 5702.00    0.50221   0.70203    0.010
 5703.00    0.49888   0.70530    0.010
 5704.00    0.50417   0.71295    0.010
 5705.00    0.53006   0.71549    0.010
 5706.00    0.55912   0.70961    0.010
 5707.00    0.59381   0.70124    0.010
 5708.00    0.62914   0.69319    0.009
 5709.00    0.64653   0.68824    0.010
 5710.00    0.66255   0.69107    0.010
 5711.00    0.66024   0.69362    0.010
 5712.00    0.65719   0.69466    0.010
 5713.00    0.65535   0.70554    0.010
 5714.00    0.65284   0.71778    0.010
 5715.00    0.62222   0.72340    0.010
 5716.00    0.59659   0.72560    0.010
 5717.00    0.65687   0.72607    0.010
 5718.00    0.70859   0.72661    0.010
 5719.00    0.66985   0.72931    0.010
 5720.00    0.64167   0.73217    0.010
 5721.00    0.69268   0.73455    0.010
 5722.00    0.73950   0.73765    0.010
 5723.00    0.76241   0.73927    0.010
 5724.00    0.76172   0.73826    0.010
 5725.00    0.65388   0.73609    0.010
 5726.00    0.56393   0.72819    0.010
 5727.00    0.54057   0.71871    0.010
 5728.00    0.51787   0.71895    0.010
 5729.00    0.49722   0.72717    0.010
 5730.00    0.47715   0.72859    0.010
 5731.00    0.45861   0.72168    0.010
 5732.00    0.45701   0.71982    0.010
 5733.00    0.49385   0.72629    0.010
 5734.00    0.55225   0.73253    0.010
 5735.00    0.65303   0.73533    0.010
 5736.00    0.66658   0.73394    0.010
 5737.00    0.53071   0.73082    0.010
 5738.00    0.43152   0.72697    0.010
 5739.00    0.38733   0.72302    0.010
 5740.00    0.38691   0.72279    0.000
 5741.00    0.44416   0.72583    0.000
 5742.00    0.49509   0.72773    0.000
 5743.00    0.53866   0.72572    0.000
 5744.00    0.54715   0.72915    0.000
 5745.00    0.51972   0.73686    0.000
 5746.00    0.53505   0.73948    0.000
 5747.00    0.58901   0.73161    0.000
 5748.00    0.59210   0.72160    0.000
 5749.00    0.55469   0.72338    0.000
 5750.00    0.52210   0.73281    0.000
 5751.00    0.49289   0.73606    0.000
 5752.00    0.50328   0.72886    0.000
 5753.00    0.53801   0.71650    0.000
 5754.00    0.59098   0.71076    0.000
 5755.00    0.65373   0.71818    0.000
 5756.00    0.66898   0.73171    0.000
 5757.00    0.66209   0.74088    0.000
 5758.00    0.64205   0.74328    0.000
 5759.00    0.61672   0.73854    0.000
 5760.00    0.57396   0.72805    0.000
 5761.00    0.52524   0.71588    0.000
 5762.00    0.53210   0.70798    0.000
 5763.00    0.55499   0.71035    0.000
 5764.00    0.56059   0.72274    0.000
 5765.00    0.56207   0.73373    0.000
 5766.00    0.58385   0.73803    0.000
 5767.00    0.60952   0.73986    0.000
 5768.00    0.67249   0.74035    0.000
 5769.00    0.74102   0.73858    0.000
 5770.00    0.64017   0.73732    0.000
 5771.00    0.52086   0.73582    0.000
 5772.00    0.57610   0.73327    0.000
 5773.00    0.64387   0.73159    0.000
 5774.00    0.59563   0.72960    0.000
 5775.00    0.54311   0.72784    0.000
 5776.00    0.54909   0.72835    0.000
 5777.00    0.55452   0.72966    0.000
 5778.00    0.53181   0.73095    0.000
 5779.00    0.51148   0.72766    0.000
 5780.00    0.52953   0.71477    0.000
 5781.00    0.54602   0.69840    0.000
 5782.00    0.54683   0.69276    0.000
 5783.00    0.53819   0.69633    0.000
 5784.00    0.46104   0.69624    0.000
 5785.00    0.39277   0.69205    0.000
 5786.00    0.37382   0.69583    0.000
 5787.00    0.36475   0.70752    0.000
 5788.00    0.39948   0.71663    0.000
 5789.00    0.45879   0.72150    0.000
 5790.00    0.60770   0.71853    0.000
 5791.00    0.71944   0.71322   -2.000
 5792.00    0.71767   0.71707   -2.000
 5793.00    0.71866   0.72642   -2.000
 5794.00    0.72679   0.73515   -2.000
 5795.00    0.67607   0.74053   -2.000
 5796.00    0.49399   0.73728   -2.000
 5797.00    0.36017   0.72478   -2.000
 5798.00    0.31969   0.71801   -2.000
 5799.00    0.30214   0.72673   -2.000
 5800.00    0.32329   0.73951   -2.000
 5801.00    0.36579   0.74605   -2.000
 5802.00    0.43986   0.74860   -2.000
 5803.00    0.47685   0.74557   -2.000
 5804.00    0.46566   0.73645   -2.000
 5805.00    0.47595   0.73008   -2.000
 5806.00    0.51081   0.73005   -2.000
 5807.00    0.51888   0.73253   -2.000
 5808.00    0.49990   0.73467   -2.000
 5809.00    0.46520   0.73595   -2.000
 5810.00    0.41649   0.73810   -2.000
 5811.00    0.44594   0.73929    0.000
 5812.00    0.53672   0.73792    0.000
 5813.00    0.62577   0.73538    0.000
 5814.00    0.71361   0.73176    0.000
 5815.00    0.72836   0.72542    0.000
 5816.00    0.69890   0.72015    0.000
 5817.00    0.66669   0.72345    0.000
 5818.00    0.63305   0.73256    0.000
 5819.00    0.62723   0.73931    0.000
 5820.00    0.63416   0.74209    0.000
 5821.00    0.58175   0.74285    0.000
 5822.00    0.50592   0.73986    0.000
 5823.00    0.50441   0.73500    0.000
 5824.00    0.52788   0.73261    0.000
 5825.00    0.53150   0.73455    0.000
 5826.00    0.52952   0.73634    0.000
 5827.00    0.55031   0.73750    0.000
 5828.00    0.57641   0.73914    0.000
 5829.00    0.59342   0.74056    0.000
 5830.00    0.60873   0.74013    0.000
 5831.00    0.66415   0.73832    0.000
 5832.00    0.72536   0.73811    0.000
 5833.00    0.69499   0.73680    0.000
 5834.00    0.65502   0.73146    0.000
 5835.00    0.56983   0.72826    0.000
 5836.00    0.48158   0.73197    0.000
 5837.00    0.46900   0.73413    0.000
 5838.00    0.45892   0.72999    0.000
 5839.00    0.42381   0.72831    0.000
 5840.00    0.39258   0.73426    0.000
 5841.00    0.48460   0.74147    0.000
 5842.00    0.57124   0.74403    0.000
 5843.00    0.57677   0.74274    0.000
 5844.00    0.57486   0.73938    0.000
 5845.00    0.50089   0.73517    0.000
 5846.00    0.43454   0.72999    0.000
 5847.00    0.42169   0.72529    0.000
 5848.00    0.40891   0.72420    0.000
 5849.00    0.39645   0.72639    0.000
 5850.00    0.39427   0.72719    0.000
 5851.00    0.43664   0.72387    0.000
 5852.00    0.47150   0.71544    0.000
 5853.00    0.47955   0.70772    0.000
 5854.00    0.49941   0.70869    0.000
 5855.00    0.55469   0.71370    0.000
 5856.00    0.60437   0.71113    0.000
 5857.00    0.63978   0.69954    0.000
 5858.00    0.64220   0.69223    0.000
 5859.00    0.57218   0.69697    0.000
 5860.00    0.53265   0.70814    0.000
 5861.00    0.55117   0.71625    0.000
 5862.00    0.56901   0.71598    0.000
 5863.00    0.58571   0.71322    0.000
 5864.00    0.59274   0.71488    0.000
 5865.00    0.58568   0.71578    0.000
 5866.00    0.59965   0.71040    0.000
 5867.00    0.64059   0.70635    0.000
 5868.00    0.63424   0.71147    0.000
 5869.00    0.57451   0.72018    0.000
 5870.00    0.57622   0.72592    0.000
 5871.00    0.63908   0.72644    0.000
 5872.00    0.68179   0.72163    0.000
 5873.00    0.70678   0.71458    0.000
 5874.00    0.67138   0.69831    0.000
 5875.00    0.58924   0.67848    0.000
 5876.00    0.61299   0.67157    0.000
 5877.00    0.70876   0.68304    0.000
 5878.00    0.72549   0.70172    0.000
 5879.00    0.69512   0.70254    0.000
 5880.00    0.62686   0.69659    0.000
 5881.00    0.53890   0.69719    0.000
 5882.00    0.57590   0.70279    0.000
 5883.00    0.66921   0.70358    0.000
 5884.00    0.68096   0.69968    0.000
 5885.00    0.66110   0.69676    0.000
 5886.00    0.68293   0.69279    0.000
 5887.00    0.71852   0.67898    0.000
 5888.00    0.69301   0.64259    0.000
 5889.00    0.65061   0.58873    0.000
 5890.00    0.58284   0.55352    0.000
 5891.00    0.50931   0.56493    0.000
 5892.00    0.47502   0.59987    0.000
 5893.00    0.44787   0.62278    0.000
 5894.00    0.44961   0.62482    0.000
 5895.00    0.45539   0.59993    0.000
 5896.00    0.47648   0.57975    0.000
 5897.00    0.49910   0.59508    0.000
 5898.00    0.55464   0.62670    0.000
 5899.00    0.61227   0.64812    0.000
 5900.00    0.57654   0.66411    0.000
 5901.00    0.53799   0.67937    0.010
 5902.00    0.46893   0.68874    0.010
 5903.00    0.40412   0.69492    0.010
 5904.00    0.45885   0.69938    0.010
 5905.00    0.51258   0.69966    0.010
 5906.00    0.55184   0.69980    0.010
 5907.00    0.58726   0.70337    0.010
 5908.00    0.58678   0.70778    0.010
 5909.00    0.57229   0.70960    0.010
 5910.00    0.46268   0.71106    0.009
 5911.00    0.37638   0.71405    0.009
 5912.00    0.41275   0.71275    0.009
 5913.00    0.44549   0.70516    0.009
 5914.00    0.46284   0.69587    0.009
 5915.00    0.47860   0.69239    0.009
 5916.00    0.48885   0.69363    0.009
 5917.00    0.50020   0.69909    0.009
 5918.00    0.51482   0.70361    0.009
 5919.00    0.53659   0.70536    0.009
 5920.00    0.57629   0.70823    0.009
 5921.00    0.60220   0.70856    0.009
 5922.00    0.59833   0.70531    0.009
 5923.00    0.59387   0.70491    0.009
 5924.00    0.58831   0.70675    0.009
 5925.00    0.58485   0.70853    0.009
 5926.00    0.58483   0.71140    0.009
 5927.00    0.57810   0.71268    0.009
 5928.00    0.56174   0.71034    0.009
 5929.00    0.58346   0.70510    0.009
 5930.00    0.65328   0.70168    0.009
 5931.00    0.67319   0.70535    0.010
 5932.00    0.63753   0.71209    0.010
 5933.00    0.60103   0.71163    0.010
 5934.00    0.56370   0.70399    0.010
 5935.00    0.54818   0.69904    0.010
 5936.00    0.55154   0.70372    0.009
 5937.00    0.56175   0.71003    0.009
 5938.00    0.57720   0.71403    0.009
 5939.00    0.54086   0.71588    0.009
 5940.00    0.46983   0.70939    0.009
 5941.00    0.45580   0.69880    0.009
 5942.00    0.47522   0.69694    0.009
 5943.00    0.48686   0.70216    0.009
 5944.00    0.49453   0.70767    0.009
 5945.00    0.48999   0.71350    0.009
 5946.00    0.48003   0.71862    0.009
 5947.00    0.46434   0.71776    0.009
 5948.00    0.44646   0.71009    0.009
 5949.00    0.48977   0.70353    0.009
 5950.00    0.55288   0.70501    0.009
 5951.00    0.62696   0.70842    0.009
 5952.00    0.70401   0.70481    0.009
 5953.00    0.64019   0.70000    0.009
 5954.00    0.54507   0.70224    0.009
 5955.00    0.43169   0.70466    0.009
 5956.00    0.31508   0.69936    0.009
 5957.00    0.38793   0.69403    0.009
 5958.00    0.48638   0.69591    0.009
 5959.00    0.52486   0.70373    0.009
 5960.00    0.55757   0.71240    0.009
 5961.00    0.52625   0.71737    0.009
 5962.00    0.49111   0.71892    0.009
 5963.00    0.52107   0.71808    0.009
 5964.00    0.55225   0.71622    0.009
 5965.00    0.51380   0.71232    0.009
 5966.00    0.47598   0.70966    0.009
 5967.00    0.45410   0.71275    0.009
 5968.00    0.43899   0.71691    0.009
 5969.00    0.51522   0.71945    0.009
 5970.00    0.58600   0.72186    0.009
 5971.00    0.60804   0.72370    0.009
 5972.00    0.61232   0.72389    0.009
 5973.00    0.49970   0.72328    0.009
 5974.00    0.41068   0.72057    0.009
 5975.00    0.44266   0.71428    0.009
 5976.00    0.48590   0.70668    0.009
 5977.00    0.57574   0.70008    0.009
 5978.00    0.65033   0.69509    0.009
 5979.00    0.67265   0.69693    0.009
 5980.00    0.67697   0.70433    0.009
 5981.00    0.62935   0.71012    0.009
 5982.00    0.59225   0.70876    0.009
 5983.00    0.58109   0.70040    0.009
 5984.00    0.57890   0.69089    0.009
 5985.00    0.59579   0.69214    0.009
 5986.00    0.60225   0.70200    0.009
 5987.00    0.58945   0.70806    0.009
 5988.00    0.56942   0.70889    0.009
 5989.00    0.53770   0.71063    0.009
 5990.00    0.52433   0.71186    0.009
 5991.00    0.53692   0.70955    0.009
 5992.00    0.58160   0.70940    0.009
 5993.00    0.66625   0.71652    0.009
 5994.00    0.69706   0.72406    0.010
 5995.00    0.66882   0.72378    0.010
 5996.00    0.60920   0.71723    0.009
 5997.00    0.51923   0.70993    0.009
 5998.00    0.48286   0.70564    0.009
 5999.00    0.49224   0.70560    0.009
 6000.00    0.47835   0.70891    0.009
 6001.00    0.44698   0.71109    0.009
 6002.00    0.45273   0.70716    0.009
 6003.00    0.48301   0.70323    0.009
 6004.00    0.50690   0.70653    0.009
 6005.00    0.52709   0.70923    0.009
 6006.00    0.50160   0.70563    0.009
 6007.00    0.45310   0.69816    0.009
 6008.00    0.41631   0.69273    0.009
 6009.00    0.38463   0.69765    0.009
 6010.00    0.43971   0.70924    0.009
 6011.00    0.52726   0.71391    0.009
 6012.00    0.60032   0.70879    0.009
 6013.00    0.66879   0.70141    0.009
 6014.00    0.67036   0.70155    0.009
 6015.00    0.65419   0.70451    0.009
 6016.00    0.60929   0.70155    0.009
 6017.00    0.55815   0.69743    0.009
 6018.00    0.56718   0.69822    0.009
 6019.00    0.58656   0.69963    0.009
 6020.00    0.49864   0.69954    0.009
 6021.00    0.39672   0.70030    0.009
 6022.00    0.37421   0.70217    0.009
 6023.00    0.35899   0.70310    0.009
 6024.00    0.38635   0.70423    0.009
 6025.00    0.41609   0.70875    0.009
 6026.00    0.49622   0.71277    0.009
 6027.00    0.57700   0.71365    0.009
 6028.00    0.61334   0.71721    0.009
 6029.00    0.64558   0.72184    0.009
 6030.00    0.58240   0.72192    0.009
 6031.00    0.52185   0.71843    0.009
 6032.00    0.49482   0.71852    0.009
 6033.00    0.48202   0.72241    0.009
 6034.00    0.59166   0.72551    0.009
 6035.00    0.69077   0.72638    0.009
 6036.00    0.72264   0.72597    0.009
 6037.00    0.73184   0.72483    0.009
 6038.00    0.62766   0.72404    0.009
 6039.00    0.54347   0.72077    0.009
 6040.00    0.54015   0.71743    0.009
 6041.00    0.54518   0.71762    0.009
 6042.00    0.57824   0.71951    0.009
 6043.00    0.59626   0.72330    0.009
 6044.00    0.57169   0.72741    0.009
 6045.00    0.54745   0.72968    0.009
 6046.00    0.52402   0.73092    0.009
 6047.00    0.50709   0.73120    0.009
 6048.00    0.50376   0.72911    0.009
 6049.00    0.49576   0.72728    0.009
 6050.00    0.47927   0.72909    0.009
 6051.00    0.47616   0.73057    0.009
 6052.00    0.49432   0.72782    0.009
 6053.00    0.54290   0.72317    0.009
 6054.00    0.63389   0.72011    0.009
 6055.00    0.68907   0.71784    0.009
 6056.00    0.70032   0.71413    0.010
 6057.00    0.65424   0.71056    0.009
 6058.00    0.54616   0.71059    0.009
 6059.00    0.50451   0.71608    0.009
 6060.00    0.52626   0.72253    0.009
 6061.00    0.53400   0.72486    0.009
 6062.00    0.52996   0.72179    0.009
 6063.00    0.51286   0.71500    0.009
 6064.00    0.48608   0.70624    0.009
 6065.00    0.49897   0.69761    0.009
 6066.00    0.53766   0.70089    0.009
 6067.00    0.61413   0.71519    0.009
 6068.00    0.71212   0.72645    0.009
 6069.00    0.74031   0.73107    0.009
 6070.00    0.73390   0.73220    0.009
 6071.00    0.65700   0.73382    0.009
 6072.00    0.54988   0.73632    0.009
 6073.00    0.48642   0.73699    0.009
 6074.00    0.43899   0.73622    0.009
 6075.00    0.46453   0.73445    0.009
 6076.00    0.51279   0.73129    0.009
 6077.00    0.53202   0.72640    0.009
 6078.00    0.54373   0.71990    0.009
 6079.00    0.54025   0.71651    0.009
 6080.00    0.53356   0.71619    0.009
 6081.00    0.55462   0.71067    0.009
 6082.00    0.58033   0.70392    0.009
 6083.00    0.61547   0.70633    0.009
 6084.00    0.65180   0.71238    0.009
 6085.00    0.67728   0.71242    0.009
 6086.00    0.70181   0.71152    0.009
 6087.00    0.72571   0.71481    0.009
 6088.00    0.74958   0.71798    0.009
 6089.00    0.73307   0.71380    0.009
 6090.00    0.71580   0.70457    0.009
 6091.00    0.69609   0.70094    0.009
 6092.00    0.67622   0.70260    0.009
 6093.00    0.65254   0.70473    0.009
 6094.00    0.63354   0.71232    0.009
 6095.00    0.67125   0.72061    0.009
 6096.00    0.70180   0.72057    0.009
 6097.00    0.67290   0.71533    0.009
 6098.00    0.63709   0.71486    0.009
 6099.00    0.55841   0.71982    0.009
 6100.00    0.48852   0.72264    0.009
 6101.00    0.46141   0.71426    0.009
 6102.00    0.44399   0.69073    0.009
 6103.00    0.46490   0.67538    0.009
 6104.00    0.49063   0.68406    0.009
 6105.00    0.53226   0.70025    0.009
 6106.00    0.56513   0.70829    0.009
 6107.00    0.57362   0.70934    0.009
 6108.00    0.58837   0.71044    0.009
 6109.00    0.61801   0.71609    0.009
 6110.00    0.63565   0.71838    0.009
 6111.00    0.62860   0.71291    0.009
 6112.00    0.60898   0.71109    0.009
 6113.00    0.56689   0.71751    0.009
 6114.00    0.52897   0.72405    0.009
 6115.00    0.49756   0.72428    0.009
 6116.00    0.49454   0.71866    0.009
 6117.00    0.53053   0.71637    0.009
 6118.00    0.58997   0.71762    0.009
 6119.00    0.67778   0.71184    0.009
 6120.00    0.69019   0.69870    0.009
 6121.00    0.62216   0.68372    0.009
 6122.00    0.57892   0.67208    0.009
 6123.00    0.55901   0.67783    0.009
 6124.00    0.55578   0.69349    0.009
 6125.00    0.56640   0.70077    0.009
 6126.00    0.60360   0.70050    0.009
 6127.00    0.66021   0.69877    0.009
 6128.00    0.65548   0.69780    0.009
 6129.00    0.61143   0.70231    0.009
 6130.00    0.55378   0.71346    0.008
 6131.00    0.48850   0.72274    0.008
 6132.00    0.50683   0.72591    0.009
 6133.00    0.56597   0.72375    0.009
 6134.00    0.58748   0.71294    0.009
 6135.00    0.59314   0.69299    0.009
 6136.00    0.58934   0.66945    0.009
 6137.00    0.58212   0.65402    0.009
 6138.00    0.53862   0.66357    0.009
 6139.00    0.48406   0.69080    0.009
 6140.00    0.40718   0.70598    0.009
 6141.00    0.32463   0.70174    0.009
 6142.00    0.33768   0.69710    0.009
 6143.00    0.37047   0.70531    0.009
 6144.00    0.47303   0.71735    0.009
 6145.00    0.58694   0.72233    0.009
 6146.00    0.55080   0.72061    0.009
 6147.00    0.49642   0.71743    0.009
 6148.00    0.40994   0.71147    0.009
 6149.00    0.32077   0.70194    0.009
 6150.00    0.41355   0.69471    0.009
 6151.00    0.51504   0.69673    0.009
 6152.00    0.57124   0.70505    0.009
 6153.00    0.62598   0.71136    0.009
 6154.00    0.63400   0.70871    0.008
 6155.00    0.64066   0.70222    0.008
 6156.00    0.62059   0.69983    0.008
 6157.00    0.59538   0.69843    0.009
 6158.00    0.51072   0.69643    0.009
 6159.00    0.43647   0.69250    0.009
 6160.00    0.44552   0.67841    0.009
 6161.00    0.45819   0.65193    0.009
 6162.00    0.49269   0.62942    0.009
 6163.00    0.51683   0.62650    0.009
 6164.00    0.49176   0.63919    0.009
 6165.00    0.47146   0.65441    0.009
 6166.00    0.46963   0.66573    0.009
 6167.00    0.47801   0.67431    0.009
 6168.00    0.51934   0.67315    0.009
 6169.00    0.56358   0.65743    0.009
 6170.00    0.61577   0.64854    0.009
 6171.00    0.64474   0.66016    0.009
 6172.00    0.61930   0.67539    0.009
 6173.00    0.58807   0.67991    0.009
 6174.00    0.54514   0.68122    0.009
 6175.00    0.50274   0.68473    0.009
 6176.00    0.46132   0.68611    0.009
 6177.00    0.43915   0.68659    0.009
 6178.00    0.44670   0.69071    0.009
 6179.00    0.43690   0.69439    0.008
 6180.00    0.40360   0.69381    0.008
 6181.00    0.39602   0.69494    0.008
 6182.00    0.41912   0.69795    0.008
 6183.00    0.42043   0.69841    0.008
 6184.00    0.39883   0.69744    0.008
 6185.00    0.41012   0.69454    0.008
 6186.00    0.45192   0.68622    0.009
 6187.00    0.34129   0.67771    0.012
 6188.00    0.10602   0.67408    0.041
 6189.00    0.99504   0.67150   -1.000
 6190.00    2.69318   0.66320   -1.000
 6191.00    5.03466   0.64993   -1.000
 6192.00    7.78252   0.64821   -1.000
 6193.00   10.13390   0.66281   -1.000
 6194.00   12.26632   0.67710   -1.000
 6195.00   12.96250   0.68540   -1.000
 6196.00   12.96900   0.69081   -2.000
 6197.00   10.36813   0.69296   -2.000
 6198.00    6.68642   0.68694   -2.000
 6199.00    3.94286   0.67356   -2.000
 6200.00    1.53181   0.66665   -2.000
 6201.00    0.47112   0.67364   -2.000
 6202.00   -0.18548   0.68492   -2.000
 6203.00   -0.30608   0.69160   -2.000
 6204.00   -0.29354   0.69258   -2.000
 6205.00   -0.13170   0.69174   -2.000
 6206.00    0.06020   0.69292   -2.000
 6207.00    0.20949   0.69486   -2.000
 6208.00    0.35206   0.69547    0.009
 6209.00    0.36177   0.69338    0.009
 6210.00    0.35590   0.68728    0.009
 6211.00    0.33067   0.68116    0.009
 6212.00    0.30389   0.67474    0.009
 6213.00    0.37908   0.66185    0.008
 6214.00    0.45875   0.64862    0.008
 6215.00    0.56068   0.64357    0.008
 6216.00    0.65970   0.64617    0.008
 6217.00    0.60892   0.65483    0.008
 6218.00    0.55881   0.66059    0.009
 6219.00    0.52088   0.65708    0.009
 6220.00    0.48654   0.65184    0.009
 6221.00    0.49153   0.65160    0.009
 6222.00    0.49801   0.65553    0.009
 6223.00    0.51596   0.65826    0.009
 6224.00    0.53795   0.65769    0.009
 6225.00    0.58358   0.65960    0.009
 6226.00    0.62508   0.66388    0.009
 6227.00    0.64741   0.66576    0.009
 6228.00    0.66551   0.66387    0.009
 6229.00    0.66760   0.65430    0.009
 6230.00    0.66066   0.63778    0.009
 6231.00    0.62513   0.62956    0.009
 6232.00    0.58420   0.63511    0.009
 6233.00    0.52878   0.64584    0.009
 6234.00    0.50431   0.66026    0.008
 6235.00    0.55111   0.67280    0.008
 6236.00    0.58959   0.67703    0.008
 6237.00    0.61152   0.67347    0.008
 6238.00    0.61874   0.66394    0.008
 6239.00    0.60042   0.65003    0.008
 6240.00    0.58051   0.64155    0.008
 6241.00    0.55820   0.64505    0.008
 6242.00    0.54777   0.64551    0.008
 6243.00    0.55318   0.63779    0.008
 6244.00    0.57831   0.63822    0.009
 6245.00    0.62663   0.64461    0.009
 6246.00    0.63953   0.64867    0.009
 6247.00    0.61569   0.65646    0.009
 6248.00    0.57467   0.66567    0.009
 6249.00    0.51792   0.66950    0.009
 6250.00    0.52380   0.66828    0.009
 6251.00    0.58018   0.66154    0.009
 6252.00    0.61400   0.64991    0.009
 6253.00    0.63181   0.64377    0.009
 6254.00    0.63277   0.64493    0.009
 6255.00    0.62325   0.64565    0.009
 6256.00    0.64657   0.63990    0.009
 6257.00    0.68776   0.62830    0.009
 6258.00    0.71384   0.61925    0.009
 6259.00    0.73278   0.62355    0.009
 6260.00    0.70587   0.63799    0.010
 6261.00    0.66028   0.64770    0.010
 6262.00    0.52623   0.65759    0.011
 6263.00    0.36138   0.66963    0.011
 6264.00    0.22917   0.67081    0.011
 6265.00    0.10654   0.66190    0.010
 6266.00    0.13475   0.65888    0.010
 6267.00    0.19960   0.66294    0.009
 6268.00    0.31946   0.66333    0.009
 6269.00    0.45011   0.66164    0.008
 6270.00    0.56550   0.66450    0.008
 6271.00    0.67856   0.66941    0.009
 6272.00    0.64659   0.67216    0.008
 6273.00    0.59827   0.67251    0.008
 6274.00    0.55783   0.67055    0.008
 6275.00    0.51799   0.67003    0.009
 6276.00    0.52135   0.67019    0.009
 6277.00    0.52644   0.67089    0.009
 6278.00    0.50877   0.67231    0.009
 6279.00    0.49175   0.66997    0.009
 6280.00    0.50777   0.66228    0.000
 6281.00    0.52252   0.65814    0.000
 6282.00    0.51547   0.66181    0.000
 6283.00    0.51531   0.66929    0.000
 6284.00    0.58758   0.67481    0.000
 6285.00    0.65200   0.67458    0.000
 6286.00    0.65779   0.67663    0.000
 6287.00    0.66747   0.68365    0.000
 6288.00    0.69930   0.69035    0.000
 6289.00    0.72296   0.69344    0.000
 6290.00    0.70965   0.68949    0.000
 6291.00    0.69318   0.68197    0.000
 6292.00    0.66499   0.67563    0.000
 6293.00    0.64460   0.67274    0.000
 6294.00    0.64843   0.67459    0.000
 6295.00    0.65045   0.67257    0.000
 6296.00    0.64769   0.66243    0.000
 6297.00    0.64917   0.65627    0.000
 6298.00    0.66024   0.66098    0.000
 6299.00    0.65500   0.67033    0.000
 6300.00    0.61780   0.67372    0.000
 6301.00    0.59589   0.66952    0.000
 6302.00    0.60013   0.66605    0.000
 6303.00    0.60559   0.66844    0.000
 6304.00    0.61287   0.67148    0.000
 6305.00    0.60064   0.67022    0.000
 6306.00    0.56273   0.67188    0.000
 6307.00    0.55554   0.68279    0.000
 6308.00    0.58397   0.69240    0.000
 6309.00    0.61079   0.69359    0.000
 6310.00    0.63595   0.68855    0.000
 6311.00    0.65378   0.68106    0.000
 6312.00    0.66500   0.67758    0.000
 6313.00    0.62760   0.67952    0.000
 6314.00    0.55157   0.67832    0.000
 6315.00    0.49683   0.67377    0.000
 6316.00    0.45699   0.67394    0.000
 6317.00    0.46958   0.67235    0.000
 6318.00    0.51433   0.66424    0.000
 6319.00    0.54266   0.66413    0.000
 6320.00    0.56221   0.67355    0.000
 6321.00    0.55919   0.68097    0.008
 6322.00    0.54569   0.68377    0.008
 6323.00    0.56234   0.68718    0.008
 6324.00    0.59107   0.69079    0.008
 6325.00    0.59954   0.69107    0.008
 6326.00    0.60108   0.69053    0.008
 6327.00    0.57284   0.69034    0.009
 6328.00    0.53604   0.69369    0.009
 6329.00    0.60876   0.69694    0.009
 6330.00    0.70750   0.69406    0.009
 6331.00    0.75499   0.69366    0.009
 6332.00    0.79267   0.69932    0.009
 6333.00    0.76552   0.70329    0.009
 6334.00    0.72877   0.69672    0.009
 6335.00    0.69160   0.67999    0.009
 6336.00    0.65439   0.66869    0.009
 6337.00    0.60231   0.67326    0.008
 6338.00    0.54918   0.68166    0.008
 6339.00    0.55952   0.68572    0.008
 6340.00    0.57217   0.69168    0.008
 6341.00    0.62114   0.69677    0.008
 6342.00    0.66932   0.69345    0.008
 6343.00    0.68461   0.68232    0.008
 6344.00    0.69612   0.67246    0.008
 6345.00    0.64739   0.67127    0.008
 6346.00    0.60255   0.67316    0.008
 6347.00    0.59686   0.67674    0.008
 6348.00    0.59174   0.68356    0.008
 6349.00    0.59077   0.69303    0.008
 6350.00    0.58266   0.69831    0.008
 6351.00    0.53511   0.70028    0.008
 6352.00    0.49441   0.70015    0.008
 6353.00    0.48400   0.69525    0.009
 6354.00    0.46889   0.68620    0.009
 6355.00    0.43670   0.68026    0.009
 6356.00    0.42702   0.68135    0.009
 6357.00    0.48590   0.67971    0.009
 6358.00    0.53838   0.66957    0.009
 6359.00    0.57431   0.66067    0.009
 6360.00    0.62165   0.65849    0.009
 6361.00    0.69440   0.65642    0.009
 6362.00    0.73619   0.65254    0.009
 6363.00    0.71820   0.65364    0.009
 6364.00    0.69981   0.66062    0.009
 6365.00    0.68075   0.66853    0.009
 6366.00    0.66015   0.67628    0.009
 6367.00    0.63730   0.68540    0.008
 6368.00    0.60780   0.69406    0.008
 6369.00    0.56968   0.69557    0.008
 6370.00    0.51602   0.68920    0.008
 6371.00    0.44461   0.68719    0.008
 6372.00    0.41203   0.69396    0.008
 6373.00    0.41860   0.70217    0.008
 6374.00    0.46195   0.70444    0.008
 6375.00    0.53799   0.70235    0.008
 6376.00    0.60415   0.70234    0.008
 6377.00    0.66256   0.70039    0.009
 6378.00    0.67056   0.69228    0.009
 6379.00    0.64385   0.68464    0.009
 6380.00    0.60894   0.68316    0.009
 6381.00    0.56910   0.68445    0.008
 6382.00    0.57780   0.68748    0.009
 6383.00    0.61210   0.68973    0.009
 6384.00    0.63806   0.68901    0.009
 6385.00    0.66022   0.68955    0.009
 6386.00    0.65697   0.69327    0.009
 6387.00    0.64374   0.69535    0.009
 6388.00    0.61711   0.69425    0.009
 6389.00    0.58599   0.69355    0.008
 6390.00    0.60162   0.69444    0.008
 6391.00    0.63041   0.69224    0.008
 6392.00    0.68748   0.68204    0.008
 6393.00    0.75111   0.66807    0.009
 6394.00    0.74597   0.66611    0.009
 6395.00    0.72802   0.67788    0.009
 6396.00    0.69794   0.69096    0.009
 6397.00    0.66612   0.69896    0.009
 6398.00    0.67311   0.69755    0.009
 6399.00    0.68415   0.68263    0.009
 6400.00    0.62877   0.66704    0.009
 6401.00    0.56893   0.67145    0.008
 6402.00    0.53425   0.68802    0.008
 6403.00    0.50038   0.69863    0.008
 6404.00    0.51734   0.70355    0.009
 6405.00    0.53428   0.70418    0.009
 6406.00    0.55029   0.69954    0.009
 6407.00    0.56771   0.69186    0.009
 6408.00    0.60626   0.68731    0.009
 6409.00    0.64199   0.69265    0.009
 6410.00    0.65048   0.69600    0.009
 6411.00    0.65069   0.68841    0.009
 6412.00    0.59314   0.68200    0.009
 6413.00    0.54173   0.68243    0.009
 6414.00    0.52340   0.68634    0.008
 6415.00    0.51773   0.69296    0.008
 6416.00    0.56677   0.69857    0.008
 6417.00    0.61235   0.69886    0.008
 6418.00    0.64559   0.69394    0.008
 6419.00    0.66345   0.68619    0.008
 6420.00    0.63535   0.67730    0.008
 6421.00    0.61381   0.67436    0.008
 6422.00    0.60897   0.68382    0.008
 6423.00    0.61003   0.69754    0.008
 6424.00    0.62399   0.70259    0.008
 6425.00    0.64621   0.70224    0.008
 6426.00    0.68416   0.70527    0.008
 6427.00    0.73109   0.70996    0.008
 6428.00    0.79292   0.70949    0.009
 6429.00    0.81995   0.69969    0.009
 6430.00    0.79636   0.68200    0.009
 6431.00    0.73066   0.67072    0.009
 6432.00    0.61111   0.67750    0.009
 6433.00    0.55030   0.69035    0.009
 6434.00    0.55566   0.69698    0.009
 6435.00    0.57853   0.69973    0.009
 6436.00    0.61879   0.70254    0.009
 6437.00    0.64274   0.69997    0.009
 6438.00    0.65241   0.68727    0.009
 6439.00    0.62783   0.67675    0.008
 6440.00    0.57682   0.68266    0.008
 6441.00    0.55300   0.69622    0.008
 6442.00    0.54764   0.70465    0.008
 6443.00    0.54828   0.70879    0.008
 6444.00    0.55250   0.71072    0.008
 6445.00    0.58601   0.71340    0.008
 6446.00    0.63472   0.71617    0.008
 6447.00    0.66257   0.71398    0.008
 6448.00    0.68104   0.69895    0.008
 6449.00    0.65193   0.67163    0.008
 6450.00    0.60441   0.65312    0.009
 6451.00    0.55708   0.65968    0.009
 6452.00    0.50981   0.67821    0.008
 6453.00    0.52832   0.69401    0.008
 6454.00    0.56497   0.69980    0.009
 6455.00    0.61248   0.69412    0.008
 6456.00    0.66245   0.68985    0.008
 6457.00    0.68754   0.69624    0.009
 6458.00    0.70812   0.70747    0.009
 6459.00    0.68429   0.71580    0.009
 6460.00    0.65429   0.71667    0.009
 6461.00    0.63941   0.70457    0.009
 6462.00    0.62604   0.68193    0.008
 6463.00    0.68366   0.66950    0.008
 6464.00    0.74576   0.67740    0.008
 6465.00    0.69832   0.68992    0.008
 6466.00    0.64778   0.69870    0.008
 6467.00    0.61486   0.70575    0.008
 6468.00    0.58422   0.70930    0.008
 6469.00    0.61681   0.70678    0.008
 6470.00    0.65112   0.70184    0.008
 6471.00    0.70971   0.69691    0.008
 6472.00    0.75793   0.69638    0.008
 6473.00    0.71004   0.69981    0.008
 6474.00    0.65745   0.69832    0.008
 6475.00    0.57306   0.69410    0.008
 6476.00    0.50459   0.69674    0.008
 6477.00    0.51960   0.70360    0.008
 6478.00    0.54260   0.70595    0.008
 6479.00    0.59933   0.70587    0.008
 6480.00    0.64963   0.70247    0.009
 6481.00    0.67750   0.69046    0.009
 6482.00    0.68990   0.67665    0.009
 6483.00    0.65689   0.67452    0.008
 6484.00    0.63134   0.68375    0.008
 6485.00    0.62446   0.69338    0.009
 6486.00    0.62173   0.69821    0.009
 6487.00    0.62795   0.70095    0.009
 6488.00    0.64716   0.70199    0.008
 6489.00    0.69071   0.69810    0.008
 6490.00    0.72355   0.69124    0.008
 6491.00    0.73890   0.68673    0.008
 6492.00    0.71786   0.68220    0.008
 6493.00    0.64466   0.66652    0.008
 6494.00    0.58327   0.64064    0.008
 6495.00    0.53677   0.62352    0.008
 6496.00    0.51757   0.62280    0.008
 6497.00    0.52868   0.63075    0.008
 6498.00    0.54241   0.64190    0.008
 6499.00    0.55873   0.65073    0.008
 6500.00    0.54513   0.66092    0.008
 6501.00    0.50570   0.67109    0.008
 6502.00    0.49443   0.67879    0.008
 6503.00    0.50460   0.68502    0.009
 6504.00    0.50872   0.68997    0.009
 6505.00    0.50880   0.69439    0.009
 6506.00    0.50430   0.69658    0.009
 6507.00    0.49712   0.69410    0.009
 6508.00    0.52044   0.68837    0.008
 6509.00    0.55935   0.68717    0.008
 6510.00    0.58598   0.69228    0.008
 6511.00    0.60719   0.69742    0.008
 6512.00    0.60291   0.69902    0.008
 6513.00    0.58894   0.69922    0.008
 6514.00    0.60913   0.69758    0.008
 6515.00    0.64035   0.69297    0.008
 6516.00    0.64089   0.68882    0.008
 6517.00    0.63314   0.68615    0.008
 6518.00    0.60869   0.68294    0.008
 6519.00    0.58053   0.68379    0.008
 6520.00    0.51331   0.69090    0.008
 6521.00    0.43920   0.69789    0.008
 6522.00    0.46306   0.70049    0.008
 6523.00    0.50009   0.70045    0.008
 6524.00    0.53139   0.70163    0.008
 6525.00    0.56215   0.70190    0.009
 6526.00    0.51815   0.69638    0.009
 6527.00    0.46973   0.69040    0.009
 6528.00    0.50431   0.69145    0.000
 6529.00    0.54054   0.69667    0.000
 6530.00    0.51292   0.69875    0.000
 6531.00    0.48907   0.69417    0.000
 6532.00    0.56002   0.68742    0.000
 6533.00    0.62948   0.68557    0.000
 6534.00    0.67912   0.69062    0.000
 6535.00    0.71662   0.69773    0.000
 6536.00    0.64610   0.69973    0.000
 6537.00    0.58033   0.69610    0.000
 6538.00    0.54580   0.69487    0.000
 6539.00    0.51688   0.69954    0.000
 6540.00    0.51667   0.70344    0.000
 6541.00    0.51905   0.70080    0.000
 6542.00    0.53210   0.69342    0.000
 6543.00    0.55542   0.68624    0.000
 6544.00    0.61380   0.68113    0.000
 6545.00    0.66939   0.67340    0.000
 6546.00    0.71692   0.66378    0.000
 6547.00    0.75517   0.66210    0.000
 6548.00    0.77060   0.66850    0.000
 6549.00    0.78641   0.67334    0.000
 6550.00    0.80302   0.67103    0.000
 6551.00    0.79632   0.66446    0.000
 6552.00    0.74669   0.65950    0.000
 6553.00    0.71238   0.65445    0.000
 6554.00    0.70276   0.64453    0.000
 6555.00    0.70039   0.63368    0.000
 6556.00    0.70826   0.62775    0.000
 6557.00    0.67099   0.62632    0.000
 6558.00    0.57764   0.62433    0.000
 6559.00    0.56103   0.61816    0.000
 6560.00    0.62849   0.60251    0.000
 6561.00    0.76704   0.56019    0.000
 6562.00    0.97429   0.49574    0.000
 6563.00    1.15850   0.46332    0.000
 6564.00    1.32308   0.49884    0.000
 6565.00    1.34431   0.56034    0.000
 6566.00    1.25801   0.60173    0.000
 6567.00    1.14366   0.62475    0.000
 6568.00    1.01083   0.63606    0.000
 6569.00    0.89026   0.63715    0.000
 6570.00    0.77679   0.64039    0.000
 6571.00    0.65320   0.64608    0.000
 6572.00    0.52454   0.64502    0.000
 6573.00    0.50706   0.63917    0.000
 6574.00    0.53797   0.63691    0.000
 6575.00    0.54651   0.64231    0.000
 6576.00    0.54669   0.65354    0.000
 6577.00    0.55431   0.66383    0.000
 6578.00    0.56429   0.66990    0.000
 6579.00    0.57241   0.67139    0.000
 6580.00    0.58004   0.66953    0.000
 6581.00    0.58595   0.66529    0.000
 6582.00    0.59148   0.66542    0.000
 6583.00    0.72915   0.67270    0.000
 6584.00    0.88948   0.67876    0.000
 6585.00    0.91900   0.68184    0.000
 6586.00    0.93151   0.68152    0.000
 6587.00    0.89372   0.68540    0.000
 6588.00    0.85134   0.69149    0.000
 6589.00    0.83110   0.69387    0.000
 6590.00    0.81209   0.69310    0.000
 6591.00    0.77920   0.68580    0.000
 6592.00    0.74606   0.66879    0.000
 6593.00    0.71807   0.65299    0.000
 6594.00    0.69095   0.65401    0.000
 6595.00    0.68389   0.66695    0.000
 6596.00    0.67827   0.67713    0.000
 6597.00    0.69084   0.67868    0.000
 6598.00    0.70263   0.67535    0.000
 6599.00    0.70773   0.67513    0.000
 6600.00    0.70954   0.68308    0.000
 6601.00    0.69045   0.69209    0.000
 6602.00    0.67045   0.69513    0.000
 6603.00    0.64595   0.69292    0.000
 6604.00    0.62439   0.68735    0.000
 6605.00    0.61468   0.68095    0.000
 6606.00    0.60804   0.67637    0.000
 6607.00    0.61171   0.67275    0.000
 6608.00    0.60908   0.66709    0.000
 6609.00    0.58865   0.66292    0.008
 6610.00    0.58378   0.67010    0.008
 6611.00    0.61653   0.68390    0.008
 6612.00    0.64029   0.68969    0.008
 6613.00    0.64530   0.68627    0.008
 6614.00    0.65027   0.68474    0.008
 6615.00    0.65517   0.69065    0.008
 6616.00    0.66858   0.69462    0.008
 6617.00    0.69552   0.69286    0.008
 6618.00    0.71873   0.69105    0.008
 6619.00    0.73676   0.69255    0.009
 6620.00    0.74027   0.69539    0.009
 6621.00    0.72602   0.69624    0.009
 6622.00    0.71737   0.69281    0.009
 6623.00    0.71476   0.68375    0.009
 6624.00    0.71372   0.67226    0.009
 6625.00    0.71417   0.66800    0.009
 6626.00    0.70429   0.67460    0.008
 6627.00    0.68573   0.68178    0.008
 6628.00    0.65241   0.68324    0.008
 6629.00    0.60817   0.68155    0.009
 6630.00    0.55970   0.67907    0.008
 6631.00    0.50848   0.67673    0.008
 6632.00    0.49878   0.67242    0.008
 6633.00    0.51269   0.66613    0.008
 6634.00    0.53059   0.66456    0.008
 6635.00    0.55047   0.67099    0.008
 6636.00    0.58449   0.67958    0.008
 6637.00    0.62456   0.68469    0.008
 6638.00    0.64364   0.68496    0.008
 6639.00    0.65501   0.68134    0.008
 6640.00    0.61468   0.67974    0.008
 6641.00    0.55828   0.68319    0.008
 6642.00    0.51969   0.68231    0.008
 6643.00    0.48570   0.67394    0.008
 6644.00    0.55053   0.67051    0.008
 6645.00    0.63621   0.67648    0.009
 6646.00    0.69155   0.68137    0.009
 6647.00    0.74184   0.68051    0.009
 6648.00    0.73849   0.68008    0.009
 6649.00    0.72842   0.68247    0.009
 6650.00    0.69808   0.68256    0.008
 6651.00    0.66596   0.67962    0.008
 6652.00    0.64241   0.67718    0.008
 6653.00    0.61929   0.67696    0.008
 6654.00    0.61215   0.67790    0.008
 6655.00    0.60538   0.67910    0.008
 6656.00    0.60533   0.67824    0.008
 6657.00    0.60494   0.67709    0.008
 6658.00    0.59744   0.67801    0.008
 6659.00    0.59261   0.67758    0.008
 6660.00    0.61977   0.67517    0.008
 6661.00    0.64678   0.67215    0.008
 6662.00    0.67251   0.66687    0.008
 6663.00    0.70159   0.65973    0.008
 6664.00    0.75144   0.65860    0.008
 6665.00    0.79079   0.66236    0.009
 6666.00    0.77907   0.66265    0.009
 6667.00    0.75378   0.66186    0.009
 6668.00    0.67484   0.66568    0.009
 6669.00    0.60976   0.67358    0.009
 6670.00    0.59017   0.68094    0.009
 6671.00    0.57675   0.68456    0.008
 6672.00    0.58046   0.68457    0.008
 6673.00    0.58505   0.68369    0.008
 6674.00    0.59172   0.68280    0.008
 6675.00    0.58361   0.68065    0.008
 6676.00    0.54514   0.66840    0.008
 6677.00    0.53133   0.64181    0.008
 6678.00    0.56156   0.62277    0.008
 6679.00    0.58639   0.62909    0.008
 6680.00    0.60277   0.65047    0.008
 6681.00    0.61799   0.66315    0.008
 6682.00    0.63161   0.66610    0.008
 6683.00    0.62797   0.67006    0.008
 6684.00    0.60348   0.67418    0.008
 6685.00    0.59291   0.67561    0.008
 6686.00    0.59717   0.67453    0.008
 6687.00    0.62822   0.67178    0.008
 6688.00    0.68444   0.67014    0.008
 6689.00    0.70397   0.67246    0.008
 6690.00    0.69313   0.67544    0.009
 6691.00    0.70922   0.67654    0.009
 6692.00    0.74493   0.67630    0.009
 6693.00    0.74934   0.67606    0.009
 6694.00    0.73371   0.67505    0.009
 6695.00    0.67523   0.67036    0.009
 6696.00    0.59276   0.66309    0.000
 6697.00    0.57133   0.66031    0.000
 6698.00    0.57963   0.66336    0.000
 6699.00    0.60418   0.66927    0.000
 6700.00    0.63557   0.67571    0.000
 6701.00    0.61574   0.67843    0.000
 6702.00    0.57748   0.67651    0.000
 6703.00    0.57285   0.67172    0.000
 6704.00    0.57845   0.66796    0.000
 6705.00    0.59946   0.66908    0.000
 6706.00    0.62436   0.67268    0.000
 6707.00    0.60617   0.67500    0.000
 6708.00    0.57911   0.67563    0.000
 6709.00    0.54595   0.67398    0.000
 6710.00    0.51180   0.67040    0.000
 6711.00    0.56113   0.66943    0.000
 6712.00    0.62057   0.67033    0.000
 6713.00    0.66647   0.66824    0.000
 6714.00    0.71125   0.66339    0.000
 6715.00    0.72829   0.65667    0.000
 6716.00    0.74402   0.64842    0.000
 6717.00    0.83385   0.64160    0.000
 6718.00    0.92270   0.64309    0.000
 6719.00    0.89815   0.65259    0.000
 6720.00    0.86965   0.65891    0.000
 6721.00    0.76414   0.65942    0.000
 6722.00    0.66155   0.66063    0.000
 6723.00    0.59245   0.66500    0.000
 6724.00    0.53139   0.66802    0.000
 6725.00    0.53434   0.66602    0.000
 6726.00    0.53542   0.66271    0.000
 6727.00    0.52525   0.66289    0.000
 6728.00    0.52106   0.66604    0.000
 6729.00    0.54522   0.66934    0.000
 6730.00    0.57656   0.67213    0.000
 6731.00    0.63564   0.67245    0.000
 6732.00    0.68478   0.67047    0.000
 6733.00    0.70193   0.66791    0.000
 6734.00    0.70402   0.66710    0.000
 6735.00    0.66507   0.66881    0.000
 6736.00    0.63866   0.67105    0.000
 6737.00    0.64156   0.66922    0.000
 6738.00    0.63954   0.66340    0.000
 6739.00    0.62757   0.65885    0.000
 6740.00    0.60418   0.66022    0.000
 6741.00    0.56070   0.66420    0.000
 6742.00    0.55218   0.66219    0.000
 6743.00    0.59747   0.65762    0.000
 6744.00    0.61177   0.65872    0.000
 6745.00    0.58415   0.66106    0.000
 6746.00    0.56402   0.65945    0.000
 6747.00    0.55279   0.65728    0.000
 6748.00    0.55266   0.65641    0.000
 6749.00    0.56420   0.65570    0.000
 6750.00    0.54406   0.65517    0.000
 6751.00    0.49459   0.65595    0.000
 6752.00    0.47866   0.65255    0.000
 6753.00    0.49009   0.64798    0.009
 6754.00    0.46738   0.65265    0.009
 6755.00    0.42014   0.66064    0.010
 6756.00    0.42057   0.66613    0.010
 6757.00    0.45106   0.67105    0.010
 6758.00    0.49174   0.67499    0.010
 6759.00    0.53804   0.67720    0.010
 6760.00    0.57699   0.67760    0.010
 6761.00    0.61244   0.67517    0.010
 6762.00    0.69040   0.67126    0.010
 6763.00    0.78595   0.67083    0.010
 6764.00    0.80121   0.67211    0.010
 6765.00    0.78807   0.66959    0.010
 6766.00    0.72830   0.66182    0.010
 6767.00    0.65462   0.65590    0.010
 6768.00    0.71392   0.65743    0.010
 6769.00    0.80615   0.66157    0.009
 6770.00    0.82807   0.66152    0.009
 6771.00    0.83588   0.65982    0.009
 6772.00    0.78836   0.66323    0.009
 6773.00    0.73215   0.66982    0.009
 6774.00    0.68030   0.67493    0.009
 6775.00    0.62896   0.67808    0.009
 6776.00    0.58679   0.67983    0.009
 6777.00    0.54534   0.67969    0.009
 6778.00    0.56718   0.68017    0.009
 6779.00    0.59178   0.68202    0.010
 6780.00    0.70780   0.68149    0.010
 6781.00    0.82089   0.67620    0.010
 6782.00    0.75246   0.66623    0.010
 6783.00    0.68512   0.65376    0.010
 6784.00    0.63740   0.64519    0.009
 6785.00    0.60218   0.64468    0.009
 6786.00    0.70376   0.64966    0.009
 6787.00    0.78401   0.65745    0.009
 6788.00    0.70038   0.66335    0.009
 6789.00    0.62087   0.66355    0.009
 6790.00    0.56537   0.66189    0.009
 6791.00    0.53754   0.66271    0.009
 6792.00    0.63765   0.66289    0.009
 6793.00    0.71840   0.65947    0.009
 6794.00    0.72595   0.65785    0.009
 6795.00    0.72230   0.65970    0.009
 6796.00    0.68331   0.66195    0.009
 6797.00    0.65304   0.66400    0.009
 6798.00    0.64611   0.66467    0.009
 6799.00    0.66360   0.66554    0.009
 6800.00    0.73719   0.66822    0.009
 6801.00    0.78335   0.67029    0.010
 6802.00    0.77497   0.67119    0.010
 6803.00    0.72368   0.67061    0.010
 6804.00    0.59804   0.66923    0.010
 6805.00    0.54309   0.66949    0.010
 6806.00    0.59536   0.66841    0.009
 6807.00    0.60680   0.66638    0.009
 6808.00    0.56382   0.66722    0.009
 6809.00    0.54333   0.66758    0.009
 6810.00    0.54921   0.66636    0.009
 6811.00    0.58883   0.66673    0.009
 6812.00    0.66337   0.66733    0.009
 6813.00    0.66407   0.66638    0.009
 6814.00    0.59736   0.66278    0.009
 6815.00    0.53396   0.65950    0.009
 6816.00    0.47322   0.66300    0.009
 6817.00    0.45838   0.66919    0.009
 6818.00    0.47604   0.67048    0.009
 6819.00    0.49930   0.66707    0.009
 6820.00    0.52603   0.66409    0.009
 6821.00    0.55619   0.66611    0.009
 6822.00    0.58822   0.67118    0.009
 6823.00    0.60349   0.67473    0.009
 6824.00    0.61086   0.67556    0.009
 6825.00    0.60401   0.67539    0.009
 6826.00    0.59137   0.67420    0.009
 6827.00    0.58750   0.66935    0.009
 6828.00    0.58666   0.66294    0.009
 6829.00    0.60325   0.66140    0.009
 6830.00    0.62495   0.66511    0.009
 6831.00    0.67542   0.66835    0.009
 6832.00    0.73287   0.66612    0.009
 6833.00    0.79414   0.66364    0.009
 6834.00    0.85616   0.66771    0.009
 6835.00    0.78707   0.67302    0.009
 6836.00    0.69800   0.67357    0.009
 6837.00    0.67252   0.67102    0.009
 6838.00    0.65419   0.66726    0.009
 6839.00    0.68856   0.66144    0.018
 6840.00    0.72686   0.65422    0.488
 6841.00    0.87062   0.64791   -1.000
 6842.00    1.01855   0.64688   -1.000
 6843.00    1.21881   0.65312   -1.000
 6844.00    1.41515   0.66184   -1.000
 6845.00    1.44151   0.66683   -1.000
 6846.00    1.45357   0.66697   -1.000
 6847.00    1.22425   0.66673   -1.000
 6848.00    1.00016   0.66767   -1.000
 6849.00    0.83090   0.66719   -1.000
 6850.00    0.68529   0.66571    0.150
 6851.00    0.71542   0.66575    0.016
 6852.00    0.73432   0.66745    0.009
 6853.00    0.68953   0.66753    0.009
 6854.00    0.65196   0.66165    0.009
 6855.00    0.64696   0.65403    0.009
 6856.00    0.64139   0.65309    0.008
 6857.00    0.63375   0.65646    0.009
 6858.00    0.61600   0.65924    0.009
 6859.00    0.56695   0.65996    0.009
 6860.00    0.52794   0.65526    0.009
 6861.00    0.51538   0.64781    0.009
 6862.00    0.52509   0.64851    0.009
 6863.00    0.58518   0.65924    0.009
 6864.00    0.62291   0.66929    0.009
 6865.00    0.61688   0.67078    0.009
 6866.00    0.61693   0.66509    0.009
 6867.00    0.62734   0.65690    0.010
 6868.00    0.63953   0.65281    0.010
 6869.00    0.65440   0.65709    0.010
 6870.00    0.62928   0.66244    0.010
 6871.00    0.55166   0.65940    0.009
 6872.00    0.53088   0.65387    0.009
 6873.00    0.57587   0.65450    0.009
 6874.00    0.61393   0.65831    0.009
 6875.00    0.64489   0.66043    0.009
 6876.00    0.67538   0.66336    0.009
 6877.00    0.70544   0.66934    0.009
 6878.00    0.69141   0.67495    0.009
 6879.00    0.64241   0.67603    0.009
 6880.00    0.63010   0.67235    0.009
 6881.00    0.64340   0.66454    0.009
 6882.00    0.71383   0.65571    0.009
 6883.00    0.81923   0.65287    0.009
 6884.00    0.80950   0.65790    0.009
 6885.00    0.73826   0.66406    0.009
 6886.00    0.70962   0.66541    0.009
 6887.00    0.70075   0.66837    0.009
 6888.00    0.67564   0.67327    0.009
 6889.00    0.64403   0.67637    0.009
 6890.00    0.54716   0.67929    0.009
 6891.00    0.42805   0.68092    0.009
 6892.00    0.51415   0.67841    0.009
 6893.00    0.65908   0.67624    0.009
 6894.00    0.67476   0.67592    0.009
 6895.00    0.65983   0.67372    0.009
 6896.00    0.69295   0.67155    0.009
 6897.00    0.73523   0.67366    0.009
 6898.00    0.74305   0.67677    0.009
 6899.00    0.74577   0.67474    0.009
 6900.00    0.63378   0.67021    0.009
 6901.00    0.50942   0.67142    0.009
 6902.00    0.55495   0.67674    0.009
 6903.00    0.61248   0.67812    0.009
 6904.00    0.66059   0.67633    0.009
 6905.00    0.70837   0.67580    0.009
 6906.00    0.67576   0.67840    0.009
 6907.00    0.64283   0.68185    0.009
 6908.00    0.60788   0.68384    0.009
 6909.00    0.57453   0.68517    0.009
 6910.00    0.56627   0.68418    0.009
 6911.00    0.55933   0.67952    0.010
 6912.00    0.56552   0.67445    0.010
 6913.00    0.57554   0.66998    0.010
 6914.00    0.61304   0.66734    0.010
 6915.00    0.64098   0.67004    0.009
 6916.00    0.61626   0.67269    0.009
 6917.00    0.59285   0.67233    0.009
 6918.00    0.57516   0.67424    0.009
 6919.00    0.55571   0.67763    0.009
 6920.00    0.52986   0.68015    0.009
 6921.00    0.52611   0.68186    0.009
 6922.00    0.58954   0.68202    0.009
 6923.00    0.63894   0.67829    0.009
 6924.00    0.65208   0.66991    0.009
 6925.00    0.64917   0.66294    0.009
 6926.00    0.61058   0.66282    0.009
 6927.00    0.61737   0.66953    0.009
 6928.00    0.71161   0.67628    0.009
 6929.00    0.75288   0.67994    0.009
 6930.00    0.70515   0.68161    0.009
 6931.00    0.63629   0.68022    0.009
 6932.00    0.53632   0.67635    0.009
 6933.00    0.49755   0.67247    0.009
 6934.00    0.53803   0.67499    0.010
 6935.00    0.58850   0.68032    0.010
 6936.00    0.65039   0.68098    0.010
 6937.00    0.66334   0.67913    0.010
 6938.00    0.62706   0.67894    0.010
 6939.00    0.58613   0.68221    0.010
 6940.00    0.54107   0.68635    0.010
 6941.00    0.48299   0.68794    0.010
 6942.00    0.41472   0.68531    0.009
 6943.00    0.47200   0.67914    0.009
 6944.00    0.61561   0.67184    0.009
 6945.00    0.69099   0.66710    0.009
 6946.00    0.72525   0.67055    0.009
 6947.00    0.69127   0.67875    0.009
 6948.00    0.62139   0.68462    0.009
 6949.00    0.54423   0.68711    0.009
 6950.00    0.46375   0.68482    0.010
 6951.00    0.42276   0.67877    0.010
 6952.00    0.39729   0.67483    0.009
 6953.00    0.42873   0.67235    0.010
 6954.00    0.47921   0.67036    0.010
 6955.00    0.57611   0.67356    0.010
 6956.00    0.68605   0.68119    0.010
 6957.00    0.68093   0.68625    0.010
 6958.00    0.64918   0.68588    0.010
 6959.00    0.53845   0.68483    0.010
 6960.00    0.41305   0.68485    0.009
 6961.00    0.44209   0.68588    0.009
 6962.00    0.49322   0.68653    0.009
 6963.00    0.53466   0.68695    0.009
 6964.00    0.57510   0.68759    0.009
 6965.00    0.56207   0.68584    0.009
 6966.00    0.54547   0.68374    0.009
 6967.00    0.55017   0.68651    0.009
 6968.00    0.55554   0.69161    0.009
 6969.00    0.54301   0.69266    0.010
 6970.00    0.53102   0.68855    0.010
 6971.00    0.53583   0.68419    0.010
 6972.00    0.54310   0.68586    0.010
 6973.00    0.58686   0.68927    0.010
 6974.00    0.61748   0.68667    0.010
 6975.00    0.52176   0.68043    0.010
 6976.00    0.44023   0.67445    0.010
 6977.00    0.45743   0.66378    0.010
 6978.00    0.47253   0.64851    0.010
 6979.00    0.47632   0.64255    0.010
 6980.00    0.49227   0.65356    0.010
 6981.00    0.56056   0.66849    0.010
 6982.00    0.60767   0.67888    0.010
 6983.00    0.57960   0.68599    0.010
 6984.00    0.55837   0.68997    0.010
 6985.00    0.55759   0.69114    0.010
 6986.00    0.58198   0.69136    0.009
 6987.00    0.67031   0.69012    0.010
 6988.00    0.71847   0.68565    0.010
 6989.00    0.67878   0.67903    0.010
 6990.00    0.63263   0.67641    0.010
 6991.00    0.57423   0.68079    0.010
 6992.00    0.56505   0.68758    0.010
 6993.00    0.63736   0.68941    0.010
 6994.00    0.65165   0.68595    0.010
 6995.00    0.58172   0.68379    0.010
 6996.00    0.54368   0.68524    0.010
 6997.00    0.54632   0.68656    0.010
 6998.00    0.57800   0.68497    0.010
 6999.00    0.64232   0.67854    0.010
 7000.00    0.61318   0.67300    0.010
 7001.00    0.49132   0.67595    0.010
 7002.00    0.49787   0.68352    0.010
 7003.00    0.61678   0.68597    0.010
 7004.00    0.61065   0.68076    0.010
 7005.00    0.50814   0.67696    0.010
 7006.00    0.47895   0.67771    0.010
 7007.00    0.49943   0.67941    0.010
 7008.00    0.50537   0.68175    0.010
 7009.00    0.50267   0.68508    0.010
 7010.00    0.53012   0.68567    0.010
 7011.00    0.57318   0.68370    0.010
 7012.00    0.53579   0.68517    0.010
 7013.00    0.46229   0.68866    0.010
 7014.00    0.49151   0.68510    0.010
 7015.00    0.56039   0.67153    0.010
 7016.00    0.58124   0.65805    0.011
 7017.00    0.58633   0.66061    0.011
 7018.00    0.68509   0.67564    0.011
 7019.00    0.80961   0.68743    0.011
 7020.00    0.78179   0.69200    0.010
 7021.00    0.71953   0.69307    0.010
 7022.00    0.69774   0.68875    0.010
 7023.00    0.68327   0.67878    0.010
 7024.00    0.59421   0.67093    0.010
 7025.00    0.49483   0.67163    0.010
 7026.00    0.41898   0.67703    0.010
 7027.00    0.34546   0.68015    0.010
 7028.00    0.44523   0.68202    0.010
 7029.00    0.55585   0.68556    0.010
 7030.00    0.51972   0.68969    0.010
 7031.00    0.47974   0.69162    0.010
 7032.00    0.52306   0.69080    0.010
 7033.00    0.56238   0.68944    0.010
 7034.00    0.49146   0.69005    0.010
 7035.00    0.43128   0.69357    0.011
 7036.00    0.52188   0.69571    0.011
 7037.00    0.61094   0.68882    0.011
 7038.00    0.68578   0.67612    0.011
 7039.00    0.73087   0.67531    0.011
 7040.00    0.57539   0.69108    0.011
 7041.00    0.46727   0.70773    0.011
 7042.00    0.60677   0.71520    0.011
 7043.00    0.71958   0.71439    0.011
 7044.00    0.72001   0.70750    0.011
 7045.00    0.67611   0.70062    0.011
 7046.00    0.47804   0.70196    0.010
 7047.00    0.33919   0.70947    0.010
 7048.00    0.37369   0.71560    0.010
 7049.00    0.43646   0.71577    0.010
 7050.00    0.56980   0.71066   -2.000
 7051.00    0.69282   0.70222   -2.000
 7052.00    0.79365   0.68889   -2.000
 7053.00    0.81803   0.67472   -2.000
 7054.00    0.69965   0.66688   -2.000
 7055.00    0.60684   0.66643   -2.000
 7056.00    0.55574   0.67293   -2.000
 7057.00    0.53070   0.67976   -2.000
 7058.00    0.54290   0.67993   -2.000
 7059.00    0.55440   0.67301   -2.000
 7060.00    0.56502   0.66557   -2.000
 7061.00    0.58497   0.66405   -2.000
 7062.00    0.61529   0.66618   -2.000
 7063.00    0.56552   0.66855   -2.000
 7064.00    0.43740   0.67153   -2.000
 7065.00    0.39895   0.66989   -2.000
 7066.00    0.43784   0.66242   -2.000
 7067.00    0.44083   0.65572   -2.000
 7068.00    0.41656   0.65237   -2.000
 7069.00    0.54203   0.65589   -2.000
 7070.00    0.76749   0.66731   -2.000
 7071.00    0.85025   0.67807   -2.000
 7072.00    0.84954   0.68237   -2.000
 7073.00    0.76660   0.68381   -2.000
 7074.00    0.64173   0.68473   -2.000
 7075.00    0.61481   0.68400   -2.000
 7076.00    0.63114   0.68323   -2.000
 7077.00    0.67623   0.68389   -2.000
 7078.00    0.73223   0.68558   -2.000
 7079.00    0.80142   0.68684   -2.000
 7080.00    0.87486   0.68851   -2.000
 7081.00    0.80359   0.68911   -2.000
 7082.00    0.69334   0.68381   -2.000
 7083.00    0.66672   0.67145   -2.000
 7084.00    0.65858   0.65677   -2.000
 7085.00    0.54078   0.65016   -2.000
 7086.00    0.40370   0.65214   -2.000
 7087.00    0.36021   0.64953   -2.000
 7088.00    0.32925   0.64219   -2.000
 7089.00    0.38265   0.63884   -2.000
 7090.00    0.44407   0.63942   -2.000
 7091.00    0.43599   0.64242   -2.000
 7092.00    0.42383   0.64556   -2.000
 7093.00    0.34836   0.64545   -2.000
 7094.00    0.27295   0.64519   -2.000
 7095.00    0.41795   0.64531   -2.000
 7096.00    0.55809   0.64556   -2.000
 7097.00    0.57733   0.64665   -2.000
 7098.00    0.58991   0.64969   -2.000
 7099.00    0.51399   0.65642   -2.000
 7100.00    0.44465   0.65971   -2.000
 7101.00    0.43361   0.65659   -2.000
 7102.00    0.41441   0.64970   -2.000
 7103.00    0.34184   0.64610   -2.000
 7104.00    0.30418   0.65075   -2.000
 7105.00    0.44431   0.65839   -2.000
 7106.00    0.52505   0.65945   -2.000
 7107.00    0.36126   0.65612   -2.000
 7108.00    0.25614   0.65591   -2.000
 7109.00    0.35096   0.65637   -2.000
 7110.00    0.43114   0.65130   -2.000
 7111.00    0.46920   0.64418   -2.000
 7112.00    0.48379   0.64376   -2.000
 7113.00    0.44076   0.65048   -2.000
 7114.00    0.43650   0.65688   -2.000
 7115.00    0.51426   0.65967   -2.000
 7116.00    0.53638   0.66167   -2.000
 7117.00    0.45621   0.66240   -2.000
 7118.00    0.39189   0.66188   -2.000
 7119.00    0.35304   0.66148   -2.000
 7120.00    0.40734   0.66151   -2.000
 7121.00    0.59295   0.66117   -2.000
 7122.00    0.71885   0.65950   -2.000
 7123.00    0.77070   0.66018   -2.000
 7124.00    0.62059   0.65906   -2.000
 7125.00    0.24968   0.64866   -2.000
 7126.00    0.10938   0.63676   -2.000
 7127.00    0.19146   0.63396   -2.000
 7128.00    0.21702   0.63710   -2.000
 7129.00    0.19451   0.63523   -2.000
 7130.00    0.04844   0.62713   -2.000
 7131.00   -0.19017   0.62279   -2.000
 7132.00   -0.35457   0.62772   -2.000
 7133.00   -0.47013   0.63620   -2.000
 7134.00   -0.20874   0.64310   -2.000
 7135.00    0.26979   0.64631   -2.000
 7136.00    0.43934   0.64743   -2.000
 7137.00    0.45385   0.64844   -2.000
 7138.00    0.40095   0.64474   -2.000
 7139.00    0.31876   0.63948   -2.000
 7140.00    0.28949   0.64150   -2.000
 7141.00    0.27992   0.64874   -2.000
 7142.00    0.36581   0.65215   -2.000
 7143.00    0.48185   0.65162   -2.000
 7144.00    0.45662   0.65111   -2.000
 7145.00    0.39412   0.65105   -2.000
 7146.00    0.43243   0.65040   -2.000
 7147.00    0.49246   0.64406   -2.000
 7148.00    0.48374   0.63377   -2.000
 7149.00    0.46327   0.63147   -2.000
 7150.00    0.46836   0.63648   -2.000
 7151.00    0.47675   0.64315   -2.000
 7152.00    0.41006   0.65225   -2.000
 7153.00    0.33656   0.65985   -2.000
 7154.00    0.30203   0.65980   -2.000
 7155.00    0.26964   0.65575   -2.000
 7156.00    0.38698   0.65830   -2.000
 7157.00    0.50857   0.66547   -2.000
 7158.00    0.73158   0.66529   -2.000
 7159.00    0.91660   0.65807   -2.000
 7160.00    0.23922   0.65308   -2.000
 7161.00   -0.38585   0.65562   -2.000
 7162.00   -0.35200   0.66067   -2.000
 7163.00   -0.32177   0.65791   -2.000
 7164.00   -0.32245   0.64736   -2.000
 7165.00   -0.23070   0.64136   -2.000
 7166.00    0.44684   0.64764   -2.000
 7167.00    0.98875   0.65888   -2.000
 7168.00    0.85723   0.66482   -2.000
 7169.00    0.68568   0.66364   -2.000
 7170.00    0.35297   0.66246   -2.000
 7171.00    0.09173   0.66696   -2.000
 7172.00    0.06928   0.67388   -2.000
 7173.00    0.10923   0.67717   -2.000
 7174.00    0.32525   0.67484   -2.000
 7175.00    0.46925   0.66875   -2.000
 7176.00    0.43954   0.66386   -2.000
 7177.00    0.44046   0.66645   -2.000
 7178.00    0.50518   0.67195   -2.000
 7179.00    0.54061   0.66819   -2.000
 7180.00    0.52304   0.65579   -2.000
 7181.00    0.45044   0.64862   -2.000
 7182.00    0.29077   0.65516   -2.000
 7183.00    0.23465   0.66914   -2.000
 7184.00    0.32242   0.67657   -2.000
 7185.00    0.37126   0.67494   -2.000
 7186.00    0.37250   0.66669   -2.000
 7187.00    0.36409   0.65225   -2.000
 7188.00    0.34526   0.64043   -2.000
 7189.00    0.32195   0.63892   -2.000
 7190.00    0.29438   0.64629   -2.000
 7191.00    0.37515   0.65749   -2.000
 7192.00    0.54676   0.66175   -2.000
 7193.00    0.54836   0.66188   -2.000
 7194.00    0.42449   0.66450   -2.000
 7195.00    0.42634   0.66885   -2.000
 7196.00    0.50970   0.66743   -2.000
 7197.00    0.65209   0.66113   -2.000
 7198.00    0.82797   0.66038   -2.000
 7199.00    0.63710   0.66462   -2.000
 7200.00    0.26510   0.66564   -2.000
 7201.00    0.02806   0.66153   -2.000
 7202.00   -0.15135   0.65897   -2.000
 7203.00   -0.09918   0.66423   -2.000
 7204.00    0.03772   0.67173   -2.000
 7205.00    0.13941   0.67212   -2.000
 7206.00    0.23020   0.66084   -2.000
 7207.00    0.37640   0.64498   -2.000
 7208.00    0.53691   0.63977   -2.000
 7209.00    0.60645   0.64588   -2.000
 7210.00    0.65685   0.65751   -2.000
 7211.00    0.52594   0.66869   -2.000
 7212.00    0.36493   0.67012   -2.000
 7213.00    0.30653   0.66471   -2.000
 7214.00    0.26096   0.66166   -2.000
 7215.00    0.27755   0.66255   -2.000
 7216.00    0.29952   0.66511   -2.000
 7217.00    0.31411   0.67150   -2.000
 7218.00    0.32832   0.67856   -2.000
