###################################################################
## OUTPUT of StarlightChains_v04.for    [Cid@UFSC - 01/Apr/2007] ##
###################################################################

## Some input info
KUG0210-078._25_32.txt                   [arq_obs]
Base.CB07.vall.4m                        [arq_base]
Masks.EmLines.NEW.gm                     [arq_masks]
StCv04.C11.config                        [arq_config]
   66                                    [N_base]
    0                                    [N_YAV_components = # of components with extra extinction!]
    0                                    [i_FitPowerLaw (1/0 = Yes/No)]
-9.99                                    [alpha_PowerLaw]
CCM                                      [red_law_option]
 1.458241                                [q_norm = A(l_norm)/A(V)]

## (Re)Sampling Parameters
 3741.00                                 [l_ini (A)]
 7218.00                                 [l_fin (A)]
    1.00                                 [dl    (A)]     (OBS: dl_cushion =    50.00 A)

## Normalization info
 4020.00                                 [l_norm (A) - for base]
 4010.00                                 [llow_norm (A) - window for f_obs]
 4060.00                                 [lupp_norm (A) - window for f_obs]
2.081351E-17                             [fobs_norm (in input units)]

## S/N
 3691.00                                 [llow_SN (A) - window for S/N]
 7268.00                                 [lupp_SN (A) - window for S/N]
   4.916                                 [S/N in S/N window]
   6.815                                 [S/N in norm. window]
   0.020                                 [S/N_err in S/N window]
   0.027                                 [S/N_err in norm. window]
  1.0000                                 [fscale_chi2]

## etc...
    -2007305                             [idum_orig]
  2432                                   [NOl_eff]
  2297                                   [Nl_eff]
   135    NSIGMA                         [Ntot_cliped & clip_method]
 11182010                                [Nglobal_steps]
   7                                     [N_chains]
  31                                     [NEX0s_base = N_base in EX0s-fits]
 0   0   1      135   2.0   1.052E+04    [Clip-Bug, RC-Crash & Burn-In warning-flags, n_censored_weights, wei_nsig_threshold & wei_limit]
    80     78.732     77.716      1.017  [idt_all, wdt_TotTime, wdt_UsrTime & wdt_SysTime (sec)]

## Synthesis Results - Best model ##

 4.28525E-05                             [chi2/Nl_eff]
    12.01876                             [adev (%)]

    95.83372                             [sum-of-x (%)]
 1.88301E-17                             [Flux_tot (units of input spectrum!)]
 4.36173E-13                             [Mini_tot (???)]
 2.19256E-13                             [Mcor_tot (???)]

 -66.92                                  [v0_min  (km/s)]
  83.73                                  [vd_min  (km/s)]
-0.0429                                  [AV_min  (mag)]
 0.0000                                  [YAV_min (mag)]

# j     x_j(%)      Mini_j(%)     Mcor_j(%)     age_j(yr)     Z_j      (L/M)_j    YAV?  Mstars   component_j        a/Fe...       SSP_chi2r SSP_adev(%)   SSP_AV   SSP_x(%)
  1      1.3677     5.6318E-03    1.1204E-02    1.000000E+06  0.00400  1.094E-02    0   1.0000   age020_m42            0.0000     5.3688E-05    16.6795   2.3030    84.4725
  2      0.0000     0.0000E+00    0.0000E+00    3.160000E+06  0.00400  4.007E-02    0   0.9999   age045_m42            0.0000     5.5010E-05    15.8913   1.6325    88.0432
  3      0.0000     0.0000E+00    0.0000E+00    5.010000E+06  0.00400  2.539E-02    0   0.9488   age055_m42            0.0000     5.4698E-05    16.1228   1.9380    86.6151
  4      0.0000     0.0000E+00    0.0000E+00    6.610000E+06  0.00400  2.620E-02    0   0.9220   age061_m42            0.0000     5.5551E-05    15.6019   1.5749    87.8083
  5      0.0000     0.0000E+00    0.0000E+00    1.000000E+07  0.00400  1.322E-02    0   0.8862   age070_m42            0.0000     5.2353E-05    14.0808   1.3356    88.9026
  6      9.4189     5.3825E-02    9.1775E-02    1.445000E+07  0.00400  7.883E-03    0   0.8571   age078_m42            0.0000     5.2821E-05    14.5087   1.6439    87.2478
  7      0.0000     0.0000E+00    0.0000E+00    2.512000E+07  0.00400  5.251E-03    0   0.8174   age090_m42            0.0000     5.2153E-05    13.7215   1.2195    89.0320
  8      0.0000     0.0000E+00    0.0000E+00    4.000000E+07  0.00400  3.649E-03    0   0.7851   age104_m42            0.0000     5.2284E-05    13.7299   0.9925    89.6671
  9      0.0000     0.0000E+00    0.0000E+00    5.500000E+07  0.00400  3.098E-03    0   0.7629   age110_m42            0.0000     5.4777E-05    14.2927   1.1410    89.4742
 10      0.0000     0.0000E+00    0.0000E+00    1.015200E+08  0.00400  2.228E-03    0   0.7207   age116_m42            0.0000     5.6489E-05    14.5909   1.1611    89.4413
 11      0.0000     0.0000E+00    0.0000E+00    2.861200E+08  0.00400  1.093E-03    0   0.6648   age125_m42            0.0000     5.4722E-05    13.7494   0.6078    91.6019
 12      0.0000     0.0000E+00    0.0000E+00    5.088000E+08  0.00400  6.597E-04    0   0.6365   age130_m42            0.0000     5.6429E-05    14.2632   0.5883    92.4725
 13      0.0000     0.0000E+00    0.0000E+00    1.434000E+09  0.00400  2.132E-04    0   0.5798   age139_m42            0.0000     5.3275E-05    14.3736  -0.4202    95.6162
 14      0.0000     0.0000E+00    0.0000E+00    4.250000E+09  0.00400  5.895E-05    0   0.5377   age158_m42            0.0000     5.3348E-05    16.0075  -0.9555    94.6635
 15      0.0000     0.0000E+00    0.0000E+00    7.500000E+09  0.00400  3.510E-05    0   0.5212   age171_m42            0.0000     5.4590E-05    15.7102  -1.0000    91.8926
 16      0.0000     0.0000E+00    0.0000E+00    1.300000E+10  0.00400  2.005E-05    0   0.5034   age193_m42            0.0000     5.7676E-05    15.8872  -1.0000    88.5971
 17      0.1523     4.4996E-01    4.4460E-01    1.800000E+10  0.00400  1.525E-05    0   0.4967   age213_m42            0.0000     5.7862E-05    15.8050  -1.0000    87.7920
 18     14.8323     5.3971E-02    1.0737E-01    1.000000E+06  0.00800  1.238E-02    0   1.0000   age020_m52            0.0000     5.3680E-05    16.6709   2.2994    84.6413
 19      0.0000     0.0000E+00    0.0000E+00    3.160000E+06  0.00800  3.074E-02    0   0.9966   age045_m52            0.0000     5.3992E-05    16.6324   2.2277    85.2130
 20      0.0000     0.0000E+00    0.0000E+00    5.010000E+06  0.00800  2.668E-02    0   0.9443   age055_m52            0.0000     5.4477E-05    16.1157   2.0148    86.0808
 21      0.0000     0.0000E+00    0.0000E+00    6.610000E+06  0.00800  2.136E-02    0   0.9177   age061_m52            0.0000     4.9038E-05    14.2324   0.7989    91.2499
 22      0.0000     0.0000E+00    0.0000E+00    1.000000E+07  0.00800  1.215E-02    0   0.8827   age070_m52            0.0000     5.1452E-05    13.7278   1.5160    88.8050
 23      0.0000     0.0000E+00    0.0000E+00    1.445000E+07  0.00800  8.717E-03    0   0.8552   age078_m52            0.0000     5.2750E-05    14.3133   1.6151    88.2360
 24      0.0000     0.0000E+00    0.0000E+00    2.512000E+07  0.00800  5.592E-03    0   0.8162   age090_m52            0.0000     5.2327E-05    13.4869   1.2881    89.8701
 25      0.0000     0.0000E+00    0.0000E+00    4.000000E+07  0.00800  3.896E-03    0   0.7841   age104_m52            0.0000     5.3354E-05    13.6418   1.1995    90.3328
 26      0.0000     0.0000E+00    0.0000E+00    1.015200E+08  0.00800  2.148E-03    0   0.7226   age116_m52            0.0000     5.5042E-05    14.1805   1.1278    90.2085
 27      0.0000     0.0000E+00    0.0000E+00    2.861200E+08  0.00800  9.925E-04    0   0.6683   age125_m52            0.0000     5.6879E-05    14.0898   0.6589    93.0733
 28      0.0000     0.0000E+00    0.0000E+00    9.047900E+08  0.00800  3.141E-04    0   0.6138   age135_m52            0.0000     5.7551E-05    14.8269  -0.2004    98.3452
 29      0.0000     0.0000E+00    0.0000E+00    1.434000E+09  0.00800  1.719E-04    0   0.5853   age139_m52            0.0000     5.4143E-05    15.2398  -0.8180    97.9148
 30      0.0000     0.0000E+00    0.0000E+00    2.500000E+09  0.00800  7.872E-05    0   0.5600   age150_m52            0.0000     5.5755E-05    15.8553  -1.0000    94.6821
 31      0.0000     0.0000E+00    0.0000E+00    4.250000E+09  0.00800  4.336E-05    0   0.5426   age158_m52            0.0000     5.6427E-05    15.9624  -1.0000    93.6143
 32      0.0000     0.0000E+00    0.0000E+00    6.250000E+09  0.00800  3.159E-05    0   0.5319   age166_m52            0.0000     6.1051E-05    16.3019  -1.0000    90.0115
 33      0.0000     0.0000E+00    0.0000E+00    1.300000E+10  0.00800  1.361E-05    0   0.5073   age193_m52            0.0000     7.7630E-05    20.0727  -1.0000    79.8246
 34     19.6618     8.9594E+01    8.8938E+01    1.800000E+10  0.00800  9.886E-06    0   0.4990   age213_m52            0.0000     8.5618E-05    21.7896  -1.0000    77.0033
 35      0.0000     0.0000E+00    0.0000E+00    1.000000E+06  0.02000  1.544E-02    0   1.0000   age020_m62            0.0000     5.3570E-05    16.6818   2.2934    84.9125
 36      0.0000     0.0000E+00    0.0000E+00    3.160000E+06  0.02000  3.762E-02    0   0.9858   age045_m62            0.0000     5.3833E-05    16.6859   2.2350    85.5729
 37      0.0000     0.0000E+00    0.0000E+00    5.010000E+06  0.02000  3.296E-02    0   0.9342   age055_m62            0.0000     5.5869E-05    16.0922   1.9070    87.2483
 38     26.0582     1.0172E-01    1.7931E-01    8.710000E+06  0.02000  1.154E-02    0   0.8861   age067_m62            0.0000     4.5439E-05    11.0602   1.0095    91.0483
 39      0.0000     0.0000E+00    0.0000E+00    1.445000E+07  0.02000  7.663E-03    0   0.8472   age078_m62            0.0000     4.8960E-05    12.7372   1.1738    90.7116
 40      0.0000     0.0000E+00    0.0000E+00    2.512000E+07  0.02000  4.532E-03    0   0.8099   age090_m62            0.0000     4.9676E-05    12.5213   1.1797    90.0045
 41      0.0000     0.0000E+00    0.0000E+00    5.500000E+07  0.02000  2.733E-03    0   0.7595   age110_m62            0.0000     5.3007E-05    13.6621   1.1794    89.9520
 42      0.0000     0.0000E+00    0.0000E+00    1.609000E+08  0.02000  1.369E-03    0   0.6985   age120_m62            0.0000     5.6693E-05    14.0501   1.0299    91.5608
 43      0.0000     0.0000E+00    0.0000E+00    2.861200E+08  0.02000  9.013E-04    0   0.6714   age125_m62            0.0000     5.8457E-05    14.0935   0.7879    93.7047
 44      0.0000     0.0000E+00    0.0000E+00    5.088000E+08  0.02000  5.028E-04    0   0.6449   age130_m62            0.0000     5.9955E-05    14.9758   0.3621    97.1301
 45      0.0000     0.0000E+00    0.0000E+00    9.047900E+08  0.02000  2.428E-04    0   0.6179   age135_m62            0.0000     5.8310E-05    15.7294  -0.2949    98.8056
 46      0.0000     0.0000E+00    0.0000E+00    1.434000E+09  0.02000  1.263E-04    0   0.5908   age139_m62            0.0000     5.6928E-05    16.3847  -0.7860    99.0543
 47      0.0000     0.0000E+00    0.0000E+00    2.500000E+09  0.02000  5.985E-05    0   0.5673   age150_m62            0.0000     5.9390E-05    16.5480  -1.0000    95.6336
 48      0.0000     0.0000E+00    0.0000E+00    4.250000E+09  0.02000  3.271E-05    0   0.5468   age158_m62            0.0000     6.6376E-05    17.6581  -1.0000    89.3347
 49      0.0000     0.0000E+00    0.0000E+00    1.000000E+10  0.02000  1.360E-05    0   0.5167   age181_m62            0.0000     8.2939E-05    20.7444  -1.0000    81.4978
 50      0.0000     0.0000E+00    0.0000E+00    1.800000E+10  0.02000  7.124E-06    0   0.5013   age213_m62            0.0000     9.7265E-05    23.6518  -1.0000    76.0287
 51      0.0000     0.0000E+00    0.0000E+00    1.000000E+06  0.05000  2.592E-02    0   0.9998   age020_m72            0.0000     5.3059E-05    16.6671   2.2816    85.1338
 52      0.0000     0.0000E+00    0.0000E+00    3.160000E+06  0.05000  4.845E-02    0   0.9577   age045_m72            0.0000     5.5372E-05    16.5854   2.1354    85.9783
 53      0.0000     0.0000E+00    0.0000E+00    5.010000E+06  0.05000  3.072E-02    0   0.9147   age055_m72            0.0000     5.1504E-05    14.2010   1.7133    88.2974
 54     20.9129     6.4748E-02    1.1434E-01    6.610000E+06  0.05000  1.455E-02    0   0.8877   age061_m72            0.0000     4.5483E-05    11.6027   1.0592    91.3691
 55      0.0000     0.0000E+00    0.0000E+00    1.000000E+07  0.05000  9.074E-03    0   0.8524   age070_m72            0.0000     5.2315E-05    14.5222   1.8883    87.9019
 56      0.0000     0.0000E+00    0.0000E+00    2.512000E+07  0.05000  4.250E-03    0   0.7902   age090_m72            0.0000     5.3505E-05    13.8264   1.6303    88.3116
 57      0.0000     0.0000E+00    0.0000E+00    4.000000E+07  0.05000  3.087E-03    0   0.7618   age104_m72            0.0000     5.3577E-05    13.3726   1.4242    89.1406
 58      0.0000     0.0000E+00    0.0000E+00    1.015200E+08  0.05000  1.700E-03    0   0.7096   age116_m72            0.0000     5.6148E-05    13.6676   1.1811    90.9092
 59      0.0000     0.0000E+00    0.0000E+00    2.861200E+08  0.05000  7.384E-04    0   0.6633   age125_m72            0.0000     6.0129E-05    14.4850   0.6335    95.2591
 60      0.3607     4.2547E-02    5.3933E-02    5.088000E+08  0.05000  3.819E-04    0   0.6372   age130_m72            0.0000     6.0407E-05    15.4702   0.0743    98.6806
 61      0.0000     0.0000E+00    0.0000E+00    9.047900E+08  0.05000  1.676E-04    0   0.6110   age135_m72            0.0000     6.1521E-05    17.3157  -0.7271   100.1340
 62      0.0000     0.0000E+00    0.0000E+00    1.434000E+09  0.05000  8.837E-05    0   0.5874   age139_m72            0.0000     6.1125E-05    16.6216  -1.0000    96.9563
 63      0.0000     0.0000E+00    0.0000E+00    2.500000E+09  0.05000  4.233E-05    0   0.5598   age150_m72            0.0000     6.8497E-05    17.9759  -1.0000    90.0827
 64      3.0689     9.6339E+00    1.0060E+01    6.250000E+09  0.05000  1.435E-05    0   0.5249   age166_m72            0.0000     8.8214E-05    22.0548  -1.0000    79.0244
 65      0.0000     0.0000E+00    0.0000E+00    1.300000E+10  0.05000  6.513E-06    0   0.5036   age193_m72            0.0000     1.0859E-04    26.1855  -1.0000    73.1021
 66      0.0000     0.0000E+00    0.0000E+00    1.800000E+10  0.05000  4.527E-06    0   0.4945   age213_m72            0.0000     1.2282E-04    28.4532  -1.0000    68.9374


## Synthesis Results - Average & Chains ##

# j      x_j: min, <> & last-chain-values for 1 ...  7 chains
  1      1.3677     27.8141     30.8716     32.4876     29.9877     18.8114     37.6292     21.5620     35.0889
  2      0.0000      0.2968      0.2171      0.0367      0.0589      0.2022      0.0882      0.0000      0.0000
  3      0.0000      0.2752      0.0824      0.0667      0.0072      1.0066      0.0534      0.9321      0.0562
  4      0.0000      0.1653      0.2199      0.0000      0.0576      1.6701      0.1833      0.1929      0.0000
  5      0.0000      0.2667      0.0477      0.0955      0.0000      0.2677      0.2622      0.5397      0.0000
  6      9.4189      0.2450      0.0000      0.0716      0.0290      1.8218      0.0000      1.5124      0.0000
  7      0.0000      0.2414      0.0000      0.0528      0.1964      0.0000      0.1002      0.1568      0.0485
  8      0.0000      0.1691      0.1130      0.0037      0.0892      0.0000      0.0375      1.2505      0.0881
  9      0.0000      0.2547      0.1188      0.0446      0.1146      0.4283      0.0815      2.8598      0.0445
 10      0.0000      0.2261      0.0241      0.0000      0.0000      0.0000      0.0507      0.0000      0.0673
 11      0.0000      0.2062      0.0952      0.0433      0.0000      1.5253      0.0578      0.0000      0.0828
 12      0.0000      0.2102      0.0000      0.0490      0.0610      0.0000      0.1527      0.1090      0.0567
 13      0.0000      0.2715      0.0799      0.0258      0.0433      0.0000      0.0933      0.3101      0.0000
 14      0.0000      0.1935      0.0000      0.0000      0.0430      0.1600      0.2619      0.0000      0.0000
 15      0.0000      0.2169      0.0053      0.0128      0.0379      2.7891      0.0967      0.3312      0.0084
 16      0.0000      0.2172      0.1689      0.0000      0.0000      0.0000      0.0000      0.4117      0.0000
 17      0.1523      0.2977      0.0210      0.0496      0.0000      0.3902      0.0958      0.3150      0.1101
 18     14.8323      6.5026      8.3615      7.8050      9.9337      6.3991      1.0980      5.5459      7.4589
 19      0.0000      0.3449      0.3043      0.0257      0.0879      0.9996      0.0480      0.0000      0.0165
 20      0.0000      0.3063      0.0985      0.0283      0.0395      0.5765      0.0122      0.4060      0.0446
 21      0.0000      0.3123      0.0807      0.0194      0.0463      0.8715      0.0078      0.0000      0.1342
 22      0.0000      0.2573      0.1630      0.0543      0.0654      0.9214      0.3322      0.8337      0.0514
 23      0.0000      0.2370      0.0118      0.0603      0.0225      0.5475      0.1724      0.4256      0.0167
 24      0.0000      0.2546      0.1213      0.0250      0.0572      0.0000      0.0039      0.0000      0.0132
 25      0.0000      0.2154      0.0306      0.0188      0.1067      0.7463      0.0811      0.0000      0.0252
 26      0.0000      0.2723      0.0859      0.0159      0.0316      0.7165      0.0281      0.0000      0.0863
 27      0.0000      0.2828      0.0122      0.0552      0.0000      1.0295      0.1325      0.0000      0.0129
 28      0.0000      0.2652      0.1376      0.0344      0.0000      0.0913      0.0389      0.0000      0.0412
 29      0.0000      0.2739      0.0523      0.0857      0.0199      0.0000      0.0516      0.0000      0.0000
 30      0.0000      0.2566      0.0984      0.0000      0.1423      2.0946      0.0000      1.2786      0.0000
 31      0.0000      0.2372      0.3183      0.0000      0.0000      0.0000      0.1531      0.4564      0.0061
 32      0.0000      0.2314      0.0504      0.0000      0.0072      0.0000      0.0765      0.0753      0.0190
 33      0.0000      0.2171      0.2638      0.1209      0.0301      0.1616      0.0875      0.0000      0.0000
 34     19.6618     16.5628     24.0162     18.9680     20.8515     10.3233     15.7435     14.2206     16.7333
 35      0.0000      0.6035      0.3791      0.4486      0.4301      2.2891      0.4521      0.0000      0.3178
 36      0.0000      0.5388      0.4943      0.5246      0.4375      0.4193      1.0416      1.2094      0.4825
 37      0.0000      0.2727      0.1394      0.0033      0.1163      0.0000      0.0000      0.9317      0.0630
 38     26.0582      0.2035      0.0433      0.0948      0.0000      0.3629      0.1472      1.8862      0.1080
 39      0.0000      0.2307      0.0831      0.0676      0.0185      0.0000      0.1848      0.0000      0.0187
 40      0.0000      0.2979      0.1776      0.0000      0.0000      0.5662      0.0702      1.8987      0.0000
 41      0.0000      0.2843      0.0370      0.0549      0.0910      0.4531      0.0106      0.0000      0.0000
 42      0.0000      0.3033      0.0666      0.0684      0.0000      0.0000      0.0448      0.0000      0.0000
 43      0.0000      0.2403      0.0393      0.0758      0.1870      1.3787      0.0052      2.3138      0.0102
 44      0.0000      0.2066      0.0000      0.0110      0.0161      0.4824      0.0826      0.3022      0.1074
 45      0.0000      0.3098      0.0576      0.0614      0.0443      3.7101      0.0004      0.0000      0.0321
 46      0.0000      0.2815      0.0439      0.0352      0.0000      0.3538      0.0949      0.0000      0.0000
 47      0.0000      0.2479      0.0676      0.0441      0.0000      0.0000      0.1372      2.0000      0.0246
 48      0.0000      0.2921      0.0470      0.0280      0.0127      0.0000      0.0954      0.0210      0.0266
 49      0.0000      0.9351      1.0168      0.7279      2.4386      0.2335      0.3428      0.1334      1.2482
 50      0.0000      8.5175      3.4158      9.7268      8.5963      6.6805     14.9690      7.1490     10.1182
 51      0.0000      0.2375      0.0563      0.0199      0.1071      0.0000      0.1855      0.0000      0.1214
 52      0.0000      0.1957      0.1470      0.0064      0.0681      0.0000      0.0330      0.0000      0.0581
 53      0.0000      0.2887      0.0887      0.2116      0.1234      2.0489      0.1172      4.4606      0.0344
 54     20.9129      0.2531      0.1291      0.0342      0.0000      1.2867      0.0418      0.5727      0.0252
 55      0.0000      0.2284      0.0631      0.0405      0.0005      0.3022      0.3637      0.6125      0.0344
 56      0.0000      0.1965      0.2164      0.1795      0.0651      0.2490      0.0400      0.0000      0.0000
 57      0.0000      0.2933      0.2449      0.0372      0.0119      0.0963      0.0482      0.8203      0.0000
 58      0.0000      0.1893      0.1554      0.0000      0.0000      0.6600      0.0000      0.0000      0.0061
 59      0.0000      0.2762      0.0310      0.0134      0.0542      1.0927      0.0800      0.2369      0.0121
 60      0.3607      0.2669      0.0859      0.0122      0.0000      0.4947      0.1241      1.5080      0.0443
 61      0.0000      0.1660      0.0358      0.0200      0.0409      0.1476      0.0375      0.0000      0.0651
 62      0.0000      0.2334      0.0518      0.0140      0.0170      0.0000      0.0017      0.6641      0.0973
 63      0.0000      0.2952      0.0484      0.0093      0.0294      0.1813      0.0000      0.0000      0.0242
 64      3.0689      3.0284      3.3842      3.6741      0.1258      2.4836      4.3878      1.8578      3.8679
 65      0.0000     11.1006     12.8276     13.2068     15.1827      9.7452      9.6203      8.0086     12.2512
 66      0.0000      0.3000      0.0061      0.0629      0.0381      0.3357      0.0073      0.0000      0.0095

# j      m_j: min, <> & last-chain-values for 1 ...  7 chains
  1  1.1204E-02  1.0037E-01  1.0706E-01  1.0441E-01  9.3197E-02  8.6797E-02  1.2337E-01  9.9094E-02  1.1860E-01
  2  0.0000E+00  2.9239E-04  2.0550E-04  3.2193E-05  4.9943E-05  2.5471E-04  7.8960E-05  0.0000E+00  0.0000E+00
  3  0.0000E+00  4.0599E-04  1.1678E-04  8.7691E-05  9.1731E-06  1.8988E-03  7.1584E-05  1.7512E-03  7.7592E-05
  4  0.0000E+00  2.2968E-04  2.9360E-04  0.0000E+00  6.8921E-05  2.9667E-03  2.3141E-04  3.4128E-04  0.0000E+00
  5  0.0000E+00  7.0575E-04  1.2131E-04  2.2512E-04  0.0000E+00  9.0575E-04  6.3031E-04  1.8191E-03  0.0000E+00
  6  9.1775E-02  1.0516E-03  0.0000E+00  2.7369E-04  1.0708E-04  9.9988E-03  0.0000E+00  8.2676E-03  0.0000E+00
  7  0.0000E+00  1.4834E-03  0.0000E+00  2.8875E-04  1.0393E-03  0.0000E+00  5.5932E-04  1.2271E-03  2.7919E-04
  8  0.0000E+00  1.4365E-03  9.2218E-04  2.7773E-05  6.5257E-04  0.0000E+00  2.8939E-04  1.3527E-02  7.0093E-04
  9  0.0000E+00  2.4763E-03  1.1103E-03  3.8653E-04  9.5922E-04  5.3242E-03  7.1974E-04  3.5407E-02  4.0518E-04
 10  0.0000E+00  2.8870E-03  2.9561E-04  0.0000E+00  0.0000E+00  0.0000E+00  5.8864E-04  0.0000E+00  8.0523E-04
 11  0.0000E+00  4.9506E-03  2.1969E-03  9.2537E-04  0.0000E+00  4.6832E-02  1.2601E-03  0.0000E+00  1.8632E-03
 12  0.0000E+00  8.0071E-03  0.0000E+00  1.6628E-03  2.0008E-03  0.0000E+00  5.2834E-03  5.2883E-03  2.0219E-03
 13  0.0000E+00  2.9152E-02  8.2393E-03  2.4642E-03  4.0051E-03  0.0000E+00  9.1038E-03  4.2397E-02  0.0000E+00
 14  0.0000E+00  6.9680E-02  0.0000E+00  0.0000E+00  1.3348E-02  7.3655E-02  8.5665E-02  0.0000E+00  0.0000E+00
 15  0.0000E+00  1.2715E-01  2.9579E-03  6.6753E-03  1.9152E-02  2.0905E+00  5.1481E-02  2.4729E-01  4.6326E-03
 16  0.0000E+00  2.1532E-01  1.6093E-01  0.0000E+00  0.0000E+00  0.0000E+00  0.0000E+00  5.1965E-01  0.0000E+00
 17  4.4460E-01  3.8271E-01  2.5896E-02  5.6843E-02  0.0000E+00  6.4150E-01  1.1190E-01  5.1579E-01  1.3265E-01
 18  1.0737E-01  2.0735E-02  2.5625E-02  2.2166E-02  2.7281E-02  2.6092E-02  3.1811E-03  2.2523E-02  2.2279E-02
 19  0.0000E+00  4.4136E-04  3.7430E-04  2.9336E-05  9.6883E-05  1.6359E-03  5.5804E-05  0.0000E+00  1.9746E-05
 20  0.0000E+00  4.2793E-04  1.3225E-04  3.5177E-05  4.7569E-05  1.0300E-03  1.5474E-05  7.2246E-04  5.8340E-05
 21  0.0000E+00  5.2965E-04  1.3158E-04  2.9344E-05  6.7581E-05  1.8901E-03  1.2089E-05  0.0000E+00  2.1316E-04
 22  0.0000E+00  7.3806E-04  4.4925E-04  1.3859E-04  1.6158E-04  3.3790E-03  8.6557E-04  3.0453E-03  1.3805E-04
 23  0.0000E+00  9.1799E-04  4.3982E-05  2.0785E-04  7.4974E-05  2.7113E-03  6.0647E-04  2.0996E-03  6.0675E-05
 24  0.0000E+00  1.4671E-03  6.7161E-04  1.2825E-04  2.8391E-04  0.0000E+00  2.0602E-05  0.0000E+00  7.1484E-05
 25  0.0000E+00  1.7114E-03  2.3349E-04  1.3285E-04  7.2993E-04  7.5816E-03  5.8508E-04  0.0000E+00  1.8761E-04
 26  0.0000E+00  3.6162E-03  1.0967E-03  1.8827E-04  3.6130E-04  1.2167E-02  3.3883E-04  0.0000E+00  1.0733E-03
 27  0.0000E+00  7.5161E-03  3.1240E-04  1.3066E-03  0.0000E+00  3.4991E-02  3.1990E-03  0.0000E+00  3.2077E-04
 28  0.0000E+00  2.0459E-02  1.0203E-02  2.3601E-03  0.0000E+00  9.0090E-03  2.7280E-03  0.0000E+00  2.9778E-03
 29  0.0000E+00  3.6820E-02  6.7615E-03  1.0263E-02  2.2983E-03  0.0000E+00  6.2978E-03  0.0000E+00  0.0000E+00
 30  0.0000E+00  7.2048E-02  2.6560E-02  0.0000E+00  3.4428E-02  7.5217E-01  0.0000E+00  4.5729E-01  0.0000E+00
 31  0.0000E+00  1.1718E-01  1.5112E-01  0.0000E+00  0.0000E+00  0.0000E+00  6.8730E-02  2.8712E-01  2.8125E-03
 32  0.0000E+00  1.5380E-01  3.2187E-02  1.3236E-05  4.1036E-03  0.0000E+00  4.6212E-02  6.3735E-02  1.1813E-02
 33  0.0000E+00  3.1943E-01  3.7306E-01  1.5847E-01  3.8148E-02  3.0407E-01  1.1704E-01  0.0000E+00  0.0000E+00
 34  8.8938E+01  3.3003E+01  4.5992E+01  3.3661E+01  3.5784E+01  2.6303E+01  2.8502E+01  3.6089E+01  3.1232E+01
 35  0.0000E+00  1.5429E-03  9.3165E-04  1.0216E-03  9.4706E-04  7.4839E-03  1.0501E-03  0.0000E+00  7.6111E-04
 36  0.0000E+00  5.5738E-04  4.9141E-04  4.8327E-04  3.8976E-04  5.5464E-04  9.7898E-04  1.5934E-03  4.6749E-04
 37  0.0000E+00  3.0514E-04  1.4989E-04  3.3371E-06  1.1207E-04  0.0000E+00  0.0000E+00  1.3277E-03  6.6061E-05
 38  1.7931E-01  6.1675E-04  1.2624E-04  2.5597E-04  0.0000E+00  1.4066E-03  4.0526E-04  7.2817E-03  3.0675E-04
 39  0.0000E+00  1.0070E-03  3.4870E-04  2.6285E-04  6.9696E-05  0.0000E+00  7.3273E-04  0.0000E+00  7.6427E-05
 40  0.0000E+00  2.1014E-03  1.2042E-03  0.0000E+00  0.0000E+00  5.1080E-03  4.4992E-04  1.7060E-02  0.0000E+00
 41  0.0000E+00  3.1189E-03  3.8994E-04  5.3671E-04  8.5996E-04  6.3559E-03  1.0547E-04  0.0000E+00  0.0000E+00
 42  0.0000E+00  6.1094E-03  1.2887E-03  1.2267E-03  0.0000E+00  0.0000E+00  8.2068E-04  0.0000E+00  0.0000E+00
 43  0.0000E+00  7.0654E-03  1.1107E-03  1.9860E-03  4.7360E-03  5.1842E-02  1.4018E-04  8.6660E-02  2.8227E-04
 44  0.0000E+00  1.0462E-02  0.0000E+00  4.9469E-04  7.0226E-04  3.1230E-02  3.7999E-03  1.9489E-02  5.0929E-03
 45  0.0000E+00  3.1127E-02  5.5576E-03  5.4933E-03  3.8352E-03  4.7661E-01  3.6963E-05  0.0000E+00  3.0205E-03
 46  0.0000E+00  5.1981E-02  7.7966E-03  5.7900E-03  0.0000E+00  8.3553E-02  1.5929E-02  0.0000E+00  0.0000E+00
 47  0.0000E+00  9.2771E-02  2.4321E-02  1.4687E-02  0.0000E+00  0.0000E+00  4.6652E-02  9.5312E-01  8.6069E-03
 48  0.0000E+00  1.9278E-01  2.9815E-02  1.6473E-02  7.2160E-03  0.0000E+00  5.7214E-02  1.7682E-02  1.6433E-02
 49  0.0000E+00  1.4025E+00  1.4657E+00  9.7235E-01  3.1501E+00  4.4776E-01  4.6718E-01  2.5481E-01  1.7536E+00
 50  0.0000E+00  2.3660E+01  9.1195E+00  2.4064E+01  2.0567E+01  2.3730E+01  3.7779E+01  2.5293E+01  2.6328E+01
 51  0.0000E+00  3.6167E-04  8.2338E-05  2.6940E-05  1.4050E-04  0.0000E+00  2.5664E-04  0.0000E+00  1.7320E-04
 52  0.0000E+00  1.5270E-04  1.1022E-04  4.4292E-06  4.5762E-05  0.0000E+00  2.3374E-05  0.0000E+00  4.2435E-05
 53  0.0000E+00  3.3935E-04  1.0020E-04  2.2151E-04  1.2488E-04  3.0795E-03  1.2517E-04  6.6777E-03  3.7847E-05
 54  1.1434E-01  6.0965E-04  2.9888E-04  7.3366E-05  0.0000E+00  3.9627E-03  9.1414E-05  1.7569E-03  5.6929E-05
 55  0.0000E+00  8.4716E-04  2.2505E-04  1.3361E-04  1.6745E-06  1.4332E-03  1.2253E-03  2.8928E-03  1.1943E-04
 56  0.0000E+00  1.4425E-03  1.5266E-03  1.1737E-03  4.1146E-04  2.3366E-03  2.6679E-04  0.0000E+00  0.0000E+00
 57  0.0000E+00  2.8577E-03  2.2932E-03  3.2233E-04  9.9574E-05  1.1999E-03  4.2637E-04  1.0178E-02  0.0000E+00
 58  0.0000E+00  3.1196E-03  2.4615E-03  0.0000E+00  0.0000E+00  1.3906E-02  0.0000E+00  0.0000E+00  9.4572E-05
 59  0.0000E+00  9.7954E-03  1.0576E-03  4.2375E-04  1.6549E-03  4.9548E-02  2.5784E-03  1.0699E-02  4.0029E-04
 60  5.3933E-02  1.7576E-02  5.4401E-03  7.1775E-04  0.0000E+00  4.1665E-02  7.4249E-03  1.2650E-01  2.7331E-03
 61  0.0000E+00  2.3890E-02  4.9556E-03  2.5667E-03  5.0704E-03  2.7164E-02  4.9094E-03  0.0000E+00  8.7704E-03
 62  0.0000E+00  6.1256E-02  1.3066E-02  3.2803E-03  3.8328E-03  0.0000E+00  4.1538E-04  2.2194E-01  2.3917E-02
 63  0.0000E+00  1.5411E-01  2.4310E-02  4.3060E-03  1.3198E-02  1.2100E-01  0.0000E+00  0.0000E+00  1.1819E-02
 64  1.0060E+01  4.3729E+00  4.6966E+00  4.7250E+00  1.5643E-01  4.5857E+00  5.7566E+00  3.4166E+00  5.2317E+00
 65  0.0000E+00  3.3883E+01  3.7632E+01  3.5903E+01  3.9915E+01  3.8036E+01  2.6680E+01  3.1134E+01  3.5029E+01
 66  0.0000E+00  1.2936E+00  2.5381E-02  2.4173E-01  1.4154E-01  1.8511E+00  2.8631E-02  0.0000E+00  3.8371E-02

# AV, chi2 & Mass for <> & i_chain = 1 ...  7 solutions
AV      -0.0429     -0.6838     -0.6705     -0.7088     -0.7459     -0.3730     -0.6806     -0.3648     -0.6270
chi2 4.2852E-05  4.6691E-05  4.5938E-05  4.6323E-05  4.6178E-05  4.6142E-05  4.6243E-05  4.5770E-05  4.5959E-05
Mass 2.1926E-13  2.1045E-13  2.2291E-13  2.2850E-13  2.2478E-13  2.4984E-13  2.3262E-13  2.5360E-13  2.4249E-13
 -66.92                                  [v0_min (km/s) before EX0s...]
  83.73                                  [vd_min (km/s) before EX0s...]


## Synthetic spectrum (Best Model) ##l_obs f_obs f_syn wei
 3478    [Nl_obs]
 3741.00    0.90565   0.91525    0.000
 3742.00    1.06771   0.90148    0.000
 3743.00    1.19699   0.87939    0.000
 3744.00    1.11660   0.85239    0.000
 3745.00    0.91405   0.82081   -1.000
 3746.00    0.75078   0.78277   -1.000
 3747.00    0.60746   0.73805   -1.000
 3748.00    0.58290   0.69809   -1.000
 3749.00    0.61056   0.68526   -1.000
 3750.00    0.74716   0.71090   -1.000
 3751.00    0.92490   0.76221   -1.000
 3752.00    0.94363   0.81748   -1.000
 3753.00    0.91142   0.86383   -1.000
 3754.00    1.03528   0.89545   -1.000
 3755.00    1.20097   0.90800   -1.000
 3756.00    1.06246   0.90383   -1.000
 3757.00    0.85719   0.89501   -1.000
 3758.00    0.74727   0.89430   -1.000
 3759.00    0.65399   0.90344   -1.000
 3760.00    0.72755   0.91358   -1.000
 3761.00    0.82327   0.91599   -1.000
 3762.00    0.91563   0.91023   -1.000
 3763.00    1.00767   0.90047   -1.000
 3764.00    0.95777   0.88586   -1.000
 3765.00    0.89968   0.86142   -1.000
 3766.00    0.72053   0.82764   -1.000
 3767.00    0.54075   0.79021   -1.000
 3768.00    0.63230   0.75326   -1.000
 3769.00    0.71737   0.72512   -1.000
 3770.00    0.64499   0.72188   -1.000
 3771.00    0.58258   0.75048   -1.000
 3772.00    0.65090   0.79665   -1.000
 3773.00    0.73676   0.84089   -1.000
 3774.00    0.97669   0.87579   -1.000
 3775.00    1.16207   0.90245   -1.000
 3776.00    0.99372   0.92253   -1.000
 3777.00    0.83822   0.93880   -1.000
 3778.00    0.74778   0.95530   -1.000
 3779.00    0.68849   0.97224   -1.000
 3780.00    0.75670   0.98509   -1.000
 3781.00    0.83126   0.99143   -1.000
 3782.00    0.92738   0.99260   -1.000
 3783.00    1.03023   0.98813   -1.000
 3784.00    1.15233   0.97605   -1.000
 3785.00    1.24643   0.95877   -1.000
 3786.00    1.27216   0.94217   -1.000
 3787.00    1.19157   0.92900   -1.000
 3788.00    0.88692   0.91799   -1.000
 3789.00    0.70307   0.90772   -1.000
 3790.00    0.74047   0.89640   -1.000
 3791.00    0.81654   0.87951   -1.000
 3792.00    0.95452   0.85192   -1.000
 3793.00    0.93898   0.81241   -1.000
 3794.00    0.70780   0.76391   -1.000
 3795.00    0.52814   0.71163   -1.000
 3796.00    0.41217   0.66602   -1.000
 3797.00    0.40630   0.64540   -1.000
 3798.00    0.52040   0.66437   -1.000
 3799.00    0.60284   0.71666   -1.000
 3800.00    0.65487   0.77946   -1.000
 3801.00    0.75176   0.83442   -1.000
 3802.00    0.88667   0.87538   -1.000
 3803.00    0.90727   0.90026   -1.000
 3804.00    0.84258   0.90832   -1.000
 3805.00    0.82092   0.90702   -1.000
 3806.00    0.82746   0.91094   -1.000
 3807.00    0.86695   0.92739   -1.000
 3808.00    0.92535   0.94908   -1.000
 3809.00    0.87934   0.96476   -1.000
 3810.00    0.78116   0.96942   -1.000
 3811.00    0.63006   0.96333   -1.000
 3812.00    0.45609   0.94981   -1.000
 3813.00    0.34582   0.93425   -1.000
 3814.00    0.25918   0.92111   -1.000
 3815.00    0.27515   0.91030   -1.000
 3816.00    0.32338   0.89470   -1.000
 3817.00    0.34455   0.86484   -1.000
 3818.00    0.35863   0.82649   -1.000
 3819.00    0.39705   0.80618   -1.000
 3820.00    0.44068   0.82171   -1.000
 3821.00    0.62017   0.85684   -1.000
 3822.00    0.82271   0.88161   -1.000
 3823.00    0.80376   0.88448   -1.000
 3824.00    0.75639   0.87413   -1.000
 3825.00    0.56566   0.86262   -1.000
 3826.00    0.36207   0.85381   -1.000
 3827.00    0.51677   0.84476   -1.000
 3828.00    0.69072   0.83148   -1.000
 3829.00    0.59131   0.81013   -1.000
 3830.00    0.48727   0.77682   -1.000
 3831.00    0.45469   0.73073   -1.000
 3832.00    0.42662   0.67780   -1.000
 3833.00    0.49863   0.63028   -1.000
 3834.00    0.57190   0.60324   -1.000
 3835.00    0.66073   0.60648   -1.000
 3836.00    0.72152   0.63543   -1.000
 3837.00    0.54531   0.67634   -1.000
 3838.00    0.40443   0.71973   -1.000
 3839.00    0.48584   0.76255   -1.000
 3840.00    0.56405   0.80334   -1.000
 3841.00    0.62646   0.84041   -1.000
 3842.00    0.63543   0.87070   -1.000
 3843.00    0.43047   0.89160   -1.000
 3844.00    0.30133   0.90405   -1.000
 3845.00    0.42421   0.91135   -1.000
 3846.00    0.53049   0.91562   -1.000
 3847.00    0.59017   0.91604    0.000
 3848.00    0.65700   0.91194    0.000
 3849.00    0.74101   0.90771    0.000
 3850.00    0.84577   0.90938    0.000
 3851.00    0.99353   0.91595    0.000
 3852.00    1.01896   0.91951    0.000
 3853.00    0.82373   0.91545    0.000
 3854.00    0.65372   0.90688    0.000
 3855.00    0.52349   0.89954    0.000
 3856.00    0.50877   0.89595    0.000
 3857.00    0.65398   0.89312    0.000
 3858.00    0.70309   0.88806    0.000
 3859.00    0.63508   0.88527    0.000
 3860.00    0.59046   0.89094    0.000
 3861.00    0.57095   0.90233    0.000
 3862.00    0.55144   0.91038    0.000
 3863.00    0.53193   0.91079    0.000
 3864.00    0.52362   0.90628    0.000
 3865.00    0.52468   0.90000    0.000
 3866.00    0.63350   0.89405    0.000
 3867.00    0.82160   0.89132    0.000
 3868.00    0.88923   0.89023    0.000
 3869.00    0.87905   0.88323    0.000
 3870.00    0.87552   0.86976    0.000
 3871.00    0.87574   0.86176    0.000
 3872.00    0.84411   0.86851    0.000
 3873.00    0.79680   0.88293    0.000
 3874.00    0.70157   0.88956    0.000
 3875.00    0.58596   0.88285    0.000
 3876.00    0.63693   0.87020    0.000
 3877.00    0.74857   0.86053    0.000
 3878.00    0.72737   0.85570    0.000
 3879.00    0.66522   0.85066    0.000
 3880.00    0.57480   0.83956    0.000
 3881.00    0.47712   0.82427   -1.000
 3882.00    0.54274   0.81060   -1.000
 3883.00    0.64251   0.79428   -1.000
 3884.00    0.63348   0.76306   -1.000
 3885.00    0.60650   0.71438   -1.000
 3886.00    0.86432   0.65985    0.150
 3887.00    1.15740   0.61607    0.071
 3888.00    1.46104   0.60054    0.069
 3889.00    1.76559   0.62427    0.070
 3890.00    1.40536   0.67829    0.070
 3891.00    1.01200   0.73835    0.071
 3892.00    0.97332   0.78595    0.070
 3893.00    0.94369   0.81754    0.069
 3894.00    1.12344   0.83913    0.069
 3895.00    1.28919   0.85734    0.069
 3896.00    1.16870   0.87242    0.069
 3897.00    1.04268   0.88076    0.068
 3898.00    0.85116   0.88478    0.065
 3899.00    0.66742   0.89194    0.063
 3900.00    0.54707   0.90304    0.061
 3901.00    0.47021   0.91140    0.059
 3902.00    0.65892   0.91345    0.057
 3903.00    0.78884   0.91130    0.056
 3904.00    0.63581   0.90786    0.055
 3905.00    0.54043   0.90738    0.054
 3906.00    0.67087   0.91448    0.055
 3907.00    0.79421   0.92736    0.055
 3908.00    0.89441   0.93856    0.054
 3909.00    0.93138   0.94345    0.054
 3910.00    0.79401   0.94358    0.054
 3911.00    0.72575   0.94319    0.055
 3912.00    0.82066   0.94414    0.056
 3913.00    0.87671   0.94484    0.057
 3914.00    0.85344   0.94300    0.057
 3915.00    0.73436   0.93719    0.056
 3916.00    0.44512   0.92572    0.057
 3917.00    0.41979   0.90701    0.058
 3918.00    0.80452   0.88374    0.059
 3919.00    1.10526   0.86540    0.060
 3920.00    1.29138   0.86079    0.061
 3921.00    1.20383   0.86792    0.060
 3922.00    0.78752   0.87579    0.058
 3923.00    0.56541   0.87546    0.057
 3924.00    0.54897   0.86563    0.057
 3925.00    0.63528   0.85059    0.057
 3926.00    0.81758   0.83713    0.059
 3927.00    0.91563   0.82913    0.060
 3928.00    0.94430   0.82455    0.060
 3929.00    0.74529   0.81937    0.059
 3930.00    0.38124   0.81086    0.058
 3931.00    0.39265   0.79879    0.058
 3932.00    0.64302   0.78731    0.060
 3933.00    0.60352   0.78305    0.060
 3934.00    0.40269   0.78934    0.059
 3935.00    0.36875   0.80353    0.059
 3936.00    0.41559   0.82095    0.059
 3937.00    0.48486   0.83840    0.060
 3938.00    0.56350   0.85363    0.061
 3939.00    0.66150   0.86463    0.061
 3940.00    0.76643   0.87005    0.062
 3941.00    0.81778   0.87001    0.062
 3942.00    0.85294   0.86681    0.062
 3943.00    0.96119   0.86568    0.061
 3944.00    1.08780   0.87211    0.061
 3945.00    1.12170   0.88450    0.060
 3946.00    1.13669   0.89476    0.060
 3947.00    1.18908   0.89996    0.060
 3948.00    1.24746   0.90495    0.059
 3949.00    0.95690   0.91123    0.059
 3950.00    0.62468   0.91349    0.059
 3951.00    0.66308   0.90917    0.059
 3952.00    0.73165   0.90319    0.059
 3953.00    0.51011   0.90008    0.057
 3954.00    0.27524   0.89756    0.056
 3955.00    0.42945   0.89265    0.056
 3956.00    0.58909   0.88747    0.057
 3957.00    0.77326   0.88346    0.058
 3958.00    0.94827   0.87501    0.059
 3959.00    0.94966   0.85460    0.058
 3960.00    0.94805   0.82312    0.000
 3961.00    0.91260   0.78953    0.000
 3962.00    0.86577   0.75883    0.000
 3963.00    0.72952   0.72771    0.000
 3964.00    0.59318   0.69322    0.000
 3965.00    0.45627   0.65499    0.000
 3966.00    0.37548   0.61059    0.000
 3967.00    0.55821   0.56121    0.000
 3968.00    0.77496   0.51958    0.000
 3969.00    1.12214   0.50475    0.000
 3970.00    1.34440   0.52651    0.000
 3971.00    1.16744   0.57594    0.000
 3972.00    0.99754   0.63507    0.000
 3973.00    0.84677   0.69215    0.000
 3974.00    0.70351   0.74258    0.000
 3975.00    0.57768   0.78394    0.000
 3976.00    0.60357   0.81678    0.000
 3977.00    0.93421   0.84395    0.000
 3978.00    1.15822   0.86634    0.000
 3979.00    1.19574   0.88176    0.000
 3980.00    1.30030   0.88802    0.000
 3981.00    1.50751   0.88771    0.063
 3982.00    1.44034   0.88848    0.064
 3983.00    1.00417   0.89577    0.061
 3984.00    0.80689   0.90754    0.060
 3985.00    0.89252   0.91882    0.060
 3986.00    0.97591   0.92769    0.060
 3987.00    1.05697   0.93376    0.060
 3988.00    1.05494   0.93589    0.059
 3989.00    0.97636   0.93581    0.057
 3990.00    0.94484   0.93763    0.057
 3991.00    0.95152   0.94099    0.058
 3992.00    1.03310   0.94073    0.058
 3993.00    1.16817   0.93454    0.058
 3994.00    1.13971   0.92630    0.058
 3995.00    1.00870   0.92103    0.056
 3996.00    1.03948   0.92032    0.056
 3997.00    1.15891   0.92473    0.056
 3998.00    1.08496   0.93431    0.056
 3999.00    0.91889   0.94511    0.054
 4000.00    0.97495   0.95205    0.055
 4001.00    1.12230   0.95356    0.055
 4002.00    0.96760   0.94821    0.055
 4003.00    0.70682   0.93398    0.054
 4004.00    0.69918   0.91567    0.053
 4005.00    0.76655   0.90375    0.053
 4006.00    0.86367   0.90113    0.053
 4007.00    0.96811   0.90107    0.053
 4008.00    1.06461   0.90138    0.054
 4009.00    1.15954   0.90774    0.054
 4010.00    1.07341   0.92135    0.053
 4011.00    0.95914   0.93558    0.053
 4012.00    0.82539   0.94557    0.052
 4013.00    0.68939   0.95189    0.051
 4014.00    0.90887   0.95564    0.053
 4015.00    1.15582   0.95595    0.055
 4016.00    1.10077   0.95332    0.055
 4017.00    1.03299   0.95173    0.055
 4018.00    0.94094   0.95272    0.054
 4019.00    0.85423   0.95189    0.054
 4020.00    1.01103   0.94523    0.054
 4021.00    1.16830   0.93244    0.054
 4022.00    1.33383   0.91216    0.056
 4023.00    1.47061   0.88323    0.057
 4024.00    1.29820   0.85393    0.055
 4025.00    1.14281   0.84220    0.054
 4026.00    1.11669   0.85834    0.055
 4027.00    1.05956   0.88945    0.056
 4028.00    0.82357   0.91050    0.056
 4029.00    0.63952   0.91064    0.056
 4030.00    0.69349   0.89938    0.056
 4031.00    0.73912   0.89000    0.055
 4032.00    0.75347   0.88765    0.053
 4033.00    0.75999   0.89317    0.052
 4034.00    0.74191   0.90782    0.053
 4035.00    0.76659   0.92996    0.053
 4036.00    0.90498   0.95184    0.054
 4037.00    1.00000   0.96385    0.054
 4038.00    0.99599   0.96265    0.055
 4039.00    1.04299   0.95343    0.055
 4040.00    1.19085   0.94426    0.056
 4041.00    1.27265   0.93690    0.056
 4042.00    1.24066   0.92421    0.056
 4043.00    1.18409   0.90174    0.056
 4044.00    1.09043   0.87943    0.055
 4045.00    0.93470   0.87400    0.055
 4046.00    0.69671   0.88998    0.054
 4047.00    0.66621   0.91523    0.054
 4048.00    0.87796   0.93574    0.055
 4049.00    1.02873   0.94707    0.056
 4050.00    1.11671   0.94987    0.056
 4051.00    1.05588   0.94495    0.055
 4052.00    0.85989   0.93497    0.053
 4053.00    0.89207   0.92458    0.053
 4054.00    1.10686   0.91724    0.052
 4055.00    1.18836   0.91299    0.052
 4056.00    1.17602   0.90983    0.052
 4057.00    1.07309   0.90816    0.052
 4058.00    0.91418   0.91032    0.052
 4059.00    0.75656   0.91396    0.051
 4060.00    0.59962   0.91129    0.051
 4061.00    0.73870   0.89791    0.051
 4062.00    1.01651   0.88126    0.052
 4063.00    1.05564   0.87533    0.051
 4064.00    0.99835   0.88372    0.050
 4065.00    0.88616   0.89575    0.050
 4066.00    0.75504   0.90236    0.050
 4067.00    0.74724   0.90400    0.050
 4068.00    0.77524   0.90102    0.051
 4069.00    0.76270   0.89086    0.051
 4070.00    0.74042   0.87776    0.051
 4071.00    0.72240   0.87330    0.050
 4072.00    0.70520   0.88075    0.050
 4073.00    0.71705   0.88705    0.050
 4074.00    0.73328   0.87956    0.050
 4075.00    0.97944   0.86339    0.051
 4076.00    1.25104   0.85352    0.052
 4077.00    1.12277   0.85861    0.052
 4078.00    0.96522   0.87701    0.051
 4079.00    0.84798   0.90010    0.051
 4080.00    0.73228   0.91668    0.051
 4081.00    0.76415   0.91943    0.051
 4082.00    0.80003   0.91037    0.051
 4083.00    0.95645   0.89903    0.052
 4084.00    1.08766   0.89449    0.052
 4085.00    0.80345   0.89916    0.052
 4086.00    0.54467   0.90838    0.051
 4087.00    0.54755   0.91522    0.051
 4088.00    0.58810   0.91656    0.051
 4089.00    0.90505   0.91352    0.052
 4090.00    1.20945   0.90713    0.054
 4091.00    1.44347   0.89780    0.055
 4092.00    1.56667   0.88625    0.000
 4093.00    1.19396   0.86978    0.000
 4094.00    0.94587   0.84367    0.000
 4095.00    1.15548   0.81053    0.000
 4096.00    1.30555   0.77837    0.000
 4097.00    1.27248   0.74745    0.000
 4098.00    1.24498   0.70880    0.000
 4099.00    1.23204   0.65954    0.000
 4100.00    1.23493   0.61575    0.000
 4101.00    1.27337   0.60319    0.000
 4102.00    1.24605   0.63093    0.000
 4103.00    1.09076   0.68302    0.000
 4104.00    0.99164   0.73779    0.000
 4105.00    0.98783   0.78338    0.000
 4106.00    0.97468   0.81536    0.000
 4107.00    0.94765   0.83349    0.000
 4108.00    0.96359   0.84154    0.000
 4109.00    1.03569   0.84536    0.000
 4110.00    1.09522   0.85069    0.000
 4111.00    1.14029   0.86068    0.000
 4112.00    1.05133   0.87364    0.000
 4113.00    0.82634   0.88470    0.050
 4114.00    0.83879   0.89076    0.049
 4115.00    1.06382   0.89183    0.049
 4116.00    1.07895   0.88684    0.049
 4117.00    0.92846   0.87407    0.049
 4118.00    0.84367   0.85756    0.049
 4119.00    0.80445   0.84691    0.049
 4120.00    0.82277   0.84847    0.048
 4121.00    0.87609   0.86094    0.048
 4122.00    0.89776   0.87842    0.048
 4123.00    0.90261   0.89439    0.049
 4124.00    1.10405   0.90354    0.049
 4125.00    1.39615   0.90274    0.049
 4126.00    1.38169   0.89374    0.049
 4127.00    1.24551   0.88296    0.050
 4128.00    1.09182   0.87474    0.050
 4129.00    0.93221   0.86728    0.049
 4130.00    0.95861   0.85778    0.049
 4131.00    1.03794   0.84920    0.049
 4132.00    0.98023   0.84827    0.048
 4133.00    0.89033   0.85821    0.048
 4134.00    1.00474   0.87503    0.049
 4135.00    1.15771   0.89064    0.049
 4136.00    1.27516   0.89971    0.049
 4137.00    1.38742   0.90327    0.050
 4138.00    1.42206   0.90312    0.050
 4139.00    1.44847   0.89536    0.050
 4140.00    1.39735   0.87304    0.051
 4141.00    1.34087   0.83612    0.051
 4142.00    1.10414   0.80046    0.050
 4143.00    0.86118   0.78981    0.048
 4144.00    0.97280   0.81069    0.049
 4145.00    1.07999   0.84454    0.049
 4146.00    1.01749   0.86936    0.050
 4147.00    0.95226   0.87798    0.051
 4148.00    0.84486   0.87522    0.050
 4149.00    0.77999   0.86943    0.049
 4150.00    1.13443   0.86571    0.051
 4151.00    1.44701   0.86311    0.053
 4152.00    1.46251   0.86003    0.054
 4153.00    1.41519   0.85821    0.054
 4154.00    1.02501   0.85921    0.051
 4155.00    0.74056   0.86295    0.049
 4156.00    0.91833   0.87013    0.050
 4157.00    1.00906   0.88051    0.051
 4158.00    0.78672   0.89013    0.049
 4159.00    0.66646   0.89525    0.048
 4160.00    0.85425   0.89682    0.048
 4161.00    1.01907   0.89738    0.048
 4162.00    1.12494   0.89638    0.049
 4163.00    1.08550   0.89205    0.050
 4164.00    0.72508   0.88520    0.049
 4165.00    0.62078   0.87749    0.048
 4166.00    1.00708   0.87003    0.049
 4167.00    1.21395   0.86547    0.049
 4168.00    1.12091   0.86548    0.049
 4169.00    1.13350   0.86545    0.049
 4170.00    1.30080   0.85843    0.049
 4171.00    1.30489   0.84527    0.049
 4172.00    1.09878   0.83536    0.048
 4173.00    0.99955   0.83515    0.048
 4174.00    1.02160   0.84125    0.048
 4175.00    1.02102   0.84675    0.048
 4176.00    0.99779   0.84957    0.048
 4177.00    0.95831   0.85271    0.047
 4178.00    0.90449   0.85815    0.047
 4179.00    0.79183   0.86298    0.046
 4180.00    0.63339   0.86380    0.045
 4181.00    0.67704   0.86251    0.046
 4182.00    0.85889   0.86356    0.046
 4183.00    0.90295   0.86684    0.046
 4184.00    0.86440   0.86719    0.046
 4185.00    0.78632   0.86115    0.046
 4186.00    0.68756   0.85248    0.046
 4187.00    0.67967   0.84854    0.045
 4188.00    0.71300   0.85108    0.045
 4189.00    0.80745   0.85606    0.045
 4190.00    0.92574   0.86195    0.045
 4191.00    0.96920   0.86995    0.045
 4192.00    0.98780   0.87682    0.045
 4193.00    0.93796   0.87524    0.045
 4194.00    0.86904   0.86309    0.045
 4195.00    0.88254   0.84649    0.045
 4196.00    0.91496   0.83215    0.046
 4197.00    0.94975   0.82258    0.046
 4198.00    0.98499   0.81814    0.046
 4199.00    0.97704   0.81792    0.046
 4200.00    0.96299   0.82008    0.046
 4201.00    0.96442   0.82475    0.046
 4202.00    0.96743   0.83317    0.045
 4203.00    0.94427   0.84391    0.044
 4204.00    0.91940   0.85468    0.044
 4205.00    0.94148   0.86516    0.044
 4206.00    0.96519   0.87454    0.044
 4207.00    1.11365   0.87976    0.045
 4208.00    1.25153   0.87914    0.046
 4209.00    1.07873   0.87558    0.045
 4210.00    0.90843   0.87356    0.044
 4211.00    0.77460   0.87268    0.044
 4212.00    0.66845   0.86765    0.045
 4213.00    0.82404   0.85597    0.045
 4214.00    0.96016   0.84380    0.045
 4215.00    0.96252   0.84193    0.045
 4216.00    0.96131   0.85383    0.046
 4217.00    0.94116   0.87112    0.045
 4218.00    0.93327   0.88364    0.045
 4219.00    0.97776   0.88768    0.045
 4220.00    0.98110   0.88259    0.045
 4221.00    0.83941   0.86788    0.045
 4222.00    0.73821   0.84495    0.044
 4223.00    0.75687   0.81644    0.044
 4224.00    0.73842   0.78590    0.044
 4225.00    0.62628   0.76245    0.044
 4226.00    0.58927   0.75959    0.044
 4227.00    0.71549   0.78164    0.044
 4228.00    0.84138   0.81580    0.044
 4229.00    0.96662   0.84387    0.044
 4230.00    0.97192   0.85683    0.044
 4231.00    0.77977   0.85611    0.044
 4232.00    0.71433   0.84868    0.043
 4233.00    0.83182   0.84115    0.043
 4234.00    0.84542   0.83476    0.043
 4235.00    0.72712   0.82931    0.042
 4236.00    0.63468   0.82797    0.042
 4237.00    0.57117   0.83222    0.042
 4238.00    0.60226   0.83908    0.042
 4239.00    0.72670   0.84603    0.042
 4240.00    0.82443   0.85281    0.042
 4241.00    0.89893   0.86003    0.042
 4242.00    0.89953   0.86895    0.042
 4243.00    0.84348   0.87810    0.043
 4244.00    0.83073   0.88089    0.043
 4245.00    0.84717   0.87265    0.044
 4246.00    0.83242   0.85727    0.044
 4247.00    0.79926   0.84199    0.044
 4248.00    0.71662   0.83034    0.044
 4249.00    0.60852   0.82359    0.044
 4250.00    0.49195   0.82246    0.044
 4251.00    0.37160   0.82294    0.044
 4252.00    0.47868   0.81886    0.043
 4253.00    0.67298   0.81317    0.043
 4254.00    0.94866   0.81627    0.043
 4255.00    1.25086   0.82976    0.043
 4256.00    1.22724   0.84165    0.043
 4257.00    1.11467   0.84020    0.042
 4258.00    1.12851   0.82701    0.043
 4259.00    1.17068   0.81503    0.043
 4260.00    1.22479   0.81648    0.043
 4261.00    1.28104   0.83281    0.043
 4262.00    1.05383   0.85410    0.043
 4263.00    0.78783   0.86794    0.043
 4264.00    0.71475   0.86780    0.043
 4265.00    0.66052   0.85482    0.042
 4266.00    0.67064   0.83737    0.042
 4267.00    0.68470   0.82476    0.042
 4268.00    0.74733   0.81610    0.041
 4269.00    0.81166   0.80309    0.041
 4270.00    0.95287   0.78580    0.041
 4271.00    1.08442   0.77387    0.041
 4272.00    0.96060   0.77196    0.041
 4273.00    0.84286   0.77610    0.041
 4274.00    0.80863   0.78473    0.042
 4275.00    0.78138   0.80092    0.043
 4276.00    0.81756   0.82237    0.042
 4277.00    0.84038   0.83898    0.042
 4278.00    0.77422   0.84261    0.042
 4279.00    0.73069   0.83551    0.041
 4280.00    0.80433   0.82720    0.041
 4281.00    0.88063   0.82365    0.041
 4282.00    0.96802   0.82283   -2.000
 4283.00    1.05595   0.82043   -2.000
 4284.00    1.14579   0.81585   -2.000
 4285.00    1.20768   0.81171   -2.000
 4286.00    1.18834   0.80743   -2.000
 4287.00    1.11690   0.79805   -2.000
 4288.00    0.91621   0.78403   -2.000
 4289.00    0.76268   0.77567   -2.000
 4290.00    0.70994   0.78179   -2.000
 4291.00    0.69421   0.79791   -2.000
 4292.00    0.74716   0.81083   -2.000
 4293.00    0.77922   0.81324   -2.000
 4294.00    0.77737   0.80886   -2.000
 4295.00    0.78602   0.80222   -2.000
 4296.00    0.80961   0.79134   -2.000
 4297.00    0.81354   0.77389   -2.000
 4298.00    0.79287   0.75443    0.042
 4299.00    0.77601   0.74138    0.042
 4300.00    0.76336   0.73773    0.042
 4301.00    0.74562   0.73857    0.042
 4302.00    0.72292   0.73959    0.042
 4303.00    0.67027   0.74091    0.042
 4304.00    0.59192   0.74126    0.042
 4305.00    0.61871   0.73662    0.042
 4306.00    0.72496   0.72663    0.042
 4307.00    0.79595   0.71773    0.042
 4308.00    0.84352   0.71814    0.041
 4309.00    0.76857   0.72991    0.041
 4310.00    0.62238   0.74774    0.040
 4311.00    0.65309   0.76544    0.040
 4312.00    0.77345   0.78163    0.042
 4313.00    0.81653   0.80020    0.042
 4314.00    0.82570   0.82497    0.041
 4315.00    0.82207   0.85236    0.041
 4316.00    0.81362   0.87236    0.040
 4317.00    0.84166   0.87886    0.041
 4318.00    0.88136   0.87491    0.041
 4319.00    0.84893   0.86650    0.041
 4320.00    0.79722   0.85552    0.041
 4321.00    0.73944   0.83840    0.041
 4322.00    0.68034   0.81136    0.041
 4323.00    0.75301   0.77863    0.042
 4324.00    0.84860   0.75470    0.042
 4325.00    0.85642   0.75481    0.042
 4326.00    0.85262   0.77999    0.042
 4327.00    0.92826   0.81327    0.042
 4328.00    1.01131   0.83470    0.043
 4329.00    0.78073   0.83877    0.042
 4330.00    0.53221   0.83370    0.000
 4331.00    0.71054   0.82816    0.000
 4332.00    0.89744   0.82405    0.000
 4333.00    0.92769   0.81784    0.000
 4334.00    0.95402   0.80171    0.000
 4335.00    0.88606   0.76688    0.000
 4336.00    0.82433   0.71290    0.000
 4337.00    0.84357   0.65137    0.000
 4338.00    0.85411   0.59869    0.000
 4339.00    0.78865   0.57147    0.000
 4340.00    0.72995   0.58155    0.000
 4341.00    0.71492   0.62326    0.000
 4342.00    0.71316   0.67445    0.000
 4343.00    0.77834   0.71757    0.000
 4344.00    0.82633   0.74954    0.000
 4345.00    0.80418   0.77312    0.000
 4346.00    0.80695   0.79153    0.000
 4347.00    0.89404   0.80675    0.000
 4348.00    0.91742   0.81413    0.000
 4349.00    0.75906   0.80626    0.000
 4350.00    0.65074   0.78761    0.000
 4351.00    0.66439   0.77579    0.042
 4352.00    0.70883   0.78246    0.042
 4353.00    0.81803   0.80207    0.042
 4354.00    0.89603   0.82302    0.041
 4355.00    0.91701   0.83878    0.041
 4356.00    0.97027   0.84591    0.040
 4357.00    1.07510   0.84352    0.041
 4358.00    1.07229   0.83803    0.041
 4359.00    0.91856   0.83894    0.041
 4360.00    0.78709   0.84796    0.041
 4361.00    0.68308   0.85890    0.040
 4362.00    0.66750   0.86726    0.039
 4363.00    0.74808   0.87247    0.040
 4364.00    0.80069   0.87199    0.040
 4365.00    0.82647   0.86238    0.039
 4366.00    0.87274   0.84745    0.039
 4367.00    0.93633   0.83679    0.040
 4368.00    0.95405   0.83452    0.040
 4369.00    0.93761   0.83614    0.040
 4370.00    0.93801   0.83553    0.040
 4371.00    0.94941   0.82938    0.040
 4372.00    0.91856   0.81749    0.040
 4373.00    0.86349   0.80467    0.039
 4374.00    0.77121   0.80014    0.039
 4375.00    0.66037   0.80936    0.039
 4376.00    0.65126   0.82687    0.039
 4377.00    0.68603   0.84077    0.040
 4378.00    0.64881   0.84363    0.039
 4379.00    0.58494   0.83482    0.038
 4380.00    0.56773   0.81382    0.038
 4381.00    0.56516   0.78040    0.039
 4382.00    0.69231   0.74441    0.039
 4383.00    0.85339   0.72464    0.038
 4384.00    0.78271   0.72956    0.038
 4385.00    0.66252   0.74655    0.038
 4386.00    0.66709   0.75870    0.038
 4387.00    0.69276   0.76430    0.038
 4388.00    0.78442   0.77162    0.038
 4389.00    0.88451   0.78409    0.038
 4390.00    0.79462   0.79910    0.037
 4391.00    0.68778   0.81236    0.037
 4392.00    0.61919   0.81913    0.037
 4393.00    0.55263   0.81932    0.037
 4394.00    0.71666   0.82097    0.074
 4395.00    0.88442   0.83109   -1.000
 4396.00    0.98849   0.84451   -1.000
 4397.00    1.07767   0.84912   -1.000
 4398.00    0.83954   0.84117   -1.000
 4399.00    0.61119   0.82968   -1.000
 4400.00    0.50371   0.82435   -1.000
 4401.00    0.41255   0.82191   -1.000
 4402.00    0.45878   0.81051   -1.000
 4403.00    0.49286   0.78983   -1.000
 4404.00    0.45083   0.77487   -1.000
 4405.00    0.43851   0.77524    0.433
 4406.00    0.57233   0.78482    0.063
 4407.00    0.69763   0.79650    0.037
 4408.00    0.78889   0.81162    0.037
 4409.00    0.86453   0.83079    0.037
 4410.00    0.88838   0.84769    0.037
 4411.00    0.88558   0.85379    0.037
 4412.00    0.80810   0.84347    0.038
 4413.00    0.72639   0.81962    0.038
 4414.00    0.63452   0.79692    0.038
 4415.00    0.58135   0.79119    0.038
 4416.00    0.60828   0.80481    0.038
 4417.00    0.61399   0.82763    0.038
 4418.00    0.58148   0.84699    0.038
 4419.00    0.62242   0.85427    0.037
 4420.00    0.77896   0.84880    0.037
 4421.00    0.85034   0.83836    0.037
 4422.00    0.80403   0.83240    0.037
 4423.00    0.80740   0.83291    0.037
 4424.00    0.87119   0.83466    0.037
 4425.00    0.89314   0.83408    0.038
 4426.00    0.87023   0.83288    0.038
 4427.00    0.88785   0.83235    0.038
 4428.00    0.94381   0.83049    0.038
 4429.00    0.92422   0.82750    0.038
 4430.00    0.84163   0.82657    0.038
 4431.00    0.74201   0.82605    0.038
 4432.00    0.62988   0.81937    0.038
 4433.00    0.62957   0.80637    0.038
 4434.00    0.70136   0.79704    0.038
 4435.00    0.70627   0.80145    0.038
 4436.00    0.67344   0.81968    0.038
 4437.00    0.61591   0.84175    0.038
 4438.00    0.54623   0.85486    0.038
 4439.00    0.51046   0.85150    0.038
 4440.00    0.48907   0.83492    0.039
 4441.00    0.59847   0.81755    0.039
 4442.00    0.75539   0.81215    0.039
 4443.00    0.81962   0.82218    0.039
 4444.00    0.85535   0.83907    0.039
 4445.00    0.81358   0.85093    0.039
 4446.00    0.75196   0.85430    0.039
 4447.00    0.80032   0.85373    0.039
 4448.00    0.87159   0.85230    0.039
 4449.00    0.85043   0.84983    0.039
 4450.00    0.81408   0.84625    0.039
 4451.00    0.74282   0.84002    0.039
 4452.00    0.66726   0.82808    0.039
 4453.00    0.75645   0.81158    0.038
 4454.00    0.85966   0.79787    0.038
 4455.00    0.72768   0.79308    0.038
 4456.00    0.58409   0.79496    0.038
 4457.00    0.51223   0.79665    0.037
 4458.00    0.44554   0.79472    0.037
 4459.00    0.63188   0.79063    0.037
 4460.00    0.80765   0.78863    0.038
 4461.00    0.76908   0.79381    0.000
 4462.00    0.72437   0.80638    0.000
 4463.00    0.60754   0.81873    0.000
 4464.00    0.52373   0.82363    0.000
 4465.00    0.70776   0.82119    0.000
 4466.00    0.84820   0.81428    0.000
 4467.00    0.72336   0.80301    0.000
 4468.00    0.65003   0.78728    0.000
 4469.00    0.82376   0.77201    0.000
 4470.00    0.96628   0.76757    0.000
 4471.00    0.98690   0.78197    0.000
 4472.00    0.96687   0.81050    0.000
 4473.00    0.81466   0.83863    0.000
 4474.00    0.70391   0.85745    0.000
 4475.00    0.70723   0.86881    0.000
 4476.00    0.72931   0.87428    0.000
 4477.00    0.79558   0.86877    0.000
 4478.00    0.86702   0.84891    0.000
 4479.00    0.94900   0.82252    0.000
 4480.00    0.94585   0.80524    0.000
 4481.00    0.79177   0.80793    0.000
 4482.00    0.72654   0.82791    0.038
 4483.00    0.79910   0.85278    0.038
 4484.00    0.83041   0.87066    0.038
 4485.00    0.80555   0.87551    0.037
 4486.00    0.80851   0.86675    0.037
 4487.00    0.84482   0.84955    0.037
 4488.00    0.80038   0.83433    0.037
 4489.00    0.67058   0.83028    0.036
 4490.00    0.66780   0.83716    0.037
 4491.00    0.78346   0.84484    0.038
 4492.00    0.81974   0.84322    0.038
 4493.00    0.79078   0.83256    0.038
 4494.00    0.73532   0.82263    0.037
 4495.00    0.66068   0.82256    0.037
 4496.00    0.74171   0.83316    0.037
 4497.00    0.92161   0.84769    0.037
 4498.00    0.96066   0.85760    0.037
 4499.00    0.92147   0.85983    0.037
 4500.00    0.84952   0.86029    0.037
 4501.00    0.76175   0.86782    0.037
 4502.00    0.82771   0.88269    0.037
 4503.00    0.95781   0.89539    0.037
 4504.00    0.96866   0.89792    0.037
 4505.00    0.93694   0.89150    0.037
 4506.00    0.91174   0.88323    0.036
 4507.00    0.88850   0.87901    0.035
 4508.00    0.90429   0.87938    0.036
 4509.00    0.92987   0.87992    0.036
 4510.00    0.93209   0.87551    0.036
 4511.00    0.92957   0.86556    0.036
 4512.00    0.89110   0.85457    0.036
 4513.00    0.84690   0.84778    0.036
 4514.00    0.77448   0.84657    0.036
 4515.00    0.69871   0.84785    0.036
 4516.00    0.84188   0.84844    0.036
 4517.00    1.00276   0.84981    0.036
 4518.00    0.94705   0.85525    0.036
 4519.00    0.88149   0.86262    0.035
 4520.00    0.88231   0.86474    0.036
 4521.00    0.88364   0.85786    0.036
 4522.00    0.87004   0.84600    0.036
 4523.00    0.85393   0.83431    0.036
 4524.00    0.79086   0.82236    0.036
 4525.00    0.74238   0.80768    0.036
 4526.00    0.85727   0.79175    0.036
 4527.00    0.95294   0.77973    0.036
 4528.00    0.89819   0.77651    0.036
 4529.00    0.84612   0.78287    0.036
 4530.00    0.80991   0.79402    0.036
 4531.00    0.78709   0.80168    0.036
 4532.00    0.82700   0.80022    0.036
 4533.00    0.85092   0.79348    0.036
 4534.00    0.81377   0.79346    0.036
 4535.00    0.78554   0.80796    0.036
 4536.00    0.78577   0.83026    0.036
 4537.00    0.79636   0.84497    0.036
 4538.00    0.83491   0.84421    0.036
 4539.00    0.87433   0.83429    0.036
 4540.00    0.91577   0.82705    0.035
 4541.00    0.93936   0.82765    0.035
 4542.00    0.92718   0.83129    0.035
 4543.00    0.90425   0.83167    0.035
 4544.00    0.86255   0.82941    0.035
 4545.00    0.81838   0.82827    0.035
 4546.00    0.77043   0.82735    0.035
 4547.00    0.78260   0.82365    0.035
 4548.00    0.87548   0.81901    0.035
 4549.00    0.91286   0.81738    0.035
 4550.00    0.88463   0.81710    0.000
 4551.00    0.86088   0.81332    0.000
 4552.00    0.84178   0.80688    0.000
 4553.00    0.80557   0.80408    0.000
 4554.00    0.75361   0.81004    0.000
 4555.00    0.75327   0.82487    0.000
 4556.00    0.79476   0.84315    0.000
 4557.00    0.86629   0.85742    0.000
 4558.00    0.95924   0.86412    0.000
 4559.00    0.91947   0.86489    0.000
 4560.00    0.79663   0.86193    0.000
 4561.00    0.77297   0.85460    0.000
 4562.00    0.80356   0.84268    0.000
 4563.00    0.88375   0.83106    0.000
 4564.00    0.98752   0.82718    0.000
 4565.00    0.93439   0.83362    0.000
 4566.00    0.81690   0.84545    0.000
 4567.00    0.79090   0.85468    0.000
 4568.00    0.79696   0.85581    0.000
 4569.00    0.87553   0.84874    0.000
 4570.00    0.97552   0.83998    0.000
 4571.00    0.94270   0.83839    0.000
 4572.00    0.87735   0.84498    0.000
 4573.00    0.79884   0.85219    0.000
 4574.00    0.71772   0.85509    0.000
 4575.00    0.73272   0.85482    0.000
 4576.00    0.76259   0.85130    0.000
 4577.00    0.75695   0.84207    0.000
 4578.00    0.74725   0.82853    0.000
 4579.00    0.76288   0.81744    0.000
 4580.00    0.78045   0.81445    0.000
 4581.00    0.92594   0.81807    0.000
 4582.00    1.07676   0.82209    0.000
 4583.00    1.05425   0.82288    0.000
 4584.00    1.02784   0.82248    0.000
 4585.00    0.89859   0.82545    0.000
 4586.00    0.77766   0.83381    0.000
 4587.00    0.80226   0.84378    0.000
 4588.00    0.82458   0.84803    0.000
 4589.00    0.82240   0.84288    0.000
 4590.00    0.83132   0.83215    0.000
 4591.00    0.92412   0.82273    0.000
 4592.00    0.99013   0.81754    0.000
 4593.00    0.90218   0.81482    0.000
 4594.00    0.83052   0.81323    0.000
 4595.00    0.83329   0.81415    0.000
 4596.00    0.83582   0.81830    0.000
 4597.00    0.83744   0.82303    0.000
 4598.00    0.81846   0.82418    0.000
 4599.00    0.73508   0.82085    0.000
 4600.00    0.68296   0.81716    0.000
 4601.00    0.71385   0.81733    0.000
 4602.00    0.77591   0.82041    0.000
 4603.00    0.90896   0.82290    0.000
 4604.00    0.97740   0.82450    0.000
 4605.00    0.91834   0.82899    0.000
 4606.00    0.89775   0.83934    0.000
 4607.00    0.94329   0.85279    0.000
 4608.00    0.94859   0.86229    0.000
 4609.00    0.89332   0.86326    0.000
 4610.00    0.85355   0.85749    0.000
 4611.00    0.83429   0.85032    0.000
 4612.00    0.83191   0.84656    0.000
 4613.00    0.84921   0.84805    0.000
 4614.00    0.82437   0.85245    0.000
 4615.00    0.75623   0.85539    0.000
 4616.00    0.75922   0.85426    0.000
 4617.00    0.82670   0.84967    0.000
 4618.00    0.88037   0.84545    0.000
 4619.00    0.92301   0.84609    0.000
 4620.00    0.93283   0.85121    0.000
 4621.00    0.91959   0.85608    0.000
 4622.00    0.85371   0.85776    0.000
 4623.00    0.75538   0.85636    0.000
 4624.00    0.77365   0.85293    0.000
 4625.00    0.85473   0.84917    0.000
 4626.00    0.87036   0.84604    0.000
 4627.00    0.85538   0.84279    0.000
 4628.00    0.87557   0.83995    0.000
 4629.00    0.90992   0.84008    0.000
 4630.00    0.92080   0.84251    0.000
 4631.00    0.92361   0.84227    0.000
 4632.00    0.93044   0.83739    0.000
 4633.00    0.93843   0.83153    0.000
 4634.00    0.94069   0.82737    0.000
 4635.00    0.94157   0.82283    0.000
 4636.00    0.80464   0.81541    0.000
 4637.00    0.64109   0.80667    0.000
 4638.00    0.61108   0.80109    0.000
 4639.00    0.60111   0.80192    0.000
 4640.00    0.69611   0.80827    0.000
 4641.00    0.80265   0.81534    0.000
 4642.00    0.85697   0.81775    0.000
 4643.00    0.90750   0.81247    0.000
 4644.00    0.79182   0.79955    0.000
 4645.00    0.66986   0.78323    0.000
 4646.00    0.69217   0.77124    0.000
 4647.00    0.71584   0.76929    0.000
 4648.00    0.76230   0.77677    0.000
 4649.00    0.80729   0.78923    0.000
 4650.00    0.82829   0.80237    0.000
 4651.00    0.84426   0.81222    0.000
 4652.00    0.80881   0.81499    0.000
 4653.00    0.78559   0.81054    0.000
 4654.00    0.85167   0.80503    0.000
 4655.00    0.90659   0.80675    0.000
 4656.00    0.89909   0.81901    0.000
 4657.00    0.89342   0.83742    0.000
 4658.00    0.89585   0.85247    0.000
 4659.00    0.89332   0.85590    0.000
 4660.00    0.87257   0.84703    0.000
 4661.00    0.83926   0.83266    0.000
 4662.00    0.76740   0.82021    0.000
 4663.00    0.70621   0.81063    0.000
 4664.00    0.67286   0.79869    0.000
 4665.00    0.69190   0.78148    0.000
 4666.00    0.82837   0.76529    0.000
 4667.00    0.89724   0.76080    0.000
 4668.00    0.83484   0.77153    0.000
 4669.00    0.79956   0.79024    0.000
 4670.00    0.81020   0.80605    0.000
 4671.00    0.83526   0.81286    0.000
 4672.00    0.88170   0.81245    0.000
 4673.00    0.86761   0.81126    0.000
 4674.00    0.77459   0.81374    0.000
 4675.00    0.71423   0.81829    0.000
 4676.00    0.69140   0.81964    0.000
 4677.00    0.70645   0.81477    0.000
 4678.00    0.75987   0.80576    0.000
 4679.00    0.82094   0.79723    0.000
 4680.00    0.88883   0.79298    0.000
 4681.00    0.87856   0.79434    0.000
 4682.00    0.80675   0.79896    0.000
 4683.00    0.77737   0.80222    0.000
 4684.00    0.77739   0.80206    0.000
 4685.00    0.79429   0.80078    0.000
 4686.00    0.82145   0.80128    0.000
 4687.00    0.84544   0.80365    0.000
 4688.00    0.86777   0.80590    0.000
 4689.00    0.86457   0.80648    0.000
 4690.00    0.84964   0.80655    0.000
 4691.00    0.78994   0.80899    0.000
 4692.00    0.71252   0.81492    0.000
 4693.00    0.70445   0.82250    0.000
 4694.00    0.71979   0.82816    0.000
 4695.00    0.73504   0.82742    0.000
 4696.00    0.75027   0.81782    0.000
 4697.00    0.77524   0.80317    0.000
 4698.00    0.80249   0.79160    0.000
 4699.00    0.77598   0.78704    0.000
 4700.00    0.73936   0.78601    0.000
 4701.00    0.73617   0.78468    0.000
 4702.00    0.73785   0.78432    0.000
 4703.00    0.72845   0.78704    0.000
 4704.00    0.71787   0.79049    0.000
 4705.00    0.74168   0.79041    0.000
 4706.00    0.76785   0.78641    0.000
 4707.00    0.75202   0.78269    0.000
 4708.00    0.73476   0.78379    0.000
 4709.00    0.81763   0.78994    0.000
 4710.00    0.89661   0.79557    0.000
 4711.00    0.84386   0.79443    0.000
 4712.00    0.79468   0.78768    0.000
 4713.00    0.80019   0.78389    0.000
 4714.00    0.80802   0.78934    0.000
 4715.00    0.83854   0.80229    0.000
 4716.00    0.85685   0.81678    0.000
 4717.00    0.78875   0.82854    0.000
 4718.00    0.73787   0.83626    0.000
 4719.00    0.78069   0.83956    0.000
 4720.00    0.81141   0.83858    0.000
 4721.00    0.78939   0.83586    0.000
 4722.00    0.80131   0.83509    0.000
 4723.00    0.93493   0.83632    0.000
 4724.00    1.02242   0.83394    0.000
 4725.00    0.97101   0.82243    0.000
 4726.00    0.90815   0.80374    0.000
 4727.00    0.81594   0.78674    0.000
 4728.00    0.76729   0.77874    0.000
 4729.00    0.81465   0.77997    0.000
 4730.00    0.83617   0.78652    0.000
 4731.00    0.80830   0.79492    0.000
 4732.00    0.77059   0.80273    0.000
 4733.00    0.71646   0.80787    0.000
 4734.00    0.75573   0.80920    0.000
 4735.00    0.93156   0.80793    0.000
 4736.00    1.03340   0.80783    0.000
 4737.00    1.04011   0.81088    0.000
 4738.00    0.99618   0.81369    0.000
 4739.00    0.89489   0.81284    0.000
 4740.00    0.86652   0.81070    0.000
 4741.00    0.91100   0.81146    0.000
 4742.00    0.89023   0.81506    0.000
 4743.00    0.81198   0.81869    0.000
 4744.00    0.75820   0.82158    0.000
 4745.00    0.72342   0.82485    0.000
 4746.00    0.76652   0.82809    0.000
 4747.00    0.86278   0.82962    0.000
 4748.00    0.90960   0.82926    0.000
 4749.00    0.92684   0.82741    0.000
 4750.00    0.88711   0.82350    0.000
 4751.00    0.81764   0.81753    0.000
 4752.00    0.74307   0.81124    0.000
 4753.00    0.66618   0.80661    0.000
 4754.00    0.69411   0.80416    0.000
 4755.00    0.76286   0.80348    0.000
 4756.00    0.80063   0.80412    0.000
 4757.00    0.82814   0.80576    0.000
 4758.00    0.81640   0.80694    0.000
 4759.00    0.79375   0.80460    0.000
 4760.00    0.79640   0.79661    0.000
 4761.00    0.80484   0.78505    0.032
 4762.00    0.81578   0.77447    0.032
 4763.00    0.82718   0.76732    0.032
 4764.00    0.81724   0.76379    0.032
 4765.00    0.80429   0.76492    0.032
 4766.00    0.81099   0.77189    0.032
 4767.00    0.81968   0.78278    0.032
 4768.00    0.79921   0.79266    0.032
 4769.00    0.77686   0.79708    0.032
 4770.00    0.73969   0.79605    0.032
 4771.00    0.70228   0.79465    0.032
 4772.00    0.76243   0.79791    0.032
 4773.00    0.81750   0.80501    0.032
 4774.00    0.72483   0.81112    0.031
 4775.00    0.64082   0.81354    0.031
 4776.00    0.68190   0.81302    0.031
 4777.00    0.72066   0.81051    0.031
 4778.00    0.73760   0.80626    0.031
 4779.00    0.75442   0.80113    0.030
 4780.00    0.77048   0.79571    0.030
 4781.00    0.78569   0.78998    0.030
 4782.00    0.79650   0.78508    0.030
 4783.00    0.81844   0.78252    0.029
 4784.00    0.88778   0.78131    0.030
 4785.00    0.92265   0.77955    0.030
 4786.00    0.83639   0.77779    0.030
 4787.00    0.76953   0.77759    0.030
 4788.00    0.75996   0.77904    0.030
 4789.00    0.76440   0.78243    0.030
 4790.00    0.80409   0.78883    0.031
 4791.00    0.82303   0.79845    0.031
 4792.00    0.79697   0.81009    0.030
 4793.00    0.79396   0.82043    0.030
 4794.00    0.83431   0.82490    0.030
 4795.00    0.85064   0.82121    0.030
 4796.00    0.82750   0.81136    0.030
 4797.00    0.81681   0.80013    0.031
 4798.00    0.82405   0.79292    0.031
 4799.00    0.83148   0.79330    0.031
 4800.00    0.83915   0.80012    0.031
 4801.00    0.83152   0.80751    0.031
 4802.00    0.80683   0.80941    0.031
 4803.00    0.79243   0.80449    0.031
 4804.00    0.78819   0.79632    0.031
 4805.00    0.80483   0.78921    0.031
 4806.00    0.83963   0.78511    0.030
 4807.00    0.82997   0.78434    0.030
 4808.00    0.78629   0.78667    0.030
 4809.00    0.75776   0.79039    0.030
 4810.00    0.73941   0.79303    0.030
 4811.00    0.74632   0.79399    0.030
 4812.00    0.76812   0.79464    0.030
 4813.00    0.77224   0.79649    0.030
 4814.00    0.76727   0.80009    0.030
 4815.00    0.78224   0.80504    0.030
 4816.00    0.80607   0.81001    0.030
 4817.00    0.80368   0.81329    0.030
 4818.00    0.79127   0.81379    0.030
 4819.00    0.77405   0.81113    0.030
 4820.00    0.75526   0.80463    0.030
 4821.00    0.76289   0.79443    0.030
 4822.00    0.77771   0.78420    0.030
 4823.00    0.75293   0.78009    0.030
 4824.00    0.71931   0.78390    0.030
 4825.00    0.73059   0.78978    0.030
 4826.00    0.74988   0.79119    0.030
 4827.00    0.72092   0.78800    0.030
 4828.00    0.68538   0.78400    0.030
 4829.00    0.68323   0.78090    0.030
 4830.00    0.68433   0.77815    0.030
 4831.00    0.70974   0.77707    0.030
 4832.00    0.73662   0.78024    0.030
 4833.00    0.79808   0.78643    0.030
 4834.00    0.85974   0.79107    0.030
 4835.00    0.79352   0.79175    0.030
 4836.00    0.72995   0.78885    0.029
 4837.00    0.73576   0.78314    0.029
 4838.00    0.74529   0.77621    0.029
 4839.00    0.80567   0.77113    0.029
 4840.00    0.86055   0.76939    0.030
 4841.00    0.86574   0.76961    0.029
 4842.00    0.86914   0.77107    0.029
 4843.00    0.86073   0.77495    0.029
 4844.00    0.83884   0.78004    0.029
 4845.00    0.74736   0.78134    0.029
 4846.00    0.68913   0.77610    0.029
 4847.00    0.76925   0.76811    0.029
 4848.00    0.82596   0.76333    0.000
 4849.00    0.80206   0.76299    0.000
 4850.00    0.77376   0.76273    0.000
 4851.00    0.73266   0.75760    0.000
 4852.00    0.70168   0.74564    0.000
 4853.00    0.69575   0.72816    0.000
 4854.00    0.69171   0.70993    0.000
 4855.00    0.69170   0.69545    0.000
 4856.00    0.69105   0.68144    0.000
 4857.00    0.68923   0.65780    0.000
 4858.00    0.66858   0.62001    0.000
 4859.00    0.61743   0.57886    0.000
 4860.00    0.58101   0.55508    0.000
 4861.00    0.56550   0.56243    0.000
 4862.00    0.58131   0.59523    0.000
 4863.00    0.63627   0.63519    0.000
 4864.00    0.65125   0.66910    0.000
 4865.00    0.62223   0.69429    0.000
 4866.00    0.62405   0.71147    0.000
 4867.00    0.65582   0.72067    0.000
 4868.00    0.63536   0.72145    0.000
 4869.00    0.57017   0.71509    0.000
 4870.00    0.55174   0.70775    0.000
 4871.00    0.56858   0.70801    0.000
 4872.00    0.58042   0.71802    0.000
 4873.00    0.58895   0.73136    0.000
 4874.00    0.59135   0.74222    0.000
 4875.00    0.59018   0.75096    0.029
 4876.00    0.60617   0.75992    0.029
 4877.00    0.63083   0.76873    0.029
 4878.00    0.65885   0.77435    0.029
 4879.00    0.68836   0.77388    0.029
 4880.00    0.71021   0.76823    0.029
 4881.00    0.72919   0.76231    0.029
 4882.00    0.75111   0.75855    0.029
 4883.00    0.77397   0.75420    0.030
 4884.00    0.70969   0.74791    0.030
 4885.00    0.62218   0.74298    0.029
 4886.00    0.62817   0.74167    0.029
 4887.00    0.65455   0.74078    0.029
 4888.00    0.61688   0.73605    0.029
 4889.00    0.56812   0.72953    0.029
 4890.00    0.59488   0.72990    0.029
 4891.00    0.63159   0.74393    0.030
 4892.00    0.61555   0.76844    0.029
 4893.00    0.59460   0.79301    0.029
 4894.00    0.61387   0.80994    0.029
 4895.00    0.63542   0.81749    0.029
 4896.00    0.71838   0.81661    0.030
 4897.00    0.80182   0.80919    0.031
 4898.00    0.78475   0.79850    0.031
 4899.00    0.76766   0.78904    0.030
 4900.00    0.75042   0.78362    0.030
 4901.00    0.73278   0.78126    0.030
 4902.00    0.71004   0.78091    0.030
 4903.00    0.69044   0.78433    0.030
 4904.00    0.69810   0.79138    0.030
 4905.00    0.70641   0.79653    0.030
 4906.00    0.71887   0.79393    0.030
 4907.00    0.73187   0.78356    0.030
 4908.00    0.74750   0.77101    0.030
 4909.00    0.75837   0.76290    0.030
 4910.00    0.74981   0.76292    0.030
 4911.00    0.73574   0.76998    0.030
 4912.00    0.70306   0.77987    0.030
 4913.00    0.70458   0.78863    0.030
 4914.00    0.80342   0.79266    0.030
 4915.00    0.84139   0.78712    0.030
 4916.00    0.73128   0.76842    0.030
 4917.00    0.63410   0.73923    0.030
 4918.00    0.56408   0.70895    0.030
 4919.00    0.56520   0.68884    0.030
 4920.00    0.69612   0.68544    0.030
 4921.00    0.74946   0.69670    0.030
 4922.00    0.67909   0.71452    0.030
 4923.00    0.64168   0.73219    0.030
 4924.00    0.65038   0.74934    0.030
 4925.00    0.66376   0.76750    0.030
 4926.00    0.68289   0.78492    0.030
 4927.00    0.69645   0.79825    0.030
 4928.00    0.70396   0.80610    0.030
 4929.00    0.68899   0.80755    0.029
 4930.00    0.65249   0.80126    0.029
 4931.00    0.63513   0.78834    0.029
 4932.00    0.63391   0.77415    0.030
 4933.00    0.64063   0.76559    0.029
 4934.00    0.65324   0.76370    0.029
 4935.00    0.71027   0.76127    0.029
 4936.00    0.79631   0.75261    0.029
 4937.00    0.79397   0.74259    0.029
 4938.00    0.74112   0.74102    0.029
 4939.00    0.73203   0.75117    0.029
 4940.00    0.74474   0.76712    0.000
 4941.00    0.75477   0.78100    0.000
 4942.00    0.76365   0.78962    0.000
 4943.00    0.75426   0.79365    0.000
 4944.00    0.73813   0.79463    0.000
 4945.00    0.78937   0.79532    0.000
 4946.00    0.86169   0.79850    0.000
 4947.00    0.87543   0.80378    0.000
 4948.00    0.87389   0.80855    0.000
 4949.00    0.80742   0.81099    0.000
 4950.00    0.72712   0.81000    0.000
 4951.00    0.75103   0.80472    0.000
 4952.00    0.79251   0.79502    0.000
 4953.00    0.79544   0.78084    0.000
 4954.00    0.79346   0.76121    0.000
 4955.00    0.77244   0.73793    0.000
 4956.00    0.74974   0.72000    0.000
 4957.00    0.69927   0.71839    0.000
 4958.00    0.64735   0.73411    0.000
 4959.00    0.71025   0.75505    0.000
 4960.00    0.77471   0.76876    0.000
 4961.00    0.78930   0.77267    0.000
 4962.00    0.80268   0.76973    0.000
 4963.00    0.78982   0.76222    0.000
 4964.00    0.78018   0.75256    0.000
 4965.00    0.81001   0.74485    0.000
 4966.00    0.82994   0.74210    0.000
 4967.00    0.76712   0.74382    0.000
 4968.00    0.70778   0.74821    0.000
 4969.00    0.67015   0.75443    0.000
 4970.00    0.65450   0.76200    0.000
 4971.00    0.74660   0.76995    0.000
 4972.00    0.81694   0.77654    0.000
 4973.00    0.80066   0.77987    0.000
 4974.00    0.78412   0.77888    0.000
 4975.00    0.76668   0.77334    0.000
 4976.00    0.75531   0.76442    0.000
 4977.00    0.76089   0.75401    0.000
 4978.00    0.75246   0.74310    0.000
 4979.00    0.71050   0.73097    0.000
 4980.00    0.67256   0.71674    0.000
 4981.00    0.64291   0.70338    0.000
 4982.00    0.62239   0.69722    0.000
 4983.00    0.61827   0.70176    0.000
 4984.00    0.61657   0.71438    0.000
 4985.00    0.61866   0.72952    0.000
 4986.00    0.65391   0.74218    0.000
 4987.00    0.73491   0.74876    0.000
 4988.00    0.76232   0.74865    0.000
 4989.00    0.72465   0.74548    0.000
 4990.00    0.71797   0.74365    0.000
 4991.00    0.74445   0.74443    0.000
 4992.00    0.76064   0.74643    0.000
 4993.00    0.76710   0.74851    0.000
 4994.00    0.75643   0.75092    0.000
 4995.00    0.73151   0.75232    0.000
 4996.00    0.73831   0.74926    0.000
 4997.00    0.76837   0.74023    0.000
 4998.00    0.72791   0.72755    0.000
 4999.00    0.64208   0.71606    0.000
 5000.00    0.62620   0.71005    0.000
 5001.00    0.64972   0.70923    0.000
 5002.00    0.68677   0.70892    0.000
 5003.00    0.73045   0.70510    0.000
 5004.00    0.75912   0.69903    0.000
 5005.00    0.78142   0.69709    0.000
 5006.00    0.80027   0.70383    0.000
 5007.00    0.81788   0.71595    0.000
 5008.00    0.78028   0.72456    0.000
 5009.00    0.72575   0.72333    0.000
 5010.00    0.72418   0.71257    0.000
 5011.00    0.73613   0.69679    0.000
 5012.00    0.70573   0.68182    0.000
 5013.00    0.66654   0.67309    0.000
 5014.00    0.60332   0.67298    0.000
 5015.00    0.53615   0.67978    0.000
 5016.00    0.58432   0.68941    0.000
 5017.00    0.64663   0.69846    0.000
 5018.00    0.67944   0.70576    0.000
 5019.00    0.70976   0.71034    0.000
 5020.00    0.67532   0.71175    0.000
 5021.00    0.63771   0.71233    0.000
 5022.00    0.58938   0.71548    0.000
 5023.00    0.54222   0.72090    0.000
 5024.00    0.57605   0.72444    0.000
 5025.00    0.60988   0.72392    0.000
 5026.00    0.64359   0.72234    0.000
 5027.00    0.67235   0.72419    0.000
 5028.00    0.64318   0.73116    0.000
 5029.00    0.62341   0.74084    0.029
 5030.00    0.67967   0.74998    0.029
 5031.00    0.72439   0.75642    0.029
 5032.00    0.69921   0.75696    0.028
 5033.00    0.68914   0.74905    0.028
 5034.00    0.75134   0.73512    0.028
 5035.00    0.77688   0.72159    0.029
 5036.00    0.65962   0.71159    0.028
 5037.00    0.57391   0.70111    0.028
 5038.00    0.59052   0.68602    0.028
 5039.00    0.60470   0.67142    0.028
 5040.00    0.61225   0.66831    0.028
 5041.00    0.62440   0.68238    0.028
 5042.00    0.64738   0.70812    0.028
 5043.00    0.68316   0.73341    0.028
 5044.00    0.74494   0.74908    0.028
 5045.00    0.75921   0.75200    0.028
 5046.00    0.68943   0.74313    0.028
 5047.00    0.63835   0.72812    0.027
 5048.00    0.61623   0.71530    0.028
 5049.00    0.61618   0.70996    0.028
 5050.00    0.64613   0.71222    0.028
 5051.00    0.64615   0.71974    0.027
 5052.00    0.61036   0.72996    0.027
 5053.00    0.62138   0.73972    0.027
 5054.00    0.68178   0.74647    0.027
 5055.00    0.68389   0.75045    0.027
 5056.00    0.63174   0.75369    0.027
 5057.00    0.62319   0.75734    0.027
 5058.00    0.65044   0.76115    0.027
 5059.00    0.64995   0.76407    0.027
 5060.00    0.62942   0.76413    0.027
 5061.00    0.66285   0.75786    0.027
 5062.00    0.73049   0.74415    0.027
 5063.00    0.75255   0.72778    0.027
 5064.00    0.74935   0.71625    0.027
 5065.00    0.71151   0.71319    0.027
 5066.00    0.65698   0.71576    0.027
 5067.00    0.69319   0.71948    0.027
 5068.00    0.76718   0.72291    0.027
 5069.00    0.74466   0.72524    0.027
 5070.00    0.68777   0.72511    0.027
 5071.00    0.66368   0.72335    0.027
 5072.00    0.64945   0.72292    0.027
 5073.00    0.67186   0.72444    0.027
 5074.00    0.70343   0.72530    0.026
 5075.00    0.68687   0.72314    0.027
 5076.00    0.66056   0.71658    0.027
 5077.00    0.64144   0.70473    0.027
 5078.00    0.62346   0.69037    0.026
 5079.00    0.64470   0.68067    0.026
 5080.00    0.67058   0.68064    0.026
 5081.00    0.66412   0.68778    0.026
 5082.00    0.65506   0.69696    0.026
 5083.00    0.63429   0.70614    0.026
 5084.00    0.61299   0.71479    0.026
 5085.00    0.62128   0.72141    0.026
 5086.00    0.63139   0.72538    0.026
 5087.00    0.71457   0.72801    0.026
 5088.00    0.79127   0.73066    0.026
 5089.00    0.74763   0.73376    0.026
 5090.00    0.70581   0.73759    0.025
 5091.00    0.68436   0.74192    0.026
 5092.00    0.66844   0.74452    0.026
 5093.00    0.69564   0.74221    0.026
 5094.00    0.71169   0.73380    0.026
 5095.00    0.66200   0.72110    0.027
 5096.00    0.62677   0.70749    0.027
 5097.00    0.65901   0.69703    0.027
 5098.00    0.68190   0.69381    0.026
 5099.00    0.66921   0.69916    0.026
 5100.00    0.66304   0.70902    0.026
 5101.00    0.67765   0.71633    0.026
 5102.00    0.67569   0.71750    0.026
 5103.00    0.62910   0.71396    0.027
 5104.00    0.59972   0.70839    0.027
 5105.00    0.61012   0.70247    0.027
 5106.00    0.61060   0.69722    0.027
 5107.00    0.59122   0.69393    0.027
 5108.00    0.58185   0.69380    0.027
 5109.00    0.58994   0.69683    0.027
 5110.00    0.59730   0.70253    0.027
 5111.00    0.60354   0.70998    0.027
 5112.00    0.62759   0.71732    0.027
 5113.00    0.67550   0.72391    0.028
 5114.00    0.69699   0.73055    0.028
 5115.00    0.68729   0.73683    0.028
 5116.00    0.66711   0.74100    0.028
 5117.00    0.63602   0.74095    0.028
 5118.00    0.62239   0.73533    0.028
 5119.00    0.62478   0.72478    0.028
 5120.00    0.62274   0.71112    0.028
 5121.00    0.61713   0.69669    0.028
 5122.00    0.63264   0.68464    0.027
 5123.00    0.66318   0.67774    0.027
 5124.00    0.64933   0.67639    0.027
 5125.00    0.60773   0.67765    0.027
 5126.00    0.59578   0.67844    0.027
 5127.00    0.60001   0.67904    0.027
 5128.00    0.62284   0.68168    0.027
 5129.00    0.65449   0.68727    0.027
 5130.00    0.64516   0.69476    0.027
 5131.00    0.61905   0.70242    0.027
 5132.00    0.60846   0.70910    0.027
 5133.00    0.60329   0.71426    0.027
 5134.00    0.59723   0.71629    0.027
 5135.00    0.59090   0.71282    0.027
 5136.00    0.64383   0.70429    0.027
 5137.00    0.71125   0.69559    0.027
 5138.00    0.65161   0.69093    0.027
 5139.00    0.56687   0.68982    0.027
 5140.00    0.60114   0.68920    0.026
 5141.00    0.65377   0.68683    0.026
 5142.00    0.58425   0.68418    0.026
 5143.00    0.50081   0.68358    0.026
 5144.00    0.53248   0.68353    0.026
 5145.00    0.57294   0.68251    0.025
 5146.00    0.56396   0.68240    0.026
 5147.00    0.55294   0.68405    0.026
 5148.00    0.53388   0.68505    0.026
 5149.00    0.51695   0.68282    0.026
 5150.00    0.59248   0.67766    0.026
 5151.00    0.66498   0.67334    0.026
 5152.00    0.68510   0.67359    0.026
 5153.00    0.69982   0.67978    0.026
 5154.00    0.65717   0.69123    0.026
 5155.00    0.61399   0.70520    0.026
 5156.00    0.56681   0.71759    0.026
 5157.00    0.53376   0.72540    0.026
 5158.00    0.58159   0.72812    0.026
 5159.00    0.62489   0.72671    0.026
 5160.00    0.64762   0.72211    0.026
 5161.00    0.66550   0.71355    0.026
 5162.00    0.66525   0.69923    0.026
 5163.00    0.65626   0.67706    0.026
 5164.00    0.61999   0.64648    0.026
 5165.00    0.58358   0.61326    0.026
 5166.00    0.54678   0.58903    0.026
 5167.00    0.50532   0.58155    0.026
 5168.00    0.45326   0.58650    0.026
 5169.00    0.43584   0.59064    0.026
 5170.00    0.48664   0.58615    0.026
 5171.00    0.52492   0.57993    0.026
 5172.00    0.54170   0.58604    0.026
 5173.00    0.53490   0.60921    0.026
 5174.00    0.49266   0.63935    0.026
 5175.00    0.49191   0.66323    0.027
 5176.00    0.54598   0.67604    0.027
 5177.00    0.58843   0.67936    0.027
 5178.00    0.61737   0.67407    0.026
 5179.00    0.63308   0.65889    0.026
 5180.00    0.63520   0.63404    0.026
 5181.00    0.63253   0.60581    0.026
 5182.00    0.62552   0.58714    0.026
 5183.00    0.60963   0.59000    0.026
 5184.00    0.58665   0.61464    0.026
 5185.00    0.54221   0.64748    0.026
 5186.00    0.48270   0.67347    0.026
 5187.00    0.50089   0.68734    0.026
 5188.00    0.56690   0.69029    0.026
 5189.00    0.58772   0.68424    0.026
 5190.00    0.58426   0.67211    0.000
 5191.00    0.54730   0.66031    0.000
 5192.00    0.49471   0.65615    0.000
 5193.00    0.53342   0.66094    0.000
 5194.00    0.60886   0.67004    0.000
 5195.00    0.54672   0.67996    0.000
 5196.00    0.43736   0.69015    0.000
 5197.00    0.46789   0.69910    0.000
 5198.00    0.53884   0.70460    0.000
 5199.00    0.53438   0.70551    0.000
 5200.00    0.51190   0.70133    0.000
 5201.00    0.57667   0.69168    0.000
 5202.00    0.65824   0.67663    0.000
 5203.00    0.64610   0.65824    0.000
 5204.00    0.61996   0.64068    0.000
 5205.00    0.58992   0.62847    0.000
 5206.00    0.55946   0.62356    0.000
 5207.00    0.54724   0.62536    0.000
 5208.00    0.53634   0.63413    0.000
 5209.00    0.54627   0.65080    0.000
 5210.00    0.55697   0.67234    0.000
 5211.00    0.58941   0.69222    0.026
 5212.00    0.62138   0.70438    0.026
 5213.00    0.63254   0.70653    0.026
 5214.00    0.64406   0.70236    0.026
 5215.00    0.66119   0.69905    0.026
 5216.00    0.67706   0.70196    0.026
 5217.00    0.68007   0.71066    0.026
 5218.00    0.67969   0.72062    0.026
 5219.00    0.65467   0.72732    0.026
 5220.00    0.63173   0.72783    0.026
 5221.00    0.62034   0.72032    0.025
 5222.00    0.61205   0.70418    0.025
 5223.00    0.61759   0.68197    0.025
 5224.00    0.62321   0.66042    0.025
 5225.00    0.62914   0.64858    0.026
 5226.00    0.62695   0.65239    0.026
 5227.00    0.59991   0.67021    0.026
 5228.00    0.57103   0.69279    0.026
 5229.00    0.53738   0.70835    0.026
 5230.00    0.53276   0.71163    0.026
 5231.00    0.59308   0.70595    0.026
 5232.00    0.64716   0.69861    0.026
 5233.00    0.68913   0.69736    0.026
 5234.00    0.70927   0.70503    0.026
 5235.00    0.69248   0.71744    0.026
 5236.00    0.67894   0.72834    0.026
 5237.00    0.67018   0.73401    0.026
 5238.00    0.66417   0.73496    0.026
 5239.00    0.66174   0.73402    0.026
 5240.00    0.66053   0.73351    0.026
 5241.00    0.66074   0.73421    0.026
 5242.00    0.67581   0.73500    0.026
 5243.00    0.70590   0.73296    0.026
 5244.00    0.68005   0.72512    0.026
 5245.00    0.60428   0.71197    0.026
 5246.00    0.59808   0.69833    0.026
 5247.00    0.64656   0.68930    0.026
 5248.00    0.65061   0.68577    0.026
 5249.00    0.62394   0.68552    0.027
 5250.00    0.59616   0.68787    0.027
 5251.00    0.56770   0.69263    0.027
 5252.00    0.56556   0.69713    0.026
 5253.00    0.57734   0.70057    0.026
 5254.00    0.62726   0.70621    0.026
 5255.00    0.69468   0.71688    0.027
 5256.00    0.68496   0.73011    0.027
 5257.00    0.64472   0.73848    0.027
 5258.00    0.63088   0.73631    0.027
 5259.00    0.62592   0.72307    0.027
 5260.00    0.65177   0.70182    0.027
 5261.00    0.68635   0.67720    0.027
 5262.00    0.67611   0.65417    0.028
 5263.00    0.65540   0.63738    0.028
 5264.00    0.58541   0.62985    0.028
 5265.00    0.50619   0.62966    0.027
 5266.00    0.49622   0.62994    0.028
 5267.00    0.49628   0.62574    0.028
 5268.00    0.49543   0.62009    0.028
 5269.00    0.49449   0.62248    0.027
 5270.00    0.51288   0.63824    0.027
 5271.00    0.53259   0.66007    0.028
 5272.00    0.57834   0.67629    0.028
 5273.00    0.62496   0.68483    0.028
 5274.00    0.62582   0.69232    0.027
 5275.00    0.62891   0.70380    0.027
 5276.00    0.70508   0.71828    0.027
 5277.00    0.77324   0.72930    0.027
 5278.00    0.71942   0.73062    0.026
 5279.00    0.66757   0.72239    0.026
 5280.00    0.63485   0.70997    0.026
 5281.00    0.60472   0.70002    0.026
 5282.00    0.59280   0.69829    0.026
 5283.00    0.58444   0.70709    0.025
 5284.00    0.59535   0.72336    0.025
 5285.00    0.60713   0.73989    0.026
 5286.00    0.62275   0.75006    0.025
 5287.00    0.63715   0.75334    0.025
 5288.00    0.64714   0.75357    0.026
 5289.00    0.67377   0.75336    0.026
 5290.00    0.75040   0.75218    0.026
 5291.00    0.79495   0.74888    0.026
 5292.00    0.75749   0.74301    0.026
 5293.00    0.73568   0.73361    0.026
 5294.00    0.74832   0.71922    0.026
 5295.00    0.75184   0.70113    0.026
 5296.00    0.73795   0.68580    0.026
 5297.00    0.72625   0.68012    0.026
 5298.00    0.71816   0.68487    0.026
 5299.00    0.70626   0.69490    0.026
 5300.00    0.68880   0.70525    0.026
 5301.00    0.66933   0.71597    0.026
 5302.00    0.64726   0.72858    0.026
 5303.00    0.65112   0.74055    0.026
 5304.00    0.68431   0.74748    0.026
 5305.00    0.71575   0.74854    0.026
 5306.00    0.74545   0.74730    0.026
 5307.00    0.74347   0.74765    0.026
 5308.00    0.71362   0.75013    0.026
 5309.00    0.69339   0.75210    0.026
 5310.00    0.68063   0.75128    0.026
 5311.00    0.69482   0.74811    0.026
 5312.00    0.72738   0.74398    0.026
 5313.00    0.72921   0.73939    0.026
 5314.00    0.71269   0.73474    0.026
 5315.00    0.70441   0.73085    0.026
 5316.00    0.70042   0.72864    0.026
 5317.00    0.67083   0.72838    0.026
 5318.00    0.62967   0.72870    0.026
 5319.00    0.62273   0.72762    0.026
 5320.00    0.62907   0.72396    0.026
 5321.00    0.66233   0.71743    0.026
 5322.00    0.70450   0.70913    0.026
 5323.00    0.65696   0.70003    0.026
 5324.00    0.58454   0.68838    0.025
 5325.00    0.60781   0.67176    0.025
 5326.00    0.65289   0.65283    0.026
 5327.00    0.62660   0.64125    0.025
 5328.00    0.58728   0.64610    0.025
 5329.00    0.61019   0.66575    0.025
 5330.00    0.64183   0.68848    0.026
 5331.00    0.63025   0.70547    0.026
 5332.00    0.61431   0.71646    0.025
 5333.00    0.63731   0.72408    0.025
 5334.00    0.66280   0.72878    0.025
 5335.00    0.70217   0.72913    0.025
 5336.00    0.74166   0.72431    0.025
 5337.00    0.65887   0.71491    0.025
 5338.00    0.57969   0.70362    0.024
 5339.00    0.60357   0.69528    0.025
 5340.00    0.62949   0.69449    0.025
 5341.00    0.68477   0.70143    0.025
 5342.00    0.73129   0.71003    0.025
 5343.00    0.69581   0.71415    0.025
 5344.00    0.66077   0.71343    0.025
 5345.00    0.62870   0.71015    0.025
 5346.00    0.60505   0.70659    0.025
 5347.00    0.62584   0.70480    0.025
 5348.00    0.65408   0.70664    0.025
 5349.00    0.71395   0.71372    0.025
 5350.00    0.74623   0.72483    0.025
 5351.00    0.68181   0.73633    0.025
 5352.00    0.64420   0.74587    0.025
 5353.00    0.68560   0.75348    0.025
 5354.00    0.70300   0.75974    0.025
 5355.00    0.66010   0.76394    0.025
 5356.00    0.63759   0.76536    0.025
 5357.00    0.65923   0.76404    0.026
 5358.00    0.67153   0.75948    0.026
 5359.00    0.66628   0.75160    0.026
 5360.00    0.67007   0.74201    0.026
 5361.00    0.68868   0.73302    0.026
 5362.00    0.69608   0.72622    0.026
 5363.00    0.68735   0.72190    0.026
 5364.00    0.68192   0.71901    0.026
 5365.00    0.68065   0.71637    0.026
 5366.00    0.65093   0.71194    0.026
 5367.00    0.58946   0.70269    0.026
 5368.00    0.57920   0.68890   -2.000
 5369.00    0.61927   0.67662   -2.000
 5370.00    0.66871   0.67421   -2.000
 5371.00    0.72627   0.68555   -2.000
 5372.00    0.67687   0.70612   -2.000
 5373.00    0.54575   0.72587   -2.000
 5374.00    0.53971   0.73771   -2.000
 5375.00    0.61765   0.74202   -2.000
 5376.00    0.69830   0.74237   -2.000
 5377.00    0.78054   0.74131   -2.000
 5378.00    0.77164   0.73918   -2.000
 5379.00    0.71599   0.73521   -2.000
 5380.00    0.66146   0.73002   -2.000
 5381.00    0.60742   0.72602   -2.000
 5382.00    0.59743   0.72498   -2.000
 5383.00    0.60425   0.72665    0.026
 5384.00    0.60575   0.72954    0.026
 5385.00    0.60553   0.73095    0.026
 5386.00    0.63219   0.72866    0.025
 5387.00    0.66616   0.72275    0.025
 5388.00    0.67629   0.71491    0.025
 5389.00    0.68111   0.70746    0.025
 5390.00    0.67547   0.70223    0.025
 5391.00    0.66797   0.69915    0.025
 5392.00    0.68611   0.69636    0.025
 5393.00    0.70774   0.69131    0.025
 5394.00    0.69034   0.68347    0.025
 5395.00    0.66917   0.67658    0.025
 5396.00    0.59121   0.67548    0.024
 5397.00    0.50982   0.68199    0.024
 5398.00    0.52618   0.69312    0.024
 5399.00    0.54531   0.70229    0.025
 5400.00    0.60322   0.70471    0.025
 5401.00    0.65935   0.69919    0.025
 5402.00    0.66974   0.68641    0.025
 5403.00    0.67776   0.67028    0.025
 5404.00    0.65360   0.65833    0.025
 5405.00    0.62698   0.65560    0.025
 5406.00    0.57823   0.65990    0.025
 5407.00    0.53904   0.66538    0.025
 5408.00    0.56299   0.66957    0.025
 5409.00    0.58534   0.67523    0.025
 5410.00    0.59946   0.68538    0.025
 5411.00    0.61143   0.69833    0.025
 5412.00    0.61451   0.70950    0.025
 5413.00    0.62769   0.71733    0.025
 5414.00    0.67551   0.72337    0.025
 5415.00    0.72198   0.72851    0.025
 5416.00    0.76449   0.73143    0.025
 5417.00    0.77341   0.73049    0.026
 5418.00    0.69936   0.72670    0.025
 5419.00    0.65832   0.72307    0.026
 5420.00    0.68758   0.72068    0.026
 5421.00    0.70093   0.71850    0.026
 5422.00    0.68486   0.71631    0.026
 5423.00    0.68280   0.71577    0.026
 5424.00    0.70339   0.71859    0.026
 5425.00    0.72615   0.72201    0.026
 5426.00    0.75201   0.71912    0.026
 5427.00    0.74251   0.70802    0.026
 5428.00    0.68889   0.69468    0.025
 5429.00    0.69660   0.68590    0.025
 5430.00    0.77170   0.68338    0.026
 5431.00    0.75434   0.68238    0.026
 5432.00    0.64732   0.67908    0.026
 5433.00    0.59730   0.67656    0.025
 5434.00    0.59600   0.67964    0.025
 5435.00    0.60455   0.68996    0.025
 5436.00    0.62051   0.70548    0.025
 5437.00    0.65247   0.72198    0.025
 5438.00    0.69503   0.73563    0.025
 5439.00    0.71791   0.74432    0.025
 5440.00    0.72938   0.74779    0.025
 5441.00    0.73388   0.74580    0.025
 5442.00    0.73486   0.73703    0.025
 5443.00    0.72394   0.72067    0.025
 5444.00    0.70783   0.69990    0.024
 5445.00    0.71201   0.68285    0.024
 5446.00    0.72379   0.67687    0.024
 5447.00    0.72131   0.68287    0.024
 5448.00    0.71430   0.69454    0.024
 5449.00    0.68842   0.70335    0.024
 5450.00    0.65753   0.70500    0.024
 5451.00    0.68515   0.69927    0.024
 5452.00    0.72550   0.68806    0.025
 5453.00    0.70390   0.67601    0.025
 5454.00    0.67159   0.66981    0.025
 5455.00    0.66682   0.67366    0.024
 5456.00    0.66566   0.68578    0.024
 5457.00    0.71593   0.69852    0.025
 5458.00    0.77095   0.70470    0.025
 5459.00    0.72941   0.70286    0.025
 5460.00    0.68243   0.69631    0.025
 5461.00    0.64657   0.69024    0.025
 5462.00    0.61138   0.68828    0.024
 5463.00    0.62116   0.69086    0.025
 5464.00    0.63216   0.69621    0.025
 5465.00    0.67175   0.70137    0.025
 5466.00    0.70451   0.70433    0.026
 5467.00    0.64936   0.70476    0.025
 5468.00    0.60051   0.70275    0.025
 5469.00    0.60624   0.69881    0.025
 5470.00    0.61291   0.69384    0.025
 5471.00    0.62561   0.68858    0.025
 5472.00    0.63546   0.68264    0.025
 5473.00    0.63104   0.67513    0.025
 5474.00    0.61863   0.66738    0.025
 5475.00    0.57378   0.66294    0.025
 5476.00    0.54448   0.66456    0.026
 5477.00    0.56751   0.67155    0.025
 5478.00    0.58533   0.67851   -2.000
 5479.00    0.58832   0.68069   -2.000
 5480.00    0.58317   0.68007   -2.000
 5481.00    0.55826   0.68227   -2.000
 5482.00    0.52929   0.68966   -2.000
 5483.00    0.49182   0.69839   -2.000
 5484.00    0.44077   0.70303   -2.000
 5485.00    0.36502   0.70197   -2.000
 5486.00    0.24167   0.69791   -2.000
 5487.00    0.04256   0.69488   -2.000
 5488.00    0.02428   0.69518   -2.000
 5489.00    0.25859   0.69790   -2.000
 5490.00    0.51513   0.70042   -2.000
 5491.00    0.79900   0.70164   -2.000
 5492.00    0.99015   0.70158   -2.000
 5493.00    1.08082   0.70033   -2.000
 5494.00    1.07166   0.69828   -2.000
 5495.00    0.96707   0.69625   -2.000
 5496.00    0.90594   0.69557   -2.000
 5497.00    0.88143   0.69663   -2.000
 5498.00    0.76770   0.69767   -2.000
 5499.00    0.58774   0.69602   -2.000
 5500.00    0.53268   0.69171   -2.000
 5501.00    0.55906   0.68781   -2.000
 5502.00    0.58526   0.68592    0.075
 5503.00    0.61136   0.68424    0.029
 5504.00    0.63319   0.68161    0.024
 5505.00    0.65290   0.68003    0.024
 5506.00    0.61215   0.68142    0.024
 5507.00    0.54543   0.68507    0.024
 5508.00    0.55662   0.68715    0.025
 5509.00    0.59650   0.68425    0.025
 5510.00    0.61377   0.67747    0.025
 5511.00    0.62399   0.67067    0.025
 5512.00    0.62625   0.66738    0.025
 5513.00    0.62642   0.66965    0.025
 5514.00    0.66061   0.67672    0.025
 5515.00    0.70202   0.68680    0.026
 5516.00    0.70917   0.69779    0.026
 5517.00    0.71056   0.70719    0.026
 5518.00    0.66976   0.71317    0.026
 5519.00    0.62362   0.71520    0.025
 5520.00    0.62800   0.71453    0.025
 5521.00    0.63684   0.71278    0.025
 5522.00    0.62933   0.70994    0.025
 5523.00    0.62097   0.70486    0.025
 5524.00    0.58079   0.69684    0.025
 5525.00    0.54166   0.68706    0.025
 5526.00    0.62638   0.67933    0.025
 5527.00    0.70714   0.67766    0.025
 5528.00    0.70260   0.68270    0.025
 5529.00    0.69478   0.69105    0.025
 5530.00    0.64701   0.69739    0.025
 5531.00    0.60423   0.69880    0.024
 5532.00    0.60310   0.69649    0.024
 5533.00    0.60488   0.69373    0.024
 5534.00    0.62481   0.69290    0.024
 5535.00    0.64459   0.69458    0.024
 5536.00    0.66361   0.69840    0.024
 5537.00    0.67239   0.70341    0.024
 5538.00    0.64050   0.70851    0.024
 5539.00    0.61809   0.71231    0.024
 5540.00    0.62692   0.71282    0.024
 5541.00    0.63894   0.70978    0.024
 5542.00    0.65988   0.70525    0.024
 5543.00    0.66159   0.70187    0.024
 5544.00    0.61741   0.70144    0.024
 5545.00    0.61051   0.70425    0.024
 5546.00    0.68043   0.70937    0.024
 5547.00    0.73241   0.71521    0.024
 5548.00    0.75221   0.71956    0.024
 5549.00    0.75964   0.72070    0.024
 5550.00    0.74766   0.71845    0.024
 5551.00    0.73922   0.71381    0.024
 5552.00    0.73566   0.70852    0.024
 5553.00    0.74029   0.70449    0.024
 5554.00    0.75487   0.70255    0.025
 5555.00    0.72590   0.70220    0.025
 5556.00    0.65041   0.70250    0.025
 5557.00    0.62833   0.70273    0.024
 5558.00    0.65660   0.70248    0.024
 5559.00    0.66954   0.70111    0.025
 5560.00    0.66976   0.69815    0.025
 5561.00    0.67771   0.69437    0.025
 5562.00    0.69132   0.69076    0.025
 5563.00    0.71125   0.68769    0.025
 5564.00    0.73524   0.68538    0.025
 5565.00    0.74310   0.68381    0.024
 5566.00    0.74188   0.68318    0.024
 5567.00    0.71500   0.68366    0.024
 5568.00    0.67557   0.68500    0.024
 5569.00    0.63425   0.68629    0.024
 5570.00    0.59213   0.68677    0.024
 5571.00    0.61691   0.68705    0.024
 5572.00    0.66590   0.68803    0.024
 5573.00    0.64801   0.69047    0.024
 5574.00    0.60965   0.69396    0.024
 5575.00    0.58830   0.69679    0.024
 5576.00    0.57127   0.69856    0.023
 5577.00    0.60496   0.70012    0.023
 5578.00    0.64916   0.70103    0.023
 5579.00    0.64918   0.70069    0.024
 5580.00    0.64199   0.69919    0.024
 5581.00    0.62885   0.69633    0.023
 5582.00    0.61498   0.69167    0.023
 5583.00    0.63760   0.68422    0.023
 5584.00    0.66328   0.67303    0.023
 5585.00    0.67701   0.65993    0.023
 5586.00    0.69017   0.64907    0.023
 5587.00    0.60803   0.64422    0.023
 5588.00    0.52656   0.64645    0.023
 5589.00    0.56957   0.65308    0.024
 5590.00    0.61068   0.66030    0.024
 5591.00    0.61394   0.66586    0.024
 5592.00    0.62049   0.67023    0.024
 5593.00    0.66509   0.67532    0.024
 5594.00    0.70092   0.68057    0.024
 5595.00    0.66619   0.68279    0.025
 5596.00    0.63699   0.67978    0.025
 5597.00    0.64118   0.67259    0.025
 5598.00    0.64471   0.66477    0.025
 5599.00    0.64511   0.65930    0.025
 5600.00    0.63632   0.65707    0.025
 5601.00    0.59187   0.65915    0.025
 5602.00    0.54792   0.66680    0.029
 5603.00    0.50556   0.67878    0.068
 5604.00    0.48697   0.69169   -1.000
 5605.00    0.53348   0.70170   -1.000
 5606.00    0.58017   0.70729   -1.000
 5607.00    0.62729   0.70928   -1.000
 5608.00    0.66792   0.70953   -1.000
 5609.00    0.69538   0.70933   -1.000
 5610.00    0.70865   0.70802   -1.000
 5611.00    0.69686   0.70294   -1.000
 5612.00    0.67900   0.69187    0.117
 5613.00    0.65176   0.67703    0.033
 5614.00    0.64078   0.66498    0.023
 5615.00    0.65187   0.66092    0.023
 5616.00    0.65274   0.66461    0.023
 5617.00    0.64139   0.67125    0.023
 5618.00    0.62880   0.67677    0.023
 5619.00    0.61488   0.68054    0.023
 5620.00    0.62017   0.68214    0.022
 5621.00    0.64330   0.67993    0.022
 5622.00    0.66190   0.67384    0.022
 5623.00    0.67680   0.66750    0.023
 5624.00    0.67751   0.66548    0.023
 5625.00    0.66800   0.66938    0.023
 5626.00    0.66153   0.67702    0.023
 5627.00    0.65698   0.68492    0.023
 5628.00    0.66380   0.69129    0.022
 5629.00    0.67689   0.69566    0.022
 5630.00    0.66967   0.69759    0.022
 5631.00    0.65267   0.69698    0.023
 5632.00    0.64008   0.69408    0.023
 5633.00    0.62933   0.68938    0.022
 5634.00    0.60191   0.68372    0.022
 5635.00    0.56857   0.67839    0.022
 5636.00    0.58007   0.67457    0.023
 5637.00    0.60501   0.67242    0.023
 5638.00    0.62702   0.67112    0.023
 5639.00    0.64830   0.67011    0.023
 5640.00    0.67194   0.67002    0.023
 5641.00    0.69605   0.67150    0.023
 5642.00    0.68547   0.67452    0.023
 5643.00    0.66939   0.67793    0.023
 5644.00    0.67958   0.68078    0.023
 5645.00    0.69288   0.68296    0.024
 5646.00    0.70317   0.68434    0.023
 5647.00    0.71322   0.68525    0.023
 5648.00    0.73590   0.68660    0.023
 5649.00    0.75913   0.68898    0.023
 5650.00    0.75477   0.69187    0.023
 5651.00    0.74958   0.69343    0.023
 5652.00    0.71881   0.69200    0.023
 5653.00    0.68799   0.68751    0.023
 5654.00    0.65610   0.68047    0.023
 5655.00    0.62820   0.67105    0.022
 5656.00    0.64448   0.66090    0.022
 5657.00    0.65721   0.65367    0.022
 5658.00    0.64246   0.65204    0.022
 5659.00    0.62125   0.65509    0.022
 5660.00    0.56217   0.65922    0.022
 5661.00    0.52543   0.66262    0.022
 5662.00    0.59270   0.66660    0.022
 5663.00    0.64106   0.67148    0.022
 5664.00    0.61754   0.67503    0.022
 5665.00    0.59431   0.67527    0.022
 5666.00    0.57205   0.67342    0.022
 5667.00    0.55984   0.67222    0.022
 5668.00    0.57471   0.67360    0.022
 5669.00    0.58260   0.67785    0.022
 5670.00    0.57442   0.68402    0.022
 5671.00    0.58613   0.69058    0.022
 5672.00    0.63757   0.69576    0.022
 5673.00    0.66898   0.69858    0.022
 5674.00    0.66555   0.69945    0.022
 5675.00    0.65281   0.69922    0.023
 5676.00    0.62590   0.69809    0.023
 5677.00    0.62158   0.69568    0.023
 5678.00    0.64749   0.69194    0.024
 5679.00    0.64743   0.68730    0.024
 5680.00    0.61677   0.68241    0.023
 5681.00    0.61081   0.67843    0.023
 5682.00    0.63049   0.67644    0.023
 5683.00    0.63515   0.67618    0.023
 5684.00    0.62605   0.67578    0.023
 5685.00    0.64652   0.67395    0.023
 5686.00    0.69088   0.67214    0.023
 5687.00    0.68970   0.67307    0.023
 5688.00    0.65617   0.67797    0.023
 5689.00    0.65314   0.68535    0.023
 5690.00    0.66914   0.69257    0.023
 5691.00    0.66363   0.69724    0.023
 5692.00    0.64640   0.69862    0.023
 5693.00    0.67026   0.69718    0.023
 5694.00    0.71358   0.69401    0.023
 5695.00    0.70741   0.68984    0.023
 5696.00    0.68102   0.68488    0.022
 5697.00    0.69571   0.67947    0.022
 5698.00    0.72474   0.67398    0.022
 5699.00    0.73327   0.66930    0.022
 5700.00    0.73576   0.66654    0.022
 5701.00    0.72641   0.66634    0.022
 5702.00    0.71417   0.66806    0.022
 5703.00    0.68402   0.66899    0.022
 5704.00    0.65034   0.66641    0.022
 5705.00    0.62880   0.66006    0.022
 5706.00    0.60912   0.65193    0.022
 5707.00    0.61863   0.64517    0.022
 5708.00    0.63145   0.64204    0.022
 5709.00    0.65208   0.64313    0.022
 5710.00    0.67331   0.64865    0.022
 5711.00    0.65547   0.65781    0.021
 5712.00    0.63604   0.66854    0.021
 5713.00    0.61414   0.67865    0.022
 5714.00    0.59409   0.68576    0.022
 5715.00    0.65081   0.68950    0.022
 5716.00    0.70631   0.69150    0.022
 5717.00    0.74100   0.69345    0.022
 5718.00    0.77034   0.69623    0.022
 5719.00    0.74308   0.69987    0.022
 5720.00    0.71793   0.70340    0.022
 5721.00    0.70856   0.70568    0.022
 5722.00    0.70269   0.70575    0.022
 5723.00    0.71681   0.70297    0.023
 5724.00    0.72540   0.69766    0.023
 5725.00    0.70883   0.69186    0.022
 5726.00    0.69386   0.68819    0.022
 5727.00    0.68481   0.68756    0.022
 5728.00    0.67800   0.68852    0.022
 5729.00    0.67816   0.68911    0.022
 5730.00    0.68562   0.68948    0.022
 5731.00    0.71241   0.69122    0.022
 5732.00    0.72225   0.69472    0.022
 5733.00    0.69364   0.69828    0.022
 5734.00    0.67429   0.69980    0.022
 5735.00    0.67315   0.69907    0.022
 5736.00    0.66758   0.69709    0.022
 5737.00    0.65442   0.69495    0.021
 5738.00    0.65360   0.69339    0.021
 5739.00    0.67130   0.69251    0.021
 5740.00    0.68011   0.69235    0.000
 5741.00    0.67718   0.69313    0.000
 5742.00    0.66039   0.69530    0.000
 5743.00    0.62747   0.69811    0.000
 5744.00    0.63350   0.69983    0.000
 5745.00    0.67939   0.69869    0.000
 5746.00    0.70910   0.69552    0.000
 5747.00    0.72419   0.69314    0.000
 5748.00    0.71333   0.69288    0.000
 5749.00    0.68183   0.69290    0.000
 5750.00    0.65704   0.69007    0.000
 5751.00    0.63695   0.68424    0.000
 5752.00    0.64056   0.67925    0.000
 5753.00    0.65874   0.67944    0.000
 5754.00    0.65749   0.68548    0.000
 5755.00    0.64583   0.69387    0.000
 5756.00    0.65483   0.69957    0.000
 5757.00    0.67345   0.69932    0.000
 5758.00    0.68683   0.69327    0.000
 5759.00    0.69810   0.68422    0.000
 5760.00    0.71360   0.67631    0.000
 5761.00    0.73055   0.67350    0.000
 5762.00    0.71042   0.67729    0.000
 5763.00    0.67962   0.68545    0.000
 5764.00    0.65682   0.69409    0.000
 5765.00    0.63593   0.69992    0.000
 5766.00    0.66828   0.70217    0.000
 5767.00    0.71084   0.70188    0.000
 5768.00    0.73466   0.70026    0.000
 5769.00    0.75569   0.69797    0.000
 5770.00    0.71495   0.69551    0.000
 5771.00    0.66747   0.69328    0.000
 5772.00    0.69596   0.69154    0.000
 5773.00    0.72990   0.69073    0.000
 5774.00    0.72825   0.69087    0.000
 5775.00    0.72530   0.69107    0.000
 5776.00    0.71695   0.68967    0.000
 5777.00    0.70915   0.68457    0.000
 5778.00    0.72152   0.67525    0.000
 5779.00    0.73126   0.66389    0.000
 5780.00    0.69865   0.65426    0.000
 5781.00    0.66662   0.64876    0.000
 5782.00    0.64053   0.64735    0.000
 5783.00    0.61810   0.64879    0.000
 5784.00    0.62221   0.65296    0.000
 5785.00    0.62596   0.65987    0.000
 5786.00    0.62776   0.66807    0.000
 5787.00    0.63552   0.67486    0.000
 5788.00    0.66971   0.67815    0.000
 5789.00    0.69660   0.67917    0.000
 5790.00    0.69686   0.68075    0.000
 5791.00    0.69619   0.68457   -2.000
 5792.00    0.69269   0.69013   -2.000
 5793.00    0.69167   0.69457   -2.000
 5794.00    0.69709   0.69539   -2.000
 5795.00    0.68313   0.69287   -2.000
 5796.00    0.62588   0.69021   -2.000
 5797.00    0.59968   0.69116   -2.000
 5798.00    0.63356   0.69651   -2.000
 5799.00    0.64423   0.70355   -2.000
 5800.00    0.61575   0.70809   -2.000
 5801.00    0.61939   0.70770   -2.000
 5802.00    0.67051   0.70316   -2.000
 5803.00    0.70564   0.69740   -2.000
 5804.00    0.71997   0.69335   -2.000
 5805.00    0.71397   0.69236   -2.000
 5806.00    0.68468   0.69369   -2.000
 5807.00    0.66618   0.69575   -2.000
 5808.00    0.65858   0.69763   -2.000
 5809.00    0.66600   0.69872   -2.000
 5810.00    0.68680   0.69863   -2.000
 5811.00    0.70199   0.69690    0.000
 5812.00    0.71276   0.69336    0.000
 5813.00    0.68588   0.68881    0.000
 5814.00    0.63302   0.68518    0.000
 5815.00    0.62648   0.68467    0.000
 5816.00    0.64798   0.68796    0.000
 5817.00    0.65381   0.69345    0.000
 5818.00    0.65135   0.69857    0.000
 5819.00    0.67595   0.70146    0.000
 5820.00    0.71294   0.70189    0.000
 5821.00    0.75252   0.70095    0.000
 5822.00    0.79311   0.69988    0.000
 5823.00    0.77464   0.69964    0.000
 5824.00    0.73632   0.70021    0.000
 5825.00    0.72341   0.70126    0.000
 5826.00    0.71768   0.70239    0.000
 5827.00    0.70279   0.70353    0.000
 5828.00    0.68576   0.70435    0.000
 5829.00    0.67611   0.70438    0.000
 5830.00    0.66783   0.70340    0.000
 5831.00    0.65957   0.70140    0.000
 5832.00    0.65132   0.69888    0.000
 5833.00    0.63135   0.69672    0.000
 5834.00    0.61016   0.69565    0.000
 5835.00    0.63750   0.69538    0.000
 5836.00    0.66812   0.69545    0.000
 5837.00    0.68347   0.69595    0.000
 5838.00    0.69833   0.69761    0.000
 5839.00    0.69789   0.70053    0.000
 5840.00    0.69712   0.70358    0.000
 5841.00    0.68632   0.70510    0.000
 5842.00    0.67774   0.70420    0.000
 5843.00    0.70263   0.70096    0.000
 5844.00    0.72264   0.69610    0.000
 5845.00    0.69523   0.69082    0.000
 5846.00    0.66902   0.68647    0.000
 5847.00    0.65122   0.68350    0.000
 5848.00    0.63997   0.68112    0.000
 5849.00    0.66413   0.67774    0.000
 5850.00    0.68643   0.67260    0.000
 5851.00    0.70068   0.66681    0.000
 5852.00    0.71110   0.66241    0.000
 5853.00    0.70786   0.65979    0.000
 5854.00    0.70757   0.65748    0.000
 5855.00    0.71607   0.65434    0.000
 5856.00    0.72088   0.65173    0.000
 5857.00    0.71628   0.65224    0.000
 5858.00    0.70765   0.65635    0.000
 5859.00    0.69019   0.66191    0.000
 5860.00    0.66775   0.66601    0.000
 5861.00    0.63583   0.66801    0.000
 5862.00    0.62664   0.66861    0.000
 5863.00    0.65525   0.66845    0.000
 5864.00    0.67172   0.66778    0.000
 5865.00    0.67052   0.66748    0.000
 5866.00    0.67386   0.66898    0.000
 5867.00    0.68301   0.67263    0.000
 5868.00    0.69242   0.67697    0.000
 5869.00    0.70211   0.67958    0.000
 5870.00    0.70575   0.67888    0.000
 5871.00    0.70335   0.67511    0.000
 5872.00    0.69543   0.66930    0.000
 5873.00    0.68265   0.66321    0.000
 5874.00    0.68211   0.65855    0.000
 5875.00    0.69105   0.65626    0.000
 5876.00    0.69851   0.65610    0.000
 5877.00    0.70497   0.65623    0.000
 5878.00    0.71061   0.65612    0.000
 5879.00    0.71576   0.65589    0.000
 5880.00    0.70958   0.65634    0.000
 5881.00    0.69753   0.65689    0.000
 5882.00    0.68028   0.65659    0.000
 5883.00    0.66068   0.65427    0.000
 5884.00    0.64787   0.64769    0.000
 5885.00    0.63768   0.63320    0.000
 5886.00    0.63515   0.60795    0.000
 5887.00    0.63516   0.57522    0.000
 5888.00    0.62214   0.54622    0.000
 5889.00    0.60552   0.53335    0.000
 5890.00    0.59319   0.53873    0.000
 5891.00    0.58184   0.55283    0.000
 5892.00    0.57564   0.56234    0.000
 5893.00    0.57037   0.56091    0.000
 5894.00    0.54359   0.55533    0.000
 5895.00    0.51381   0.55658    0.000
 5896.00    0.53261   0.56938    0.000
 5897.00    0.55627   0.59014    0.000
 5898.00    0.57764   0.61134    0.000
 5899.00    0.59887   0.62805    0.000
 5900.00    0.62196   0.63966    0.000
 5901.00    0.64501   0.64704    0.021
 5902.00    0.63399   0.65093    0.021
 5903.00    0.62297   0.65241    0.021
 5904.00    0.61206   0.65292    0.021
 5905.00    0.60334   0.65382    0.020
 5906.00    0.62591   0.65559    0.020
 5907.00    0.64698   0.65785    0.020
 5908.00    0.65411   0.65970    0.020
 5909.00    0.66240   0.66040    0.021
 5910.00    0.67859   0.65906    0.020
 5911.00    0.69167   0.65527    0.020
 5912.00    0.68843   0.64983    0.020
 5913.00    0.68276   0.64522    0.020
 5914.00    0.66680   0.64336    0.020
 5915.00    0.65691   0.64503    0.020
 5916.00    0.66822   0.64876    0.019
 5917.00    0.67759   0.65278    0.019
 5918.00    0.68122   0.65589    0.020
 5919.00    0.67665   0.65736    0.020
 5920.00    0.65150   0.65762    0.020
 5921.00    0.63325   0.65767    0.020
 5922.00    0.62992   0.65830    0.020
 5923.00    0.63241   0.65960    0.019
 5924.00    0.64582   0.66068    0.020
 5925.00    0.66322   0.66031    0.020
 5926.00    0.68715   0.65810    0.020
 5927.00    0.70505   0.65496    0.020
 5928.00    0.71427   0.65267    0.020
 5929.00    0.70864   0.65281    0.020
 5930.00    0.68426   0.65476    0.020
 5931.00    0.66476   0.65639    0.020
 5932.00    0.65069   0.65637    0.020
 5933.00    0.66190   0.65546    0.020
 5934.00    0.69792   0.65587    0.021
 5935.00    0.72005   0.65814    0.021
 5936.00    0.73015   0.66110    0.021
 5937.00    0.71927   0.66260    0.021
 5938.00    0.69238   0.66135    0.021
 5939.00    0.68064   0.65821    0.020
 5940.00    0.67906   0.65556    0.020
 5941.00    0.67240   0.65537    0.020
 5942.00    0.66276   0.65803    0.020
 5943.00    0.65097   0.66191    0.020
 5944.00    0.63808   0.66453    0.020
 5945.00    0.63889   0.66421    0.020
 5946.00    0.64578   0.66097    0.020
 5947.00    0.65382   0.65676    0.019
 5948.00    0.66232   0.65374    0.019
 5949.00    0.65339   0.65245    0.019
 5950.00    0.63883   0.65183    0.019
 5951.00    0.63831   0.65115    0.019
 5952.00    0.64159   0.65064    0.019
 5953.00    0.66032   0.65021    0.019
 5954.00    0.68247   0.64947    0.019
 5955.00    0.70334   0.64867    0.020
 5956.00    0.72397   0.64919    0.020
 5957.00    0.69608   0.65227    0.020
 5958.00    0.66163   0.65753    0.020
 5959.00    0.61305   0.66307    0.020
 5960.00    0.56312   0.66706    0.020
 5961.00    0.58915   0.66856    0.020
 5962.00    0.61972   0.66789    0.020
 5963.00    0.66820   0.66600    0.020
 5964.00    0.71675   0.66444    0.020
 5965.00    0.70418   0.66455    0.020
 5966.00    0.69320   0.66644    0.020
 5967.00    0.72244   0.66945    0.020
 5968.00    0.75056   0.67234    0.020
 5969.00    0.76358   0.67425    0.020
 5970.00    0.77296   0.67466    0.020
 5971.00    0.74976   0.67328    0.020
 5972.00    0.72757   0.66991    0.020
 5973.00    0.71196   0.66476    0.020
 5974.00    0.69771   0.65882    0.020
 5975.00    0.69038   0.65381    0.020
 5976.00    0.67799   0.65127    0.019
 5977.00    0.64466   0.65188    0.019
 5978.00    0.62279   0.65457    0.019
 5979.00    0.64014   0.65696    0.019
 5980.00    0.66038   0.65673    0.019
 5981.00    0.68894   0.65327    0.019
 5982.00    0.71554   0.64845    0.019
 5983.00    0.73730   0.64567    0.019
 5984.00    0.75296   0.64663    0.019
 5985.00    0.75569   0.65037    0.019
 5986.00    0.75194   0.65482    0.020
 5987.00    0.73621   0.65817    0.019
 5988.00    0.72102   0.66015    0.019
 5989.00    0.70668   0.66137    0.019
 5990.00    0.70402   0.66300    0.019
 5991.00    0.71787   0.66573    0.020
 5992.00    0.72541   0.66872    0.020
 5993.00    0.72508   0.67025    0.020
 5994.00    0.71233   0.66895    0.020
 5995.00    0.68595   0.66535    0.020
 5996.00    0.66928   0.66146    0.020
 5997.00    0.66200   0.65902    0.020
 5998.00    0.66498   0.65819    0.020
 5999.00    0.67673   0.65796    0.020
 6000.00    0.67164   0.65715    0.020
 6001.00    0.65392   0.65593    0.020
 6002.00    0.65016   0.65502    0.020
 6003.00    0.65565   0.65397    0.020
 6004.00    0.65868   0.65186    0.020
 6005.00    0.66029   0.64844    0.019
 6006.00    0.67092   0.64542    0.019
 6007.00    0.68609   0.64552    0.019
 6008.00    0.69565   0.64888    0.019
 6009.00    0.70275   0.65298    0.019
 6010.00    0.69511   0.65493    0.019
 6011.00    0.68194   0.65407    0.019
 6012.00    0.66814   0.65224    0.019
 6013.00    0.65413   0.65099    0.019
 6014.00    0.65388   0.65029    0.019
 6015.00    0.65727   0.64969    0.019
 6016.00    0.65271   0.64890    0.019
 6017.00    0.64642   0.64788    0.019
 6018.00    0.64429   0.64690    0.019
 6019.00    0.64288   0.64639    0.019
 6020.00    0.64074   0.64693    0.019
 6021.00    0.63851   0.64885    0.019
 6022.00    0.63175   0.65175    0.019
 6023.00    0.62458   0.65524    0.020
 6024.00    0.64668   0.65872    0.020
 6025.00    0.67041   0.66191    0.020
 6026.00    0.67682   0.66500    0.020
 6027.00    0.68290   0.66770    0.020
 6028.00    0.69434   0.66987    0.020
 6029.00    0.70516   0.67128    0.020
 6030.00    0.70154   0.67238    0.020
 6031.00    0.69815   0.67361    0.020
 6032.00    0.69767   0.67504    0.020
 6033.00    0.69799   0.67614    0.020
 6034.00    0.70523   0.67657    0.020
 6035.00    0.71125   0.67625    0.020
 6036.00    0.70951   0.67538    0.020
 6037.00    0.70507   0.67398    0.019
 6038.00    0.68712   0.67254    0.019
 6039.00    0.67662   0.67175    0.019
 6040.00    0.69628   0.67216    0.019
 6041.00    0.71693   0.67414    0.019
 6042.00    0.74090   0.67709    0.019
 6043.00    0.76052   0.68011    0.019
 6044.00    0.76786   0.68239    0.019
 6045.00    0.76886   0.68350    0.019
 6046.00    0.75452   0.68362    0.019
 6047.00    0.73667   0.68321    0.019
 6048.00    0.71154   0.68266    0.019
 6049.00    0.69263   0.68175    0.019
 6050.00    0.68507   0.68008    0.019
 6051.00    0.68247   0.67741    0.019
 6052.00    0.68776   0.67407    0.019
 6053.00    0.70176   0.67068    0.019
 6054.00    0.72791   0.66786    0.020
 6055.00    0.74052   0.66643    0.020
 6056.00    0.73653   0.66681    0.020
 6057.00    0.72091   0.66900    0.020
 6058.00    0.69273   0.67164    0.020
 6059.00    0.68241   0.67292    0.020
 6060.00    0.68912   0.67133    0.020
 6061.00    0.69446   0.66671    0.020
 6062.00    0.69866   0.66062    0.020
 6063.00    0.70173   0.65581    0.020
 6064.00    0.70397   0.65557    0.020
 6065.00    0.71303   0.66070    0.019
 6066.00    0.72652   0.66915    0.019
 6067.00    0.73061   0.67763    0.019
 6068.00    0.72935   0.68356    0.019
 6069.00    0.72391   0.68677    0.019
 6070.00    0.71641   0.68820    0.019
 6071.00    0.71441   0.68855    0.019
 6072.00    0.71477   0.68801    0.018
 6073.00    0.70863   0.68631    0.018
 6074.00    0.70009   0.68309    0.019
 6075.00    0.69605   0.67838    0.019
 6076.00    0.69341   0.67277    0.018
 6077.00    0.70284   0.66751    0.019
 6078.00    0.71540   0.66340    0.019
 6079.00    0.71562   0.66026    0.019
 6080.00    0.71323   0.65805    0.019
 6081.00    0.71024   0.65686    0.019
 6082.00    0.70714   0.65694    0.019
 6083.00    0.68989   0.65807    0.019
 6084.00    0.67086   0.65983    0.019
 6085.00    0.66394   0.66142    0.019
 6086.00    0.65810   0.66213    0.019
 6087.00    0.67271   0.66107    0.019
 6088.00    0.68839   0.65840    0.020
 6089.00    0.66993   0.65577    0.020
 6090.00    0.65084   0.65493    0.020
 6091.00    0.63087   0.65669    0.020
 6092.00    0.61251   0.66056    0.020
 6093.00    0.62855   0.66490    0.019
 6094.00    0.64564   0.66824    0.019
 6095.00    0.67561   0.66995    0.019
 6096.00    0.70291   0.67040    0.019
 6097.00    0.70811   0.66964    0.019
 6098.00    0.71160   0.66654    0.019
 6099.00    0.70447   0.65958    0.019
 6100.00    0.69730   0.64952    0.019
 6101.00    0.68987   0.64120    0.019
 6102.00    0.68186   0.63936    0.019
 6103.00    0.67153   0.64428    0.019
 6104.00    0.66238   0.65240    0.019
 6105.00    0.65709   0.65897    0.019
 6106.00    0.64757   0.66249    0.019
 6107.00    0.62629   0.66426    0.019
 6108.00    0.62082   0.66522    0.019
 6109.00    0.65298   0.66583    0.019
 6110.00    0.67666   0.66672    0.019
 6111.00    0.68292   0.66827    0.019
 6112.00    0.68252   0.67028    0.019
 6113.00    0.67024   0.67160    0.019
 6114.00    0.66918   0.67111    0.019
 6115.00    0.68569   0.66913    0.019
 6116.00    0.68267   0.66571    0.019
 6117.00    0.65281   0.66017    0.019
 6118.00    0.63304   0.65215    0.020
 6119.00    0.62550   0.64302    0.020
 6120.00    0.62510   0.63622    0.020
 6121.00    0.63233   0.63548    0.019
 6122.00    0.63899   0.64029    0.019
 6123.00    0.64509   0.64712    0.019
 6124.00    0.65086   0.65211    0.019
 6125.00    0.65634   0.65370    0.019
 6126.00    0.66333   0.65386    0.019
 6127.00    0.67143   0.65529    0.019
 6128.00    0.67858   0.65896    0.019
 6129.00    0.68511   0.66359    0.018
 6130.00    0.67932   0.66661    0.018
 6131.00    0.66662   0.66527    0.018
 6132.00    0.65471   0.65768    0.018
 6133.00    0.64319   0.64427    0.018
 6134.00    0.64170   0.62839    0.018
 6135.00    0.64442   0.61618    0.019
 6136.00    0.62446   0.61346    0.019
 6137.00    0.59630   0.62028    0.019
 6138.00    0.58240   0.63140    0.019
 6139.00    0.57286   0.64078    0.019
 6140.00    0.58353   0.64671    0.019
 6141.00    0.59933   0.65172    0.019
 6142.00    0.61634   0.65765    0.020
 6143.00    0.63360   0.66340    0.020
 6144.00    0.65703   0.66616    0.020
 6145.00    0.68146   0.66455    0.020
 6146.00    0.68432   0.65947    0.020
 6147.00    0.68456   0.65329    0.020
 6148.00    0.68074   0.64859    0.020
 6149.00    0.67658   0.64712    0.019
 6150.00    0.67865   0.64860    0.019
 6151.00    0.68103   0.65100    0.019
 6152.00    0.68942   0.65195    0.019
 6153.00    0.69787   0.65084    0.019
 6154.00    0.70403   0.64829    0.019
 6155.00    0.70931   0.64468    0.019
 6156.00    0.69728   0.63936    0.019
 6157.00    0.68498   0.63045    0.019
 6158.00    0.66949   0.61682    0.019
 6159.00    0.65745   0.60004    0.019
 6160.00    0.67300   0.58486    0.019
 6161.00    0.68243   0.57661    0.019
 6162.00    0.65498   0.57768    0.019
 6163.00    0.62587   0.58582    0.019
 6164.00    0.58890   0.59557    0.018
 6165.00    0.55570   0.60226    0.018
 6166.00    0.53714   0.60370    0.018
 6167.00    0.52240   0.60126    0.019
 6168.00    0.51996   0.59906    0.019
 6169.00    0.52758   0.60041    0.019
 6170.00    0.56270   0.60565    0.019
 6171.00    0.58521   0.61221    0.019
 6172.00    0.57820   0.61724    0.019
 6173.00    0.58109   0.61991    0.019
 6174.00    0.60403   0.62151    0.019
 6175.00    0.61659   0.62330    0.020
 6176.00    0.61087   0.62572    0.019
 6177.00    0.60920   0.62847    0.019
 6178.00    0.61377   0.63114    0.019
 6179.00    0.61397   0.63354    0.019
 6180.00    0.60825   0.63533    0.019
 6181.00    0.61533   0.63618    0.019
 6182.00    0.63766   0.63540    0.019
 6183.00    0.65538   0.63225    0.019
 6184.00    0.66825   0.62693    0.019
 6185.00    0.67073   0.62049    0.019
 6186.00    0.66356   0.61370    0.019
 6187.00    0.65067   0.60699    0.019
 6188.00    0.63310   0.60042    0.018
 6189.00    0.63411   0.59499    0.018
 6190.00    0.64848   0.59343    0.018
 6191.00    0.68864   0.59724    0.018
 6192.00    0.74509   0.60538    0.018
 6193.00    0.76536   0.61481    0.018
 6194.00    0.76565   0.62183    0.019
 6195.00    0.62103   0.62489    0.020
 6196.00    0.40684   0.62395   -2.000
 6197.00    0.24744   0.62036   -2.000
 6198.00    0.11076   0.61693   -2.000
 6199.00    0.09607   0.61632   -2.000
 6200.00    0.12461   0.61920   -2.000
 6201.00    0.25692   0.62408   -2.000
 6202.00    0.42029   0.62858   -2.000
 6203.00    0.53820   0.63158   -2.000
 6204.00    0.64482   0.63338   -2.000
 6205.00    0.67131   0.63441   -2.000
 6206.00    0.68166   0.63462   -2.000
 6207.00    0.65286   0.63341   -2.000
 6208.00    0.61789   0.63016    0.020
 6209.00    0.62825   0.62470    0.020
 6210.00    0.64392   0.61701    0.019
 6211.00    0.62487   0.60770    0.019
 6212.00    0.60307   0.59869    0.019
 6213.00    0.58557   0.59207    0.018
 6214.00    0.56827   0.58940    0.018
 6215.00    0.60431   0.59038    0.018
 6216.00    0.64048   0.59251    0.018
 6217.00    0.65481   0.59383    0.018
 6218.00    0.66781   0.59413    0.018
 6219.00    0.65634   0.59436    0.018
 6220.00    0.64478   0.59567    0.018
 6221.00    0.63205   0.59778    0.018
 6222.00    0.62111   0.59982    0.018
 6223.00    0.62403   0.60146    0.018
 6224.00    0.62459   0.60231    0.019
 6225.00    0.61134   0.60175    0.019
 6226.00    0.59831   0.59864    0.019
 6227.00    0.58627   0.59230    0.019
 6228.00    0.57379   0.58438    0.019
 6229.00    0.55963   0.57851    0.020
 6230.00    0.54891   0.57786    0.020
 6231.00    0.54903   0.58332    0.020
 6232.00    0.56075   0.59293    0.019
 6233.00    0.60357   0.60224    0.019
 6234.00    0.63569   0.60780    0.019
 6235.00    0.64320   0.60803    0.019
 6236.00    0.64730   0.60356    0.019
 6237.00    0.64460   0.59689    0.019
 6238.00    0.64372   0.59065    0.018
 6239.00    0.64599   0.58629    0.018
 6240.00    0.64562   0.58326    0.018
 6241.00    0.64123   0.58098    0.018
 6242.00    0.63188   0.57961    0.018
 6243.00    0.61592   0.57967    0.018
 6244.00    0.60821   0.58250    0.018
 6245.00    0.61022   0.58818    0.018
 6246.00    0.62134   0.59499    0.018
 6247.00    0.64191   0.60074    0.018
 6248.00    0.65389   0.60298    0.018
 6249.00    0.65803   0.60036    0.018
 6250.00    0.65664   0.59421    0.018
 6251.00    0.65078   0.58740    0.018
 6252.00    0.64871   0.58195    0.019
 6253.00    0.64933   0.57831    0.019
 6254.00    0.65106   0.57521    0.019
 6255.00    0.65350   0.57191    0.019
 6256.00    0.64742   0.56955    0.019
 6257.00    0.63669   0.57052    0.019
 6258.00    0.59970   0.57586    0.020
 6259.00    0.55030   0.58432    0.020
 6260.00    0.49700   0.59378    0.021
 6261.00    0.44210   0.60130    0.022
 6262.00    0.45239   0.60552    0.023
 6263.00    0.48536   0.60680    0.024
 6264.00    0.54445   0.60645    0.024
 6265.00    0.61119   0.60585    0.023
 6266.00    0.67243   0.60569    0.022
 6267.00    0.73233   0.60585    0.021
 6268.00    0.72216   0.60627    0.020
 6269.00    0.69824   0.60750    0.019
 6270.00    0.67659   0.60967    0.019
 6271.00    0.65529   0.61191    0.018
 6272.00    0.64997   0.61335    0.018
 6273.00    0.64646   0.61384    0.018
 6274.00    0.66345   0.61348    0.018
 6275.00    0.68199   0.61244    0.018
 6276.00    0.70922   0.61048    0.018
 6277.00    0.73681   0.60736    0.019
 6278.00    0.75525   0.60390    0.018
 6279.00    0.77281   0.60176    0.018
 6280.00    0.75678   0.60200    0.000
 6281.00    0.74004   0.60482    0.000
 6282.00    0.71094   0.60908    0.000
 6283.00    0.68323   0.61350    0.000
 6284.00    0.67009   0.61805    0.000
 6285.00    0.65996   0.62253    0.000
 6286.00    0.67229   0.62652    0.000
 6287.00    0.68374   0.62888    0.000
 6288.00    0.69018   0.62852    0.000
 6289.00    0.69211   0.62596    0.000
 6290.00    0.67357   0.62242    0.000
 6291.00    0.65980   0.61918    0.000
 6292.00    0.66370   0.61653    0.000
 6293.00    0.67952   0.61349    0.000
 6294.00    0.73232   0.60975    0.000
 6295.00    0.77145   0.60616    0.000
 6296.00    0.77456   0.60389    0.000
 6297.00    0.76891   0.60337    0.000
 6298.00    0.74345   0.60355    0.000
 6299.00    0.72062   0.60341    0.000
 6300.00    0.70293   0.60332    0.000
 6301.00    0.68347   0.60452    0.000
 6302.00    0.66097   0.60759    0.000
 6303.00    0.65374   0.61208    0.000
 6304.00    0.66937   0.61718    0.000
 6305.00    0.68629   0.62215    0.000
 6306.00    0.70493   0.62607    0.000
 6307.00    0.71035   0.62803    0.000
 6308.00    0.70046   0.62733    0.000
 6309.00    0.69726   0.62462    0.000
 6310.00    0.70090   0.62132    0.000
 6311.00    0.70818   0.61819    0.000
 6312.00    0.71874   0.61498    0.000
 6313.00    0.70378   0.61170    0.000
 6314.00    0.66853   0.60858    0.000
 6315.00    0.65095   0.60580    0.000
 6316.00    0.64573   0.60434    0.000
 6317.00    0.65477   0.60488    0.000
 6318.00    0.67256   0.60734    0.000
 6319.00    0.68646   0.61155    0.000
 6320.00    0.69828   0.61643    0.000
 6321.00    0.71648   0.62101    0.018
 6322.00    0.73764   0.62494    0.018
 6323.00    0.74245   0.62813    0.018
 6324.00    0.74070   0.63043    0.018
 6325.00    0.72759   0.63162    0.018
 6326.00    0.71059   0.63233    0.018
 6327.00    0.69888   0.63275    0.018
 6328.00    0.68868   0.63320    0.018
 6329.00    0.68154   0.63403    0.018
 6330.00    0.67511   0.63454    0.018
 6331.00    0.69052   0.63366    0.018
 6332.00    0.71010   0.62995    0.018
 6333.00    0.70818   0.62354    0.018
 6334.00    0.70307   0.61723    0.019
 6335.00    0.69965   0.61420    0.019
 6336.00    0.69641   0.61572    0.019
 6337.00    0.71711   0.62064    0.019
 6338.00    0.73950   0.62610    0.019
 6339.00    0.73286   0.62937    0.019
 6340.00    0.72516   0.62934    0.018
 6341.00    0.70628   0.62623    0.019
 6342.00    0.68773   0.62186    0.019
 6343.00    0.68245   0.61892    0.019
 6344.00    0.67727   0.61894    0.019
 6345.00    0.67380   0.62204    0.018
 6346.00    0.67045   0.62678    0.018
 6347.00    0.66833   0.63149    0.018
 6348.00    0.66731   0.63496    0.018
 6349.00    0.67419   0.63635    0.018
 6350.00    0.68110   0.63520    0.018
 6351.00    0.68821   0.63172    0.018
 6352.00    0.69570   0.62676    0.018
 6353.00    0.70490   0.62158    0.018
 6354.00    0.71153   0.61693    0.018
 6355.00    0.70881   0.61249    0.018
 6356.00    0.70751   0.60781    0.018
 6357.00    0.71053   0.60297    0.018
 6358.00    0.70601   0.59862    0.018
 6359.00    0.68195   0.59576    0.019
 6360.00    0.65864   0.59485    0.019
 6361.00    0.63701   0.59590    0.019
 6362.00    0.62737   0.59904    0.019
 6363.00    0.64089   0.60431    0.019
 6364.00    0.65275   0.61095    0.019
 6365.00    0.66183   0.61778    0.019
 6366.00    0.66435   0.62365    0.019
 6367.00    0.65720   0.62782    0.019
 6368.00    0.65767   0.63059    0.019
 6369.00    0.66804   0.63287    0.019
 6370.00    0.67698   0.63555    0.018
 6371.00    0.68430   0.63866    0.018
 6372.00    0.69132   0.64124    0.018
 6373.00    0.69803   0.64231    0.018
 6374.00    0.70577   0.64146    0.018
 6375.00    0.71444   0.63880    0.018
 6376.00    0.71543   0.63492    0.018
 6377.00    0.71041   0.63087    0.018
 6378.00    0.70561   0.62775    0.018
 6379.00    0.70096   0.62655    0.018
 6380.00    0.70648   0.62722    0.018
 6381.00    0.71815   0.62857    0.018
 6382.00    0.70911   0.62984    0.018
 6383.00    0.68915   0.63086    0.018
 6384.00    0.68737   0.63178    0.018
 6385.00    0.69388   0.63277    0.018
 6386.00    0.70408   0.63357    0.018
 6387.00    0.71572   0.63345    0.018
 6388.00    0.72104   0.63165    0.018
 6389.00    0.72425   0.62783    0.019
 6390.00    0.70671   0.62227    0.019
 6391.00    0.68332   0.61695    0.019
 6392.00    0.67479   0.61484    0.019
 6393.00    0.66971   0.61724    0.019
 6394.00    0.68017   0.62276    0.019
 6395.00    0.69354   0.62760    0.019
 6396.00    0.68990   0.62802    0.019
 6397.00    0.68382   0.62390    0.019
 6398.00    0.68928   0.61920    0.019
 6399.00    0.69594   0.61833    0.019
 6400.00    0.69375   0.62269    0.018
 6401.00    0.69095   0.63066    0.018
 6402.00    0.69161   0.63784    0.018
 6403.00    0.69238   0.64079    0.018
 6404.00    0.69217   0.63959    0.018
 6405.00    0.69183   0.63589    0.018
 6406.00    0.68775   0.63211    0.018
 6407.00    0.68508   0.62968    0.018
 6408.00    0.70338   0.62805    0.018
 6409.00    0.72013   0.62667    0.018
 6410.00    0.72184   0.62539    0.018
 6411.00    0.72332   0.62463    0.018
 6412.00    0.72310   0.62557    0.019
 6413.00    0.72334   0.62798    0.019
 6414.00    0.72610   0.63014    0.019
 6415.00    0.72664   0.63063    0.019
 6416.00    0.71761   0.62866    0.019
 6417.00    0.71086   0.62439    0.019
 6418.00    0.71222   0.61970    0.019
 6419.00    0.71202   0.61745    0.019
 6420.00    0.70714   0.61949    0.019
 6421.00    0.70861   0.62527    0.019
 6422.00    0.72620   0.63243    0.019
 6423.00    0.74044   0.63849    0.019
 6424.00    0.74734   0.64190    0.019
 6425.00    0.74621   0.64250    0.019
 6426.00    0.72983   0.64017    0.018
 6427.00    0.70730   0.63465    0.018
 6428.00    0.67459   0.62719    0.018
 6429.00    0.64935   0.62104    0.018
 6430.00    0.63496   0.61900    0.018
 6431.00    0.63273   0.62177    0.018
 6432.00    0.64603   0.62760    0.019
 6433.00    0.66548   0.63289    0.019
 6434.00    0.69187   0.63504    0.019
 6435.00    0.70446   0.63334    0.018
 6436.00    0.70335   0.62932    0.019
 6437.00    0.69844   0.62639    0.019
 6438.00    0.69020   0.62731    0.019
 6439.00    0.68586   0.63249    0.019
 6440.00    0.68453   0.64024    0.019
 6441.00    0.68299   0.64726    0.019
 6442.00    0.68130   0.65149    0.019
 6443.00    0.68823   0.65277    0.019
 6444.00    0.70027   0.65085    0.019
 6445.00    0.69954   0.64496    0.019
 6446.00    0.69218   0.63482    0.018
 6447.00    0.68483   0.62248    0.019
 6448.00    0.67747   0.61266    0.019
 6449.00    0.67435   0.60921    0.019
 6450.00    0.67287   0.61276    0.019
 6451.00    0.67978   0.62039    0.019
 6452.00    0.68945   0.62690    0.018
 6453.00    0.70504   0.63009    0.018
 6454.00    0.72228   0.63176    0.018
 6455.00    0.71190   0.63420    0.018
 6456.00    0.69527   0.63820    0.018
 6457.00    0.67194   0.64196    0.018
 6458.00    0.64740   0.64206    0.018
 6459.00    0.64679   0.63687    0.018
 6460.00    0.64950   0.62869    0.018
 6461.00    0.67102   0.62237    0.019
 6462.00    0.69443   0.62114    0.019
 6463.00    0.70449   0.62558    0.019
 6464.00    0.71370   0.63319    0.019
 6465.00    0.69969   0.63966    0.019
 6466.00    0.68500   0.64280    0.019
 6467.00    0.66774   0.64269    0.019
 6468.00    0.65163   0.64037    0.019
 6469.00    0.66768   0.63726    0.019
 6470.00    0.68200   0.63485    0.019
 6471.00    0.67191   0.63328    0.019
 6472.00    0.66235   0.63228    0.019
 6473.00    0.65771   0.63208    0.019
 6474.00    0.65592   0.63273    0.019
 6475.00    0.67341   0.63408    0.019
 6476.00    0.68898   0.63542    0.019
 6477.00    0.69443   0.63510    0.018
 6478.00    0.70103   0.63155    0.018
 6479.00    0.71246   0.62536    0.018
 6480.00    0.72500   0.61897    0.018
 6481.00    0.74136   0.61501    0.018
 6482.00    0.75226   0.61503    0.018
 6483.00    0.74715   0.61870    0.018
 6484.00    0.74175   0.62378    0.018
 6485.00    0.73559   0.62776    0.018
 6486.00    0.73623   0.62918    0.019
 6487.00    0.75153   0.62759    0.019
 6488.00    0.75981   0.62303    0.019
 6489.00    0.75497   0.61559    0.019
 6490.00    0.74258   0.60496    0.019
 6491.00    0.71785   0.59120    0.019
 6492.00    0.70568   0.57628    0.019
 6493.00    0.71151   0.56346    0.019
 6494.00    0.71006   0.55606    0.018
 6495.00    0.69943   0.55623    0.019
 6496.00    0.68250   0.56266    0.019
 6497.00    0.65857   0.57269    0.019
 6498.00    0.66109   0.58424    0.019
 6499.00    0.68954   0.59539    0.019
 6500.00    0.70089   0.60547    0.019
 6501.00    0.69746   0.61381    0.019
 6502.00    0.69421   0.61989    0.018
 6503.00    0.69109   0.62395    0.018
 6504.00    0.69589   0.62606    0.018
 6505.00    0.70598   0.62645    0.018
 6506.00    0.71938   0.62592    0.018
 6507.00    0.73472   0.62547    0.018
 6508.00    0.74930   0.62583    0.018
 6509.00    0.76349   0.62695    0.019
 6510.00    0.76165   0.62795    0.019
 6511.00    0.75273   0.62768    0.019
 6512.00    0.73328   0.62556    0.019
 6513.00    0.70984   0.62212    0.019
 6514.00    0.69714   0.61835    0.019
 6515.00    0.68791   0.61521    0.019
 6516.00    0.68418   0.61388    0.019
 6517.00    0.68193   0.61516    0.019
 6518.00    0.71267   0.61846    0.019
 6519.00    0.75072   0.62278    0.019
 6520.00    0.76555   0.62685    0.019
 6521.00    0.77629   0.62946    0.019
 6522.00    0.76890   0.63029    0.019
 6523.00    0.75907   0.62945    0.019
 6524.00    0.73138   0.62765    0.018
 6525.00    0.70198   0.62602    0.018
 6526.00    0.68632   0.62532    0.018
 6527.00    0.67148   0.62567    0.018
 6528.00    0.68372   0.62634    0.000
 6529.00    0.69657   0.62622    0.000
 6530.00    0.69936   0.62526    0.000
 6531.00    0.70298   0.62462    0.000
 6532.00    0.72754   0.62537    0.000
 6533.00    0.74966   0.62750    0.000
 6534.00    0.73917   0.63005    0.000
 6535.00    0.73148   0.63216    0.000
 6536.00    0.74879   0.63372    0.000
 6537.00    0.76398   0.63483    0.000
 6538.00    0.76517   0.63528    0.000
 6539.00    0.76230   0.63439    0.000
 6540.00    0.73862   0.63138    0.000
 6541.00    0.72092   0.62628    0.000
 6542.00    0.72792   0.61998    0.000
 6543.00    0.74054   0.61354    0.000
 6544.00    0.77233   0.60869    0.000
 6545.00    0.79833   0.60646    0.000
 6546.00    0.80766   0.60650    0.000
 6547.00    0.80953   0.60785    0.000
 6548.00    0.79303   0.60862    0.000
 6549.00    0.77728   0.60747    0.000
 6550.00    0.76311   0.60441    0.000
 6551.00    0.74753   0.59987    0.000
 6552.00    0.72933   0.59460    0.000
 6553.00    0.71779   0.58951    0.000
 6554.00    0.71695   0.58528    0.000
 6555.00    0.71686   0.58178    0.000
 6556.00    0.71783   0.57721    0.000
 6557.00    0.71846   0.56818    0.000
 6558.00    0.71868   0.55108    0.000
 6559.00    0.70813   0.52523    0.000
 6560.00    0.68579   0.49757    0.000
 6561.00    0.68992   0.48009    0.000
 6562.00    0.71961   0.48050    0.000
 6563.00    0.73822   0.49912    0.000
 6564.00    0.74739   0.52866    0.000
 6565.00    0.75632   0.55647    0.000
 6566.00    0.76506   0.57492    0.000
 6567.00    0.75244   0.58476    0.000
 6568.00    0.72574   0.58881    0.000
 6569.00    0.71495   0.58924    0.000
 6570.00    0.71335   0.58804    0.000
 6571.00    0.71251   0.58645    0.000
 6572.00    0.71205   0.58572    0.000
 6573.00    0.71523   0.58759    0.000
 6574.00    0.72001   0.59241    0.000
 6575.00    0.72367   0.59861    0.000
 6576.00    0.72692   0.60405    0.000
 6577.00    0.74738   0.60704    0.000
 6578.00    0.77330   0.60751    0.000
 6579.00    0.79725   0.60712    0.000
 6580.00    0.82068   0.60742    0.000
 6581.00    0.79170   0.60880    0.000
 6582.00    0.75137   0.61100    0.000
 6583.00    0.75174   0.61314    0.000
 6584.00    0.75909   0.61500    0.000
 6585.00    0.80045   0.61702    0.000
 6586.00    0.84624   0.61881    0.000
 6587.00    0.80375   0.61953    0.000
 6588.00    0.75320   0.61750    0.000
 6589.00    0.74956   0.61141    0.000
 6590.00    0.74852   0.60266    0.000
 6591.00    0.75353   0.59481    0.000
 6592.00    0.75844   0.59098    0.000
 6593.00    0.74057   0.59213    0.000
 6594.00    0.72374   0.59683    0.000
 6595.00    0.73063   0.60197    0.000
 6596.00    0.73670   0.60568    0.000
 6597.00    0.73252   0.60855    0.000
 6598.00    0.72705   0.61161    0.000
 6599.00    0.71055   0.61482    0.000
 6600.00    0.69505   0.61714    0.000
 6601.00    0.68591   0.61717    0.000
 6602.00    0.68020   0.61466    0.000
 6603.00    0.69161   0.61063    0.000
 6604.00    0.70589   0.60615    0.000
 6605.00    0.73174   0.60206    0.000
 6606.00    0.74728   0.59916    0.000
 6607.00    0.72831   0.59851    0.000
 6608.00    0.71598   0.60058    0.000
 6609.00    0.72247   0.60446    0.019
 6610.00    0.72309   0.60877    0.019
 6611.00    0.70955   0.61227    0.019
 6612.00    0.69718   0.61461    0.019
 6613.00    0.68729   0.61634    0.019
 6614.00    0.69251   0.61807    0.019
 6615.00    0.72515   0.61981    0.019
 6616.00    0.74835   0.62099    0.019
 6617.00    0.75656   0.62153    0.019
 6618.00    0.76375   0.62156    0.019
 6619.00    0.76955   0.62068    0.019
 6620.00    0.76275   0.61823    0.019
 6621.00    0.74051   0.61408    0.019
 6622.00    0.72415   0.60930    0.018
 6623.00    0.71414   0.60563    0.018
 6624.00    0.69875   0.60400    0.018
 6625.00    0.67822   0.60436    0.019
 6626.00    0.67413   0.60573    0.019
 6627.00    0.68383   0.60646    0.019
 6628.00    0.70475   0.60579    0.019
 6629.00    0.73396   0.60369    0.019
 6630.00    0.73273   0.60048    0.019
 6631.00    0.71172   0.59736    0.019
 6632.00    0.70055   0.59579    0.019
 6633.00    0.69497   0.59648    0.020
 6634.00    0.69324   0.59930    0.020
 6635.00    0.69342   0.60311    0.020
 6636.00    0.68516   0.60613    0.020
 6637.00    0.67330   0.60765    0.020
 6638.00    0.67869   0.60791    0.019
 6639.00    0.69039   0.60693    0.019
 6640.00    0.70976   0.60473    0.019
 6641.00    0.73150   0.60227    0.019
 6642.00    0.73719   0.60059    0.019
 6643.00    0.73872   0.60018    0.019
 6644.00    0.71878   0.60132    0.019
 6645.00    0.69431   0.60339    0.018
 6646.00    0.69934   0.60496    0.018
 6647.00    0.70929   0.60531    0.018
 6648.00    0.71187   0.60460    0.019
 6649.00    0.71353   0.60325    0.019
 6650.00    0.72583   0.60169    0.019
 6651.00    0.73904   0.60051    0.019
 6652.00    0.75631   0.60010    0.019
 6653.00    0.77378   0.60025    0.019
 6654.00    0.75848   0.60051    0.019
 6655.00    0.74289   0.60066    0.019
 6656.00    0.74835   0.60037    0.020
 6657.00    0.75186   0.59936    0.020
 6658.00    0.71400   0.59748    0.020
 6659.00    0.67914   0.59446    0.020
 6660.00    0.68034   0.59050    0.020
 6661.00    0.68303   0.58704    0.020
 6662.00    0.69804   0.58522    0.020
 6663.00    0.71217   0.58504    0.020
 6664.00    0.72087   0.58658    0.019
 6665.00    0.72691   0.58936    0.019
 6666.00    0.72005   0.59263    0.019
 6667.00    0.71163   0.59631    0.019
 6668.00    0.69705   0.60015    0.019
 6669.00    0.68591   0.60342    0.019
 6670.00    0.68607   0.60540    0.019
 6671.00    0.68698   0.60567    0.019
 6672.00    0.68995   0.60396    0.019
 6673.00    0.69792   0.59972    0.019
 6674.00    0.71781   0.59244    0.019
 6675.00    0.73575   0.58359    0.019
 6676.00    0.74968   0.57630    0.019
 6677.00    0.75292   0.57279    0.019
 6678.00    0.73706   0.57372    0.019
 6679.00    0.72227   0.57825    0.020
 6680.00    0.70915   0.58381    0.020
 6681.00    0.69424   0.58825    0.020
 6682.00    0.67690   0.59134    0.020
 6683.00    0.67167   0.59333    0.020
 6684.00    0.68106   0.59419    0.020
 6685.00    0.68903   0.59424    0.020
 6686.00    0.69549   0.59416    0.019
 6687.00    0.69157   0.59431    0.019
 6688.00    0.67792   0.59473    0.019
 6689.00    0.66979   0.59524    0.019
 6690.00    0.66625   0.59534    0.019
 6691.00    0.68215   0.59464    0.019
 6692.00    0.71222   0.59286    0.019
 6693.00    0.73944   0.59022    0.019
 6694.00    0.76484   0.58766    0.019
 6695.00    0.76247   0.58612    0.019
 6696.00    0.74456   0.58628    0.000
 6697.00    0.74117   0.58834    0.000
 6698.00    0.74485   0.59111    0.000
 6699.00    0.74138   0.59314    0.000
 6700.00    0.73491   0.59366    0.000
 6701.00    0.73813   0.59267    0.000
 6702.00    0.74486   0.59125    0.000
 6703.00    0.72509   0.59050    0.000
 6704.00    0.69726   0.59077    0.000
 6705.00    0.67652   0.59182    0.000
 6706.00    0.65758   0.59275    0.000
 6707.00    0.68917   0.59276    0.000
 6708.00    0.73115   0.59195    0.000
 6709.00    0.72539   0.59048    0.000
 6710.00    0.71190   0.58809    0.000
 6711.00    0.69811   0.58478    0.000
 6712.00    0.68428   0.58031    0.000
 6713.00    0.66677   0.57474    0.000
 6714.00    0.64895   0.56906    0.000
 6715.00    0.65097   0.56501    0.000
 6716.00    0.65393   0.56402    0.000
 6717.00    0.66169   0.56592    0.000
 6718.00    0.66913   0.56973    0.000
 6719.00    0.65414   0.57410    0.000
 6720.00    0.64007   0.57761    0.000
 6721.00    0.64395   0.57979    0.000
 6722.00    0.64849   0.58084    0.000
 6723.00    0.66058   0.58119    0.000
 6724.00    0.67062   0.58132    0.000
 6725.00    0.66439   0.58168    0.000
 6726.00    0.66003   0.58265    0.000
 6727.00    0.66689   0.58423    0.000
 6728.00    0.67539   0.58573    0.000
 6729.00    0.69170   0.58648    0.000
 6730.00    0.71237   0.58645    0.000
 6731.00    0.74994   0.58601    0.000
 6732.00    0.77344   0.58559    0.000
 6733.00    0.75170   0.58532    0.000
 6734.00    0.72860   0.58486    0.000
 6735.00    0.70179   0.58369    0.000
 6736.00    0.69041   0.58187    0.000
 6737.00    0.71505   0.57998    0.000
 6738.00    0.73374   0.57865    0.000
 6739.00    0.74041   0.57789    0.000
 6740.00    0.74278   0.57760    0.000
 6741.00    0.73759   0.57774    0.000
 6742.00    0.71330   0.57783    0.000
 6743.00    0.65961   0.57770    0.000
 6744.00    0.63932   0.57735    0.000
 6745.00    0.66417   0.57627    0.000
 6746.00    0.66931   0.57430    0.000
 6747.00    0.65097   0.57217    0.000
 6748.00    0.64561   0.57069    0.000
 6749.00    0.65387   0.56992    0.000
 6750.00    0.64443   0.56992    0.000
 6751.00    0.61862   0.57118    0.000
 6752.00    0.63739   0.57335    0.000
 6753.00    0.69258   0.57629    0.023
 6754.00    0.70779   0.58018    0.023
 6755.00    0.69430   0.58412    0.023
 6756.00    0.67947   0.58741    0.023
 6757.00    0.66380   0.58984    0.023
 6758.00    0.66341   0.59118    0.023
 6759.00    0.67145   0.59146    0.023
 6760.00    0.69444   0.59111    0.024
 6761.00    0.72461   0.59023    0.024
 6762.00    0.75567   0.58865    0.024
 6763.00    0.78710   0.58624    0.025
 6764.00    0.79427   0.58313    0.025
 6765.00    0.79286   0.58018    0.025
 6766.00    0.82455   0.57824    0.025
 6767.00    0.86612   0.57750    0.025
 6768.00    0.86382   0.57797    0.025
 6769.00    0.85066   0.57949    0.025
 6770.00    0.80390   0.58168    0.024
 6771.00    0.75040   0.58456    0.024
 6772.00    0.76082   0.58821    0.024
 6773.00    0.78127   0.59190    0.024
 6774.00    0.76319   0.59477    0.024
 6775.00    0.74061   0.59659    0.023
 6776.00    0.74494   0.59735    0.023
 6777.00    0.75139   0.59678    0.023
 6778.00    0.74761   0.59461    0.023
 6779.00    0.74338   0.59054    0.024
 6780.00    0.79527   0.58473    0.024
 6781.00    0.84520   0.57832    0.024
 6782.00    0.77553   0.57290    0.024
 6783.00    0.70924   0.56979    0.023
 6784.00    0.70414   0.56955    0.022
 6785.00    0.70145   0.57158    0.022
 6786.00    0.72507   0.57437    0.022
 6787.00    0.74580   0.57685    0.023
 6788.00    0.74437   0.57850    0.023
 6789.00    0.73862   0.57895    0.023
 6790.00    0.70765   0.57839    0.023
 6791.00    0.69112   0.57751    0.024
 6792.00    0.74129   0.57678    0.024
 6793.00    0.77706   0.57658    0.024
 6794.00    0.75835   0.57738    0.024
 6795.00    0.74718   0.57906    0.024
 6796.00    0.75980   0.58106    0.023
 6797.00    0.76671   0.58311    0.023
 6798.00    0.75829   0.58487    0.023
 6799.00    0.75520   0.58615    0.024
 6800.00    0.76434   0.58684    0.024
 6801.00    0.75271   0.58681    0.024
 6802.00    0.69974   0.58633    0.023
 6803.00    0.68047   0.58553    0.023
 6804.00    0.71957   0.58470    0.023
 6805.00    0.75157   0.58433    0.023
 6806.00    0.77280   0.58412    0.023
 6807.00    0.75969   0.58397    0.022
 6808.00    0.70078   0.58415    0.022
 6809.00    0.66800   0.58425    0.022
 6810.00    0.66587   0.58399    0.023
 6811.00    0.66694   0.58340    0.023
 6812.00    0.67134   0.58250    0.024
 6813.00    0.69526   0.58192    0.024
 6814.00    0.73701   0.58207    0.025
 6815.00    0.72642   0.58280    0.025
 6816.00    0.67371   0.58378    0.024
 6817.00    0.68448   0.58446    0.024
 6818.00    0.74018   0.58484    0.024
 6819.00    0.73298   0.58552    0.024
 6820.00    0.68670   0.58686    0.023
 6821.00    0.66124   0.58871    0.023
 6822.00    0.64707   0.59030    0.023
 6823.00    0.64941   0.59074    0.023
 6824.00    0.65954   0.58966    0.023
 6825.00    0.69402   0.58749    0.023
 6826.00    0.73841   0.58531    0.023
 6827.00    0.74321   0.58400    0.023
 6828.00    0.73427   0.58396    0.022
 6829.00    0.70306   0.58496    0.023
 6830.00    0.66533   0.58639    0.023
 6831.00    0.69984   0.58779    0.023
 6832.00    0.75185   0.58886    0.023
 6833.00    0.75338   0.58947    0.023
 6834.00    0.74505   0.58939    0.023
 6835.00    0.74502   0.58792    0.024
 6836.00    0.74626   0.58472    0.024
 6837.00    0.71000   0.58032    0.025
 6838.00    0.66954   0.57563    0.025
 6839.00    0.75284   0.57193    0.026
 6840.00    0.84538   0.57049    0.026
 6841.00    0.75848   0.57176    0.026
 6842.00    0.66445   0.57524    0.026
 6843.00    0.62979   0.57961    0.053
 6844.00    0.59822   0.58346   -1.000
 6845.00    0.67312   0.58594   -1.000
 6846.00    0.74251   0.58679   -1.000
 6847.00    0.71892   0.58649   -1.000
 6848.00    0.69634   0.58564   -1.000
 6849.00    0.68439   0.58442   -1.000
 6850.00    0.67470   0.58276   -1.000
 6851.00    0.68178   0.58042   -1.000
 6852.00    0.68563   0.57746   -1.000
 6853.00    0.67120   0.57460   -1.000
 6854.00    0.66726   0.57247    0.258
 6855.00    0.71074   0.57154    0.040
 6856.00    0.73895   0.57183    0.024
 6857.00    0.71065   0.57219    0.024
 6858.00    0.68882   0.57193    0.024
 6859.00    0.68707   0.57188    0.024
 6860.00    0.68684   0.57298    0.024
 6861.00    0.69058   0.57541    0.025
 6862.00    0.68860   0.57857    0.025
 6863.00    0.67365   0.58103    0.025
 6864.00    0.67208   0.58132    0.025
 6865.00    0.69666   0.57952    0.025
 6866.00    0.72706   0.57717    0.025
 6867.00    0.76738   0.57551    0.026
 6868.00    0.78787   0.57475    0.026
 6869.00    0.77869   0.57476    0.026
 6870.00    0.75803   0.57526    0.025
 6871.00    0.72227   0.57595    0.025
 6872.00    0.70270   0.57708    0.024
 6873.00    0.70185   0.57915    0.024
 6874.00    0.70985   0.58192    0.024
 6875.00    0.72690   0.58465    0.024
 6876.00    0.73180   0.58676    0.024
 6877.00    0.72577   0.58760    0.024
 6878.00    0.72957   0.58659    0.024
 6879.00    0.74118   0.58400    0.024
 6880.00    0.73443   0.58101    0.024
 6881.00    0.71485   0.57888    0.024
 6882.00    0.68616   0.57831    0.024
 6883.00    0.65188   0.57940    0.024
 6884.00    0.62092   0.58189    0.024
 6885.00    0.59174   0.58492    0.025
 6886.00    0.63280   0.58786    0.025
 6887.00    0.70646   0.59070    0.025
 6888.00    0.72962   0.59299    0.025
 6889.00    0.73261   0.59425    0.025
 6890.00    0.70828   0.59462    0.025
 6891.00    0.67463   0.59434    0.025
 6892.00    0.67545   0.59347    0.024
 6893.00    0.68615   0.59242    0.024
 6894.00    0.67352   0.59170    0.024
 6895.00    0.65536   0.59128    0.024
 6896.00    0.68324   0.59094    0.024
 6897.00    0.71989   0.59073    0.024
 6898.00    0.71939   0.59085    0.024
 6899.00    0.71341   0.59140    0.025
 6900.00    0.68739   0.59236    0.025
 6901.00    0.65922   0.59374    0.025
 6902.00    0.68882   0.59527    0.025
 6903.00    0.72251   0.59668    0.026
 6904.00    0.71932   0.59804    0.025
 6905.00    0.71481   0.59945    0.025
 6906.00    0.74234   0.60070    0.025
 6907.00    0.76839   0.60111    0.025
 6908.00    0.74009   0.60018    0.026
 6909.00    0.71316   0.59803    0.026
 6910.00    0.70789   0.59500    0.026
 6911.00    0.70442   0.59169    0.026
 6912.00    0.71887   0.58910    0.025
 6913.00    0.72399   0.58766    0.025
 6914.00    0.66198   0.58741    0.024
 6915.00    0.61629   0.58842    0.024
 6916.00    0.66058   0.59011    0.024
 6917.00    0.69490   0.59194    0.024
 6918.00    0.68528   0.59373    0.024
 6919.00    0.68107   0.59476    0.024
 6920.00    0.69647   0.59432    0.024
 6921.00    0.71200   0.59219    0.025
 6922.00    0.72789   0.58907    0.024
 6923.00    0.72393   0.58634    0.024
 6924.00    0.66865   0.58533    0.024
 6925.00    0.62936   0.58653    0.025
 6926.00    0.62561   0.58922    0.025
 6927.00    0.63172   0.59201    0.025
 6928.00    0.65680   0.59358    0.025
 6929.00    0.66438   0.59356    0.026
 6930.00    0.64256   0.59251    0.026
 6931.00    0.64405   0.59150    0.026
 6932.00    0.67988   0.59119    0.026
 6933.00    0.68713   0.59167    0.026
 6934.00    0.65736   0.59290    0.026
 6935.00    0.66454   0.59439    0.026
 6936.00    0.71387   0.59568    0.025
 6937.00    0.71406   0.59686    0.025
 6938.00    0.66481   0.59783    0.025
 6939.00    0.66345   0.59802    0.025
 6940.00    0.70459   0.59688    0.024
 6941.00    0.73939   0.59431    0.024
 6942.00    0.76925   0.59118    0.025
 6943.00    0.74203   0.58908    0.025
 6944.00    0.67556   0.58894    0.025
 6945.00    0.64737   0.59070    0.025
 6946.00    0.64226   0.59351    0.025
 6947.00    0.63358   0.59560    0.025
 6948.00    0.62301   0.59574    0.025
 6949.00    0.65173   0.59426    0.025
 6950.00    0.69839   0.59201    0.025
 6951.00    0.72907   0.59008    0.026
 6952.00    0.75348   0.58962    0.026
 6953.00    0.71961   0.59083    0.026
 6954.00    0.66625   0.59308    0.025
 6955.00    0.65080   0.59578    0.025
 6956.00    0.64601   0.59825    0.025
 6957.00    0.64638   0.60004    0.025
 6958.00    0.64795   0.60131    0.025
 6959.00    0.61998   0.60241    0.025
 6960.00    0.58654   0.60342    0.024
 6961.00    0.60003   0.60416    0.024
 6962.00    0.62024   0.60443    0.025
 6963.00    0.59688   0.60445    0.025
 6964.00    0.56901   0.60468    0.024
 6965.00    0.60263   0.60520    0.025
 6966.00    0.64034   0.60584    0.025
 6967.00    0.67438   0.60630    0.025
 6968.00    0.70829   0.60615    0.025
 6969.00    0.71850   0.60540    0.026
 6970.00    0.72616   0.60431    0.026
 6971.00    0.65599   0.60283    0.026
 6972.00    0.59240   0.60052    0.026
 6973.00    0.62686   0.59657    0.026
 6974.00    0.65716   0.59038    0.027
 6975.00    0.64753   0.58304    0.026
 6976.00    0.64119   0.57703    0.026
 6977.00    0.65773   0.57456    0.026
 6978.00    0.66964   0.57653    0.026
 6979.00    0.65665   0.58268    0.025
 6980.00    0.64628   0.59102    0.025
 6981.00    0.64717   0.59857    0.025
 6982.00    0.65299   0.60375    0.025
 6983.00    0.67632   0.60638    0.025
 6984.00    0.69219   0.60671    0.025
 6985.00    0.68584   0.60530    0.024
 6986.00    0.69572   0.60298    0.025
 6987.00    0.74683   0.60072    0.025
 6988.00    0.77633   0.59938    0.026
 6989.00    0.75858   0.59934    0.025
 6990.00    0.72647   0.60033    0.025
 6991.00    0.66710   0.60156    0.026
 6992.00    0.64454   0.60237    0.026
 6993.00    0.68292   0.60241    0.026
 6994.00    0.70348   0.60165    0.026
 6995.00    0.69816   0.60012    0.026
 6996.00    0.70503   0.59792    0.026
 6997.00    0.72745   0.59558    0.026
 6998.00    0.71694   0.59394    0.026
 6999.00    0.66941   0.59336    0.026
 7000.00    0.64565   0.59364    0.025
 7001.00    0.64547   0.59413    0.025
 7002.00    0.65695   0.59415    0.025
 7003.00    0.67864   0.59371    0.025
 7004.00    0.67313   0.59357    0.025
 7005.00    0.64666   0.59453    0.025
 7006.00    0.61800   0.59642    0.025
 7007.00    0.58786   0.59836    0.025
 7008.00    0.58588   0.59976    0.025
 7009.00    0.60061   0.60048    0.025
 7010.00    0.62150   0.60012    0.025
 7011.00    0.64559   0.59813    0.026
 7012.00    0.65612   0.59437    0.026
 7013.00    0.66056   0.58974    0.026
 7014.00    0.66548   0.58612    0.026
 7015.00    0.67058   0.58536    0.027
 7016.00    0.65695   0.58822    0.027
 7017.00    0.63717   0.59388    0.027
 7018.00    0.62749   0.59945    0.027
 7019.00    0.62057   0.60194    0.027
 7020.00    0.64647   0.60082    0.027
 7021.00    0.67978   0.59772    0.026
 7022.00    0.68783   0.59455    0.026
 7023.00    0.69132   0.59279    0.026
 7024.00    0.68116   0.59318    0.026
 7025.00    0.66910   0.59535    0.026
 7026.00    0.68137   0.59820    0.026
 7027.00    0.69605   0.60072    0.026
 7028.00    0.62695   0.60263    0.026
 7029.00    0.55260   0.60389    0.026
 7030.00    0.57104   0.60444    0.026
 7031.00    0.59214   0.60443    0.026
 7032.00    0.61918   0.60407    0.026
 7033.00    0.64630   0.60328    0.026
 7034.00    0.67558   0.60169    0.026
 7035.00    0.70042   0.59975    0.026
 7036.00    0.66298   0.59882    0.027
 7037.00    0.62562   0.60001    0.027
 7038.00    0.58891   0.60390    0.027
 7039.00    0.56428   0.61010    0.026
 7040.00    0.62108   0.61644    0.026
 7041.00    0.66631   0.62046    0.026
 7042.00    0.65102   0.62185    0.026
 7043.00    0.64311   0.62192    0.027
 7044.00    0.66626   0.62198    0.026
 7045.00    0.67967   0.62274    0.026
 7046.00    0.65918   0.62380    0.026
 7047.00    0.64017   0.62365    0.026
 7048.00    0.62546   0.62067    0.026
 7049.00    0.63032   0.61413    0.026
 7050.00    0.68399   0.60463   -2.000
 7051.00    0.71855   0.59390   -2.000
 7052.00    0.71198   0.58417   -2.000
 7053.00    0.70140   0.57742   -2.000
 7054.00    0.68333   0.57414   -2.000
 7055.00    0.67265   0.57319   -2.000
 7056.00    0.67400   0.57286   -2.000
 7057.00    0.69026   0.57179   -2.000
 7058.00    0.72787   0.56975   -2.000
 7059.00    0.74800   0.56764   -2.000
 7060.00    0.74614   0.56652   -2.000
 7061.00    0.71447   0.56660   -2.000
 7062.00    0.64972   0.56684   -2.000
 7063.00    0.63770   0.56622   -2.000
 7064.00    0.67725   0.56462   -2.000
 7065.00    0.66977   0.56267   -2.000
 7066.00    0.62173   0.56177   -2.000
 7067.00    0.61975   0.56315   -2.000
 7068.00    0.65278   0.56673   -2.000
 7069.00    0.65895   0.57173   -2.000
 7070.00    0.64720   0.57681   -2.000
 7071.00    0.64883   0.58062   -2.000
 7072.00    0.65828   0.58276   -2.000
 7073.00    0.66947   0.58378   -2.000
 7074.00    0.68154   0.58432   -2.000
 7075.00    0.72237   0.58480   -2.000
 7076.00    0.77590   0.58552   -2.000
 7077.00    0.74908   0.58628   -2.000
 7078.00    0.69179   0.58633   -2.000
 7079.00    0.70699   0.58460   -2.000
 7080.00    0.74552   0.58049   -2.000
 7081.00    0.78697   0.57423   -2.000
 7082.00    0.82919   0.56691   -2.000
 7083.00    0.77610   0.55966   -2.000
 7084.00    0.70197   0.55323   -2.000
 7085.00    0.64728   0.54809   -2.000
 7086.00    0.59602   0.54410   -2.000
 7087.00    0.65474   0.54085   -2.000
 7088.00    0.72820   0.53879   -2.000
 7089.00    0.70870   0.53827   -2.000
 7090.00    0.68037   0.53879   -2.000
 7091.00    0.67081   0.53964   -2.000
 7092.00    0.66235   0.54033   -2.000
 7093.00    0.63304   0.54082   -2.000
 7094.00    0.60377   0.54170   -2.000
 7095.00    0.65212   0.54334   -2.000
 7096.00    0.69883   0.54565   -2.000
 7097.00    0.70489   0.54809   -2.000
 7098.00    0.70906   0.54990   -2.000
 7099.00    0.68824   0.55073   -2.000
 7100.00    0.66401   0.55077   -2.000
 7101.00    0.60967   0.55080   -2.000
 7102.00    0.56511   0.55134   -2.000
 7103.00    0.58453   0.55246   -2.000
 7104.00    0.59654   0.55387   -2.000
 7105.00    0.57081   0.55483   -2.000
 7106.00    0.53796   0.55465   -2.000
 7107.00    0.47580   0.55335   -2.000
 7108.00    0.45235   0.55166   -2.000
 7109.00    0.56090   0.55026   -2.000
 7110.00    0.64034   0.54969   -2.000
 7111.00    0.63615   0.55046   -2.000
 7112.00    0.62231   0.55272   -2.000
 7113.00    0.58482   0.55571   -2.000
 7114.00    0.56029   0.55835   -2.000
 7115.00    0.56318   0.56021   -2.000
 7116.00    0.55812   0.56127   -2.000
 7117.00    0.53842   0.56145   -2.000
 7118.00    0.56326   0.56078   -2.000
 7119.00    0.65966   0.55966   -2.000
 7120.00    0.71506   0.55817   -2.000
 7121.00    0.71269   0.55584   -2.000
 7122.00    0.69568   0.55224   -2.000
 7123.00    0.66051   0.54776   -2.000
 7124.00    0.55431   0.54278   -2.000
 7125.00    0.37043   0.53770   -2.000
 7126.00    0.30493   0.53330   -2.000
 7127.00    0.35357   0.53013   -2.000
 7128.00    0.44789   0.52812   -2.000
 7129.00    0.58106   0.52717   -2.000
 7130.00    0.59934   0.52771   -2.000
 7131.00    0.53160   0.53007   -2.000
 7132.00    0.53417   0.53375   -2.000
 7133.00    0.58301   0.53748   -2.000
 7134.00    0.69531   0.54019   -2.000
 7135.00    0.84415   0.54150   -2.000
 7136.00    0.80551   0.54189   -2.000
 7137.00    0.67280   0.54215   -2.000
 7138.00    0.63212   0.54262   -2.000
 7139.00    0.63142   0.54353   -2.000
 7140.00    0.58513   0.54487   -2.000
 7141.00    0.52187   0.54595   -2.000
 7142.00    0.55560   0.54606   -2.000
 7143.00    0.61996   0.54490   -2.000
 7144.00    0.65821   0.54255   -2.000
 7145.00    0.68958   0.53979   -2.000
 7146.00    0.69157   0.53772   -2.000
 7147.00    0.68722   0.53705   -2.000
 7148.00    0.65780   0.53853   -2.000
 7149.00    0.62409   0.54229   -2.000
 7150.00    0.51163   0.54687   -2.000
 7151.00    0.38899   0.55080   -2.000
 7152.00    0.45920   0.55386   -2.000
 7153.00    0.54693   0.55609   -2.000
 7154.00    0.54885   0.55725   -2.000
 7155.00    0.54608   0.55742   -2.000
 7156.00    0.53926   0.55698   -2.000
 7157.00    0.53251   0.55595   -2.000
 7158.00    0.53898   0.55427   -2.000
 7159.00    0.54020   0.55219   -2.000
 7160.00    0.42222   0.54980   -2.000
 7161.00    0.31661   0.54715   -2.000
 7162.00    0.36687   0.54474   -2.000
 7163.00    0.42589   0.54331   -2.000
 7164.00    0.55967   0.54372   -2.000
 7165.00    0.70310   0.54636   -2.000
 7166.00    0.90768   0.55047   -2.000
 7167.00    1.03538   0.55453   -2.000
 7168.00    0.78134   0.55771   -2.000
 7169.00    0.55945   0.56001   -2.000
 7170.00    0.46703   0.56168   -2.000
 7171.00    0.43257   0.56260   -2.000
 7172.00    0.59179   0.56244   -2.000
 7173.00    0.70290   0.56138   -2.000
 7174.00    0.67828   0.55998   -2.000
 7175.00    0.65264   0.55847   -2.000
 7176.00    0.62457   0.55671   -2.000
 7177.00    0.61562   0.55473   -2.000
 7178.00    0.64648   0.55292   -2.000
 7179.00    0.65049   0.55200   -2.000
 7180.00    0.60590   0.55264   -2.000
 7181.00    0.59839   0.55480   -2.000
 7182.00    0.64959   0.55715   -2.000
 7183.00    0.68158   0.55749   -2.000
 7184.00    0.68686   0.55480   -2.000
 7185.00    0.66887   0.55020   -2.000
 7186.00    0.62241   0.54591   -2.000
 7187.00    0.61200   0.54383   -2.000
 7188.00    0.64044   0.54457   -2.000
 7189.00    0.60679   0.54731   -2.000
 7190.00    0.51410   0.55064   -2.000
 7191.00    0.51288   0.55352   -2.000
 7192.00    0.58832   0.55521   -2.000
 7193.00    0.60036   0.55580   -2.000
 7194.00    0.56560   0.55584   -2.000
 7195.00    0.52613   0.55559   -2.000
 7196.00    0.48361   0.55509   -2.000
 7197.00    0.49497   0.55456   -2.000
 7198.00    0.53690   0.55445   -2.000
 7199.00    0.48897   0.55484   -2.000
 7200.00    0.39666   0.55547   -2.000
 7201.00    0.35146   0.55599   -2.000
 7202.00    0.32638   0.55588   -2.000
 7203.00    0.42635   0.55446   -2.000
 7204.00    0.57208   0.55138   -2.000
 7205.00    0.71390   0.54745   -2.000
 7206.00    0.85452   0.54459   -2.000
 7207.00    0.76572   0.54459   -2.000
 7208.00    0.61772   0.54769   -2.000
 7209.00    0.45847   0.55205   -2.000
 7210.00    0.29684   0.55561   -2.000
 7211.00   -0.58606   0.55741   -2.000
 7212.00   -1.58876   0.55761   -2.000
 7213.00   -0.34039   0.55750   -2.000
 7214.00    1.18926   0.55838   -2.000
 7215.00    1.37152   0.56032   -2.000
 7216.00    1.43709   0.56260   -2.000
 7217.00    1.39438   0.56442   -2.000
 7218.00    1.34617   0.56515   -2.000
