###################################################################
## OUTPUT of StarlightChains_v04.for    [Cid@UFSC - 01/Apr/2007] ##
###################################################################

## Some input info
KUG0210-078._40_31.txt                   [arq_obs]
Base.CB07.vall.4m                        [arq_base]
Masks.EmLines.NEW.gm                     [arq_masks]
StCv04.C11.config                        [arq_config]
   66                                    [N_base]
    0                                    [N_YAV_components = # of components with extra extinction!]
    0                                    [i_FitPowerLaw (1/0 = Yes/No)]
-9.99                                    [alpha_PowerLaw]
CCM                                      [red_law_option]
 1.458241                                [q_norm = A(l_norm)/A(V)]

## (Re)Sampling Parameters
 3741.00                                 [l_ini (A)]
 7218.00                                 [l_fin (A)]
    1.00                                 [dl    (A)]     (OBS: dl_cushion =    50.00 A)

## Normalization info
 4020.00                                 [l_norm (A) - for base]
 4010.00                                 [llow_norm (A) - window for f_obs]
 4060.00                                 [lupp_norm (A) - window for f_obs]
1.186695E-17                             [fobs_norm (in input units)]

## S/N
 3691.00                                 [llow_SN (A) - window for S/N]
 7268.00                                 [lupp_SN (A) - window for S/N]
   4.306                                 [S/N in S/N window]
   3.795                                 [S/N in norm. window]
   0.016                                 [S/N_err in S/N window]
   0.014                                 [S/N_err in norm. window]
  1.0000                                 [fscale_chi2]

## etc...
    -2007717                             [idum_orig]
  2427                                   [NOl_eff]
  2415                                   [Nl_eff]
    12    NSIGMA                         [Ntot_cliped & clip_method]
  1033830                                [Nglobal_steps]
   7                                     [N_chains]
  42                                     [NEX0s_base = N_base in EX0s-fits]
 0   0   1       12   2.0   1.697E+03    [Clip-Bug, RC-Crash & Burn-In warning-flags, n_censored_weights, wei_nsig_threshold & wei_limit]
    31     31.199     30.609      0.590  [idt_all, wdt_TotTime, wdt_UsrTime & wdt_SysTime (sec)]

## Synthesis Results - Best model ##

 2.63409E-05                             [chi2/Nl_eff]
    15.79434                             [adev (%)]

   130.00000                             [sum-of-x (%)]
 7.80308E-18                             [Flux_tot (units of input spectrum!)]
 2.78225E-13                             [Mini_tot (???)]
 1.44142E-13                             [Mcor_tot (???)]

-149.75                                  [v0_min  (km/s)]
  66.74                                  [vd_min  (km/s)]
-0.5075                                  [AV_min  (mag)]
 0.0000                                  [YAV_min (mag)]

# j     x_j(%)      Mini_j(%)     Mcor_j(%)     age_j(yr)     Z_j      (L/M)_j    YAV?  Mstars   component_j        a/Fe...       SSP_chi2r SSP_adev(%)   SSP_AV   SSP_x(%)
  1      0.7097     1.3996E-03    2.7015E-03    1.000000E+06  0.00400  1.094E-02    0   1.0000   age020_m42            0.0000     3.3137E-05    20.6279   3.0289   110.1400
  2      0.1870     1.0070E-04    1.9436E-04    3.160000E+06  0.00400  4.007E-02    0   0.9999   age045_m42            0.0000     3.1301E-05    19.5984   2.2770   118.3828
  3      0.0000     0.0000E+00    0.0000E+00    5.010000E+06  0.00400  2.539E-02    0   0.9488   age055_m42            0.0000     3.1964E-05    20.1960   2.6141   114.9928
  4      0.0000     0.0000E+00    0.0000E+00    6.610000E+06  0.00400  2.620E-02    0   0.9220   age061_m42            0.0000     3.1572E-05    19.8006   2.2107   118.3261
  5      0.0000     0.0000E+00    0.0000E+00    1.000000E+07  0.00400  1.322E-02    0   0.8862   age070_m42            0.0000     3.2957E-05    21.5146   1.9815   118.8351
  6      0.0000     0.0000E+00    0.0000E+00    1.445000E+07  0.00400  7.883E-03    0   0.8571   age078_m42            0.0000     3.3130E-05    21.5494   2.3053   116.0042
  7      0.0000     0.0000E+00    0.0000E+00    2.512000E+07  0.00400  5.251E-03    0   0.8174   age090_m42            0.0000     3.3122E-05    21.7620   1.8558   119.2798
  8      0.0000     0.0000E+00    0.0000E+00    4.000000E+07  0.00400  3.649E-03    0   0.7851   age104_m42            0.0000     3.2577E-05    21.3692   1.6193   120.6188
  9      0.0000     0.0000E+00    0.0000E+00    5.500000E+07  0.00400  3.098E-03    0   0.7629   age110_m42            0.0000     3.2086E-05    20.4103   1.7449   121.6539
 10      2.4136     2.3371E-02    3.2511E-02    1.015200E+08  0.00400  2.228E-03    0   0.7207   age116_m42            0.0000     3.2080E-05    19.8329   1.7494   122.4339
 11      0.0000     0.0000E+00    0.0000E+00    2.861200E+08  0.00400  1.093E-03    0   0.6648   age125_m42            0.0000     3.2374E-05    20.1224   1.1893   125.4035
 12      0.0000     0.0000E+00    0.0000E+00    5.088000E+08  0.00400  6.597E-04    0   0.6365   age130_m42            0.0000     3.1905E-05    19.0318   1.1492   127.6236
 13      1.1653     1.1792E-01    1.3197E-01    1.434000E+09  0.00400  2.132E-04    0   0.5798   age139_m42            0.0000     2.9753E-05    17.7664   0.1575   130.9332
 14      8.7111     3.1880E+00    3.3087E+00    4.250000E+09  0.00400  5.895E-05    0   0.5377   age158_m42            0.0000     2.7026E-05    16.4145  -0.3155   127.2011
 15      0.9276     5.7011E-01    5.7355E-01    7.500000E+09  0.00400  3.510E-05    0   0.5212   age171_m42            0.0000     2.6593E-05    15.8253  -0.5197   126.9405
 16     16.7127     1.7983E+01    1.7473E+01    1.300000E+10  0.00400  2.005E-05    0   0.5034   age193_m42            0.0000     2.6351E-05    15.3484  -0.6984   126.6969
 17      0.0000     0.0000E+00    0.0000E+00    1.800000E+10  0.00400  1.525E-05    0   0.4967   age213_m42            0.0000     2.6280E-05    15.4580  -0.7194   126.0681
 18      0.0000     0.0000E+00    0.0000E+00    1.000000E+06  0.00800  1.238E-02    0   1.0000   age020_m52            0.0000     3.3243E-05    20.6571   3.0266   110.3274
 19      0.0000     0.0000E+00    0.0000E+00    3.160000E+06  0.00800  3.074E-02    0   0.9966   age045_m52            0.0000     3.2947E-05    20.5111   2.9453   111.4490
 20      9.0407     7.3105E-03    1.3325E-02    5.010000E+06  0.00800  2.668E-02    0   0.9443   age055_m52            0.0000     3.2322E-05    20.3820   2.7014   113.8495
 21      0.0000     0.0000E+00    0.0000E+00    6.610000E+06  0.00800  2.136E-02    0   0.9177   age061_m52            0.0000     3.1437E-05    21.0620   1.4762   120.4655
 22      0.0000     0.0000E+00    0.0000E+00    1.000000E+07  0.00800  1.215E-02    0   0.8827   age070_m52            0.0000     3.3654E-05    22.1172   2.1729   118.0863
 23      0.7281     1.8020E-03    2.9747E-03    1.445000E+07  0.00800  8.717E-03    0   0.8552   age078_m52            0.0000     3.3024E-05    21.5185   2.2697   117.6346
 24      1.5763     6.0815E-03    9.5811E-03    2.512000E+07  0.00800  5.592E-03    0   0.8162   age090_m52            0.0000     3.3140E-05    21.8268   1.9202   120.6598
 25      0.0000     0.0000E+00    0.0000E+00    4.000000E+07  0.00800  3.896E-03    0   0.7841   age104_m52            0.0000     3.2545E-05    21.2538   1.8175   122.1251
 26      0.0000     0.0000E+00    0.0000E+00    1.015200E+08  0.00800  2.148E-03    0   0.7226   age116_m52            0.0000     3.1981E-05    20.2315   1.7280   122.9252
 27      0.0000     0.0000E+00    0.0000E+00    2.861200E+08  0.00800  9.925E-04    0   0.6683   age125_m52            0.0000     3.2350E-05    19.0885   1.2164   128.7252
 28      0.0000     0.0000E+00    0.0000E+00    9.047900E+08  0.00800  3.141E-04    0   0.6138   age135_m52            0.0000     2.9572E-05    16.9661   0.3599   136.2914
 29      0.0000     0.0000E+00    0.0000E+00    1.434000E+09  0.00800  1.719E-04    0   0.5853   age139_m52            0.0000     2.7968E-05    16.8054  -0.2170   133.3109
 30     13.2080     3.6198E+00    3.9127E+00    2.500000E+09  0.00800  7.872E-05    0   0.5600   age150_m52            0.0000     2.6702E-05    15.4597  -0.5217   131.2794
 31      0.0000     0.0000E+00    0.0000E+00    4.250000E+09  0.00800  4.336E-05    0   0.5426   age158_m52            0.0000     2.6503E-05    15.3977  -0.5389   130.1347
 32     17.3153     1.1825E+01    1.2141E+01    6.250000E+09  0.00800  3.159E-05    0   0.5319   age166_m52            0.0000     2.6493E-05    14.6181  -0.7694   131.1252
 33      0.0000     0.0000E+00    0.0000E+00    1.300000E+10  0.00800  1.361E-05    0   0.5073   age193_m52            0.0000     2.8338E-05    17.6976  -1.0000   124.4559
 34      0.0000     0.0000E+00    0.0000E+00    1.800000E+10  0.00800  9.886E-06    0   0.4990   age213_m52            0.0000     3.0700E-05    19.4066  -1.0000   121.0728
 35      1.1676     1.6314E-03    3.1490E-03    1.000000E+06  0.02000  1.544E-02    0   1.0000   age020_m62            0.0000     3.3372E-05    20.7104   3.0243   110.5475
 36      0.0511     2.9292E-05    5.5736E-05    3.160000E+06  0.02000  3.762E-02    0   0.9858   age045_m62            0.0000     3.3195E-05    20.6111   2.9594   111.6468
 37      0.0000     0.0000E+00    0.0000E+00    5.010000E+06  0.02000  3.296E-02    0   0.9342   age055_m62            0.0000     3.1845E-05    19.8051   2.5611   116.8432
 38      0.0000     0.0000E+00    0.0000E+00    8.710000E+06  0.02000  1.154E-02    0   0.8861   age067_m62            0.0000     3.8474E-05    26.1233   1.7147   117.7306
 39      0.0000     0.0000E+00    0.0000E+00    1.445000E+07  0.02000  7.663E-03    0   0.8472   age078_m62            0.0000     3.4281E-05    23.1353   1.8440   119.7333
 40      0.0000     0.0000E+00    0.0000E+00    2.512000E+07  0.02000  4.532E-03    0   0.8099   age090_m62            0.0000     3.4690E-05    23.3271   1.8389   119.1910
 41      0.0000     0.0000E+00    0.0000E+00    5.500000E+07  0.02000  2.733E-03    0   0.7595   age110_m62            0.0000     3.2629E-05    21.3118   1.8028   121.1194
 42      0.0000     0.0000E+00    0.0000E+00    1.609000E+08  0.02000  1.369E-03    0   0.6985   age120_m62            0.0000     3.2852E-05    19.9353   1.6023   125.8446
 43      0.0000     0.0000E+00    0.0000E+00    2.861200E+08  0.02000  9.013E-04    0   0.6714   age125_m62            0.0000     3.3382E-05    19.0532   1.3274   130.3626
 44      0.0000     0.0000E+00    0.0000E+00    5.088000E+08  0.02000  5.028E-04    0   0.6449   age130_m62            0.0000     3.1933E-05    17.1795   0.8966   135.9696
 45      1.4607     1.2979E-01    1.5479E-01    9.047900E+08  0.02000  2.428E-04    0   0.6179   age135_m62            0.0000     2.8357E-05    16.0712   0.2831   136.2203
 46      4.3852     7.4905E-01    8.5419E-01    1.434000E+09  0.02000  1.263E-04    0   0.5908   age139_m62            0.0000     2.7106E-05    15.6786  -0.1688   134.4870
 47      0.0000     0.0000E+00    0.0000E+00    2.500000E+09  0.02000  5.985E-05    0   0.5673   age150_m62            0.0000     2.6539E-05    14.6850  -0.5712   134.0043
 48      0.0000     0.0000E+00    0.0000E+00    4.250000E+09  0.02000  3.271E-05    0   0.5468   age158_m62            0.0000     2.6850E-05    13.6973  -0.9180   134.3671
 49      0.0000     0.0000E+00    0.0000E+00    1.000000E+10  0.02000  1.360E-05    0   0.5167   age181_m62            0.0000     3.0174E-05    16.9443  -1.0000   127.1412
 50     13.7692     4.1698E+01    4.0347E+01    1.800000E+10  0.02000  7.124E-06    0   0.5013   age213_m62            0.0000     3.5636E-05    20.6439  -1.0000   120.1889
 51      0.0000     0.0000E+00    0.0000E+00    1.000000E+06  0.05000  2.592E-02    0   0.9998   age020_m72            0.0000     3.3811E-05    20.8401   3.0170   110.5141
 52      0.4117     1.8331E-04    3.3886E-04    3.160000E+06  0.05000  4.845E-02    0   0.9577   age045_m72            0.0000     3.2489E-05    20.2060   2.8307   113.4649
 53      0.0000     0.0000E+00    0.0000E+00    5.010000E+06  0.05000  3.072E-02    0   0.9147   age055_m72            0.0000     3.3877E-05    22.1198   2.4013   116.2372
 54      0.0000     0.0000E+00    0.0000E+00    6.610000E+06  0.05000  1.455E-02    0   0.8877   age061_m72            0.0000     4.2051E-05    27.8297   1.7759   117.4159
 55      0.0000     0.0000E+00    0.0000E+00    1.000000E+07  0.05000  9.074E-03    0   0.8524   age070_m72            0.0000     3.4415E-05    22.1314   2.5707   115.9982
 56      0.0000     0.0000E+00    0.0000E+00    2.512000E+07  0.05000  4.250E-03    0   0.7902   age090_m72            0.0000     3.3783E-05    21.9139   2.2706   118.3055
 57      1.1153     7.7941E-03    1.1461E-02    4.000000E+07  0.05000  3.087E-03    0   0.7618   age104_m72            0.0000     3.4122E-05    22.0918   2.0481   120.0242
 58      0.0000     0.0000E+00    0.0000E+00    1.015200E+08  0.05000  1.700E-03    0   0.7096   age116_m72            0.0000     3.3562E-05    20.6122   1.7590   124.7002
 59      0.0000     0.0000E+00    0.0000E+00    2.861200E+08  0.05000  7.384E-04    0   0.6633   age125_m72            0.0000     3.2850E-05    18.1016   1.1693   133.2053
 60      0.0000     0.0000E+00    0.0000E+00    5.088000E+08  0.05000  3.819E-04    0   0.6372   age130_m72            0.0000     2.9967E-05    16.4268   0.6281   137.4055
 61      2.3031     2.9646E-01    3.4963E-01    9.047900E+08  0.05000  1.676E-04    0   0.6110   age135_m72            0.0000     2.7249E-05    14.8024  -0.1196   136.9738
 62     10.0764     2.4600E+00    2.7891E+00    1.434000E+09  0.05000  8.837E-05    0   0.5874   age139_m72            0.0000     2.6983E-05    14.5510  -0.5858   136.4566
 63     21.1985     1.0804E+01    1.1674E+01    2.500000E+09  0.05000  4.233E-05    0   0.5598   age150_m72            0.0000     2.7019E-05    13.5599  -0.9412   136.3933
 64      0.0000     0.0000E+00    0.0000E+00    6.250000E+09  0.05000  1.435E-05    0   0.5249   age166_m72            0.0000     3.1810E-05    18.6985  -1.0000   123.9873
 65      0.0000     0.0000E+00    0.0000E+00    1.300000E+10  0.05000  6.513E-06    0   0.5036   age193_m72            0.0000     4.0841E-05    23.8540  -1.0000   116.6103
 66      1.3660     6.5097E+00    6.2135E+00    1.800000E+10  0.05000  4.527E-06    0   0.4945   age213_m72            0.0000     4.7770E-05    26.8585  -1.0000   111.1136


## Synthesis Results - Average & Chains ##

# j      x_j: min, <> & last-chain-values for 1 ...  7 chains
  1      0.7097      1.1469      0.1711      0.0000      2.2800      0.0000      1.7694      3.2942      4.3831
  2      0.1870      1.3155      1.9364      1.9115      0.0498      2.0091      1.0490      0.0000      1.1007
  3      0.0000      0.6731      0.0676      5.5238      0.0000      0.2925      0.4388      2.8665      1.9655
  4      0.0000      0.8809      1.0640      0.5003      0.2973      0.0000      0.8519      0.0000      0.0000
  5      0.0000      1.4537      5.7382      1.0992      1.8795      0.0000      0.0000      1.9298      1.9835
  6      0.0000      1.0250      2.6639      0.4987      0.4543      0.0000      2.4998      0.0000      0.1265
  7      0.0000      1.1307      0.0000      0.0000      1.6089      0.0000      0.0000      0.0000      3.5125
  8      0.0000      1.5667      0.9996      1.1478      4.5215      2.6957      0.0000      1.4522      1.8508
  9      0.0000      1.3527      0.6602      3.1120      3.7258      1.3837      1.3365      2.0044      0.0000
 10      2.4136      0.9182      0.2325      0.5167      1.6494      0.0000      1.2525      0.2771      3.8243
 11      0.0000      1.3055      0.0000      2.9077      1.3845      2.0542      0.0000      0.0000      0.0000
 12      0.0000      1.0420      1.6406      0.0000      3.0307      2.5122      0.5449      2.8680      2.2049
 13      1.1653      0.8622      1.4612      0.0000      1.1981      0.2612      4.7074      1.2010      0.0000
 14      8.7111      1.1400      2.1748      0.9431      1.1524      3.9930      4.8233      0.1605      0.9172
 15      0.9276      0.6725      1.1016      0.5601      0.9390      0.5568      0.8469      3.0185      1.0705
 16     16.7127      0.6774      0.1885      0.0000      0.0439      1.1531      2.3537      0.0000      0.0000
 17      0.0000      1.0821      0.0000      0.0000      0.0000      6.6365      0.0000      0.0103      0.8021
 18      0.0000      1.0432      0.0000      1.0183      0.0000      5.3296      0.0000      3.4312      0.0767
 19      0.0000      0.9938      3.6744      0.3007      2.3328      2.7585      0.0000      0.0000      0.0000
 20      9.0407      1.1104      2.8705      5.4064      1.8980      3.9256      4.6809      0.0000      1.0390
 21      0.0000      0.8950      0.6181      1.3613      0.0000      0.0000      0.0683      2.4102      1.1718
 22      0.0000      1.0210      1.4092      0.0000      0.2115      2.3102      0.0739      5.0977      0.0000
 23      0.7281      0.8135      1.8231      0.0000      3.1702      0.0000      1.0122      2.9931      0.0000
 24      1.5763      0.9761      1.4940      1.4065      0.0062      0.0000      1.9326      0.0000      1.2598
 25      0.0000      0.7190      0.2288      0.0000      2.4922      0.0000      0.0000      0.1016      0.0000
 26      0.0000      0.9263      0.0000      0.0000      0.0000      2.1648      0.6683      0.0000      0.0000
 27      0.0000      0.9194      1.9166      0.0000      0.0000      0.5971      0.0000      0.6971      1.7768
 28      0.0000      0.9674      0.0812      0.1601      0.0375      2.1315      0.0000      0.0000      0.0000
 29      0.0000      0.9934      0.0000      3.7772      0.0000      1.3823      4.6120      0.4920      0.6977
 30     13.2080      1.0987      1.1385      0.0000      0.0000      1.5922      4.0413      2.2044      1.0948
 31      0.0000      0.7939      5.8887      0.0000      0.0395      0.6556      0.0000      0.1605      2.7010
 32     17.3153      1.1688      0.0000      3.8286      0.8799      0.0000      3.5126      3.9715      3.7495
 33      0.0000      1.1028      0.6653      0.9021      2.7495      2.8904      0.0000      0.7631      2.7047
 34      0.0000      1.0430      0.5507      1.5737      0.0000      0.0000      1.4339      2.5862      0.0000
 35      1.1676      1.1978      2.4048      4.5069      3.0498      0.0000      4.5391      0.6637      0.8564
 36      0.0511      1.2682      2.1315      1.7280      2.1406      0.0000      0.7967      0.3464      4.6237
 37      0.0000      1.0871      2.4561      1.5311      4.3357      0.0000      5.9704      0.0000      0.7554
 38      0.0000      0.9209      0.0684      1.1917      0.1114      0.0705      0.2610      4.6553      0.0000
 39      0.0000      1.0072      1.9917      1.7650      0.9168      1.5243      3.2903      0.0000      1.6641
 40      0.0000      1.4198      0.4832      2.6804      1.0333      2.7621      1.0077      4.7494      0.0000
 41      0.0000      1.1203      0.6155      0.6741      2.2279      0.8689      1.2688      0.8793      0.0000
 42      0.0000      0.9227      3.0318      1.3276      0.7117      0.9711      0.0000      1.8787      0.0000
 43      0.0000      1.0996      0.3776      0.2249      2.2335      2.8045      0.0100      0.0303      1.8121
 44      0.0000      1.0372      0.0000      0.0008      1.5448      5.2222      0.6007      5.2461      0.0000
 45      1.4607      1.1859      1.0403      5.1886      0.0000      0.0000      0.9221      1.0884      0.0000
 46      4.3852      0.7193      1.9713      1.0404      0.0000      1.5412      0.6383      2.7177      0.0000
 47      0.0000      1.2381      1.7658      0.3054      1.6047      5.1169      0.0000      0.2668      0.2268
 48      0.0000      1.2195      1.6967      0.0000      0.2816      0.0000      2.2348      3.7477      1.2538
 49      0.0000      1.1172      2.6287      1.3992      0.8248      0.0000      0.3375      0.0000      0.9367
 50     13.7692      1.0385      1.3557      0.0000      5.6194      0.0000      1.1488      1.9283      0.0000
 51      0.0000      0.9603      2.6842      0.0000      1.2383      4.6970      1.3294      2.1069      6.9891
 52      0.4117      1.3746      1.3414      1.0841      1.7894      0.5810      1.2427      5.3372      4.0316
 53      0.0000      0.9779      1.1894      0.0000      0.0000      0.4222      1.2425      0.0000      2.1809
 54      0.0000      0.9346      0.5233      9.4277      0.0000      2.8930      0.0000      0.0000      0.9515
 55      0.0000      0.8429      1.1746      0.4855      2.6783      0.9712      0.0000      0.0000      1.6272
 56      0.0000      1.2632      3.5061      0.2271      0.0000      1.0694      2.3256      0.0671      2.7996
 57      1.1153      1.3747      1.0410      3.6482      0.6905      0.0000      0.6844      0.0000      0.0000
 58      0.0000      1.3832      0.0000      0.0000      5.8855      0.0000      3.9433      0.0000      0.0000
 59      0.0000      0.8976      0.0000      0.7929      0.0589      0.2141      1.5206      0.0426      0.0000
 60      0.0000      1.0724      0.5710      0.7543      0.0000      2.0685      1.0378      0.0000      1.2052
 61      2.3031      1.0661      0.0000      0.0000      1.6051      0.0000      2.1219      0.5278      0.0000
 62     10.0764      0.7626      2.6477      1.9265      0.5355      1.1400      2.0441      3.9715      0.0000
 63     21.1985      0.9634      2.9529      0.7643      1.8277      1.6953      2.5849      0.0000      9.5220
 64      0.0000      0.8958      0.3063      4.0556      0.0000      0.0000      0.1949      0.0000      0.0000
 65      0.0000      1.5783      0.1318      0.2387      7.4741      0.2704      0.0000      3.5063      3.3708
 66      1.3660     19.1116      4.6395      4.0771      0.0000      1.9574      2.7610      1.5093      3.5877

# j      m_j: min, <> & last-chain-values for 1 ...  7 chains
  1  2.7015E-03  3.9679E-03  1.5239E-03  0.0000E+00  1.7069E-02  0.0000E+00  1.9840E-02  3.0387E-02  3.6199E-02
  2  1.9436E-04  1.2425E-03  4.7089E-03  5.1487E-03  1.0172E-04  6.5265E-03  3.2109E-03  0.0000E+00  2.4816E-03
  3  0.0000E+00  9.5205E-04  2.4610E-04  2.2281E-02  0.0000E+00  1.4227E-03  2.0114E-03  1.0810E-02  6.6364E-03
  4  0.0000E+00  1.1733E-03  3.6488E-03  1.9003E-03  8.5699E-04  0.0000E+00  3.6774E-03  0.0000E+00  0.0000E+00
  5  0.0000E+00  3.6885E-03  3.7485E-02  7.9538E-03  1.0319E-02  0.0000E+00  0.0000E+00  1.3055E-02  1.2014E-02
  6  0.0000E+00  4.2181E-03  2.8225E-02  5.8528E-03  4.0458E-03  0.0000E+00  3.3341E-02  0.0000E+00  1.2427E-03
  7  0.0000E+00  6.6621E-03  0.0000E+00  0.0000E+00  2.0512E-02  0.0000E+00  0.0000E+00  0.0000E+00  4.9402E-02
  8  0.0000E+00  1.2758E-02  2.0959E-02  2.6656E-02  7.9675E-02  7.5502E-02  0.0000E+00  3.1529E-02  3.5980E-02
  9  0.0000E+00  1.2608E-02  1.5844E-02  8.2719E-02  7.5144E-02  4.4356E-02  4.0372E-02  4.9811E-02  0.0000E+00
 10  3.2511E-02  1.1242E-02  7.3305E-03  1.8042E-02  4.3696E-02  0.0000E+00  4.9701E-02  9.0469E-03  1.1177E-01
 11  0.0000E+00  3.0054E-02  0.0000E+00  1.9090E-01  6.8970E-02  1.6265E-01  0.0000E+00  0.0000E+00  0.0000E+00
 12  0.0000E+00  3.8052E-02  1.5426E-01  0.0000E+00  2.3949E-01  3.1553E-01  6.4496E-02  2.7924E-01  1.9221E-01
 13  1.3197E-01  8.8746E-02  3.8724E-01  0.0000E+00  2.6686E-01  9.2479E-02  1.5704E+00  3.2960E-01  0.0000E+00
 14  3.3087E+00  3.9356E-01  1.9331E+00  9.2853E-01  8.6088E-01  4.7412E+00  5.3968E+00  1.4775E-01  7.5590E-01
 15  5.7355E-01  3.7794E-01  1.5940E+00  8.9777E-01  1.1419E+00  1.0762E+00  1.5426E+00  4.5231E+00  1.4362E+00
 16  1.7473E+01  6.4375E-01  4.6118E-01  0.0000E+00  9.0292E-02  3.7688E+00  7.2492E+00  0.0000E+00  0.0000E+00
 17  0.0000E+00  1.3340E+00  0.0000E+00  0.0000E+00  0.0000E+00  2.8138E+01  0.0000E+00  3.3705E-02  2.3604E+00
 18  0.0000E+00  3.1895E-03  0.0000E+00  8.8785E-03  0.0000E+00  5.6041E-02  0.0000E+00  2.7969E-02  5.5970E-04
 19  0.0000E+00  1.2195E-03  1.1609E-02  1.0523E-03  6.1942E-03  1.1642E-02  0.0000E+00  0.0000E+00  0.0000E+00
 20  1.3325E-02  1.4875E-03  9.9007E-03  2.0654E-02  5.5018E-03  1.8087E-02  2.0323E-02  0.0000E+00  3.3228E-03
 21  0.0000E+00  1.4555E-03  2.5877E-03  6.3130E-03  0.0000E+00  0.0000E+00  3.5984E-04  1.0450E-02  4.5487E-03
 22  0.0000E+00  2.8077E-03  9.9770E-03  0.0000E+00  1.2583E-03  2.1848E-02  6.5819E-04  3.7373E-02  0.0000E+00
 23  2.9747E-03  3.0207E-03  1.7430E-02  0.0000E+00  2.5473E-02  0.0000E+00  1.2182E-02  2.9633E-02  0.0000E+00
 24  9.5811E-03  5.3923E-03  2.1250E-02  2.2159E-02  7.3940E-05  0.0000E+00  3.4602E-02  0.0000E+00  1.6614E-02
 25  0.0000E+00  5.4772E-03  4.4873E-03  0.0000E+00  4.1079E-02  0.0000E+00  0.0000E+00  2.0631E-03  0.0000E+00
 26  0.0000E+00  1.1795E-02  0.0000E+00  0.0000E+00  0.0000E+00  9.4799E-02  2.7580E-02  0.0000E+00  0.0000E+00
 27  0.0000E+00  2.3432E-02  1.2576E-01  0.0000E+00  0.0000E+00  5.2341E-02  0.0000E+00  4.7371E-02  1.0810E-01
 28  0.0000E+00  7.1555E-02  1.5456E-02  3.3772E-02  5.9954E-03  5.4223E-01  0.0000E+00  0.0000E+00  0.0000E+00
 29  0.0000E+00  1.2803E-01  0.0000E+00  1.3882E+00  0.0000E+00  6.1267E-01  1.9263E+00  1.6904E-01  2.1464E-01
 30  3.9127E+00  2.9584E-01  7.8925E-01  0.0000E+00  0.0000E+00  1.4744E+00  3.5266E+00  1.5825E+00  7.0367E-01
 31  0.0000E+00  3.7603E-01  7.1811E+00  0.0000E+00  4.0440E-02  1.0680E+00  0.0000E+00  2.0262E-01  3.0539E+00
 32  1.2141E+01  7.4488E-01  0.0000E+00  6.9583E+00  1.2134E+00  0.0000E+00  7.2551E+00  6.7482E+00  5.7041E+00
 33  0.0000E+00  1.5559E+00  2.4168E+00  3.6297E+00  8.3938E+00  1.4025E+01  0.0000E+00  2.8704E+00  9.1089E+00
 34  0.0000E+00  1.9927E+00  2.7086E+00  8.5738E+00  0.0000E+00  0.0000E+00  8.8782E+00  1.3173E+01  0.0000E+00
 35  3.1490E-03  2.9363E-03  1.5178E-02  3.1507E-02  1.6177E-02  0.0000E+00  3.6063E-02  4.3378E-03  5.0114E-03
 36  5.5736E-05  1.2578E-03  5.4429E-03  4.8875E-03  4.5941E-03  0.0000E+00  2.5609E-03  9.1592E-04  1.0947E-02
 37  0.0000E+00  1.1663E-03  6.7839E-03  4.6841E-03  1.0065E-02  0.0000E+00  2.0758E-02  0.0000E+00  1.9344E-03
 38  0.0000E+00  2.6765E-03  5.1174E-04  9.8771E-03  7.0058E-04  7.0486E-04  2.4586E-03  3.6073E-02  0.0000E+00
 39  0.0000E+00  4.2148E-03  2.1458E-02  2.1062E-02  8.3012E-03  2.1938E-02  4.4623E-02  0.0000E+00  1.6622E-02
 40  0.0000E+00  9.6036E-03  8.4143E-03  5.1703E-02  1.5124E-02  6.4257E-02  2.2091E-02  8.5650E-02  0.0000E+00
 41  0.0000E+00  1.1784E-02  1.6670E-02  2.0220E-02  5.0707E-02  3.1433E-02  4.3252E-02  2.4660E-02  0.0000E+00
 42  0.0000E+00  1.7819E-02  1.5074E-01  7.3114E-02  2.9741E-02  6.4497E-02  0.0000E+00  9.6730E-02  0.0000E+00
 43  0.0000E+00  3.1003E-02  2.7412E-02  1.8084E-02  1.3626E-01  2.7196E-01  9.1075E-04  2.2785E-03  1.2196E-01
 44  0.0000E+00  5.0352E-02  0.0000E+00  1.1321E-04  1.6228E-01  8.7193E-01  9.4508E-02  6.7902E-01  0.0000E+00
 45  1.5479E-01  1.1423E-01  2.5798E-01  1.4253E+00  0.0000E+00  0.0000E+00  2.8787E-01  2.7952E-01  0.0000E+00
 46  8.5419E-01  1.2735E-01  8.9861E-01  5.2531E-01  0.0000E+00  9.3849E-01  3.6626E-01  1.2829E+00  0.0000E+00
 47  0.0000E+00  4.4418E-01  1.6311E+00  3.1243E-01  1.2458E+00  6.3138E+00  0.0000E+00  2.5523E-01  1.9421E-01
 48  0.0000E+00  7.7160E-01  2.7640E+00  0.0000E+00  3.8556E-01  0.0000E+00  4.5828E+00  6.3221E+00  1.8937E+00
 49  0.0000E+00  1.6066E+00  9.7325E+00  5.7378E+00  2.5666E+00  0.0000E+00  1.5727E+00  0.0000E+00  3.2154E+00
 50  4.0347E+01  2.7661E+00  9.2962E+00  0.0000E+00  3.2386E+01  0.0000E+00  9.9160E+00  1.3693E+01  0.0000E+00
 51  0.0000E+00  1.4021E-03  1.0090E-02  0.0000E+00  3.9119E-03  2.3585E-02  6.2902E-03  8.2012E-03  2.4358E-02
 52  3.3886E-04  1.0285E-03  2.5838E-03  2.3130E-03  2.8969E-03  1.4950E-03  3.0133E-03  1.0646E-02  7.2004E-03
 53  0.0000E+00  1.1021E-03  3.4513E-03  0.0000E+00  0.0000E+00  1.6366E-03  4.5381E-03  0.0000E+00  5.8673E-03
 54  0.0000E+00  2.1582E-03  3.1110E-03  6.2086E-02  0.0000E+00  2.2976E-02  0.0000E+00  0.0000E+00  5.2449E-03
 55  0.0000E+00  2.9971E-03  1.0753E-02  4.9225E-03  2.0606E-02  1.1877E-02  0.0000E+00  0.0000E+00  1.3811E-02
 56  0.0000E+00  8.8894E-03  6.3527E-02  4.5570E-03  0.0000E+00  2.5883E-02  5.3041E-02  1.2587E-03  4.7031E-02
 57  1.1461E-02  1.2840E-02  2.5035E-02  9.7179E-02  1.3956E-02  0.0000E+00  2.0719E-02  0.0000E+00  0.0000E+00
 58  0.0000E+00  2.1853E-02  0.0000E+00  0.0000E+00  2.0120E-01  0.0000E+00  2.0191E-01  0.0000E+00  0.0000E+00
 59  0.0000E+00  3.0518E-02  0.0000E+00  7.6877E-02  4.3358E-03  2.5031E-02  1.6755E-01  3.8655E-03  0.0000E+00
 60  0.0000E+00  6.7724E-02  9.2838E-02  1.3584E-01  0.0000E+00  4.4928E-01  2.1241E-01  0.0000E+00  1.8169E-01
 61  3.4963E-01  1.4711E-01  0.0000E+00  0.0000E+00  4.7923E-01  0.0000E+00  9.4890E-01  1.9418E-01  0.0000E+00
 62  2.7891E+00  1.9187E-01  1.7151E+00  1.3822E+00  2.9154E-01  9.8644E-01  1.6668E+00  2.6640E+00  0.0000E+00
 63  1.1674E+01  4.8224E-01  3.8056E+00  1.0910E+00  1.9796E+00  2.9186E+00  4.1933E+00  0.0000E+00  1.1378E+01
 64  0.0000E+00  1.2402E+00  1.0917E+00  1.6013E+01  0.0000E+00  0.0000E+00  8.7442E-01  0.0000E+00  0.0000E+00
 65  0.0000E+00  4.6192E+00  9.9279E-01  1.9919E+00  4.7332E+01  2.7212E+00  0.0000E+00  2.7359E+01  2.3549E+01
 66  6.2135E+00  7.9017E+01  4.9386E+01  4.8072E+01  0.0000E+00  2.7833E+01  3.6997E+01  1.6638E+01  3.5409E+01

# AV, chi2 & Mass for <> & i_chain = 1 ...  7 solutions
AV      -0.5075      1.3093      1.2744      1.3587      1.3081      1.3425      1.2250      1.2307      1.2267
chi2 2.6341E-05  7.7213E-05  5.4046E-05  5.4197E-05  5.5834E-05  5.5495E-05  5.2271E-05  5.4209E-05  5.4898E-05
Mass 1.4414E-13  1.8195E-12  6.7439E-13  6.8184E-13  8.3954E-13  5.5318E-13  5.0136E-13  6.1409E-13  6.8219E-13
-149.75                                  [v0_min (km/s) before EX0s...]
  66.74                                  [vd_min (km/s) before EX0s...]


## Synthetic spectrum (Best Model) ##l_obs f_obs f_syn wei
 3478    [Nl_obs]
 3741.00    0.15646   0.79416    0.000
 3742.00    0.22342   0.74133    0.000
 3743.00    0.28329   0.69662    0.000
 3744.00    0.29458   0.65785    0.000
 3745.00    0.27757   0.61784    0.033
 3746.00    0.29921   0.56474    0.033
 3747.00    0.34046   0.52212    0.033
 3748.00    0.38349   0.54087    0.034
 3749.00    0.42729   0.62650    0.036
 3750.00    0.55022   0.73118    0.035
 3751.00    0.70303   0.82057    0.034
 3752.00    0.76363   0.89430    0.033
 3753.00    0.79468   0.93997    0.032
 3754.00    0.90723   0.92395    0.032
 3755.00    1.04161   0.84385    0.032
 3756.00    1.24443   0.75844    0.032
 3757.00    1.46226   0.73211    0.032
 3758.00    1.56354   0.76308    0.036
 3759.00    1.64449   0.80426    0.043
 3760.00    1.48869   0.82448    0.063
 3761.00    1.30145   0.82455    0.122
 3762.00    0.97628   0.82324    0.051
 3763.00    0.63816   0.82239    0.031
 3764.00    0.40103   0.80113    0.029
 3765.00    0.16973   0.76797    0.028
 3766.00    0.49793   0.75286    0.030
 3767.00    0.83735   0.74830    0.033
 3768.00    0.92710   0.73999    0.034
 3769.00    1.00676   0.75463    0.035
 3770.00    0.84138   0.80765    0.032
 3771.00    0.70902   0.86411    0.030
 3772.00    1.00926   0.89212    0.031
 3773.00    1.26330   0.90147    0.032
 3774.00    1.11171   0.91465    0.030
 3775.00    0.96444   0.93494    0.029
 3776.00    0.84507   0.95826    0.030
 3777.00    0.79630   0.98953    0.031
 3778.00    1.10483   1.02370    0.032
 3779.00    1.31225   1.04268    0.033
 3780.00    1.10580   1.04666    0.032
 3781.00    0.92260   1.05129    0.031
 3782.00    0.81827   1.04832    0.031
 3783.00    0.63186   1.00786    0.031
 3784.00    0.21071   0.93412    0.030
 3785.00   -0.05644   0.87092    0.000
 3786.00    0.05268   0.83822    0.029
 3787.00    0.07374   0.82506    0.030
 3788.00   -0.09085   0.82890    0.000
 3789.00   -0.00005   0.84519    0.000
 3790.00    0.55854   0.84630    0.031
 3791.00    0.94082   0.81361    0.031
 3792.00    1.04089   0.76382    0.032
 3793.00    1.01751   0.72000    0.032
 3794.00    0.82072   0.67965    0.031
 3795.00    0.68433   0.63259    0.030
 3796.00    0.62259   0.60238    0.029
 3797.00    0.56158   0.62849    0.029
 3798.00    0.50136   0.70812    0.030
 3799.00    0.51914   0.79925    0.031
 3800.00    0.61187   0.87536    0.031
 3801.00    0.65820   0.93399    0.031
 3802.00    0.66522   0.96613    0.031
 3803.00    0.77152   0.96100    0.032
 3804.00    0.95193   0.93016    0.033
 3805.00    0.94424   0.90957    0.032
 3806.00    0.81324   0.92860    0.030
 3807.00    0.73796   0.97541    0.029
 3808.00    0.69464   1.01195    0.029
 3809.00    0.59611   1.01221    0.029
 3810.00    0.46997   0.97144    0.029
 3811.00    0.33441   0.90513    0.029
 3812.00    0.19477   0.84254    0.029
 3813.00    0.51221   0.80653    0.029
 3814.00    0.99915   0.80869    0.029
 3815.00    1.01091   0.83817    0.029
 3816.00    0.87329   0.84862    0.028
 3817.00    0.67415   0.80853    0.031
 3818.00    0.45889   0.75555    0.036
 3819.00    0.60628   0.75079    0.034
 3820.00    0.83138   0.78866    0.031
 3821.00    0.81977   0.80388    0.030
 3822.00    0.76799   0.76614    0.030
 3823.00    0.56785   0.71268    0.030
 3824.00    0.34868   0.68396    0.029
 3825.00    0.22934   0.68064    0.029
 3826.00    0.11896   0.68606    0.029
 3827.00    0.46163   0.69206    0.033
 3828.00    0.82865   0.68983    0.041
 3829.00    0.63258   0.66109    0.035
 3830.00    0.42961   0.60505    0.031
 3831.00    0.59666   0.55012    0.031
 3832.00    0.75351   0.52172    0.031
 3833.00    0.68379   0.52509    0.031
 3834.00    0.61493   0.54883    0.031
 3835.00    0.55670   0.57028    0.030
 3836.00    0.48551   0.58082    0.030
 3837.00    0.30483   0.59550    0.030
 3838.00    0.19776   0.62970    0.029
 3839.00    0.55376   0.68982    0.030
 3840.00    0.89323   0.76663    0.031
 3841.00    1.15107   0.83159    0.030
 3842.00    1.32579   0.86667    0.030
 3843.00    1.16774   0.87957    0.031
 3844.00    0.98186   0.88933    0.031
 3845.00    0.70346   0.90424    0.031
 3846.00    0.46387   0.90711    0.031
 3847.00    0.33328   0.88607    0.000
 3848.00    0.30172   0.86866    0.000
 3849.00    0.50799   0.88365    0.000
 3850.00    0.73175   0.91199    0.000
 3851.00    0.99180   0.91881    0.000
 3852.00    1.01053   0.90080    0.000
 3853.00    0.59403   0.87401    0.000
 3854.00    0.29591   0.85268    0.000
 3855.00    0.18449   0.83736    0.000
 3856.00    0.27447   0.81070    0.000
 3857.00    0.64328   0.77590    0.000
 3858.00    0.84703   0.77218    0.000
 3859.00    0.84966   0.82016    0.000
 3860.00    0.93695   0.88948    0.000
 3861.00    1.11518   0.93525    0.000
 3862.00    1.14290   0.94219    0.000
 3863.00    1.02800   0.92726    0.000
 3864.00    0.78922   0.91357    0.000
 3865.00    0.44695   0.90902    0.000
 3866.00    0.37008   0.90614    0.000
 3867.00    0.48843   0.89203    0.000
 3868.00    0.76147   0.85845    0.000
 3869.00    1.13442   0.81393    0.000
 3870.00    1.11335   0.78598    0.000
 3871.00    0.86959   0.80274    0.000
 3872.00    0.74252   0.85805    0.000
 3873.00    0.67285   0.90662    0.000
 3874.00    0.54313   0.90710    0.000
 3875.00    0.38788   0.86043    0.000
 3876.00    0.79891   0.81153    0.000
 3877.00    1.41621   0.80413    0.000
 3878.00    1.38977   0.82194    0.000
 3879.00    1.16488   0.81945    0.000
 3880.00    0.86366   0.80179    0.000
 3881.00    0.54286   0.80197    0.030
 3882.00    0.43266   0.80411    0.029
 3883.00    0.36650   0.76608    0.027
 3884.00    0.52748   0.69803    0.029
 3885.00    0.72592   0.64388    0.031
 3886.00    0.88172   0.61980    0.031
 3887.00    1.03224   0.63017    0.030
 3888.00    1.31361   0.68577    0.030
 3889.00    1.60618   0.77072    0.030
 3890.00    1.28633   0.84414    0.030
 3891.00    0.93596   0.87996    0.031
 3892.00    0.80993   0.88366    0.030
 3893.00    0.68878   0.88178    0.029
 3894.00    0.64541   0.89746    0.028
 3895.00    0.58572   0.92085    0.027
 3896.00    0.19235   0.92598    0.027
 3897.00   -0.15203   0.91956    0.000
 3898.00    0.08288   0.92981    0.026
 3899.00    0.31883   0.95433    0.026
 3900.00    0.56327   0.96197    0.026
 3901.00    0.78687   0.94605    0.026
 3902.00    0.88320   0.92257    0.026
 3903.00    1.00636   0.89890    0.026
 3904.00    1.25863   0.89461    0.026
 3905.00    1.44190   0.93114    0.025
 3906.00    1.35496   0.98981    0.025
 3907.00    1.24259   1.03464    0.026
 3908.00    1.04731   1.05731    0.026
 3909.00    0.94374   1.07060    0.027
 3910.00    1.09304   1.07581    0.028
 3911.00    1.19704   1.06640    0.028
 3912.00    1.19408   1.05032    0.029
 3913.00    1.16228   1.03567    0.029
 3914.00    1.07160   1.01896    0.029
 3915.00    1.01441   0.99972    0.029
 3916.00    1.01667   0.97562    0.030
 3917.00    1.01038   0.94066    0.031
 3918.00    0.99079   0.90237    0.031
 3919.00    0.96668   0.88026    0.031
 3920.00    0.93641   0.88324    0.031
 3921.00    0.84949   0.89945    0.031
 3922.00    0.69452   0.90643    0.030
 3923.00    0.47535   0.88602    0.030
 3924.00    0.18818   0.83807    0.030
 3925.00    0.12477   0.77345    0.030
 3926.00    0.27039   0.70109    0.030
 3927.00    0.38158   0.62878    0.030
 3928.00    0.46443   0.55947    0.030
 3929.00    0.63566   0.49213    0.030
 3930.00    0.87096   0.43071    0.030
 3931.00    0.71377   0.38832    0.030
 3932.00    0.30681   0.38150    0.029
 3933.00    0.39607   0.41670    0.029
 3934.00    0.76150   0.48398    0.030
 3935.00    0.83269   0.56635    0.030
 3936.00    0.76146   0.65115    0.030
 3937.00    0.67385   0.72827    0.029
 3938.00    0.57940   0.78443    0.029
 3939.00    0.53739   0.81276    0.029
 3940.00    0.51415   0.81904    0.028
 3941.00    0.60806   0.81555    0.029
 3942.00    0.73737   0.82699    0.029
 3943.00    0.93497   0.87401    0.030
 3944.00    1.14972   0.93235    0.030
 3945.00    1.20223   0.95914    0.029
 3946.00    1.22166   0.95999    0.028
 3947.00    1.18738   0.97355    0.029
 3948.00    1.14451   1.00415    0.029
 3949.00    1.06751   1.01934    0.030
 3950.00    0.98643   1.01006    0.030
 3951.00    0.71288   1.00916    0.030
 3952.00    0.42366   1.02696    0.030
 3953.00    0.43685   1.02626    0.030
 3954.00    0.46394   0.99542    0.030
 3955.00    1.06450   0.97273    0.030
 3956.00    1.64699   0.97735    0.031
 3957.00    0.90399   0.97551    0.030
 3958.00    0.18268   0.92577    0.030
 3959.00   -0.12774   0.83534    0.000
 3960.00   -0.37152   0.75262    0.000
 3961.00    0.13553   0.70113    0.000
 3962.00    0.60672   0.65665    0.000
 3963.00    0.79610   0.59074    0.000
 3964.00    0.96492   0.50181    0.000
 3965.00    1.01180   0.41037    0.000
 3966.00    1.04410   0.34446    0.000
 3967.00    1.00793   0.32638    0.000
 3968.00    0.93046   0.36209    0.000
 3969.00    0.69465   0.43759    0.000
 3970.00    0.50885   0.52799    0.000
 3971.00    0.48289   0.61621    0.000
 3972.00    0.50479   0.70054    0.000
 3973.00    0.65631   0.77953    0.000
 3974.00    0.80817   0.84679    0.000
 3975.00    0.96082   0.90654    0.000
 3976.00    1.12527   0.96819    0.000
 3977.00    1.31344   1.02654    0.000
 3978.00    1.29900   1.06287    0.000
 3979.00    0.93015   1.06592    0.000
 3980.00    0.63222   1.05125    0.000
 3981.00    0.44286   1.04714    0.030
 3982.00    0.55378   1.06257    0.031
 3983.00    1.06853   1.08518    0.031
 3984.00    1.36740   1.10431    0.032
 3985.00    1.41061   1.12470    0.031
 3986.00    1.20898   1.14526    0.031
 3987.00    0.75170   1.15006    0.030
 3988.00    0.61005   1.14644    0.030
 3989.00    0.75911   1.15808    0.030
 3990.00    0.95754   1.18126    0.030
 3991.00    1.19604   1.19275    0.030
 3992.00    1.39935   1.18097    0.030
 3993.00    1.57753   1.15321    0.030
 3994.00    1.57177   1.12135    0.030
 3995.00    1.45068   1.10074    0.029
 3996.00    1.22051   1.11377    0.029
 3997.00    0.93058   1.16189    0.029
 3998.00    0.94895   1.21079    0.029
 3999.00    1.11419   1.23613    0.029
 4000.00    1.20285   1.24579    0.029
 4001.00    1.26003   1.23420    0.030
 4002.00    1.28239   1.17921    0.029
 4003.00    1.29251   1.10583    0.029
 4004.00    1.25033   1.08034    0.030
 4005.00    1.19266   1.11981    0.030
 4006.00    1.27049   1.17603    0.030
 4007.00    1.38160   1.20997    0.030
 4008.00    1.29201   1.22403    0.030
 4009.00    1.16251   1.23118    0.030
 4010.00    1.11887   1.23556    0.030
 4011.00    1.08856   1.24043    0.029
 4012.00    1.45696   1.24945    0.030
 4013.00    1.87120   1.26044    0.031
 4014.00    1.21336   1.26046    0.031
 4015.00    0.47263   1.24896    0.031
 4016.00    0.77587   1.25096    0.031
 4017.00    1.12307   1.27167    0.031
 4018.00    0.84663   1.28210    0.031
 4019.00    0.58180   1.27055    0.031
 4020.00    1.07549   1.25172    0.031
 4021.00    1.51682   1.23128    0.031
 4022.00    1.03522   1.21036    0.031
 4023.00    0.58520   1.20878    0.031
 4024.00    0.47500   1.23944    0.031
 4025.00    0.44633   1.28085    0.031
 4026.00    1.03659   1.29586    0.031
 4027.00    1.52962   1.25763    0.032
 4028.00    1.46183   1.17585    0.032
 4029.00    1.38264   1.09991    0.032
 4030.00    1.25116   1.06446    0.032
 4031.00    1.07441   1.06525    0.031
 4032.00    0.72787   1.09484    0.030
 4033.00    0.50614   1.15282    0.029
 4034.00    0.67573   1.22973    0.030
 4035.00    0.74711   1.29940    0.030
 4036.00    0.55723   1.33231    0.029
 4037.00    0.43585   1.32096    0.029
 4038.00    0.47091   1.28838    0.029
 4039.00    0.73337   1.26850    0.029
 4040.00    1.44535   1.26207    0.031
 4041.00    1.68388   1.22342    0.031
 4042.00    1.10678   1.12725    0.030
 4043.00    0.83834   1.02844    0.029
 4044.00    1.03553   1.01402    0.029
 4045.00    1.08866   1.09577    0.030
 4046.00    0.95084   1.19766    0.030
 4047.00    0.84433   1.26134    0.030
 4048.00    0.77435   1.28909    0.029
 4049.00    1.01180   1.29067    0.030
 4050.00    1.56578   1.26782    0.030
 4051.00    1.79405   1.23235    0.030
 4052.00    1.72654   1.19943    0.030
 4053.00    1.44780   1.17844    0.030
 4054.00    1.00000   1.16554    0.029
 4055.00    0.78829   1.15052    0.029
 4056.00    0.74281   1.14722    0.029
 4057.00    0.79999   1.17656    0.029
 4058.00    0.92056   1.21691    0.028
 4059.00    0.96477   1.21540    0.028
 4060.00    0.96777   1.15075    0.028
 4061.00    1.08721   1.07201    0.029
 4062.00    1.26122   1.05301    0.029
 4063.00    1.44732   1.09657    0.030
 4064.00    1.63829   1.14153    0.030
 4065.00    1.71201   1.16851    0.030
 4066.00    1.74530   1.20420    0.030
 4067.00    1.39667   1.23534    0.030
 4068.00    0.93714   1.21591    0.029
 4069.00    0.81310   1.15828    0.029
 4070.00    0.76965   1.13556    0.029
 4071.00    0.94792   1.17173    0.029
 4072.00    1.16914   1.20374    0.030
 4073.00    1.43258   1.17524    0.030
 4074.00    1.70240   1.10136    0.030
 4075.00    1.71547   1.04273    0.030
 4076.00    1.70015   1.04887    0.030
 4077.00    1.13660   1.11792    0.029
 4078.00    0.53291   1.20651    0.029
 4079.00    0.96083   1.26599    0.030
 4080.00    1.42824   1.27054    0.031
 4081.00    1.20136   1.23555    0.030
 4082.00    0.97160   1.20139    0.030
 4083.00    0.77853   1.19642    0.029
 4084.00    0.61348   1.22627    0.029
 4085.00    0.91014   1.27752    0.029
 4086.00    1.20242   1.32122    0.030
 4087.00    1.44946   1.33319    0.030
 4088.00    1.66994   1.31501    0.030
 4089.00    1.69556   1.28533    0.030
 4090.00    1.73822   1.26225    0.030
 4091.00    1.87651   1.25098    0.030
 4092.00    1.91446   1.23064    0.000
 4093.00    1.50334   1.18103    0.000
 4094.00    1.19923   1.12188    0.000
 4095.00    1.28808   1.08196    0.000
 4096.00    1.34054   1.05367    0.000
 4097.00    1.28105   1.00548    0.000
 4098.00    1.24160   0.92436    0.000
 4099.00    1.25453   0.84735    0.000
 4100.00    1.18976   0.83488    0.000
 4101.00    0.95052   0.89791    0.000
 4102.00    0.66202   0.99206    0.000
 4103.00    0.27768   1.07800    0.000
 4104.00    0.21995   1.13960    0.000
 4105.00    0.71637   1.17001    0.000
 4106.00    1.05267   1.17277    0.000
 4107.00    1.15094   1.16046    0.000
 4108.00    1.12168   1.14903    0.000
 4109.00    0.92578   1.15221    0.000
 4110.00    0.87493   1.17457    0.000
 4111.00    0.99105   1.20912    0.000
 4112.00    1.09931   1.24162    0.000
 4113.00    1.19960   1.26281    0.027
 4114.00    1.47970   1.26845    0.028
 4115.00    1.92081   1.24916    0.029
 4116.00    2.02496   1.20892    0.029
 4117.00    1.86327   1.18011    0.028
 4118.00    1.61754   1.18207    0.028
 4119.00    1.31351   1.19433    0.027
 4120.00    1.05769   1.19938    0.040
 4121.00    0.83121   1.20877    0.155
 4122.00    0.66535   1.23101   -1.000
 4123.00    0.53170   1.24801   -1.000
 4124.00    0.70273   1.23945   -1.000
 4125.00    1.01426   1.21194   -1.000
 4126.00    1.08590   1.18775   -1.000
 4127.00    1.06228   1.17605   -1.000
 4128.00    1.06484   1.16310    0.072
 4129.00    1.07626   1.13374    0.031
 4130.00    1.04890   1.09947    0.027
 4131.00    1.01051   1.09068    0.027
 4132.00    1.06294   1.12125    0.027
 4133.00    1.13669   1.17789    0.026
 4134.00    1.31102   1.23076    0.026
 4135.00    1.50433   1.26081    0.027
 4136.00    1.48552   1.27798    0.027
 4137.00    1.43574   1.28981    0.028
 4138.00    1.54910   1.28124    0.028
 4139.00    1.67980   1.23172    0.028
 4140.00    1.53406   1.14336    0.028
 4141.00    1.36921   1.06512    0.028
 4142.00    1.58981   1.05767    0.029
 4143.00    1.82371   1.11829    0.030
 4144.00    1.81326   1.18642    0.029
 4145.00    1.79370   1.21919    0.029
 4146.00    1.48882   1.21620    0.029
 4147.00    1.21774   1.19584    0.029
 4148.00    1.46936   1.17993    0.029
 4149.00    1.66136   1.17675    0.029
 4150.00    1.26572   1.17428    0.028
 4151.00    0.96425   1.16217    0.028
 4152.00    1.33131   1.14621    0.029
 4153.00    1.62532   1.13820    0.029
 4154.00    1.52056   1.14300    0.029
 4155.00    1.40636   1.16318    0.029
 4156.00    1.25086   1.19697    0.029
 4157.00    1.09202   1.22855    0.028
 4158.00    0.92119   1.24513    0.028
 4159.00    0.88601   1.25544    0.027
 4160.00    1.26021   1.27084    0.028
 4161.00    1.44475   1.28062    0.028
 4162.00    1.14223   1.27186    0.028
 4163.00    1.06354   1.25019    0.028
 4164.00    1.47931   1.22340    0.029
 4165.00    1.63311   1.20121    0.029
 4166.00    1.28511   1.20071    0.028
 4167.00    1.18787   1.21565    0.028
 4168.00    1.50974   1.20875    0.028
 4169.00    1.52632   1.15810    0.028
 4170.00    1.09574   1.09065    0.028
 4171.00    0.87175   1.05631    0.028
 4172.00    0.91385   1.07188    0.028
 4173.00    0.98832   1.10764    0.028
 4174.00    1.09953   1.12833    0.028
 4175.00    1.02829   1.12951    0.028
 4176.00    0.77446   1.13430    0.027
 4177.00    0.78938   1.15647    0.027
 4178.00    1.04153   1.17685    0.028
 4179.00    1.21515   1.17474    0.028
 4180.00    1.32770   1.16374    0.027
 4181.00    1.32297   1.17067    0.027
 4182.00    1.23802   1.19593    0.027
 4183.00    1.04683   1.21067    0.027
 4184.00    0.79196   1.18983    0.027
 4185.00    0.78081   1.15359    0.027
 4186.00    0.89712   1.14857    0.027
 4187.00    1.13936   1.17712    0.027
 4188.00    1.43871   1.20110    0.027
 4189.00    1.43315   1.21236    0.027
 4190.00    1.30861   1.23458    0.026
 4191.00    1.22711   1.26041    0.026
 4192.00    1.15991   1.25173    0.026
 4193.00    1.13668   1.20289    0.026
 4194.00    1.12570   1.14693    0.026
 4195.00    1.01379   1.10606    0.026
 4196.00    0.87873   1.08377    0.026
 4197.00    0.95934   1.08402    0.026
 4198.00    1.07960   1.09655    0.026
 4199.00    1.11411   1.10142    0.026
 4200.00    1.13650   1.10538    0.026
 4201.00    0.97584   1.12567    0.026
 4202.00    0.79651   1.15568    0.025
 4203.00    1.11413   1.18505    0.025
 4204.00    1.46413   1.21594    0.026
 4205.00    1.40781   1.24484    0.025
 4206.00    1.33865   1.25868    0.025
 4207.00    1.04032   1.25293    0.026
 4208.00    0.75271   1.24401    0.026
 4209.00    0.78036   1.24981    0.026
 4210.00    0.80621   1.25959    0.025
 4211.00    0.80583   1.24474    0.025
 4212.00    0.81143   1.19690    0.025
 4213.00    0.87346   1.14807    0.025
 4214.00    0.93945   1.14730    0.025
 4215.00    1.03263   1.20147    0.025
 4216.00    1.11289   1.26497    0.025
 4217.00    1.12447   1.30288    0.025
 4218.00    1.13294   1.31626    0.025
 4219.00    1.12812   1.30576    0.025
 4220.00    1.18784   1.26198    0.026
 4221.00    1.47497   1.18631    0.026
 4222.00    1.59384   1.08678    0.025
 4223.00    1.21445   0.97458    0.025
 4224.00    0.94974   0.89095    0.025
 4225.00    0.97447   0.89882    0.025
 4226.00    0.99430   1.00642    0.025
 4227.00    1.00348   1.14162    0.025
 4228.00    1.07869   1.23268    0.024
 4229.00    1.27840   1.26063    0.025
 4230.00    1.34083   1.23886    0.025
 4231.00    1.17727   1.20074    0.025
 4232.00    1.13718   1.17521    0.024
 4233.00    1.27534   1.15887    0.025
 4234.00    1.34382   1.14628    0.025
 4235.00    1.32381   1.14847    0.025
 4236.00    1.25808   1.16302    0.025
 4237.00    1.14118   1.18097    0.024
 4238.00    1.19745   1.20744    0.024
 4239.00    1.42460   1.23989    0.024
 4240.00    1.42810   1.26520    0.025
 4241.00    1.23697   1.28761    0.024
 4242.00    1.18608   1.31143    0.025
 4243.00    1.24271   1.31265    0.025
 4244.00    1.19256   1.27458    0.025
 4245.00    1.07047   1.21975    0.025
 4246.00    1.25591   1.17575    0.026
 4247.00    1.62291   1.14516    0.027
 4248.00    1.72704   1.13123    0.027
 4249.00    1.69583   1.14818    0.028
 4250.00    1.67826   1.17884    0.028
 4251.00    1.66679   1.18170    0.028
 4252.00    1.50614   1.16085    0.028
 4253.00    1.28829   1.16501    0.027
 4254.00    1.17565   1.20716    0.026
 4255.00    1.09729   1.23797    0.026
 4256.00    1.07380   1.21267    0.026
 4257.00    1.06530   1.14814    0.026
 4258.00    1.07527   1.10184    0.026
 4259.00    1.08938   1.11813    0.026
 4260.00    1.19812   1.19094    0.026
 4261.00    1.32377   1.27163    0.026
 4262.00    1.52908   1.32203    0.027
 4263.00    1.74529   1.33932    0.027
 4264.00    1.21039   1.32796    0.026
 4265.00    0.60212   1.29050    0.026
 4266.00    0.85754   1.23924    0.026
 4267.00    1.16578   1.17900    0.027
 4268.00    1.09464   1.10278    0.026
 4269.00    1.01323   1.02998    0.025
 4270.00    0.92692   1.00126    0.025
 4271.00    0.83562   1.01800    0.025
 4272.00    0.61246   1.04967    0.025
 4273.00    0.39849   1.09526    0.025
 4274.00    0.31068   1.16694    0.025
 4275.00    0.28922   1.24031    0.025
 4276.00    0.87053   1.27362    0.026
 4277.00    1.38485   1.25459    0.026
 4278.00    1.45292   1.21365    0.026
 4279.00    1.45887   1.19072    0.026
 4280.00    1.14323   1.19424    0.026
 4281.00    0.89294   1.20456    0.026
 4282.00    0.91549   1.20042   -2.000
 4283.00    0.84429   1.17922   -2.000
 4284.00    0.44945   1.15733   -2.000
 4285.00    0.25561   1.13700   -2.000
 4286.00    0.64604   1.09683   -2.000
 4287.00    1.05007   1.04064   -2.000
 4288.00    1.48785   1.01572   -2.000
 4289.00    1.72219   1.05323   -2.000
 4290.00    1.52162   1.12164   -2.000
 4291.00    1.30151   1.16392   -2.000
 4292.00    1.04512   1.16406   -2.000
 4293.00    0.90154   1.14684   -2.000
 4294.00    0.94091   1.12338   -2.000
 4295.00    1.06847   1.07822   -2.000
 4296.00    1.32149   1.00510   -2.000
 4297.00    1.23790   0.93030   -2.000
 4298.00    0.73304   0.89280    0.025
 4299.00    0.64742   0.89834    0.025
 4300.00    1.02424   0.91939    0.025
 4301.00    1.31167   0.93963    0.025
 4302.00    1.51213   0.95565    0.025
 4303.00    1.44210   0.95572    0.025
 4304.00    1.13998   0.93056    0.025
 4305.00    1.05835   0.88932    0.025
 4306.00    1.14335   0.86053    0.025
 4307.00    1.16382   0.87198    0.025
 4308.00    1.14145   0.92180    0.024
 4309.00    1.05644   0.98359    0.024
 4310.00    0.93502   1.03721    0.024
 4311.00    0.90536   1.08273    0.024
 4312.00    0.92219   1.13996    0.024
 4313.00    1.05994   1.22914    0.024
 4314.00    1.25074   1.33183    0.024
 4315.00    1.18394   1.39918    0.024
 4316.00    1.02011   1.41084    0.024
 4317.00    1.03340   1.38714    0.023
 4318.00    1.10332   1.35104    0.023
 4319.00    1.24757   1.31027    0.024
 4320.00    1.41168   1.25409    0.024
 4321.00    1.55343   1.16603    0.024
 4322.00    1.69027   1.06044    0.024
 4323.00    1.38642   0.99389    0.024
 4324.00    1.00591   1.02049    0.023
 4325.00    0.84574   1.13102    0.023
 4326.00    0.71473   1.24984    0.023
 4327.00    1.00244   1.30888    0.024
 4328.00    1.32928   1.31042    0.024
 4329.00    1.50993   1.30115    0.024
 4330.00    1.68223   1.30672    0.000
 4331.00    1.54995   1.31979    0.000
 4332.00    1.41071   1.32659    0.000
 4333.00    1.28589   1.30592    0.000
 4334.00    1.16927   1.23060    0.000
 4335.00    1.24972   1.10813    0.000
 4336.00    1.31406   0.98334    0.000
 4337.00    1.16876   0.89205    0.000
 4338.00    1.04275   0.85896    0.000
 4339.00    1.08531   0.90392    0.000
 4340.00    1.14186   1.00098    0.000
 4341.00    1.28871   1.09175    0.000
 4342.00    1.44412   1.15600    0.000
 4343.00    1.64272   1.20636    0.000
 4344.00    1.73544   1.24508    0.000
 4345.00    1.39600   1.27651    0.000
 4346.00    1.11938   1.30879    0.000
 4347.00    1.05536   1.31643    0.000
 4348.00    1.04927   1.26179    0.000
 4349.00    1.20852   1.17049    0.000
 4350.00    1.33372   1.12226    0.000
 4351.00    1.37591   1.14998    0.024
 4352.00    1.35541   1.21136    0.024
 4353.00    1.20304   1.26503    0.024
 4354.00    1.15681   1.30311    0.029
 4355.00    1.30459   1.31593    0.077
 4356.00    1.40924   1.29759   -1.000
 4357.00    1.44496   1.27859   -1.000
 4358.00    1.43623   1.29469   -1.000
 4359.00    1.36518   1.33594   -1.000
 4360.00    1.32515   1.36854   -1.000
 4361.00    1.32342   1.38777   -1.000
 4362.00    1.33370   1.40585    0.100
 4363.00    1.35704   1.40909    0.032
 4364.00    1.36421   1.37543    0.024
 4365.00    1.35587   1.32130    0.024
 4366.00    1.43519   1.28674    0.025
 4367.00    1.58867   1.28355    0.025
 4368.00    1.58037   1.29389    0.025
 4369.00    1.45157   1.29986    0.024
 4370.00    1.37968   1.28564    0.024
 4371.00    1.34503   1.24044    0.025
 4372.00    1.25438   1.18565    0.024
 4373.00    1.13165   1.16966    0.024
 4374.00    1.31678   1.21418    0.024
 4375.00    1.65547   1.28512    0.025
 4376.00    1.78179   1.33068    0.025
 4377.00    1.81648   1.33204    0.025
 4378.00    1.63197   1.29953    0.025
 4379.00    1.36637   1.23076    0.025
 4380.00    1.24670   1.11583    0.025
 4381.00    1.17279   0.99516    0.025
 4382.00    1.24500   0.95157    0.025
 4383.00    1.35543   1.01407    0.025
 4384.00    1.44900   1.11864    0.025
 4385.00    1.53898   1.18858    0.025
 4386.00    1.16865   1.20802    0.025
 4387.00    0.72048   1.20359    0.024
 4388.00    1.09817   1.20282    0.024
 4389.00    1.58138   1.21970    0.024
 4390.00    1.64490   1.24438    0.024
 4391.00    1.67097   1.25124    0.025
 4392.00    1.60043   1.24006    0.024
 4393.00    1.52475   1.24746    0.024
 4394.00    1.52913   1.29233    0.025
 4395.00    1.53639   1.33845    0.025
 4396.00    1.64931   1.33904    0.025
 4397.00    1.75249   1.29407    0.025
 4398.00    1.64138   1.25036    0.025
 4399.00    1.51631   1.24648    0.024
 4400.00    1.21882   1.25601    0.025
 4401.00    0.99224   1.22150    0.025
 4402.00    1.36232   1.15337    0.025
 4403.00    1.66608   1.12197    0.025
 4404.00    1.55424   1.14538    0.025
 4405.00    1.44213   1.17799    0.025
 4406.00    1.32877   1.20409    0.025
 4407.00    1.22569   1.24980    0.025
 4408.00    1.16373   1.31605    0.025
 4409.00    1.20310   1.37165    0.024
 4410.00    1.57852   1.38910    0.025
 4411.00    1.81253   1.35227    0.025
 4412.00    1.65035   1.27360    0.024
 4413.00    1.54138   1.20910    0.024
 4414.00    1.55992   1.20559    0.025
 4415.00    1.60244   1.25461    0.025
 4416.00    1.69460   1.32083    0.025
 4417.00    1.67147   1.37194    0.025
 4418.00    1.44077   1.38172    0.024
 4419.00    1.34764   1.34804    0.024
 4420.00    1.47108   1.30539    0.024
 4421.00    1.50309   1.29042    0.024
 4422.00    1.40877   1.30071    0.024
 4423.00    1.35448   1.31049    0.024
 4424.00    1.34888   1.31196    0.024
 4425.00    1.44136   1.31644    0.025
 4426.00    1.63902   1.32210    0.025
 4427.00    1.72623   1.31361    0.025
 4428.00    1.70899   1.29895    0.024
 4429.00    1.75442   1.29933    0.024
 4430.00    1.85212   1.30202    0.024
 4431.00    1.71301   1.27516    0.025
 4432.00    1.40004   1.22558    0.025
 4433.00    1.33445   1.20254    0.024
 4434.00    1.42835   1.24013    0.024
 4435.00    1.51244   1.31895    0.024
 4436.00    1.59101   1.38890    0.024
 4437.00    1.41762   1.41077    0.025
 4438.00    1.12054   1.37600    0.025
 4439.00    1.17345   1.30774    0.025
 4440.00    1.37487   1.24926    0.025
 4441.00    1.28056   1.23973    0.024
 4442.00    1.07878   1.28584    0.024
 4443.00    1.22130   1.35091    0.024
 4444.00    1.46970   1.38973    0.025
 4445.00    1.48781   1.39711    0.024
 4446.00    1.44697   1.39319    0.024
 4447.00    1.53045   1.38333    0.024
 4448.00    1.63985   1.36925    0.024
 4449.00    1.61482   1.35948    0.024
 4450.00    1.56772   1.34426    0.024
 4451.00    1.63648   1.30161    0.024
 4452.00    1.71953   1.23893    0.024
 4453.00    1.50530   1.19596    0.024
 4454.00    1.26578   1.19371    0.023
 4455.00    1.25555   1.20958    0.023
 4456.00    1.25663   1.21511    0.023
 4457.00    1.24266   1.20776    0.023
 4458.00    1.22998   1.19550    0.023
 4459.00    1.31433   1.19087    0.023
 4460.00    1.39610   1.21481    0.023
 4461.00    1.42543   1.26434    0.000
 4462.00    1.46821   1.30498    0.000
 4463.00    1.66898   1.31755    0.000
 4464.00    1.81762   1.31326    0.000
 4465.00    1.54341   1.30182    0.000
 4466.00    1.31358   1.28349    0.000
 4467.00    1.35376   1.26974    0.000
 4468.00    1.38607   1.27847    0.000
 4469.00    1.38062   1.31304    0.000
 4470.00    1.39094   1.36084    0.000
 4471.00    1.46283   1.40316    0.000
 4472.00    1.53161   1.42582    0.000
 4473.00    1.59028   1.43480    0.000
 4474.00    1.59539   1.44842    0.000
 4475.00    1.45312   1.46222    0.000
 4476.00    1.30770   1.44575    0.000
 4477.00    1.15485   1.38500    0.000
 4478.00    1.13582   1.30799    0.000
 4479.00    1.38935   1.26218    0.000
 4480.00    1.59878   1.27589    0.000
 4481.00    1.73005   1.33714    0.000
 4482.00    1.76287   1.40707    0.023
 4483.00    1.64301   1.45269    0.023
 4484.00    1.61043   1.45951    0.023
 4485.00    1.69673   1.42577    0.023
 4486.00    1.71933   1.36748    0.023
 4487.00    1.66556   1.32106    0.023
 4488.00    1.63741   1.31723    0.023
 4489.00    1.63635   1.34897    0.023
 4490.00    1.55176   1.37509    0.023
 4491.00    1.38928   1.36267    0.023
 4492.00    1.36188   1.32420    0.023
 4493.00    1.44553   1.30032    0.023
 4494.00    1.61006   1.31451    0.023
 4495.00    1.83311   1.35764    0.023
 4496.00    1.84644   1.40228    0.023
 4497.00    1.72653   1.42207    0.023
 4498.00    1.65691   1.41299    0.023
 4499.00    1.61522   1.40528    0.023
 4500.00    1.50018   1.43295    0.023
 4501.00    1.34972   1.48636    0.022
 4502.00    1.35302   1.52421    0.022
 4503.00    1.42047   1.52523    0.022
 4504.00    1.49597   1.50200    0.022
 4505.00    1.57435   1.47808    0.023
 4506.00    1.67101   1.46995    0.022
 4507.00    1.77318   1.47845    0.022
 4508.00    1.54825   1.48736    0.022
 4509.00    1.24138   1.47772    0.022
 4510.00    1.28831   1.44832    0.022
 4511.00    1.40715   1.41568    0.022
 4512.00    1.44113   1.39668    0.022
 4513.00    1.46157   1.39474    0.022
 4514.00    1.35653   1.39737    0.022
 4515.00    1.23659   1.39437    0.022
 4516.00    1.38479   1.39628    0.022
 4517.00    1.55468   1.41529    0.022
 4518.00    1.50360   1.43857    0.022
 4519.00    1.44246   1.43956    0.022
 4520.00    1.47395   1.41325    0.022
 4521.00    1.50459   1.38108    0.022
 4522.00    1.43434   1.35422    0.022
 4523.00    1.36609   1.32116    0.022
 4524.00    1.33551   1.27651    0.022
 4525.00    1.31208   1.23339    0.022
 4526.00    1.36885   1.20877    0.022
 4527.00    1.43347   1.21116    0.022
 4528.00    1.55952   1.23583    0.022
 4529.00    1.65461   1.26661    0.022
 4530.00    1.56665   1.27996    0.022
 4531.00    1.50293   1.26274    0.022
 4532.00    1.55260   1.23657    0.022
 4533.00    1.61112   1.24641    0.022
 4534.00    1.70350   1.30993    0.022
 4535.00    1.76176   1.38826    0.022
 4536.00    1.71127   1.42623    0.022
 4537.00    1.64398   1.41221    0.022
 4538.00    1.53132   1.38064    0.022
 4539.00    1.43920   1.36849    0.022
 4540.00    1.39467   1.37907    0.022
 4541.00    1.34785   1.38534    0.022
 4542.00    1.29644   1.37183    0.022
 4543.00    1.32174   1.35560    0.022
 4544.00    1.48096   1.35151    0.022
 4545.00    1.56337   1.34591    0.022
 4546.00    1.52841   1.32489    0.022
 4547.00    1.50979   1.30597    0.022
 4548.00    1.51309   1.31269    0.022
 4549.00    1.53795   1.33213    0.022
 4550.00    1.58829   1.33384    0.000
 4551.00    1.56680   1.31448    0.000
 4552.00    1.47043   1.29784    0.000
 4553.00    1.44774   1.30862    0.000
 4554.00    1.49280   1.35158    0.000
 4555.00    1.46998   1.40474    0.000
 4556.00    1.39215   1.44112    0.000
 4557.00    1.39609   1.45501    0.000
 4558.00    1.45833   1.45737    0.000
 4559.00    1.55120   1.45201    0.000
 4560.00    1.66324   1.42859    0.000
 4561.00    1.52381   1.38554    0.000
 4562.00    1.24684   1.34741    0.000
 4563.00    1.24873   1.34473    0.000
 4564.00    1.38319   1.38166    0.000
 4565.00    1.49895   1.43038    0.000
 4566.00    1.60705   1.45718    0.000
 4567.00    1.58030   1.44765    0.000
 4568.00    1.50629   1.41050    0.000
 4569.00    1.42309   1.37757    0.000
 4570.00    1.33716   1.38278    0.000
 4571.00    1.47031   1.41784    0.000
 4572.00    1.65713   1.44385    0.000
 4573.00    1.68907   1.44736    0.000
 4574.00    1.69031   1.44097    0.000
 4575.00    1.55472   1.42654    0.000
 4576.00    1.39796   1.39511    0.000
 4577.00    1.55219   1.35173    0.000
 4578.00    1.74200   1.31931    0.000
 4579.00    1.69809   1.31426    0.000
 4580.00    1.63623   1.32674    0.000
 4581.00    1.66400   1.33581    0.000
 4582.00    1.69550   1.33558    0.000
 4583.00    1.72772   1.33668    0.000
 4584.00    1.75544   1.35261    0.000
 4585.00    1.58964   1.38592    0.000
 4586.00    1.42907   1.42025    0.000
 4587.00    1.36005   1.43260    0.000
 4588.00    1.29541   1.41504    0.000
 4589.00    1.27757   1.38189    0.000
 4590.00    1.29139   1.35592    0.000
 4591.00    1.54454   1.34608    0.000
 4592.00    1.74732   1.34429    0.000
 4593.00    1.66058   1.34413    0.000
 4594.00    1.53897   1.34818    0.000
 4595.00    1.25799   1.35751    0.000
 4596.00    1.08391   1.36592    0.000
 4597.00    1.30973   1.36454    0.000
 4598.00    1.49427   1.35523    0.000
 4599.00    1.54969   1.35230    0.000
 4600.00    1.60276   1.36019    0.000
 4601.00    1.64957   1.36744    0.000
 4602.00    1.70750   1.36765    0.000
 4603.00    1.79079   1.37034    0.000
 4604.00    1.82570   1.39038    0.000
 4605.00    1.76515   1.43012    0.000
 4606.00    1.70498   1.47184    0.000
 4607.00    1.64545   1.49074    0.000
 4608.00    1.54084   1.47870    0.000
 4609.00    1.36837   1.45126    0.000
 4610.00    1.31954   1.42939    0.000
 4611.00    1.43430   1.42422    0.000
 4612.00    1.47866   1.43372    0.000
 4613.00    1.44097   1.44537    0.000
 4614.00    1.47265   1.45001    0.000
 4615.00    1.57563   1.44715    0.000
 4616.00    1.61909   1.43777    0.000
 4617.00    1.60862   1.43115    0.000
 4618.00    1.55632   1.43939    0.000
 4619.00    1.47062   1.45511    0.000
 4620.00    1.43090   1.46271    0.000
 4621.00    1.42349   1.46058    0.000
 4622.00    1.44362   1.45270    0.000
 4623.00    1.48072   1.44252    0.000
 4624.00    1.43248   1.43696    0.000
 4625.00    1.33827   1.43541    0.000
 4626.00    1.37262   1.42982    0.000
 4627.00    1.46710   1.42551    0.000
 4628.00    1.55311   1.43402    0.000
 4629.00    1.63569   1.44419    0.000
 4630.00    1.51104   1.43501    0.000
 4631.00    1.31510   1.41172    0.000
 4632.00    1.55855   1.39544    0.000
 4633.00    1.92927   1.38902    0.000
 4634.00    1.76393   1.37942    0.000
 4635.00    1.47019   1.36193    0.000
 4636.00    1.46300   1.34558    0.000
 4637.00    1.51115   1.34196    0.000
 4638.00    1.36874   1.35660    0.000
 4639.00    1.19773   1.38183    0.000
 4640.00    1.27075   1.39707    0.000
 4641.00    1.37063   1.38844    0.000
 4642.00    1.36103   1.35818    0.000
 4643.00    1.34348   1.31482    0.000
 4644.00    1.28720   1.27438    0.000
 4645.00    1.22945   1.25948    0.000
 4646.00    1.32323   1.27883    0.000
 4647.00    1.41820   1.31865    0.000
 4648.00    1.52901   1.35823    0.000
 4649.00    1.63176   1.38506    0.000
 4650.00    1.60272   1.39417    0.000
 4651.00    1.57607   1.38181    0.000
 4652.00    1.57382   1.35332    0.000
 4653.00    1.55885   1.33109    0.000
 4654.00    1.45101   1.33820    0.000
 4655.00    1.38064   1.37922    0.000
 4656.00    1.51975   1.43611    0.000
 4657.00    1.62693   1.47728    0.000
 4658.00    1.59166   1.48072    0.000
 4659.00    1.55789   1.44994    0.000
 4660.00    1.52960   1.40773    0.000
 4661.00    1.49175   1.37502    0.000
 4662.00    1.42454   1.35007    0.000
 4663.00    1.42680   1.31091    0.000
 4664.00    1.61024   1.25147    0.000
 4665.00    1.67348   1.20527    0.000
 4666.00    1.46737   1.20992    0.000
 4667.00    1.35472   1.26148    0.000
 4668.00    1.42362   1.32311    0.000
 4669.00    1.42273   1.36295    0.000
 4670.00    1.30366   1.37343    0.000
 4671.00    1.28438   1.36995    0.000
 4672.00    1.41316   1.37441    0.000
 4673.00    1.50691   1.39272    0.000
 4674.00    1.55496   1.40835    0.000
 4675.00    1.60332   1.40104    0.000
 4676.00    1.65203   1.37152    0.000
 4677.00    1.67405   1.33884    0.000
 4678.00    1.66902   1.31872    0.000
 4679.00    1.60117   1.31750    0.000
 4680.00    1.47716   1.33513    0.000
 4681.00    1.46064   1.36111    0.000
 4682.00    1.52877   1.37902    0.000
 4683.00    1.53387   1.38228    0.000
 4684.00    1.49530   1.37626    0.000
 4685.00    1.49979   1.36858    0.000
 4686.00    1.53043   1.36413    0.000
 4687.00    1.54961   1.36129    0.000
 4688.00    1.56273   1.35584    0.000
 4689.00    1.45476   1.35219    0.000
 4690.00    1.29107   1.35913    0.000
 4691.00    1.23741   1.37706    0.000
 4692.00    1.22735   1.39950    0.000
 4693.00    1.28529   1.41600    0.000
 4694.00    1.36617   1.41132    0.000
 4695.00    1.60206   1.37956    0.000
 4696.00    1.88194   1.33919    0.000
 4697.00    1.67003   1.31577    0.000
 4698.00    1.34300   1.30993    0.000
 4699.00    1.53608   1.30301    0.000
 4700.00    1.82700   1.29214    0.000
 4701.00    1.83144   1.29406    0.000
 4702.00    1.79420   1.31384    0.000
 4703.00    1.61217   1.33064    0.000
 4704.00    1.41484   1.32512    0.000
 4705.00    1.32517   1.30434    0.000
 4706.00    1.24289   1.29132    0.000
 4707.00    1.22662   1.30220    0.000
 4708.00    1.21259   1.33416    0.000
 4709.00    1.31820   1.36458    0.000
 4710.00    1.42125   1.36920    0.000
 4711.00    1.43485   1.34954    0.000
 4712.00    1.43330   1.33336    0.000
 4713.00    1.19936   1.34537    0.000
 4714.00    1.00844   1.38079    0.000
 4715.00    1.23934   1.41615    0.000
 4716.00    1.44599   1.43986    0.000
 4717.00    1.48126   1.45358    0.000
 4718.00    1.50651   1.45587    0.000
 4719.00    1.47732   1.44659    0.000
 4720.00    1.47716   1.43744    0.000
 4721.00    1.60357   1.44140    0.000
 4722.00    1.69524   1.45182    0.000
 4723.00    1.66234   1.44363    0.000
 4724.00    1.60957   1.40152    0.000
 4725.00    1.49700   1.34199    0.000
 4726.00    1.43021   1.29862    0.000
 4727.00    1.48074   1.28704    0.000
 4728.00    1.53211   1.29827    0.000
 4729.00    1.58533   1.32000    0.000
 4730.00    1.58159   1.34501    0.000
 4731.00    1.46894   1.36625    0.000
 4732.00    1.41296   1.37703    0.000
 4733.00    1.45152   1.37390    0.000
 4734.00    1.41738   1.36506    0.000
 4735.00    1.27695   1.36982    0.000
 4736.00    1.22355   1.38913    0.000
 4737.00    1.28206   1.40017    0.000
 4738.00    1.35955   1.39485    0.000
 4739.00    1.45854   1.39030    0.000
 4740.00    1.53851   1.39755    0.000
 4741.00    1.59948   1.40771    0.000
 4742.00    1.62031   1.41177    0.000
 4743.00    1.60577   1.41559    0.000
 4744.00    1.60034   1.42508    0.000
 4745.00    1.60198   1.43329    0.000
 4746.00    1.61895   1.43478    0.000
 4747.00    1.64638   1.43338    0.000
 4748.00    1.65505   1.42899    0.000
 4749.00    1.65250   1.41605    0.000
 4750.00    1.69011   1.39567    0.000
 4751.00    1.74870   1.37628    0.000
 4752.00    1.58199   1.36392    0.000
 4753.00    1.31330   1.35964    0.000
 4754.00    1.29937   1.36226    0.000
 4755.00    1.38462   1.37102    0.000
 4756.00    1.46876   1.38384    0.000
 4757.00    1.55254   1.39251    0.000
 4758.00    1.48618   1.38397    0.000
 4759.00    1.37810   1.35454    0.000
 4760.00    1.38661   1.31936    0.000
 4761.00    1.42179   1.29435    0.019
 4762.00    1.30817   1.27931    0.019
 4763.00    1.16730   1.27213    0.019
 4764.00    1.30922   1.28072    0.019
 4765.00    1.49097   1.30911    0.020
 4766.00    1.42462   1.34633    0.019
 4767.00    1.33312   1.37368    0.019
 4768.00    1.39082   1.37819    0.019
 4769.00    1.45817   1.36702    0.019
 4770.00    1.51823   1.36480    0.019
 4771.00    1.57806   1.38389    0.019
 4772.00    1.62788   1.40949    0.019
 4773.00    1.67455   1.42320    0.019
 4774.00    1.63018   1.42614    0.019
 4775.00    1.58763   1.42620    0.019
 4776.00    1.57128   1.42108    0.019
 4777.00    1.54894   1.40951    0.019
 4778.00    1.47026   1.39685    0.019
 4779.00    1.42772   1.38256    0.018
 4780.00    1.63265   1.36422    0.018
 4781.00    1.78497   1.35022    0.018
 4782.00    1.65859   1.34653    0.018
 4783.00    1.52499   1.34324    0.018
 4784.00    1.36064   1.33541    0.018
 4785.00    1.26366   1.33220    0.018
 4786.00    1.40343   1.33460    0.018
 4787.00    1.52747   1.33822    0.018
 4788.00    1.60501   1.34781    0.018
 4789.00    1.67653   1.36754    0.018
 4790.00    1.73292   1.39665    0.018
 4791.00    1.75850   1.43123    0.018
 4792.00    1.71727   1.45852    0.018
 4793.00    1.68787   1.46370    0.018
 4794.00    1.68072   1.44436    0.018
 4795.00    1.64241   1.41070    0.018
 4796.00    1.55289   1.37768    0.018
 4797.00    1.49215   1.36150    0.018
 4798.00    1.47289   1.37183    0.018
 4799.00    1.48086   1.40048    0.018
 4800.00    1.52336   1.42401    0.018
 4801.00    1.51614   1.42345    0.018
 4802.00    1.45337   1.40163    0.018
 4803.00    1.46911   1.37675    0.019
 4804.00    1.56218   1.36091    0.018
 4805.00    1.67163   1.35386    0.018
 4806.00    1.79533   1.35631    0.019
 4807.00    1.79017   1.36845    0.019
 4808.00    1.68641   1.38175    0.018
 4809.00    1.58939   1.38867    0.018
 4810.00    1.49690   1.39097    0.018
 4811.00    1.46118   1.39416    0.018
 4812.00    1.45891   1.40147    0.018
 4813.00    1.44078   1.41292    0.018
 4814.00    1.41450   1.42648    0.018
 4815.00    1.47787   1.43905    0.018
 4816.00    1.58116   1.44782    0.018
 4817.00    1.63978   1.44971    0.018
 4818.00    1.68131   1.43973    0.019
 4819.00    1.69008   1.41344    0.019
 4820.00    1.68820   1.37381    0.018
 4821.00    1.64630   1.34082    0.018
 4822.00    1.59352   1.33900    0.018
 4823.00    1.58185   1.36376    0.018
 4824.00    1.57936   1.38494    0.018
 4825.00    1.46705   1.38583    0.018
 4826.00    1.33517   1.37549    0.018
 4827.00    1.28731   1.36661    0.018
 4828.00    1.25089   1.35806    0.018
 4829.00    1.23605   1.34673    0.018
 4830.00    1.22330   1.34383    0.018
 4831.00    1.31955   1.35794    0.018
 4832.00    1.42241   1.37687    0.018
 4833.00    1.34724   1.38572    0.018
 4834.00    1.26789   1.38370    0.018
 4835.00    1.28696   1.37323    0.018
 4836.00    1.30722   1.35338    0.018
 4837.00    1.35860   1.33214    0.018
 4838.00    1.40606   1.32325    0.018
 4839.00    1.40015   1.32641    0.018
 4840.00    1.39396   1.33067    0.018
 4841.00    1.38515   1.33722    0.018
 4842.00    1.37444   1.35462    0.018
 4843.00    1.35101   1.37342    0.018
 4844.00    1.35667   1.37307    0.018
 4845.00    1.51245   1.35115    0.018
 4846.00    1.63462   1.32893    0.018
 4847.00    1.61688   1.32665    0.018
 4848.00    1.58638   1.33867    0.000
 4849.00    1.51196   1.34434    0.000
 4850.00    1.44921   1.33286    0.000
 4851.00    1.42031   1.30166    0.000
 4852.00    1.40011   1.25627    0.000
 4853.00    1.40141   1.22002    0.000
 4854.00    1.41663   1.20970    0.000
 4855.00    1.46151   1.20254    0.000
 4856.00    1.46620   1.15813    0.000
 4857.00    1.39641   1.06856    0.000
 4858.00    1.35788   0.97506    0.000
 4859.00    1.36995   0.93926    0.000
 4860.00    1.36327   0.98440    0.000
 4861.00    1.32996   1.06991    0.000
 4862.00    1.32319   1.14588    0.000
 4863.00    1.34958   1.20018    0.000
 4864.00    1.35779   1.23763    0.000
 4865.00    1.34598   1.25942    0.000
 4866.00    1.34788   1.26435    0.000
 4867.00    1.36310   1.24693    0.000
 4868.00    1.32708   1.20860    0.000
 4869.00    1.24720   1.17782    0.000
 4870.00    1.21149   1.18615    0.000
 4871.00    1.20911   1.22467    0.000
 4872.00    1.23403   1.26011    0.000
 4873.00    1.27704   1.28086    0.000
 4874.00    1.29944   1.29720    0.000
 4875.00    1.30987   1.31743    0.019
 4876.00    1.33769   1.34132    0.019
 4877.00    1.37430   1.35796    0.019
 4878.00    1.33575   1.35226    0.018
 4879.00    1.26429   1.33181    0.018
 4880.00    1.16460   1.31838    0.018
 4881.00    1.05431   1.31052    0.019
 4882.00    1.10511   1.29237    0.019
 4883.00    1.20730   1.26839    0.019
 4884.00    1.44617   1.25716    0.019
 4885.00    1.72148   1.26076    0.019
 4886.00    1.55987   1.26021    0.019
 4887.00    1.30293   1.24081    0.019
 4888.00    1.30409   1.21642    0.019
 4889.00    1.34999   1.22378    0.018
 4890.00    1.33555   1.28026    0.018
 4891.00    1.31315   1.35799    0.018
 4892.00    1.28468   1.41939    0.018
 4893.00    1.25563   1.45108    0.019
 4894.00    1.47535   1.45750    0.019
 4895.00    1.70916   1.44612    0.019
 4896.00    1.63093   1.42142    0.019
 4897.00    1.54616   1.39237    0.018
 4898.00    1.52383   1.37388    0.019
 4899.00    1.50079   1.36725    0.019
 4900.00    1.46076   1.36053    0.019
 4901.00    1.42496   1.35720    0.018
 4902.00    1.44396   1.37228    0.018
 4903.00    1.45307   1.39986    0.019
 4904.00    1.37628   1.41299    0.018
 4905.00    1.32109   1.39510    0.018
 4906.00    1.40494   1.35460    0.018
 4907.00    1.47767   1.31358    0.018
 4908.00    1.49440   1.29422    0.018
 4909.00    1.48879   1.30550    0.018
 4910.00    1.39224   1.33565    0.018
 4911.00    1.32920   1.36758    0.018
 4912.00    1.37926   1.39301    0.018
 4913.00    1.42110   1.40232    0.018
 4914.00    1.43952   1.37838    0.018
 4915.00    1.44410   1.31451    0.018
 4916.00    1.41496   1.23074    0.018
 4917.00    1.37925   1.16611    0.017
 4918.00    1.32971   1.15177    0.018
 4919.00    1.30840   1.18590    0.018
 4920.00    1.33861   1.23390    0.018
 4921.00    1.35260   1.26441    0.017
 4922.00    1.34074   1.28288    0.017
 4923.00    1.33842   1.31170    0.017
 4924.00    1.34948   1.35177    0.018
 4925.00    1.30877   1.38789    0.017
 4926.00    1.20431   1.41390    0.017
 4927.00    1.19969   1.42884    0.017
 4928.00    1.30345   1.42755    0.017
 4929.00    1.33303   1.40468    0.017
 4930.00    1.29157   1.36283    0.017
 4931.00    1.32977   1.32392    0.017
 4932.00    1.43523   1.31344    0.017
 4933.00    1.51069   1.32063    0.017
 4934.00    1.56384   1.30929    0.018
 4935.00    1.56865   1.27227    0.017
 4936.00    1.54190   1.24365    0.017
 4937.00    1.50848   1.25744    0.017
 4938.00    1.47125   1.30846    0.017
 4939.00    1.45187   1.36237    0.017
 4940.00    1.44138   1.39686    0.000
 4941.00    1.49191   1.41156    0.000
 4942.00    1.56871   1.40941    0.000
 4943.00    1.56202   1.39861    0.000
 4944.00    1.52450   1.39603    0.000
 4945.00    1.43950   1.40755    0.000
 4946.00    1.33965   1.42239    0.000
 4947.00    1.34187   1.43209    0.000
 4948.00    1.37071   1.43590    0.000
 4949.00    1.42873   1.43141    0.000
 4950.00    1.49295   1.41685    0.000
 4951.00    1.56096   1.39665    0.000
 4952.00    1.62961   1.36887    0.000
 4953.00    1.54031   1.31930    0.000
 4954.00    1.43091   1.25027    0.000
 4955.00    1.46478   1.20619    0.000
 4956.00    1.51137   1.23017    0.000
 4957.00    1.38056   1.30075    0.000
 4958.00    1.24040   1.35971    0.000
 4959.00    1.33294   1.38288    0.000
 4960.00    1.42697   1.38309    0.000
 4961.00    1.28889   1.37034    0.000
 4962.00    1.15721   1.34409    0.000
 4963.00    1.16450   1.31367    0.000
 4964.00    1.17421   1.29559    0.000
 4965.00    1.21374   1.29361    0.000
 4966.00    1.26687   1.30068    0.000
 4967.00    1.43394   1.31233    0.000
 4968.00    1.56318   1.32862    0.000
 4969.00    1.45617   1.34926    0.000
 4970.00    1.36476   1.36978    0.000
 4971.00    1.34982   1.38460    0.000
 4972.00    1.37108   1.38984    0.000
 4973.00    1.53641   1.38297    0.000
 4974.00    1.64393   1.36444    0.000
 4975.00    1.56021   1.33796    0.000
 4976.00    1.50586   1.31062    0.000
 4977.00    1.53365   1.28591    0.000
 4978.00    1.50163   1.25477    0.000
 4979.00    1.32657   1.21064    0.000
 4980.00    1.24839   1.17058    0.000
 4981.00    1.37032   1.16040    0.000
 4982.00    1.42612   1.18495    0.000
 4983.00    1.36309   1.22999    0.000
 4984.00    1.33269   1.27885    0.000
 4985.00    1.35356   1.31445    0.000
 4986.00    1.37936   1.32485    0.000
 4987.00    1.41194   1.31509    0.000
 4988.00    1.47103   1.30256    0.000
 4989.00    1.56229   1.30026    0.000
 4990.00    1.60660   1.30535    0.000
 4991.00    1.60065   1.30984    0.000
 4992.00    1.54046   1.31642    0.000
 4993.00    1.42905   1.32664    0.000
 4994.00    1.34698   1.33062    0.000
 4995.00    1.28934   1.31894    0.000
 4996.00    1.30525   1.29099    0.000
 4997.00    1.37508   1.25723    0.000
 4998.00    1.40847   1.23396    0.000
 4999.00    1.41841   1.22815    0.000
 5000.00    1.45401   1.23170    0.000
 5001.00    1.50405   1.22863    0.000
 5002.00    1.50926   1.20870    0.000
 5003.00    1.49252   1.18393    0.000
 5004.00    1.39193   1.18331    0.000
 5005.00    1.25584   1.21730    0.000
 5006.00    1.40395   1.26028    0.000
 5007.00    1.65511   1.27935    0.000
 5008.00    1.57931   1.26423    0.000
 5009.00    1.40321   1.22457    0.000
 5010.00    1.44582   1.17967    0.000
 5011.00    1.54427   1.15128    0.000
 5012.00    1.37996   1.15154    0.000
 5013.00    1.16105   1.17144    0.000
 5014.00    1.18179   1.18803    0.000
 5015.00    1.24175   1.19262    0.000
 5016.00    1.25101   1.19855    0.000
 5017.00    1.25404   1.21304    0.000
 5018.00    1.31675   1.22418    0.000
 5019.00    1.38449   1.22482    0.000
 5020.00    1.37149   1.22777    0.000
 5021.00    1.35455   1.24387    0.000
 5022.00    1.46171   1.26253    0.000
 5023.00    1.56737   1.26692    0.000
 5024.00    1.46457   1.25585    0.000
 5025.00    1.36470   1.24716    0.000
 5026.00    1.32358   1.25785    0.000
 5027.00    1.28350   1.28309    0.000
 5028.00    1.25548   1.30931    0.000
 5029.00    1.24553   1.33328    0.016
 5030.00    1.38152   1.35118    0.016
 5031.00    1.50886   1.34778    0.016
 5032.00    1.58374   1.31446    0.016
 5033.00    1.63726   1.27001    0.016
 5034.00    1.58864   1.24226    0.017
 5035.00    1.53460   1.22834    0.017
 5036.00    1.45950   1.20094    0.017
 5037.00    1.38709   1.15210    0.017
 5038.00    1.32342   1.11066    0.016
 5039.00    1.30808   1.11650    0.016
 5040.00    1.42539   1.17603    0.016
 5041.00    1.50687   1.25481    0.016
 5042.00    1.50409   1.31821    0.016
 5043.00    1.46878   1.35199    0.016
 5044.00    1.36734   1.34926    0.016
 5045.00    1.29624   1.31246    0.016
 5046.00    1.27883   1.26414    0.016
 5047.00    1.31052   1.23143    0.016
 5048.00    1.41824   1.22272    0.016
 5049.00    1.42455   1.23243    0.016
 5050.00    1.29300   1.25638    0.016
 5051.00    1.26950   1.28862    0.017
 5052.00    1.37534   1.31707    0.017
 5053.00    1.41796   1.33322    0.017
 5054.00    1.39384   1.33999    0.017
 5055.00    1.36308   1.34484    0.017
 5056.00    1.32613   1.35074    0.017
 5057.00    1.31744   1.35841    0.017
 5058.00    1.33193   1.36738    0.017
 5059.00    1.32404   1.36882    0.017
 5060.00    1.29999   1.34820    0.017
 5061.00    1.36681   1.30331    0.017
 5062.00    1.49126   1.25725    0.017
 5063.00    1.41365   1.23731    0.017
 5064.00    1.22404   1.24144    0.017
 5065.00    1.19781   1.25013    0.017
 5066.00    1.25035   1.25881    0.017
 5067.00    1.31228   1.27052    0.017
 5068.00    1.37813   1.27559    0.017
 5069.00    1.31903   1.26774    0.017
 5070.00    1.21544   1.26072    0.017
 5071.00    1.19096   1.26476    0.017
 5072.00    1.19028   1.27122    0.017
 5073.00    1.22971   1.27286    0.017
 5074.00    1.27917   1.26914    0.017
 5075.00    1.31325   1.24943    0.017
 5076.00    1.34421   1.20550    0.017
 5077.00    1.29311   1.16020    0.017
 5078.00    1.22897   1.14636    0.017
 5079.00    1.23516   1.16405    0.017
 5080.00    1.24966   1.18970    0.016
 5081.00    1.26691   1.21344    0.017
 5082.00    1.28438   1.23898    0.017
 5083.00    1.20396   1.26252    0.016
 5084.00    1.11914   1.27603    0.016
 5085.00    1.24567   1.28166    0.016
 5086.00    1.37319   1.28702    0.016
 5087.00    1.42554   1.29390    0.016
 5088.00    1.47282   1.30191    0.016
 5089.00    1.42572   1.31389    0.016
 5090.00    1.37637   1.32801    0.016
 5091.00    1.30208   1.33324    0.016
 5092.00    1.23184   1.32054    0.016
 5093.00    1.19312   1.29128    0.016
 5094.00    1.15074   1.25208    0.016
 5095.00    1.08685   1.21109    0.016
 5096.00    1.04377   1.18387    0.016
 5097.00    1.09781   1.18856    0.016
 5098.00    1.16343   1.22238    0.016
 5099.00    1.27315   1.25864    0.016
 5100.00    1.35779   1.27471    0.016
 5101.00    1.36261   1.27047    0.016
 5102.00    1.34895   1.25739    0.016
 5103.00    1.28545   1.24130    0.016
 5104.00    1.22267   1.22287    0.015
 5105.00    1.16154   1.20747    0.016
 5106.00    1.12244   1.20073    0.016
 5107.00    1.12743   1.20307    0.016
 5108.00    1.14243   1.21648    0.016
 5109.00    1.17485   1.23971    0.016
 5110.00    1.20324   1.26311    0.016
 5111.00    1.22547   1.28013    0.016
 5112.00    1.22749   1.29240    0.016
 5113.00    1.20241   1.30461    0.016
 5114.00    1.27837   1.31864    0.016
 5115.00    1.47356   1.32869    0.016
 5116.00    1.52392   1.32589    0.016
 5117.00    1.42357   1.30795    0.016
 5118.00    1.33036   1.27947    0.017
 5119.00    1.24371   1.24496    0.017
 5120.00    1.27510   1.20794    0.016
 5121.00    1.40201   1.17829    0.016
 5122.00    1.47321   1.16713    0.016
 5123.00    1.50477   1.17200    0.016
 5124.00    1.50663   1.17955    0.016
 5125.00    1.48995   1.18190    0.016
 5126.00    1.46633   1.18241    0.016
 5127.00    1.43891   1.18945    0.016
 5128.00    1.41342   1.20605    0.016
 5129.00    1.38883   1.22548    0.016
 5130.00    1.32887   1.24077    0.017
 5131.00    1.25443   1.25371    0.016
 5132.00    1.23257   1.26513    0.016
 5133.00    1.22908   1.26445    0.016
 5134.00    1.28167   1.24406    0.016
 5135.00    1.35080   1.21343    0.016
 5136.00    1.25925   1.19086    0.016
 5137.00    1.12845   1.18777    0.016
 5138.00    1.12018   1.19433    0.016
 5139.00    1.13612   1.19211    0.016
 5140.00    1.18725   1.18553    0.016
 5141.00    1.24381   1.18947    0.017
 5142.00    1.23866   1.19715    0.017
 5143.00    1.22649   1.19416    0.016
 5144.00    1.11421   1.18493    0.016
 5145.00    0.99430   1.18377    0.016
 5146.00    1.07337   1.19243    0.016
 5147.00    1.16063   1.19781    0.016
 5148.00    1.20411   1.19079    0.016
 5149.00    1.24696   1.17753    0.016
 5150.00    1.27806   1.16939    0.016
 5151.00    1.30905   1.17326    0.016
 5152.00    1.33799   1.19213    0.016
 5153.00    1.35952   1.22339    0.016
 5154.00    1.30219   1.25685    0.016
 5155.00    1.24095   1.28068    0.016
 5156.00    1.15034   1.29070    0.016
 5157.00    1.08613   1.29078    0.016
 5158.00    1.17314   1.28257    0.016
 5159.00    1.26449   1.26472    0.016
 5160.00    1.37554   1.23958    0.016
 5161.00    1.45522   1.20428    0.017
 5162.00    1.41784   1.14525    0.016
 5163.00    1.37771   1.05905    0.016
 5164.00    1.32899   0.97229    0.016
 5165.00    1.25889   0.92792    0.016
 5166.00    1.13219   0.94299    0.016
 5167.00    1.02150   0.98145    0.016
 5168.00    0.94723   0.98597    0.016
 5169.00    0.93588   0.94800    0.015
 5170.00    1.04841   0.92552    0.016
 5171.00    1.11261   0.97005    0.016
 5172.00    1.09388   1.06258    0.016
 5173.00    1.10223   1.14692    0.016
 5174.00    1.15127   1.19536    0.016
 5175.00    1.16858   1.21490    0.016
 5176.00    1.14398   1.21524    0.016
 5177.00    1.11942   1.19495    0.016
 5178.00    1.09488   1.14554    0.016
 5179.00    1.05679   1.06274    0.016
 5180.00    1.00479   0.97059    0.016
 5181.00    1.04647   0.92591    0.016
 5182.00    1.17293   0.96656    0.016
 5183.00    1.15062   1.06343    0.015
 5184.00    1.00967   1.15261    0.015
 5185.00    1.02028   1.20173    0.015
 5186.00    1.13721   1.22089    0.015
 5187.00    1.19932   1.22079    0.015
 5188.00    1.22768   1.19557    0.015
 5189.00    1.23709   1.15471    0.015
 5190.00    1.23632   1.13032    0.000
 5191.00    1.18739   1.13605    0.000
 5192.00    1.11597   1.15519    0.000
 5193.00    1.12970   1.17450    0.000
 5194.00    1.17767   1.19611    0.000
 5195.00    1.16601   1.22120    0.000
 5196.00    1.13387   1.24448    0.000
 5197.00    1.16885   1.25909    0.000
 5198.00    1.22321   1.26029    0.000
 5199.00    1.17615   1.24775    0.000
 5200.00    1.10486   1.22178    0.000
 5201.00    1.07936   1.18094    0.000
 5202.00    1.06268   1.13265    0.000
 5203.00    1.09052   1.09517    0.000
 5204.00    1.12502   1.07694    0.000
 5205.00    1.17806   1.07182    0.000
 5206.00    1.23314   1.08004    0.000
 5207.00    1.26886   1.11028    0.000
 5208.00    1.30318   1.16101    0.000
 5209.00    1.30207   1.21652    0.000
 5210.00    1.29964   1.25656    0.000
 5211.00    1.34845   1.26618    0.016
 5212.00    1.39382   1.24736    0.016
 5213.00    1.30488   1.22221    0.016
 5214.00    1.22347   1.21592    0.016
 5215.00    1.26413   1.23512    0.016
 5216.00    1.30307   1.26629    0.016
 5217.00    1.32455   1.29250    0.016
 5218.00    1.34767   1.30508    0.016
 5219.00    1.38275   1.30027    0.016
 5220.00    1.39692   1.27435    0.016
 5221.00    1.29462   1.22683    0.016
 5222.00    1.20567   1.16499    0.016
 5223.00    1.17609   1.10764    0.016
 5224.00    1.13856   1.08403    0.016
 5225.00    1.07200   1.11242    0.016
 5226.00    1.03877   1.17523    0.016
 5227.00    1.10755   1.23306    0.016
 5228.00    1.18044   1.25923    0.016
 5229.00    1.26399   1.25101    0.016
 5230.00    1.30186   1.22483    0.016
 5231.00    1.23757   1.20716    0.016
 5232.00    1.21465   1.21533    0.016
 5233.00    1.27190   1.24568    0.016
 5234.00    1.28586   1.28074    0.016
 5235.00    1.22665   1.30418    0.016
 5236.00    1.20807   1.31186    0.016
 5237.00    1.24967   1.31097    0.016
 5238.00    1.29130   1.30892    0.016
 5239.00    1.33295   1.30768    0.015
 5240.00    1.29462   1.30909    0.015
 5241.00    1.16454   1.31372    0.015
 5242.00    1.13872   1.31096    0.015
 5243.00    1.21834   1.28753    0.015
 5244.00    1.26023   1.25106    0.015
 5245.00    1.26845   1.22395    0.015
 5246.00    1.23723   1.21243    0.015
 5247.00    1.17501   1.20675    0.015
 5248.00    1.21153   1.20653    0.015
 5249.00    1.31633   1.21751    0.015
 5250.00    1.25213   1.23169    0.015
 5251.00    1.08550   1.23634    0.015
 5252.00    1.02815   1.23722    0.015
 5253.00    1.02862   1.25343    0.015
 5254.00    1.13257   1.28876    0.015
 5255.00    1.28403   1.32353    0.015
 5256.00    1.28239   1.33563    0.015
 5257.00    1.22022   1.31693    0.016
 5258.00    1.24842   1.27122    0.016
 5259.00    1.30705   1.20936    0.016
 5260.00    1.28827   1.14584    0.016
 5261.00    1.24757   1.09351    0.016
 5262.00    1.18375   1.06145    0.016
 5263.00    1.11453   1.05601    0.016
 5264.00    1.08971   1.07001    0.016
 5265.00    1.07322   1.07436    0.016
 5266.00    1.06357   1.05130    0.016
 5267.00    1.05491   1.03107    0.016
 5268.00    1.16629   1.05562    0.016
 5269.00    1.29029   1.11664    0.016
 5270.00    1.13903   1.16968    0.017
 5271.00    0.96901   1.19169    0.017
 5272.00    1.14066   1.19681    0.017
 5273.00    1.32377   1.21229    0.017
 5274.00    1.32632   1.24964    0.017
 5275.00    1.32843   1.29152    0.017
 5276.00    1.32251   1.31054    0.017
 5277.00    1.31396   1.29795    0.016
 5278.00    1.26542   1.26640    0.016
 5279.00    1.23218   1.23329    0.016
 5280.00    1.34826   1.21252    0.016
 5281.00    1.44397   1.21704    0.016
 5282.00    1.39628   1.25216    0.016
 5283.00    1.36177   1.30220    0.016
 5284.00    1.39871   1.33965    0.016
 5285.00    1.41995   1.35330    0.016
 5286.00    1.37295   1.35498    0.016
 5287.00    1.35217   1.35800    0.016
 5288.00    1.42522   1.36118    0.016
 5289.00    1.45958   1.35708    0.016
 5290.00    1.37774   1.34541    0.016
 5291.00    1.32964   1.32976    0.016
 5292.00    1.36776   1.30573    0.016
 5293.00    1.38475   1.26502    0.015
 5294.00    1.35522   1.21505    0.015
 5295.00    1.32125   1.18266    0.015
 5296.00    1.27881   1.18652    0.015
 5297.00    1.27531   1.21386    0.015
 5298.00    1.33662   1.23943    0.015
 5299.00    1.37220   1.25861    0.015
 5300.00    1.37022   1.28369    0.015
 5301.00    1.37143   1.31649    0.015
 5302.00    1.37675   1.34232    0.015
 5303.00    1.39542   1.34901    0.015
 5304.00    1.42917   1.34209    0.015
 5305.00    1.42940   1.33790    0.015
 5306.00    1.39619   1.34464    0.015
 5307.00    1.33662   1.35519    0.015
 5308.00    1.25385   1.35880    0.015
 5309.00    1.22314   1.35286    0.015
 5310.00    1.23278   1.34197    0.015
 5311.00    1.24518   1.33024    0.015
 5312.00    1.25945   1.31732    0.015
 5313.00    1.31097   1.30311    0.015
 5314.00    1.38473   1.29357    0.015
 5315.00    1.41852   1.29409    0.015
 5316.00    1.43149   1.30061    0.015
 5317.00    1.41425   1.30474    0.015
 5318.00    1.38337   1.30189    0.015
 5319.00    1.32171   1.28954    0.015
 5320.00    1.24809   1.26710    0.015
 5321.00    1.29834   1.24174    0.015
 5322.00    1.38952   1.22137    0.015
 5323.00    1.31279   1.19639    0.015
 5324.00    1.18949   1.14994    0.015
 5325.00    1.16170   1.09705    0.015
 5326.00    1.15570   1.08342    0.015
 5327.00    1.17011   1.12778    0.015
 5328.00    1.18824   1.19568    0.015
 5329.00    1.22781   1.24509    0.015
 5330.00    1.27039   1.27014    0.015
 5331.00    1.34342   1.28762    0.015
 5332.00    1.41952   1.30357    0.015
 5333.00    1.32218   1.31060    0.015
 5334.00    1.21371   1.30489    0.015
 5335.00    1.17246   1.28786    0.015
 5336.00    1.13346   1.25936    0.015
 5337.00    1.20147   1.22694    0.015
 5338.00    1.26562   1.21186    0.015
 5339.00    1.21972   1.22702    0.015
 5340.00    1.18413   1.25780    0.015
 5341.00    1.29632   1.27888    0.015
 5342.00    1.40702   1.28078    0.015
 5343.00    1.50378   1.27207    0.015
 5344.00    1.56616   1.26229    0.015
 5345.00    1.39412   1.25270    0.015
 5346.00    1.24158   1.24668    0.015
 5347.00    1.19204   1.25484    0.015
 5348.00    1.15682   1.27944    0.014
 5349.00    1.18243   1.30775    0.014
 5350.00    1.20847   1.32920    0.014
 5351.00    1.23602   1.34632    0.014
 5352.00    1.27762   1.36332    0.014
 5353.00    1.36061   1.37705    0.014
 5354.00    1.41765   1.38385    0.015
 5355.00    1.40950   1.38461    0.014
 5356.00    1.39440   1.38007    0.014
 5357.00    1.36428   1.36786    0.014
 5358.00    1.35253   1.34706    0.014
 5359.00    1.37530   1.32280    0.014
 5360.00    1.39142   1.30225    0.014
 5361.00    1.39665   1.28719    0.014
 5362.00    1.39719   1.27620    0.014
 5363.00    1.39100   1.26961    0.014
 5364.00    1.37788   1.26522    0.014
 5365.00    1.35599   1.25419    0.015
 5366.00    1.30744   1.22752    0.015
 5367.00    1.22917   1.18952    0.014
 5368.00    1.19700   1.16379   -2.000
 5369.00    1.21016   1.17554   -2.000
 5370.00    1.22934   1.22379   -2.000
 5371.00    1.25374   1.28057   -2.000
 5372.00    1.35209   1.31880   -2.000
 5373.00    1.50693   1.33212   -2.000
 5374.00    1.52262   1.33087   -2.000
 5375.00    1.44486   1.32706   -2.000
 5376.00    1.42176   1.32328   -2.000
 5377.00    1.43080   1.31558   -2.000
 5378.00    1.41581   1.30349   -2.000
 5379.00    1.38850   1.29150   -2.000
 5380.00    1.38474   1.28519   -2.000
 5381.00    1.39145   1.28878   -2.000
 5382.00    1.34210   1.30031   -2.000
 5383.00    1.27136   1.31039    0.015
 5384.00    1.24913   1.31068    0.015
 5385.00    1.24264   1.29963    0.015
 5386.00    1.30615   1.28072    0.015
 5387.00    1.38867   1.26040    0.015
 5388.00    1.37613   1.24519    0.014
 5389.00    1.34240   1.23711    0.014
 5390.00    1.28691   1.23351    0.014
 5391.00    1.22754   1.22951    0.014
 5392.00    1.17229   1.21844    0.014
 5393.00    1.11759   1.19776    0.014
 5394.00    1.13993   1.17992    0.014
 5395.00    1.16971   1.18390    0.014
 5396.00    1.23259   1.20952    0.014
 5397.00    1.29747   1.23719    0.014
 5398.00    1.27236   1.25291    0.014
 5399.00    1.24484   1.25269    0.014
 5400.00    1.20513   1.23108    0.014
 5401.00    1.16898   1.18886    0.014
 5402.00    1.22451   1.14631    0.014
 5403.00    1.27837   1.13003    0.014
 5404.00    1.30945   1.14492    0.014
 5405.00    1.33613   1.16887    0.014
 5406.00    1.32319   1.18054    0.014
 5407.00    1.30266   1.18505    0.014
 5408.00    1.23195   1.20169    0.014
 5409.00    1.18495   1.23283    0.014
 5410.00    1.25987   1.26130    0.014
 5411.00    1.31314   1.27551    0.014
 5412.00    1.27647   1.28237    0.013
 5413.00    1.25482   1.29304    0.013
 5414.00    1.28475   1.30588    0.014
 5415.00    1.30316   1.31019    0.014
 5416.00    1.28827   1.30192    0.014
 5417.00    1.27299   1.28890    0.014
 5418.00    1.25676   1.28085    0.014
 5419.00    1.27594   1.27722    0.014
 5420.00    1.37049   1.26969    0.014
 5421.00    1.43159   1.25991    0.014
 5422.00    1.43086   1.26239    0.014
 5423.00    1.41196   1.28078    0.014
 5424.00    1.36373   1.29413    0.014
 5425.00    1.34111   1.27881    0.014
 5426.00    1.35478   1.24027    0.014
 5427.00    1.35635   1.21058    0.014
 5428.00    1.34283   1.20783    0.014
 5429.00    1.28192   1.21501    0.014
 5430.00    1.16892   1.20990    0.014
 5431.00    1.18947   1.19496    0.014
 5432.00    1.33951   1.18833    0.014
 5433.00    1.36649   1.20206    0.014
 5434.00    1.28827   1.23478    0.014
 5435.00    1.25264   1.27593    0.014
 5436.00    1.24908   1.31257    0.014
 5437.00    1.25541   1.33626    0.014
 5438.00    1.26828   1.34652    0.014
 5439.00    1.34249   1.34650    0.014
 5440.00    1.45224   1.33538    0.014
 5441.00    1.42252   1.30704    0.014
 5442.00    1.32239   1.26003    0.014
 5443.00    1.26925   1.20961    0.014
 5444.00    1.23665   1.18353    0.014
 5445.00    1.22028   1.19724    0.014
 5446.00    1.20998   1.23617    0.014
 5447.00    1.21672   1.27143    0.014
 5448.00    1.22889   1.28658    0.014
 5449.00    1.24090   1.28130    0.013
 5450.00    1.25285   1.25902    0.013
 5451.00    1.23546   1.22399    0.013
 5452.00    1.21167   1.19093    0.013
 5453.00    1.20339   1.18338    0.013
 5454.00    1.19779   1.21014    0.013
 5455.00    1.21695   1.25152    0.013
 5456.00    1.23936   1.27906    0.013
 5457.00    1.21133   1.28075    0.013
 5458.00    1.17863   1.26260    0.013
 5459.00    1.21641   1.23769    0.013
 5460.00    1.25815   1.22066    0.013
 5461.00    1.33439   1.22170    0.013
 5462.00    1.41107   1.23696    0.013
 5463.00    1.45362   1.25328    0.013
 5464.00    1.49594   1.26362    0.013
 5465.00    1.53265   1.26822    0.013
 5466.00    1.56519   1.26648    0.013
 5467.00    1.54399   1.25888    0.013
 5468.00    1.51642   1.24964    0.013
 5469.00    1.43360   1.24053    0.013
 5470.00    1.35757   1.22908    0.013
 5471.00    1.32505   1.21327    0.013
 5472.00    1.29414   1.19149    0.013
 5473.00    1.27131   1.16717    0.013
 5474.00    1.25679   1.15645    0.013
 5475.00    1.27602   1.17215    0.013
 5476.00    1.28026   1.20004    0.013
 5477.00    1.23404   1.21326    0.013
 5478.00    1.20152   1.20743   -2.000
 5479.00    1.20790   1.20310   -2.000
 5480.00    1.24272   1.21672   -2.000
 5481.00    1.34659   1.24324   -2.000
 5482.00    1.38691   1.26447   -2.000
 5483.00    1.29411   1.26642   -2.000
 5484.00    1.20062   1.25198   -2.000
 5485.00    1.10590   1.23770   -2.000
 5486.00    1.08592   1.23553   -2.000
 5487.00    1.18495   1.24319   -2.000
 5488.00    1.32714   1.25235   -2.000
 5489.00    1.52963   1.25694   -2.000
 5490.00    1.62619   1.25576   -2.000
 5491.00    1.59250   1.25299   -2.000
 5492.00    1.47928   1.25147   -2.000
 5493.00    1.27989   1.24804   -2.000
 5494.00    1.23600   1.24307   -2.000
 5495.00    1.34077   1.24478   -2.000
 5496.00    1.39821   1.25359   -2.000
 5497.00    1.41574   1.25610   -2.000
 5498.00    1.41224   1.24480   -2.000
 5499.00    1.39314   1.23000   -2.000
 5500.00    1.39671   1.22377   -2.000
 5501.00    1.41508   1.22357   -2.000
 5502.00    1.41435   1.21943    0.013
 5503.00    1.40272   1.21134    0.013
 5504.00    1.34933   1.21051    0.013
 5505.00    1.27519   1.22159    0.013
 5506.00    1.31433   1.23360    0.013
 5507.00    1.40213   1.23325    0.013
 5508.00    1.36991   1.21832    0.013
 5509.00    1.29348   1.19745    0.013
 5510.00    1.23035   1.18346    0.013
 5511.00    1.17138   1.18430    0.013
 5512.00    1.19746   1.19831    0.013
 5513.00    1.24568   1.21919    0.013
 5514.00    1.23212   1.24251    0.013
 5515.00    1.20543   1.26491    0.013
 5516.00    1.24720   1.28102    0.013
 5517.00    1.30045   1.28688    0.013
 5518.00    1.27853   1.28497    0.013
 5519.00    1.24709   1.28103    0.013
 5520.00    1.27284   1.27726    0.013
 5521.00    1.30364   1.27063    0.013
 5522.00    1.28595   1.25641    0.013
 5523.00    1.26572   1.23298    0.013
 5524.00    1.24416   1.20586    0.013
 5525.00    1.22199   1.18864    0.013
 5526.00    1.15520   1.19383    0.013
 5527.00    1.09693   1.21796    0.013
 5528.00    1.22219   1.24268    0.013
 5529.00    1.33768   1.25355    0.013
 5530.00    1.33411   1.25050    0.013
 5531.00    1.32961   1.24138    0.013
 5532.00    1.31736   1.23455    0.013
 5533.00    1.30588   1.23514    0.013
 5534.00    1.29912   1.24207    0.013
 5535.00    1.29841   1.25161    0.013
 5536.00    1.32726   1.26293    0.013
 5537.00    1.34302   1.27487    0.013
 5538.00    1.30679   1.28145    0.013
 5539.00    1.30212   1.27739    0.013
 5540.00    1.40164   1.26593    0.013
 5541.00    1.44935   1.25593    0.013
 5542.00    1.35259   1.25246    0.013
 5543.00    1.29247   1.25558    0.013
 5544.00    1.31982   1.26524    0.013
 5545.00    1.34622   1.27988    0.013
 5546.00    1.37066   1.29348    0.013
 5547.00    1.36928   1.30009    0.013
 5548.00    1.32161   1.29798    0.013
 5549.00    1.28497   1.28812    0.013
 5550.00    1.26562   1.27364    0.013
 5551.00    1.25469   1.26081    0.013
 5552.00    1.25537   1.25532    0.013
 5553.00    1.27743   1.25648    0.013
 5554.00    1.32539   1.25906    0.013
 5555.00    1.28128   1.26035    0.013
 5556.00    1.13879   1.26075    0.013
 5557.00    1.10715   1.25922    0.013
 5558.00    1.17997   1.25325    0.013
 5559.00    1.21217   1.24320    0.013
 5560.00    1.21060   1.23329    0.013
 5561.00    1.21599   1.22669    0.013
 5562.00    1.22647   1.22220    0.013
 5563.00    1.22859   1.21824    0.013
 5564.00    1.22533   1.21584    0.013
 5565.00    1.22723   1.21534    0.013
 5566.00    1.23203   1.21623    0.013
 5567.00    1.23096   1.21898    0.012
 5568.00    1.22703   1.22126    0.012
 5569.00    1.24409   1.21942    0.012
 5570.00    1.27001   1.21778    0.013
 5571.00    1.23416   1.22372    0.013
 5572.00    1.17596   1.23461    0.013
 5573.00    1.15951   1.24303    0.013
 5574.00    1.15582   1.24803    0.012
 5575.00    1.17422   1.25199    0.013
 5576.00    1.19825   1.25509    0.013
 5577.00    1.23484   1.25591    0.013
 5578.00    1.27405   1.25306    0.013
 5579.00    1.32121   1.24759    0.013
 5580.00    1.36966   1.24129    0.013
 5581.00    1.31008   1.23088    0.013
 5582.00    1.23730   1.20972    0.013
 5583.00    1.21874   1.17730    0.013
 5584.00    1.20474   1.14378    0.012
 5585.00    1.14708   1.12344    0.013
 5586.00    1.08730   1.12396    0.013
 5587.00    1.09578   1.14147    0.013
 5588.00    1.10554   1.16375    0.013
 5589.00    1.13032   1.17912    0.013
 5590.00    1.15447   1.18549    0.013
 5591.00    1.16609   1.19138    0.013
 5592.00    1.18166   1.20503    0.013
 5593.00    1.24303   1.22101    0.013
 5594.00    1.29121   1.22425    0.013
 5595.00    1.23334   1.21033    0.013
 5596.00    1.18630   1.19046    0.013
 5597.00    1.20465   1.17431    0.013
 5598.00    1.22150   1.16258    0.013
 5599.00    1.23123   1.15785    0.013
 5600.00    1.22854   1.16853    0.013
 5601.00    1.17766   1.19756    0.013
 5602.00    1.13572   1.23468    0.013
 5603.00    1.12268   1.26484    0.013
 5604.00    1.12928   1.28055    0.013
 5605.00    1.18966   1.28437    0.013
 5606.00    1.22621   1.28313    0.013
 5607.00    1.20684   1.28250    0.013
 5608.00    1.19653   1.28351    0.013
 5609.00    1.20461   1.28007    0.013
 5610.00    1.22887   1.26108    0.013
 5611.00    1.28167   1.22252    0.013
 5612.00    1.28936   1.18026    0.012
 5613.00    1.22735   1.16030    0.013
 5614.00    1.18227   1.17026    0.013
 5615.00    1.16016   1.19252    0.013
 5616.00    1.14421   1.20924    0.013
 5617.00    1.13562   1.21930    0.012
 5618.00    1.11819   1.22710    0.012
 5619.00    1.09147   1.22818    0.012
 5620.00    1.08374   1.21480    0.012
 5621.00    1.09366   1.19180    0.012
 5622.00    1.13495   1.17698    0.012
 5623.00    1.20194   1.18203    0.012
 5624.00    1.20741   1.20150    0.012
 5625.00    1.16853   1.22383    0.012
 5626.00    1.15122   1.24318    0.012
 5627.00    1.14756   1.25743    0.012
 5628.00    1.16506   1.26428    0.012
 5629.00    1.19428   1.26282    0.012
 5630.00    1.21667   1.25474    0.012
 5631.00    1.23578   1.24277    0.012
 5632.00    1.24703   1.22904    0.012
 5633.00    1.25500   1.21552    0.012
 5634.00    1.24220   1.20560    0.012
 5635.00    1.22202   1.20236    0.012
 5636.00    1.18667   1.20372    0.012
 5637.00    1.14678   1.20359    0.012
 5638.00    1.17801   1.20049    0.012
 5639.00    1.22696   1.19953    0.012
 5640.00    1.22450   1.20405    0.012
 5641.00    1.21164   1.21176    0.012
 5642.00    1.20528   1.21962    0.012
 5643.00    1.19994   1.22651    0.012
 5644.00    1.18186   1.23127    0.012
 5645.00    1.16228   1.23232    0.012
 5646.00    1.20839   1.23078    0.012
 5647.00    1.25976   1.23131    0.012
 5648.00    1.19615   1.23675    0.012
 5649.00    1.12743   1.24274    0.012
 5650.00    1.19486   1.24148    0.012
 5651.00    1.26234   1.23132    0.012
 5652.00    1.25707   1.21767    0.012
 5653.00    1.24929   1.20217    0.012
 5654.00    1.19516   1.18028    0.012
 5655.00    1.14259   1.15638    0.012
 5656.00    1.10730   1.14678    0.012
 5657.00    1.07591   1.15675    0.012
 5658.00    1.07469   1.17146    0.012
 5659.00    1.08030   1.17939    0.012
 5660.00    1.12599   1.18642    0.012
 5661.00    1.16573   1.19988    0.012
 5662.00    1.17774   1.21407    0.012
 5663.00    1.19027   1.21880    0.012
 5664.00    1.20481   1.21333    0.012
 5665.00    1.21093   1.20630    0.012
 5666.00    1.19031   1.20537    0.012
 5667.00    1.16730   1.21194    0.012
 5668.00    1.13783   1.22438    0.012
 5669.00    1.11526   1.24024    0.012
 5670.00    1.10862   1.25437    0.012
 5671.00    1.11980   1.26135    0.012
 5672.00    1.16660   1.26184    0.012
 5673.00    1.18578   1.26122    0.012
 5674.00    1.15691   1.26109    0.012
 5675.00    1.15306   1.25831    0.012
 5676.00    1.18733   1.25162    0.012
 5677.00    1.19181   1.24208    0.012
 5678.00    1.15644   1.22920    0.012
 5679.00    1.13978   1.21429    0.012
 5680.00    1.14516   1.20404    0.012
 5681.00    1.14202   1.20289    0.012
 5682.00    1.13005   1.20536    0.012
 5683.00    1.13053   1.20290    0.012
 5684.00    1.14244   1.19564    0.012
 5685.00    1.16525   1.19244    0.012
 5686.00    1.19686   1.20021    0.012
 5687.00    1.22110   1.21706    0.012
 5688.00    1.24012   1.23564    0.012
 5689.00    1.24469   1.24952    0.012
 5690.00    1.24027   1.25578    0.012
 5691.00    1.21961   1.25539    0.012
 5692.00    1.19011   1.25192    0.012
 5693.00    1.17837   1.24685    0.012
 5694.00    1.17505   1.23808    0.012
 5695.00    1.16535   1.22498    0.012
 5696.00    1.15304   1.21058    0.012
 5697.00    1.16775   1.19744    0.012
 5698.00    1.19188   1.18738    0.012
 5699.00    1.16545   1.18431    0.012
 5700.00    1.12415   1.18972    0.012
 5701.00    1.15974   1.19657    0.012
 5702.00    1.21406   1.19462    0.012
 5703.00    1.22076   1.18079    0.012
 5704.00    1.21809   1.16042    0.012
 5705.00    1.18720   1.14104    0.012
 5706.00    1.15199   1.12884    0.012
 5707.00    1.16029   1.12709    0.012
 5708.00    1.17353   1.13552    0.012
 5709.00    1.23963   1.15323    0.012
 5710.00    1.30974   1.17823    0.012
 5711.00    1.28503   1.20385    0.012
 5712.00    1.25647   1.22283    0.012
 5713.00    1.20127   1.23345    0.012
 5714.00    1.14662   1.23864    0.012
 5715.00    1.12323   1.24248    0.012
 5716.00    1.10379   1.24807    0.012
 5717.00    1.15219   1.25591    0.012
 5718.00    1.20180   1.26467    0.012
 5719.00    1.26425   1.27234    0.012
 5720.00    1.31654   1.27630    0.012
 5721.00    1.29268   1.27409    0.012
 5722.00    1.26695   1.26479    0.012
 5723.00    1.23051   1.25082    0.012
 5724.00    1.20314   1.23929    0.012
 5725.00    1.21699   1.23671    0.012
 5726.00    1.23049   1.24018    0.012
 5727.00    1.24268   1.24046    0.012
 5728.00    1.24412   1.23566    0.012
 5729.00    1.21211   1.23414    0.012
 5730.00    1.18612   1.24160    0.012
 5731.00    1.17602   1.25301    0.012
 5732.00    1.17666   1.25992    0.012
 5733.00    1.20168   1.25964    0.012
 5734.00    1.22094   1.25557    0.012
 5735.00    1.22888   1.25187    0.012
 5736.00    1.23837   1.24996    0.012
 5737.00    1.25052   1.24879    0.012
 5738.00    1.23956   1.24686    0.012
 5739.00    1.19395   1.24460    0.012
 5740.00    1.16893   1.24516    0.000
 5741.00    1.17108   1.25071    0.000
 5742.00    1.14619   1.25732    0.000
 5743.00    1.08992   1.25688    0.000
 5744.00    1.07299   1.24713    0.000
 5745.00    1.09636   1.23679    0.000
 5746.00    1.15251   1.23564    0.000
 5747.00    1.23825   1.24080    0.000
 5748.00    1.25707   1.23915    0.000
 5749.00    1.22262   1.22373    0.000
 5750.00    1.22174   1.20330    0.000
 5751.00    1.24438   1.19447    0.000
 5752.00    1.29386   1.20555    0.000
 5753.00    1.35983   1.22918    0.000
 5754.00    1.36586   1.25020    0.000
 5755.00    1.33973   1.25779    0.000
 5756.00    1.28244   1.24978    0.000
 5757.00    1.21064   1.23056    0.000
 5758.00    1.13718   1.20864    0.000
 5759.00    1.06306   1.19482    0.000
 5760.00    1.05614   1.19788    0.000
 5761.00    1.07223   1.21722    0.000
 5762.00    1.12846   1.24168    0.000
 5763.00    1.19627   1.25949    0.000
 5764.00    1.21814   1.26719    0.000
 5765.00    1.22908   1.26753    0.000
 5766.00    1.21443   1.26373    0.000
 5767.00    1.19487   1.25757    0.000
 5768.00    1.19179   1.25013    0.000
 5769.00    1.19116   1.24287    0.000
 5770.00    1.20495   1.23741    0.000
 5771.00    1.22032   1.23485    0.000
 5772.00    1.26108   1.23594    0.000
 5773.00    1.30367   1.24002    0.000
 5774.00    1.27293   1.24292    0.000
 5775.00    1.23948   1.23798    0.000
 5776.00    1.27100   1.22048    0.000
 5777.00    1.30193   1.19273    0.000
 5778.00    1.30164   1.16548    0.000
 5779.00    1.29629   1.14972    0.000
 5780.00    1.20963   1.14593    0.000
 5781.00    1.13103   1.14712    0.000
 5782.00    1.13389   1.15156    0.000
 5783.00    1.14093   1.16403    0.000
 5784.00    1.17822   1.18446    0.000
 5785.00    1.21294   1.20413    0.000
 5786.00    1.23339   1.21423    0.000
 5787.00    1.24849   1.21413    0.000
 5788.00    1.23991   1.21171    0.000
 5789.00    1.22614   1.21568    0.000
 5790.00    1.19352   1.22721    0.000
 5791.00    1.16965   1.24016   -2.000
 5792.00    1.17253   1.24663   -2.000
 5793.00    1.17294   1.24241   -2.000
 5794.00    1.16692   1.23216   -2.000
 5795.00    1.16961   1.22799   -2.000
 5796.00    1.19177   1.23757   -2.000
 5797.00    1.22959   1.25556   -2.000
 5798.00    1.29771   1.27000   -2.000
 5799.00    1.31644   1.27280   -2.000
 5800.00    1.25186   1.26328   -2.000
 5801.00    1.20831   1.24744   -2.000
 5802.00    1.19586   1.23448   -2.000
 5803.00    1.18541   1.23003   -2.000
 5804.00    1.17756   1.23290   -2.000
 5805.00    1.15940   1.23868   -2.000
 5806.00    1.12943   1.24463   -2.000
 5807.00    1.11211   1.25004   -2.000
 5808.00    1.10759   1.25393   -2.000
 5809.00    1.13328   1.25445   -2.000
 5810.00    1.18588   1.24989   -2.000
 5811.00    1.20265   1.23990    0.000
 5812.00    1.19130   1.22779    0.000
 5813.00    1.18452   1.22120    0.000
 5814.00    1.18089   1.22645    0.000
 5815.00    1.17530   1.24137    0.000
 5816.00    1.16851   1.25704    0.000
 5817.00    1.17792   1.26629    0.000
 5818.00    1.19590   1.26797    0.000
 5819.00    1.20575   1.26499    0.000
 5820.00    1.21189   1.26144    0.000
 5821.00    1.19557   1.26024    0.000
 5822.00    1.17039   1.26137    0.000
 5823.00    1.16858   1.26279    0.000
 5824.00    1.17462   1.26360    0.000
 5825.00    1.18341   1.26459    0.000
 5826.00    1.19299   1.26598    0.000
 5827.00    1.20607   1.26647    0.000
 5828.00    1.21998   1.26498    0.000
 5829.00    1.20673   1.26159    0.000
 5830.00    1.18841   1.25667    0.000
 5831.00    1.20608   1.25153    0.000
 5832.00    1.22894   1.24870    0.000
 5833.00    1.24781   1.24871    0.000
 5834.00    1.26626   1.24897    0.000
 5835.00    1.27346   1.24861    0.000
 5836.00    1.27991   1.25082    0.000
 5837.00    1.28721   1.25760    0.000
 5838.00    1.29455   1.26601    0.000
 5839.00    1.26195   1.27139    0.000
 5840.00    1.22964   1.27125    0.000
 5841.00    1.20735   1.26552    0.000
 5842.00    1.18546   1.25548    0.000
 5843.00    1.16976   1.24357    0.000
 5844.00    1.15926   1.23358    0.000
 5845.00    1.19917   1.22869    0.000
 5846.00    1.23626   1.22819    0.000
 5847.00    1.25359   1.22702    0.000
 5848.00    1.25905   1.21989    0.000
 5849.00    1.20034   1.20695    0.000
 5850.00    1.15201   1.19463    0.000
 5851.00    1.14866   1.18827    0.000
 5852.00    1.15160   1.18435    0.000
 5853.00    1.17703   1.17534    0.000
 5854.00    1.18876   1.16258    0.000
 5855.00    1.15945   1.15697    0.000
 5856.00    1.14512   1.16512    0.000
 5857.00    1.16898   1.18113    0.000
 5858.00    1.18339   1.19427    0.000
 5859.00    1.17707   1.20049    0.000
 5860.00    1.15391   1.20342    0.000
 5861.00    1.09866   1.20596    0.000
 5862.00    1.05164   1.20615    0.000
 5863.00    1.01830   1.20353    0.000
 5864.00    1.01980   1.20342    0.000
 5865.00    1.07206   1.21048    0.000
 5866.00    1.10053   1.22204    0.000
 5867.00    1.09852   1.23114    0.000
 5868.00    1.11408   1.23356    0.000
 5869.00    1.14946   1.23050    0.000
 5870.00    1.17887   1.22636    0.000
 5871.00    1.20232   1.22406    0.000
 5872.00    1.21518   1.22245    0.000
 5873.00    1.21873   1.21893    0.000
 5874.00    1.20948   1.21259    0.000
 5875.00    1.19032   1.20398    0.000
 5876.00    1.18737   1.19460    0.000
 5877.00    1.19544   1.18778    0.000
 5878.00    1.19310   1.18598    0.000
 5879.00    1.18455   1.18692    0.000
 5880.00    1.18523   1.18638    0.000
 5881.00    1.19071   1.18370    0.000
 5882.00    1.16079   1.17878    0.000
 5883.00    1.11492   1.16380    0.000
 5884.00    1.06795   1.12357    0.000
 5885.00    1.02055   1.05114    0.000
 5886.00    1.00345   0.96767    0.000
 5887.00    0.99635   0.91693    0.000
 5888.00    1.02687   0.92484    0.000
 5889.00    1.06779   0.97078    0.000
 5890.00    1.03109   1.00868    0.000
 5891.00    0.97674   1.00862    0.000
 5892.00    0.95177   0.98044    0.000
 5893.00    0.93213   0.96343    0.000
 5894.00    0.98262   0.98578    0.000
 5895.00    1.04291   1.03787    0.000
 5896.00    1.08406   1.09174    0.000
 5897.00    1.12329   1.13172    0.000
 5898.00    1.09643   1.15758    0.000
 5899.00    1.06535   1.17295    0.000
 5900.00    1.08721   1.18049    0.000
 5901.00    1.11061   1.18231    0.011
 5902.00    1.13438   1.18129    0.011
 5903.00    1.15716   1.18139    0.011
 5904.00    1.15229   1.18490    0.011
 5905.00    1.14780   1.19028    0.011
 5906.00    1.14872   1.19490    0.011
 5907.00    1.14923   1.19805    0.011
 5908.00    1.14594   1.19858    0.011
 5909.00    1.14286   1.19279    0.011
 5910.00    1.14122   1.17917    0.011
 5911.00    1.13825   1.16352    0.011
 5912.00    1.12826   1.15474    0.011
 5913.00    1.12424   1.15684    0.011
 5914.00    1.14546   1.16682    0.011
 5915.00    1.15312   1.17884    0.011
 5916.00    1.11338   1.18842    0.011
 5917.00    1.07781   1.19329    0.011
 5918.00    1.05454   1.19331    0.011
 5919.00    1.04857   1.19142    0.011
 5920.00    1.08599   1.19170    0.011
 5921.00    1.11305   1.19541    0.011
 5922.00    1.11774   1.20011    0.011
 5923.00    1.12571   1.20184    0.011
 5924.00    1.13980   1.19766    0.011
 5925.00    1.13933   1.18799    0.011
 5926.00    1.11502   1.17785    0.011
 5927.00    1.08857   1.17440    0.011
 5928.00    1.05905   1.17996    0.011
 5929.00    1.03448   1.18777    0.011
 5930.00    1.01616   1.18914    0.011
 5931.00    1.01248   1.18435    0.011
 5932.00    1.02509   1.18180    0.011
 5933.00    1.03838   1.18659    0.011
 5934.00    1.05232   1.19530    0.011
 5935.00    1.04418   1.20155    0.011
 5936.00    1.01692   1.20111    0.011
 5937.00    1.02072   1.19362    0.011
 5938.00    1.04820   1.18411    0.011
 5939.00    1.11381   1.17992    0.011
 5940.00    1.20498   1.18394    0.011
 5941.00    1.23998   1.19299    0.011
 5942.00    1.24200   1.20115    0.011
 5943.00    1.21048   1.20280    0.011
 5944.00    1.16179   1.19547    0.011
 5945.00    1.12821   1.18332    0.011
 5946.00    1.10132   1.17515    0.012
 5947.00    1.09742   1.17483    0.012
 5948.00    1.10228   1.17678    0.011
 5949.00    1.06096   1.17530    0.011
 5950.00    1.00471   1.17317    0.011
 5951.00    0.98737   1.17466    0.011
 5952.00    0.98057   1.17678    0.011
 5953.00    1.00416   1.17514    0.011
 5954.00    1.03451   1.17248    0.011
 5955.00    1.03574   1.17498    0.011
 5956.00    1.03181   1.18428    0.011
 5957.00    1.05399   1.19656    0.011
 5958.00    1.07969   1.20669    0.011
 5959.00    1.10247   1.21155    0.011
 5960.00    1.12496   1.21077    0.011
 5961.00    1.11192   1.20589    0.011
 5962.00    1.09676   1.20000    0.011
 5963.00    1.10434   1.19744    0.011
 5964.00    1.11232   1.20054    0.011
 5965.00    1.09042   1.20724    0.011
 5966.00    1.06942   1.21408    0.011
 5967.00    1.07108   1.21915    0.011
 5968.00    1.07459   1.22159    0.011
 5969.00    1.10298   1.22068    0.011
 5970.00    1.12970   1.21553    0.011
 5971.00    1.14151   1.20524    0.011
 5972.00    1.15253   1.19087    0.011
 5973.00    1.15843   1.17691    0.011
 5974.00    1.16376   1.16922    0.011
 5975.00    1.16621   1.17077    0.011
 5976.00    1.15974   1.17960    0.011
 5977.00    1.11637   1.18940    0.011
 5978.00    1.08564   1.19239    0.011
 5979.00    1.09819   1.18426    0.011
 5980.00    1.10947   1.16829    0.011
 5981.00    1.11714   1.15469    0.011
 5982.00    1.12249   1.15253    0.011
 5983.00    1.12213   1.16098    0.011
 5984.00    1.12224   1.17252    0.011
 5985.00    1.12337   1.18199    0.011
 5986.00    1.12926   1.18792    0.011
 5987.00    1.14392   1.18983    0.011
 5988.00    1.15918   1.18972    0.011
 5989.00    1.17542   1.19242    0.011
 5990.00    1.18028   1.19942    0.011
 5991.00    1.16902   1.20532    0.011
 5992.00    1.15429   1.20372    0.011
 5993.00    1.13526   1.19420    0.011
 5994.00    1.11900   1.18252    0.011
 5995.00    1.10577   1.17583    0.011
 5996.00    1.09783   1.17652    0.011
 5997.00    1.09501   1.18048    0.011
 5998.00    1.12496   1.18156    0.011
 5999.00    1.18290   1.17812    0.011
 6000.00    1.20242   1.17451    0.011
 6001.00    1.19309   1.17385    0.011
 6002.00    1.18228   1.17206    0.011
 6003.00    1.17049   1.16407    0.011
 6004.00    1.16880   1.15251    0.011
 6005.00    1.17294   1.14708    0.011
 6006.00    1.16670   1.15449    0.011
 6007.00    1.15522   1.16880    0.011
 6008.00    1.12109   1.17703    0.011
 6009.00    1.07709   1.17400    0.011
 6010.00    1.05999   1.16638    0.011
 6011.00    1.05295   1.16234    0.011
 6012.00    1.05080   1.16210    0.011
 6013.00    1.05019   1.16174    0.011
 6014.00    1.03890   1.16060    0.011
 6015.00    1.02477   1.15900    0.011
 6016.00    1.05268   1.15528    0.011
 6017.00    1.08970   1.15024    0.011
 6018.00    1.12093   1.14821    0.011
 6019.00    1.15116   1.15131    0.011
 6020.00    1.14266   1.15772    0.011
 6021.00    1.12911   1.16538    0.011
 6022.00    1.14664   1.17339    0.011
 6023.00    1.16703   1.18039    0.011
 6024.00    1.16782   1.18614    0.011
 6025.00    1.16751   1.19221    0.011
 6026.00    1.15427   1.19819    0.011
 6027.00    1.14084   1.20231    0.011
 6028.00    1.13734   1.20508    0.011
 6029.00    1.13246   1.20824    0.011
 6030.00    1.09579   1.21152    0.011
 6031.00    1.06377   1.21338    0.011
 6032.00    1.09122   1.21364    0.011
 6033.00    1.12270   1.21322    0.011
 6034.00    1.18892   1.21220    0.011
 6035.00    1.24489   1.20962    0.011
 6036.00    1.23536   1.20525    0.011
 6037.00    1.22537   1.20080    0.011
 6038.00    1.21310   1.19875    0.011
 6039.00    1.19826   1.20057    0.011
 6040.00    1.17303   1.20603    0.011
 6041.00    1.14634   1.21260    0.011
 6042.00    1.11479   1.21746    0.011
 6043.00    1.09219   1.21987    0.010
 6044.00    1.09500   1.22050    0.011
 6045.00    1.09862   1.22014    0.011
 6046.00    1.10420   1.21972    0.011
 6047.00    1.11938   1.21946    0.011
 6048.00    1.15462   1.21748    0.011
 6049.00    1.18302   1.21193    0.011
 6050.00    1.19899   1.20357    0.011
 6051.00    1.20712   1.19484    0.011
 6052.00    1.20276   1.18760    0.010
 6053.00    1.19633   1.18347    0.011
 6054.00    1.18699   1.18445    0.011
 6055.00    1.18524   1.19064    0.011
 6056.00    1.19279   1.19881    0.011
 6057.00    1.19429   1.20415    0.011
 6058.00    1.18925   1.20305    0.011
 6059.00    1.18279   1.19460    0.011
 6060.00    1.17498   1.18065    0.011
 6061.00    1.16287   1.16613    0.011
 6062.00    1.14715   1.15908    0.011
 6063.00    1.13115   1.16643    0.011
 6064.00    1.11494   1.18570    0.011
 6065.00    1.11184   1.20594    0.011
 6066.00    1.11729   1.21896    0.011
 6067.00    1.12163   1.22476    0.011
 6068.00    1.12535   1.22697    0.011
 6069.00    1.12698   1.22796    0.011
 6070.00    1.12756   1.22791    0.010
 6071.00    1.09928   1.22588    0.010
 6072.00    1.05862   1.22061    0.011
 6073.00    1.02572   1.21108    0.010
 6074.00    0.99567   1.19803    0.010
 6075.00    1.00552   1.18499    0.010
 6076.00    1.02780   1.17623    0.010
 6077.00    1.06640   1.17211    0.010
 6078.00    1.10923   1.16922    0.010
 6079.00    1.13522   1.16653    0.010
 6080.00    1.15763   1.16606    0.010
 6081.00    1.16533   1.16780    0.010
 6082.00    1.17056   1.17005    0.010
 6083.00    1.16623   1.17295    0.010
 6084.00    1.16070   1.17625    0.010
 6085.00    1.14397   1.17669    0.010
 6086.00    1.12626   1.17168    0.011
 6087.00    1.11018   1.16403    0.011
 6088.00    1.09418   1.15965    0.010
 6089.00    1.07541   1.16133    0.011
 6090.00    1.05703   1.16816    0.011
 6091.00    1.07107   1.17787    0.011
 6092.00    1.08556   1.18664    0.011
 6093.00    1.10975   1.19075    0.011
 6094.00    1.13083   1.19109    0.011
 6095.00    1.11430   1.19129    0.011
 6096.00    1.09836   1.19005    0.011
 6097.00    1.08731   1.17989    0.011
 6098.00    1.07932   1.15656    0.010
 6099.00    1.09025   1.12954    0.011
 6100.00    1.09931   1.11792    0.011
 6101.00    1.09925   1.13020    0.011
 6102.00    1.09595   1.15387    0.010
 6103.00    1.07984   1.17134    0.010
 6104.00    1.07209   1.17797    0.010
 6105.00    1.09190   1.18005    0.010
 6106.00    1.10718   1.18265    0.011
 6107.00    1.10989   1.18474    0.010
 6108.00    1.11392   1.18505    0.010
 6109.00    1.12108   1.18659    0.010
 6110.00    1.12859   1.19119    0.010
 6111.00    1.13679   1.19508    0.010
 6112.00    1.12740   1.19396    0.010
 6113.00    1.08652   1.18899    0.010
 6114.00    1.06505   1.18399    0.010
 6115.00    1.07394   1.17815    0.011
 6116.00    1.09191   1.16615    0.012
 6117.00    1.12237   1.14659    0.012
 6118.00    1.12321   1.12667    0.013
 6119.00    1.08820   1.11802    0.013
 6120.00    1.06588   1.12675    0.013
 6121.00    1.05710   1.14547    0.013
 6122.00    1.04783   1.15973    0.012
 6123.00    1.03811   1.16314    0.011
 6124.00    1.04646   1.16056    0.010
 6125.00    1.06981   1.15957    0.010
 6126.00    1.09411   1.16436    0.010
 6127.00    1.11911   1.17377    0.010
 6128.00    1.13694   1.18261    0.010
 6129.00    1.15019   1.18524    0.010
 6130.00    1.13795   1.17719    0.010
 6131.00    1.11141   1.15478    0.010
 6132.00    1.09343   1.11916    0.010
 6133.00    1.07964   1.08262    0.010
 6134.00    1.10022   1.06535    0.010
 6135.00    1.13530   1.07855    0.011
 6136.00    1.13304   1.11019    0.011
 6137.00    1.11730   1.13599    0.011
 6138.00    1.06254   1.14573    0.011
 6139.00    0.99587   1.14991    0.011
 6140.00    0.99872   1.16047    0.011
 6141.00    1.01923   1.17544    0.010
 6142.00    1.05291   1.18527    0.010
 6143.00    1.08931   1.18513    0.010
 6144.00    1.09840   1.17674    0.011
 6145.00    1.10305   1.16453    0.011
 6146.00    1.09458   1.15407    0.011
 6147.00    1.08450   1.15017    0.011
 6148.00    1.08907   1.15352    0.011
 6149.00    1.09486   1.15952    0.010
 6150.00    1.15302   1.16178    0.010
 6151.00    1.21369   1.15812    0.010
 6152.00    1.21183   1.15234    0.011
 6153.00    1.20772   1.14878    0.011
 6154.00    1.12645   1.14616    0.010
 6155.00    1.04923   1.13829    0.010
 6156.00    1.05169   1.11858    0.010
 6157.00    1.05375   1.08478    0.011
 6158.00    1.05130   1.04540    0.011
 6159.00    1.04724   1.01872    0.011
 6160.00    1.03035   1.01836    0.011
 6161.00    1.01431   1.04038    0.011
 6162.00    1.00330   1.06845    0.011
 6163.00    0.99294   1.08806    0.011
 6164.00    0.98563   1.09262    0.010
 6165.00    0.98124   1.08314    0.010
 6166.00    0.98814   1.06915    0.010
 6167.00    0.99003   1.06550    0.010
 6168.00    0.97574   1.07844    0.010
 6169.00    0.97179   1.09834    0.010
 6170.00    0.99609   1.11245    0.010
 6171.00    1.02635   1.11807    0.010
 6172.00    1.07056   1.11951    0.010
 6173.00    1.10512   1.12063    0.010
 6174.00    1.12017   1.12370    0.010
 6175.00    1.12065   1.12902    0.010
 6176.00    1.09547   1.13453    0.010
 6177.00    1.07283   1.13886    0.010
 6178.00    1.05411   1.14310    0.010
 6179.00    1.03990   1.14729    0.010
 6180.00    1.03180   1.14876    0.010
 6181.00    1.02652   1.14520    0.010
 6182.00    1.02460   1.13644    0.010
 6183.00    1.02986   1.12426    0.010
 6184.00    1.04268   1.11182    0.010
 6185.00    1.06422   1.10065    0.010
 6186.00    1.09385   1.08847    0.010
 6187.00    1.11455   1.07412    0.011
 6188.00    1.12794   1.06396    0.010
 6189.00    1.10709   1.06797    0.010
 6190.00    1.06160   1.08739    0.010
 6191.00    1.03775   1.11130    0.010
 6192.00    1.02759   1.12870    0.010
 6193.00    1.03327   1.13668    0.010
 6194.00    1.04769   1.13552    0.010
 6195.00    1.03178   1.12615    0.011
 6196.00    1.00130   1.11387   -2.000
 6197.00    1.06247   1.10801   -2.000
 6198.00    1.16163   1.11373   -2.000
 6199.00    1.24629   1.12651   -2.000
 6200.00    1.32579   1.13763   -2.000
 6201.00    1.23799   1.14323   -2.000
 6202.00    1.10011   1.14534   -2.000
 6203.00    0.91686   1.14667   -2.000
 6204.00    0.72234   1.14737   -2.000
 6205.00    0.78592   1.14606   -2.000
 6206.00    0.90148   1.14168   -2.000
 6207.00    0.98092   1.13348   -2.000
 6208.00    1.05466   1.12047    0.011
 6209.00    1.02085   1.10226    0.011
 6210.00    0.97444   1.08140    0.010
 6211.00    0.98417   1.06443    0.010
 6212.00    0.99836   1.05817    0.010
 6213.00    1.04314   1.06298    0.010
 6214.00    1.08925   1.07180    0.010
 6215.00    1.12237   1.07631    0.010
 6216.00    1.15405   1.07440    0.010
 6217.00    1.12405   1.07200    0.010
 6218.00    1.09464   1.07520    0.010
 6219.00    1.07618   1.08294    0.010
 6220.00    1.06121   1.09006    0.010
 6221.00    1.08473   1.09429    0.010
 6222.00    1.10492   1.09697    0.010
 6223.00    1.09945   1.09850    0.010
 6224.00    1.09148   1.09549    0.010
 6225.00    1.06893   1.08381    0.010
 6226.00    1.05081   1.06398    0.010
 6227.00    1.05327   1.04393    0.010
 6228.00    1.06092   1.03540    0.011
 6229.00    1.08828   1.04464    0.011
 6230.00    1.10681   1.06697    0.011
 6231.00    1.09739   1.09150    0.011
 6232.00    1.08335   1.10831    0.011
 6233.00    1.05693   1.11188    0.010
 6234.00    1.03235   1.10330    0.010
 6235.00    1.01202   1.08874    0.010
 6236.00    0.99193   1.07492    0.010
 6237.00    0.97232   1.06564    0.010
 6238.00    0.96635   1.06019    0.010
 6239.00    0.98404   1.05525    0.010
 6240.00    0.99772   1.04948    0.010
 6241.00    1.00530   1.04608    0.010
 6242.00    1.00565   1.04880    0.010
 6243.00    0.99636   1.05807    0.010
 6244.00    1.00275   1.07225    0.010
 6245.00    1.02758   1.08712    0.010
 6246.00    1.05779   1.09531    0.010
 6247.00    1.09357   1.09138    0.010
 6248.00    1.10077   1.07642    0.010
 6249.00    1.08185   1.05741    0.010
 6250.00    1.05902   1.04274    0.010
 6251.00    1.03304   1.03563    0.010
 6252.00    1.01236   1.03186    0.010
 6253.00    0.99543   1.02630    0.010
 6254.00    0.97787   1.02003    0.010
 6255.00    0.95993   1.01962    0.010
 6256.00    0.94340   1.02997    0.010
 6257.00    0.92765   1.04928    0.010
 6258.00    0.96047   1.07080    0.010
 6259.00    1.01625   1.08795    0.011
 6260.00    1.07950   1.09695    0.011
 6261.00    1.14580   1.09713    0.012
 6262.00    1.15156   1.09286    0.013
 6263.00    1.13624   1.09083    0.013
 6264.00    1.09786   1.09258    0.013
 6265.00    1.05272   1.09411    0.012
 6266.00    1.01990   1.09350    0.012
 6267.00    0.99007   1.09363    0.011
 6268.00    0.98801   1.09699    0.011
 6269.00    0.99139   1.10236    0.010
 6270.00    0.98962   1.10674    0.010
 6271.00    0.98707   1.10863    0.010
 6272.00    1.01355   1.10875    0.010
 6273.00    1.04331   1.10790    0.010
 6274.00    1.06190   1.10503    0.010
 6275.00    1.07966   1.09860    0.010
 6276.00    1.04768   1.08948    0.010
 6277.00    1.01371   1.08185    0.010
 6278.00    0.99303   1.08072    0.010
 6279.00    0.97285   1.08731    0.010
 6280.00    0.96842   1.09754    0.000
 6281.00    0.96412   1.10660    0.000
 6282.00    0.96208   1.11343    0.000
 6283.00    0.96155   1.11988    0.000
 6284.00    0.97699   1.12690    0.000
 6285.00    0.99380   1.13183    0.000
 6286.00    1.02089   1.13106    0.000
 6287.00    1.04275   1.12431    0.000
 6288.00    1.03480   1.11534    0.000
 6289.00    1.02421   1.10886    0.000
 6290.00    1.00172   1.10608    0.000
 6291.00    0.98486   1.10366    0.000
 6292.00    0.98890   1.09760    0.000
 6293.00    0.99063   1.08808    0.000
 6294.00    0.98516   1.07999    0.000
 6295.00    0.98711   1.07716    0.000
 6296.00    1.00863   1.07713    0.000
 6297.00    1.03258   1.07497    0.000
 6298.00    1.06202   1.07080    0.000
 6299.00    1.08474   1.07017    0.000
 6300.00    1.09430   1.07670    0.000
 6301.00    1.10485   1.08801    0.000
 6302.00    1.11709   1.09986    0.000
 6303.00    1.11864   1.11082    0.000
 6304.00    1.10417   1.12026    0.000
 6305.00    1.10343   1.12518    0.000
 6306.00    1.12076   1.12275    0.000
 6307.00    1.14834   1.11480    0.000
 6308.00    1.18782   1.10615    0.000
 6309.00    1.20202   1.09941    0.000
 6310.00    1.19036   1.09319    0.000
 6311.00    1.16016   1.08546    0.000
 6312.00    1.11321   1.07680    0.000
 6313.00    1.06077   1.06933    0.000
 6314.00    1.00396   1.06415    0.000
 6315.00    0.97513   1.06252    0.000
 6316.00    0.96586   1.06712    0.000
 6317.00    0.98520   1.07774    0.000
 6318.00    1.02208   1.08947    0.000
 6319.00    1.02568   1.09884    0.000
 6320.00    1.01147   1.10688    0.000
 6321.00    1.01452   1.11454    0.010
 6322.00    1.02558   1.12017    0.010
 6323.00    1.04357   1.12245    0.010
 6324.00    1.06434   1.12253    0.010
 6325.00    1.03198   1.12204    0.010
 6326.00    0.98147   1.12164    0.010
 6327.00    0.94161   1.12178    0.010
 6328.00    0.90481   1.12308    0.010
 6329.00    0.93005   1.12374    0.010
 6330.00    0.97002   1.11829    0.010
 6331.00    0.98143   1.10364    0.010
 6332.00    0.98737   1.08528    0.010
 6333.00    0.96684   1.07375    0.010
 6334.00    0.94239   1.07505    0.010
 6335.00    0.95794   1.08594    0.010
 6336.00    0.97783   1.09893    0.010
 6337.00    1.00950   1.10830    0.010
 6338.00    1.04201   1.11051    0.010
 6339.00    1.05250   1.10442    0.010
 6340.00    1.06219   1.09401    0.010
 6341.00    1.03115   1.08677    0.010
 6342.00    1.00053   1.08740    0.010
 6343.00    0.98975   1.09468    0.010
 6344.00    0.97921   1.10425    0.010
 6345.00    0.97254   1.11312    0.010
 6346.00    0.96889   1.12005    0.010
 6347.00    0.99568   1.12391    0.010
 6348.00    1.02233   1.12354    0.010
 6349.00    1.04787   1.11821    0.010
 6350.00    1.06765   1.10850    0.010
 6351.00    1.05551   1.09741    0.010
 6352.00    1.04666   1.08849    0.010
 6353.00    1.05238   1.08192    0.010
 6354.00    1.05696   1.07443    0.010
 6355.00    1.05739   1.06419    0.010
 6356.00    1.05452   1.05364    0.010
 6357.00    1.04157   1.04606    0.010
 6358.00    1.02788   1.04201    0.010
 6359.00    1.01225   1.04162    0.010
 6360.00    1.00201   1.04653    0.010
 6361.00    1.00380   1.05730    0.010
 6362.00    1.00082   1.07164    0.010
 6363.00    0.98863   1.08634    0.010
 6364.00    0.97329   1.09885    0.010
 6365.00    0.95266   1.10726    0.010
 6366.00    0.95439   1.11125    0.010
 6367.00    0.98911   1.11332    0.010
 6368.00    1.01961   1.11710    0.010
 6369.00    1.04465   1.12339    0.010
 6370.00    1.04692   1.12940    0.010
 6371.00    1.02316   1.13228    0.010
 6372.00    1.00567   1.13150    0.010
 6373.00    0.99451   1.12775    0.010
 6374.00    0.99575   1.12137    0.010
 6375.00    1.00802   1.11344    0.010
 6376.00    1.00050   1.10682    0.010
 6377.00    0.97748   1.10439    0.010
 6378.00    0.95062   1.10626    0.010
 6379.00    0.92113   1.10978    0.010
 6380.00    0.92834   1.11235    0.010
 6381.00    0.95772   1.11361    0.010
 6382.00    1.00295   1.11527    0.010
 6383.00    1.05654   1.11842    0.010
 6384.00    1.08077   1.12186    0.010
 6385.00    1.09157   1.12360    0.010
 6386.00    1.09351   1.12220    0.010
 6387.00    1.09197   1.11583    0.010
 6388.00    1.07513   1.10298    0.010
 6389.00    1.05317   1.08674    0.010
 6390.00    1.04946   1.07586    0.010
 6391.00    1.05088   1.07821    0.010
 6392.00    1.05327   1.09259    0.010
 6393.00    1.05588   1.10769    0.010
 6394.00    1.03944   1.11104    0.010
 6395.00    1.01946   1.09947    0.010
 6396.00    1.01457   1.08220    0.010
 6397.00    1.01186   1.07403    0.010
 6398.00    0.99811   1.08307    0.010
 6399.00    0.98321   1.10356    0.010
 6400.00    0.94879   1.12178    0.010
 6401.00    0.91307   1.12881    0.010
 6402.00    0.91399   1.12453    0.010
 6403.00    0.91610   1.11367    0.010
 6404.00    0.90428   1.10293    0.010
 6405.00    0.89241   1.09738    0.010
 6406.00    0.87915   1.09658    0.010
 6407.00    0.86790   1.09614    0.010
 6408.00    0.88673   1.09373    0.010
 6409.00    0.90749   1.09214    0.010
 6410.00    0.94676   1.09481    0.010
 6411.00    0.98583   1.10080    0.010
 6412.00    1.02344   1.10663    0.010
 6413.00    1.05047   1.10957    0.010
 6414.00    1.02048   1.10733    0.010
 6415.00    0.99326   1.09857    0.010
 6416.00    0.97799   1.08599    0.010
 6417.00    0.96811   1.07689    0.010
 6418.00    0.97739   1.07862    0.010
 6419.00    0.98015   1.09180    0.010
 6420.00    0.96339   1.10916    0.010
 6421.00    0.95034   1.12246    0.010
 6422.00    0.94671   1.12942    0.010
 6423.00    0.95129   1.13226    0.010
 6424.00    0.97385   1.13103    0.010
 6425.00    0.99455   1.12248    0.010
 6426.00    1.01175   1.10629    0.010
 6427.00    1.03523   1.08924    0.010
 6428.00    1.06912   1.08104    0.010
 6429.00    1.08919   1.08608    0.010
 6430.00    1.08913   1.09987    0.010
 6431.00    1.08682   1.11350    0.010
 6432.00    1.08163   1.12008    0.010
 6433.00    1.08524   1.11639    0.010
 6434.00    1.09877   1.10406    0.010
 6435.00    1.10298   1.09110    0.010
 6436.00    1.09793   1.08790    0.010
 6437.00    1.08904   1.09861    0.010
 6438.00    1.07678   1.11719    0.010
 6439.00    1.06180   1.13339    0.010
 6440.00    1.04473   1.14243    0.010
 6441.00    1.03499   1.14596    0.010
 6442.00    1.03024   1.14553    0.010
 6443.00    1.00783   1.13844    0.010
 6444.00    0.97490   1.12011    0.010
 6445.00    0.96169   1.09168    0.010
 6446.00    0.95871   1.06451    0.010
 6447.00    0.96402   1.05313    0.010
 6448.00    0.97306   1.06269    0.010
 6449.00    0.96401   1.08352    0.010
 6450.00    0.94797   1.09965    0.010
 6451.00    0.94243   1.10362    0.010
 6452.00    0.94034   1.10067    0.010
 6453.00    0.93790   1.10094    0.010
 6454.00    0.93536   1.10949    0.010
 6455.00    0.94950   1.12184    0.010
 6456.00    0.96741   1.12757    0.010
 6457.00    0.97718   1.11894    0.010
 6458.00    0.98547   1.09857    0.010
 6459.00    0.97459   1.07895    0.010
 6460.00    0.96103   1.07292    0.010
 6461.00    0.96127   1.08352    0.010
 6462.00    0.96289   1.10233    0.010
 6463.00    1.00457   1.11800    0.010
 6464.00    1.04877   1.12494    0.010
 6465.00    1.07289   1.12350    0.010
 6466.00    1.09637   1.11659    0.010
 6467.00    1.09855   1.10856    0.010
 6468.00    1.09964   1.10376    0.010
 6469.00    1.07008   1.10321    0.010
 6470.00    1.04157   1.10444    0.009
 6471.00    1.02779   1.10502    0.010
 6472.00    1.01400   1.10533    0.010
 6473.00    1.00008   1.10744    0.010
 6474.00    0.98496   1.11126    0.010
 6475.00    0.96175   1.11311    0.010
 6476.00    0.94844   1.10866    0.010
 6477.00    0.98706   1.09700    0.010
 6478.00    1.01974   1.08229    0.010
 6479.00    1.02734   1.07190    0.010
 6480.00    1.03165   1.07135    0.010
 6481.00    1.02448   1.07985    0.010
 6482.00    1.02746   1.09147    0.010
 6483.00    1.06022   1.10051    0.010
 6484.00    1.08463   1.10441    0.010
 6485.00    1.08815   1.10267    0.010
 6486.00    1.07554   1.09561    0.010
 6487.00    1.02816   1.08355    0.010
 6488.00    0.99259   1.06525    0.010
 6489.00    0.97911   1.03857    0.010
 6490.00    0.96862   1.00544    0.010
 6491.00    0.96302   0.97463    0.009
 6492.00    0.94339   0.95728    0.009
 6493.00    0.90363   0.95857    0.009
 6494.00    0.87798   0.97375    0.009
 6495.00    0.87010   0.99463    0.010
 6496.00    0.86870   1.01618    0.010
 6497.00    0.87448   1.03674    0.010
 6498.00    0.88015   1.05559    0.010
 6499.00    0.88570   1.07133    0.010
 6500.00    0.90657   1.08305    0.010
 6501.00    0.94067   1.09116    0.010
 6502.00    0.96170   1.09591    0.010
 6503.00    0.97278   1.09692    0.010
 6504.00    0.96439   1.09485    0.010
 6505.00    0.94297   1.09229    0.010
 6506.00    0.94004   1.09202    0.010
 6507.00    0.94795   1.09446    0.010
 6508.00    0.96166   1.09747    0.010
 6509.00    0.97833   1.09822    0.010
 6510.00    1.00575   1.09508    0.010
 6511.00    1.03792   1.08819    0.010
 6512.00    1.03766   1.07913    0.010
 6513.00    1.02509   1.07031    0.010
 6514.00    1.01445   1.06466    0.010
 6515.00    1.00443   1.06480    0.010
 6516.00    1.00281   1.07108    0.010
 6517.00    1.00345   1.08101    0.010
 6518.00    1.00528   1.09045    0.010
 6519.00    1.00738   1.09646    0.010
 6520.00    1.00545   1.09858    0.010
 6521.00    1.00281   1.09707    0.010
 6522.00    1.01497   1.09232    0.010
 6523.00    1.02913   1.08647    0.010
 6524.00    1.04558   1.08313    0.010
 6525.00    1.06225   1.08418    0.010
 6526.00    1.05529   1.08727    0.010
 6527.00    1.04693   1.08794    0.010
 6528.00    1.02011   1.08467    0.000
 6529.00    0.99313   1.08058    0.000
 6530.00    1.01218   1.08003    0.000
 6531.00    1.03084   1.08414    0.000
 6532.00    1.03983   1.08998    0.000
 6533.00    1.04801   1.09430    0.000
 6534.00    1.04534   1.09681    0.000
 6535.00    1.04009   1.09914    0.000
 6536.00    1.01179   1.10142    0.000
 6537.00    0.98553   1.10138    0.000
 6538.00    0.97266   1.09691    0.000
 6539.00    0.96198   1.08828    0.000
 6540.00    0.96249   1.07691    0.000
 6541.00    0.96415   1.06410    0.000
 6542.00    0.97060   1.05258    0.000
 6543.00    0.97992   1.04653    0.000
 6544.00    0.99909   1.04803    0.000
 6545.00    1.01884   1.05422    0.000
 6546.00    1.04028   1.05905    0.000
 6547.00    1.05791   1.05852    0.000
 6548.00    1.06616   1.05284    0.000
 6549.00    1.06708   1.04369    0.000
 6550.00    1.05246   1.03238    0.000
 6551.00    1.03703   1.02090    0.000
 6552.00    1.02011   1.01233    0.000
 6553.00    1.01101   1.00820    0.000
 6554.00    1.01450   1.00532    0.000
 6555.00    1.01030   0.99564    0.000
 6556.00    0.99523   0.96839    0.000
 6557.00    0.99380   0.91623    0.000
 6558.00    1.00931   0.84850    0.000
 6559.00    1.04149   0.79593    0.000
 6560.00    1.09191   0.78971    0.000
 6561.00    1.13537   0.83438    0.000
 6562.00    1.17210   0.90424    0.000
 6563.00    1.19004   0.96567    0.000
 6564.00    1.19197   1.00175    0.000
 6565.00    1.16388   1.01622    0.000
 6566.00    1.11325   1.01995    0.000
 6567.00    1.04903   1.02003    0.000
 6568.00    0.97584   1.01812    0.000
 6569.00    0.93879   1.01409    0.000
 6570.00    0.92259   1.01030    0.000
 6571.00    0.92660   1.01193    0.000
 6572.00    0.94075   1.02208    0.000
 6573.00    0.93069   1.03804    0.000
 6574.00    0.91009   1.05300    0.000
 6575.00    0.89450   1.06095    0.000
 6576.00    0.88077   1.06078    0.000
 6577.00    0.90613   1.05682    0.000
 6578.00    0.94387   1.05473    0.000
 6579.00    1.01592   1.05667    0.000
 6580.00    1.09704   1.06058    0.000
 6581.00    1.14758   1.06317    0.000
 6582.00    1.19151   1.06403    0.000
 6583.00    1.17716   1.06572    0.000
 6584.00    1.15281   1.06975    0.000
 6585.00    1.13020   1.07412    0.000
 6586.00    1.10782   1.07395    0.000
 6587.00    1.06212   1.06435    0.000
 6588.00    1.01429   1.04531    0.000
 6589.00    0.97930   1.02457    0.000
 6590.00    0.94503   1.01347    0.000
 6591.00    0.94901   1.01719    0.000
 6592.00    0.95362   1.03030    0.000
 6593.00    0.94007   1.04273    0.000
 6594.00    0.92761   1.04937    0.000
 6595.00    0.94021   1.05324    0.000
 6596.00    0.95364   1.05916    0.000
 6597.00    0.97769   1.06738    0.000
 6598.00    1.00040   1.07401    0.000
 6599.00    1.01158   1.07519    0.000
 6600.00    1.01442   1.07047    0.000
 6601.00    0.96417   1.06243    0.000
 6602.00    0.91832   1.05384    0.000
 6603.00    0.89438   1.04569    0.000
 6604.00    0.87775   1.03838    0.000
 6605.00    0.89065   1.03425    0.000
 6606.00    0.90292   1.03681    0.000
 6607.00    0.91307   1.04605    0.000
 6608.00    0.92006   1.05709    0.000
 6609.00    0.91811   1.06473    0.009
 6610.00    0.91300   1.06843    0.009
 6611.00    0.90026   1.07101    0.009
 6612.00    0.88701   1.07391    0.009
 6613.00    0.87268   1.07629    0.009
 6614.00    0.87308   1.07751    0.009
 6615.00    0.90023   1.07841    0.010
 6616.00    0.92376   1.07970    0.010
 6617.00    0.94156   1.08016    0.010
 6618.00    0.94878   1.07732    0.010
 6619.00    0.94126   1.06982    0.010
 6620.00    0.93825   1.05945    0.010
 6621.00    0.94078   1.05092    0.009
 6622.00    0.94514   1.04806    0.009
 6623.00    0.95148   1.05047    0.009
 6624.00    0.95539   1.05454    0.010
 6625.00    0.95699   1.05656    0.010
 6626.00    0.94738   1.05493    0.009
 6627.00    0.92837   1.04967    0.009
 6628.00    0.90947   1.04122    0.009
 6629.00    0.89067   1.03153    0.009
 6630.00    0.87988   1.02501    0.009
 6631.00    0.87428   1.02585    0.009
 6632.00    0.87891   1.03400    0.009
 6633.00    0.88935   1.04480    0.009
 6634.00    0.91179   1.05273    0.010
 6635.00    0.94015   1.05566    0.010
 6636.00    0.95196   1.05543    0.010
 6637.00    0.95667   1.05404    0.010
 6638.00    0.93358   1.05068    0.010
 6639.00    0.90030   1.04475    0.010
 6640.00    0.90343   1.03924    0.010
 6641.00    0.91788   1.03804    0.010
 6642.00    0.91355   1.04141    0.010
 6643.00    0.90435   1.04634    0.009
 6644.00    0.91672   1.05019    0.009
 6645.00    0.93364   1.05248    0.010
 6646.00    0.95786   1.05338    0.010
 6647.00    0.98330   1.05276    0.010
 6648.00    0.99045   1.05099    0.010
 6649.00    0.99531   1.04923    0.010
 6650.00    0.99507   1.04851    0.010
 6651.00    0.99440   1.04877    0.010
 6652.00    1.00196   1.04913    0.010
 6653.00    1.00995   1.04922    0.010
 6654.00    0.99171   1.04893    0.009
 6655.00    0.97302   1.04769    0.009
 6656.00    0.95480   1.04446    0.009
 6657.00    0.93789   1.03835    0.009
 6658.00    0.94871   1.02933    0.009
 6659.00    0.95614   1.01974    0.010
 6660.00    0.92264   1.01385    0.010
 6661.00    0.89057   1.01375    0.010
 6662.00    0.87036   1.01772    0.009
 6663.00    0.85685   1.02291    0.009
 6664.00    0.88472   1.02825    0.009
 6665.00    0.91091   1.03458    0.009
 6666.00    0.92887   1.04192    0.009
 6667.00    0.94316   1.04845    0.010
 6668.00    0.94291   1.05249    0.010
 6669.00    0.94219   1.05383    0.010
 6670.00    0.93990   1.05291    0.010
 6671.00    0.93234   1.04884    0.010
 6672.00    0.91014   1.03927    0.009
 6673.00    0.90497   1.02390    0.009
 6674.00    0.94030   1.00850    0.009
 6675.00    0.96535   1.00152    0.009
 6676.00    0.96930   1.00552    0.009
 6677.00    0.96579   1.01573    0.009
 6678.00    0.94895   1.02606    0.009
 6679.00    0.94905   1.03359    0.010
 6680.00    0.97561   1.03856    0.010
 6681.00    0.97546   1.04161    0.010
 6682.00    0.93865   1.04269    0.010
 6683.00    0.91604   1.04206    0.010
 6684.00    0.91058   1.04089    0.010
 6685.00    0.91187   1.04055    0.010
 6686.00    0.92036   1.04130    0.010
 6687.00    0.92883   1.04237    0.010
 6688.00    0.93730   1.04268    0.009
 6689.00    0.94476   1.04136    0.009
 6690.00    0.95139   1.03755    0.009
 6691.00    0.94140   1.03081    0.009
 6692.00    0.91929   1.02269    0.009
 6693.00    0.90979   1.01688    0.009
 6694.00    0.90836   1.01631    0.010
 6695.00    0.89219   1.02110    0.010
 6696.00    0.86777   1.02854    0.000
 6697.00    0.86278   1.03432    0.000
 6698.00    0.86725   1.03546    0.000
 6699.00    0.90612   1.03195    0.000
 6700.00    0.95945   1.02677    0.000
 6701.00    0.99747   1.02389    0.000
 6702.00    1.02998   1.02494    0.000
 6703.00    1.01783   1.02829    0.000
 6704.00    0.99208   1.03112    0.000
 6705.00    0.96853   1.03162    0.000
 6706.00    0.94554   1.02983    0.000
 6707.00    0.93828   1.02709    0.000
 6708.00    0.93426   1.02379    0.000
 6709.00    0.93408   1.01899    0.000
 6710.00    0.93451   1.01192    0.000
 6711.00    0.92340   1.00243    0.000
 6712.00    0.91088   0.99175    0.000
 6713.00    0.93073   0.98302    0.000
 6714.00    0.95327   0.98065    0.000
 6715.00    0.97357   0.98645    0.000
 6716.00    0.99376   0.99690    0.000
 6717.00    1.01192   1.00672    0.000
 6718.00    1.02979   1.01331    0.000
 6719.00    1.03270   1.01723    0.000
 6720.00    1.03347   1.01918    0.000
 6721.00    0.99262   1.01890    0.000
 6722.00    0.95741   1.01705    0.000
 6723.00    0.98694   1.01601    0.000
 6724.00    1.01346   1.01743    0.000
 6725.00    1.01608   1.02093    0.000
 6726.00    1.01714   1.02470    0.000
 6727.00    1.00879   1.02686    0.000
 6728.00    1.00002   1.02672    0.000
 6729.00    0.98925   1.02513    0.000
 6730.00    0.98027   1.02371    0.000
 6731.00    0.97821   1.02322    0.000
 6732.00    0.97786   1.02272    0.000
 6733.00    0.98306   1.02032    0.000
 6734.00    0.97916   1.01560    0.000
 6735.00    0.95050   1.01066    0.000
 6736.00    0.92625   1.00792    0.000
 6737.00    0.91232   1.00740    0.000
 6738.00    0.90360   1.00708    0.000
 6739.00    0.90542   1.00615    0.000
 6740.00    0.89846   1.00579    0.000
 6741.00    0.87606   1.00639    0.000
 6742.00    0.86207   1.00673    0.000
 6743.00    0.86101   1.00550    0.000
 6744.00    0.85984   1.00237    0.000
 6745.00    0.85854   0.99834    0.000
 6746.00    0.86694   0.99513    0.000
 6747.00    0.88688   0.99406    0.000
 6748.00    0.90306   0.99472    0.000
 6749.00    0.91530   0.99657    0.000
 6750.00    0.91704   1.00026    0.000
 6751.00    0.90908   1.00565    0.000
 6752.00    0.88747   1.01210    0.000
 6753.00    0.85474   1.01878    0.010
 6754.00    0.86752   1.02466    0.011
 6755.00    0.91300   1.02911    0.011
 6756.00    0.95561   1.03167    0.011
 6757.00    0.99639   1.03213    0.011
 6758.00    0.95543   1.03101    0.011
 6759.00    0.86941   1.02936    0.011
 6760.00    0.83797   1.02710    0.011
 6761.00    0.83268   1.02307    0.011
 6762.00    0.90206   1.01649    0.011
 6763.00    1.00231   1.00882    0.011
 6764.00    1.05661   1.00329    0.011
 6765.00    1.09466   1.00163    0.011
 6766.00    1.10111   1.00231    0.011
 6767.00    1.09812   1.00377    0.011
 6768.00    1.05525   1.00673    0.011
 6769.00    1.00250   1.01237    0.011
 6770.00    1.00015   1.02020    0.011
 6771.00    1.00792   1.02793    0.011
 6772.00    0.98342   1.03347    0.011
 6773.00    0.95385   1.03635    0.010
 6774.00    0.92538   1.03767    0.010
 6775.00    0.89704   1.03806    0.010
 6776.00    0.88925   1.03630    0.010
 6777.00    0.88308   1.03071    0.010
 6778.00    0.94658   1.02070    0.010
 6779.00    1.01311   1.00808    0.010
 6780.00    1.01886   0.99684    0.010
 6781.00    1.02375   0.99072    0.011
 6782.00    1.01850   0.99091    0.010
 6783.00    1.01295   0.99611    0.010
 6784.00    1.00208   1.00333    0.010
 6785.00    0.98882   1.00931    0.010
 6786.00    0.94954   1.01266    0.010
 6787.00    0.91239   1.01361    0.010
 6788.00    0.89161   1.01242    0.010
 6789.00    0.88395   1.00947    0.010
 6790.00    0.95277   1.00627    0.011
 6791.00    1.00862   1.00444    0.011
 6792.00    1.00450   1.00456    0.011
 6793.00    0.99989   1.00645    0.011
 6794.00    0.99342   1.00910    0.011
 6795.00    0.98009   1.01191    0.011
 6796.00    0.94510   1.01478    0.010
 6797.00    0.91585   1.01731    0.010
 6798.00    0.90192   1.01869    0.010
 6799.00    0.90178   1.01822    0.010
 6800.00    0.93331   1.01637    0.010
 6801.00    0.95365   1.01445    0.010
 6802.00    0.95175   1.01292    0.010
 6803.00    0.95141   1.01183    0.010
 6804.00    0.95375   1.01141    0.010
 6805.00    0.94632   1.01099    0.010
 6806.00    0.92408   1.01045    0.010
 6807.00    0.90524   1.01051    0.010
 6808.00    0.89095   1.01084    0.010
 6809.00    0.87413   1.01035    0.010
 6810.00    0.85433   1.00856    0.010
 6811.00    0.85590   1.00696    0.010
 6812.00    0.87957   1.00790    0.011
 6813.00    0.90478   1.01118    0.011
 6814.00    0.93137   1.01397    0.011
 6815.00    0.94731   1.01421    0.011
 6816.00    0.95468   1.01279    0.011
 6817.00    0.94715   1.01276    0.010
 6818.00    0.92907   1.01574    0.010
 6819.00    0.93242   1.02045    0.010
 6820.00    0.94910   1.02435    0.010
 6821.00    0.95298   1.02556    0.010
 6822.00    0.94992   1.02337    0.010
 6823.00    0.96297   1.01809    0.010
 6824.00    0.98360   1.01182    0.010
 6825.00    0.98863   1.00810    0.010
 6826.00    0.98731   1.00887    0.010
 6827.00    0.97618   1.01262    0.010
 6828.00    0.96166   1.01630    0.010
 6829.00    0.97107   1.01854    0.010
 6830.00    0.98748   1.01996    0.010
 6831.00    1.00785   1.02088    0.010
 6832.00    1.02919   1.02013    0.010
 6833.00    1.00866   1.01627    0.010
 6834.00    0.97995   1.00881    0.010
 6835.00    0.98308   0.99846    0.010
 6836.00    0.99106   0.98721    0.011
 6837.00    0.99851   0.97772    0.011
 6838.00    1.00590   0.97323    0.011
 6839.00    0.98963   0.97581    0.011
 6840.00    0.97159   0.98455    0.011
 6841.00    0.92916   0.99578    0.011
 6842.00    0.88575   1.00532    0.011
 6843.00    0.86177   1.01112    0.010
 6844.00    0.84040   1.01348    0.010
 6845.00    0.91770   1.01361    0.010
 6846.00    0.98847   1.01274    0.010
 6847.00    0.94902   1.01159    0.010
 6848.00    0.91266   1.00982    0.010
 6849.00    0.90857   1.00615    0.010
 6850.00    0.90100   0.99947    0.010
 6851.00    0.86749   0.99124    0.010
 6852.00    0.84344   0.98534    0.010
 6853.00    0.87299   0.98390    0.010
 6854.00    0.90094   0.98560    0.010
 6855.00    0.92161   0.98756    0.010
 6856.00    0.93648   0.98735    0.010
 6857.00    0.92990   0.98549    0.010
 6858.00    0.92119   0.98575    0.010
 6859.00    0.90586   0.99080    0.010
 6860.00    0.89946   0.99861    0.010
 6861.00    0.91652   1.00402    0.010
 6862.00    0.94059   1.00341    0.010
 6863.00    0.98048   0.99761    0.010
 6864.00    1.00166   0.99105    0.010
 6865.00    0.98622   0.98811    0.010
 6866.00    0.96756   0.98902    0.010
 6867.00    0.94343   0.99057    0.010
 6868.00    0.93540   0.99071    0.010
 6869.00    0.95144   0.99035    0.010
 6870.00    0.94621   0.99107    0.010
 6871.00    0.91303   0.99338    0.010
 6872.00    0.90097   0.99721    0.010
 6873.00    0.91336   1.00213    0.010
 6874.00    0.91907   1.00682    0.010
 6875.00    0.91797   1.00908    0.010
 6876.00    0.92489   1.00731    0.010
 6877.00    0.93904   1.00169    0.010
 6878.00    0.92271   0.99479    0.010
 6879.00    0.88219   0.99039    0.010
 6880.00    0.86238   0.99058    0.010
 6881.00    0.85702   0.99421    0.010
 6882.00    0.86893   0.99894    0.010
 6883.00    0.89142   1.00408    0.010
 6884.00    0.88984   1.00963    0.010
 6885.00    0.87541   1.01501    0.010
 6886.00    0.90022   1.01942    0.010
 6887.00    0.94323   1.02203    0.010
 6888.00    0.94165   1.02225    0.010
 6889.00    0.92226   1.02046    0.010
 6890.00    0.91245   1.01770    0.010
 6891.00    0.90590   1.01484    0.010
 6892.00    0.88942   1.01288    0.010
 6893.00    0.87008   1.01247    0.010
 6894.00    0.87498   1.01303    0.010
 6895.00    0.88562   1.01332    0.010
 6896.00    0.90179   1.01305    0.010
 6897.00    0.91902   1.01347    0.010
 6898.00    0.90780   1.01536    0.010
 6899.00    0.89238   1.01765    0.010
 6900.00    0.87456   1.01909    0.010
 6901.00    0.85648   1.01982    0.010
 6902.00    0.86227   1.02104    0.010
 6903.00    0.86974   1.02332    0.010
 6904.00    0.89264   1.02570    0.010
 6905.00    0.91610   1.02675    0.010
 6906.00    0.87610   1.02553    0.010
 6907.00    0.83706   1.02164    0.010
 6908.00    0.83808   1.01556    0.010
 6909.00    0.83761   1.00838    0.010
 6910.00    0.81337   1.00176    0.010
 6911.00    0.79199   0.99785    0.010
 6912.00    0.79926   0.99741    0.010
 6913.00    0.80912   0.99959    0.010
 6914.00    0.83764   1.00376    0.010
 6915.00    0.86701   1.00917    0.010
 6916.00    0.90114   1.01465    0.010
 6917.00    0.93034   1.01848    0.010
 6918.00    0.93780   1.01851    0.010
 6919.00    0.94564   1.01361    0.010
 6920.00    0.95487   1.00510    0.010
 6921.00    0.95919   0.99705    0.010
 6922.00    0.94855   0.99376    0.010
 6923.00    0.93135   0.99653    0.010
 6924.00    0.89718   1.00290    0.010
 6925.00    0.86975   1.00891    0.010
 6926.00    0.85731   1.01189    0.010
 6927.00    0.85165   1.01123    0.010
 6928.00    0.85908   1.00808    0.010
 6929.00    0.87607   1.00472    0.010
 6930.00    0.90916   1.00369    0.010
 6931.00    0.93165   1.00566    0.010
 6932.00    0.93855   1.00882    0.010
 6933.00    0.92589   1.01139    0.010
 6934.00    0.88789   1.01321    0.010
 6935.00    0.87550   1.01515    0.010
 6936.00    0.89232   1.01732    0.010
 6937.00    0.88663   1.01818    0.010
 6938.00    0.85828   1.01560    0.010
 6939.00    0.87256   1.00896    0.010
 6940.00    0.92466   1.00025    0.010
 6941.00    0.93962   0.99342    0.010
 6942.00    0.92553   0.99232    0.010
 6943.00    0.92910   0.99735    0.010
 6944.00    0.94481   1.00475    0.010
 6945.00    0.93281   1.00996    0.010
 6946.00    0.90411   1.01039    0.010
 6947.00    0.87936   1.00638    0.010
 6948.00    0.85669   1.00086    0.010
 6949.00    0.84912   0.99690    0.010
 6950.00    0.84844   0.99603    0.010
 6951.00    0.82824   0.99855    0.010
 6952.00    0.80038   1.00343    0.010
 6953.00    0.81548   1.00870    0.010
 6954.00    0.84494   1.01265    0.010
 6955.00    0.88756   1.01491    0.011
 6956.00    0.93387   1.01627    0.011
 6957.00    0.86662   1.01767    0.011
 6958.00    0.77308   1.01930    0.010
 6959.00    0.79638   1.02042    0.010
 6960.00    0.84137   1.02031    0.010
 6961.00    0.84385   1.01903    0.010
 6962.00    0.84024   1.01802    0.010
 6963.00    0.82101   1.01898    0.010
 6964.00    0.80016   1.02162    0.010
 6965.00    0.84408   1.02360    0.010
 6966.00    0.89232   1.02324    0.010
 6967.00    0.92227   1.02127    0.010
 6968.00    0.95160   1.01960    0.010
 6969.00    0.84539   1.01861    0.010
 6970.00    0.74392   1.01587    0.010
 6971.00    0.78754   1.00859    0.010
 6972.00    0.82890   0.99602    0.010
 6973.00    0.83658   0.98016    0.010
 6974.00    0.84261   0.96566    0.010
 6975.00    0.83267   0.95882    0.011
 6976.00    0.82304   0.96388    0.011
 6977.00    0.81552   0.97877    0.011
 6978.00    0.81095   0.99672    0.011
 6979.00    0.82222   1.01161    0.011
 6980.00    0.83540   1.02072    0.010
 6981.00    0.85689   1.02450    0.010
 6982.00    0.87466   1.02448    0.010
 6983.00    0.87925   1.02179    0.010
 6984.00    0.87944   1.01741    0.010
 6985.00    0.86652   1.01309    0.010
 6986.00    0.85384   1.01113    0.010
 6987.00    0.84179   1.01263    0.010
 6988.00    0.82137   1.01610    0.010
 6989.00    0.78265   1.01892    0.010
 6990.00    0.76648   1.01961    0.011
 6991.00    0.79307   1.01878    0.011
 6992.00    0.82102   1.01752    0.011
 6993.00    0.85124   1.01536    0.011
 6994.00    0.87137   1.01102    0.011
 6995.00    0.87683   1.00470    0.011
 6996.00    0.89590   0.99913    0.011
 6997.00    0.93235   0.99723    0.011
 6998.00    0.94647   0.99865    0.011
 6999.00    0.93546   0.99987    0.011
 7000.00    0.91260   0.99831    0.011
 7001.00    0.87796   0.99505    0.011
 7002.00    0.86042   0.99327    0.011
 7003.00    0.85784   0.99493    0.010
 7004.00    0.86309   0.99934    0.011
 7005.00    0.87436   1.00413    0.011
 7006.00    0.85466   1.00718    0.011
 7007.00    0.81396   1.00793    0.011
 7008.00    0.83538   1.00710    0.011
 7009.00    0.89368   1.00450    0.011
 7010.00    0.87603   0.99822    0.011
 7011.00    0.81906   0.98763    0.011
 7012.00    0.78850   0.97664    0.011
 7013.00    0.76981   0.97251    0.011
 7014.00    0.77769   0.97946    0.011
 7015.00    0.79583   0.99368    0.011
 7016.00    0.82482   1.00686    0.011
 7017.00    0.85737   1.01260    0.011
 7018.00    0.88444   1.00928    0.011
 7019.00    0.91001   1.00010    0.011
 7020.00    0.91029   0.99101    0.011
 7021.00    0.90486   0.98709    0.011
 7022.00    0.87385   0.98952    0.011
 7023.00    0.83823   0.99556    0.011
 7024.00    0.81827   1.00184    0.011
 7025.00    0.80048   1.00678    0.010
 7026.00    0.83635   1.01008    0.011
 7027.00    0.87755   1.01170    0.011
 7028.00    0.84372   1.01166    0.011
 7029.00    0.80519   1.01062    0.011
 7030.00    0.78096   1.00975    0.011
 7031.00    0.75732   1.00913    0.011
 7032.00    0.78173   1.00741    0.011
 7033.00    0.80452   1.00342    0.011
 7034.00    0.78307   0.99893    0.011
 7035.00    0.76576   0.99919    0.011
 7036.00    0.80655   1.00803    0.011
 7037.00    0.83764   1.02267    0.011
 7038.00    0.77931   1.03593    0.011
 7039.00    0.73213   1.04235    0.011
 7040.00    0.76007   1.04159    0.011
 7041.00    0.79412   1.03781    0.011
 7042.00    0.86012   1.03612    0.011
 7043.00    0.91659   1.03859    0.011
 7044.00    0.93296   1.04312    0.012
 7045.00    0.94972   1.04555    0.012
 7046.00    0.96784   1.04220    0.012
 7047.00    0.98430   1.03167    0.013
 7048.00    0.99590   1.01525    0.013
 7049.00    0.98453   0.99676    0.013
 7050.00    0.91579   0.98158   -2.000
 7051.00    0.86735   0.97363   -2.000
 7052.00    0.86256   0.97293   -2.000
 7053.00    0.88752   0.97565   -2.000
 7054.00    0.96800   0.97660   -2.000
 7055.00    0.99591   0.97317   -2.000
 7056.00    0.93807   0.96709   -2.000
 7057.00    0.92675   0.96261   -2.000
 7058.00    0.98200   0.96256   -2.000
 7059.00    0.99528   0.96603   -2.000
 7060.00    0.95574   0.96975   -2.000
 7061.00    0.91208   0.97027   -2.000
 7062.00    0.86384   0.96574   -2.000
 7063.00    0.81438   0.95785   -2.000
 7064.00    0.76372   0.95122   -2.000
 7065.00    0.79949   0.95038   -2.000
 7066.00    0.90980   0.95669   -2.000
 7067.00    0.93171   0.96707   -2.000
 7068.00    0.88646   0.97669   -2.000
 7069.00    0.90885   0.98285   -2.000
 7070.00    0.97639   0.98555   -2.000
 7071.00    1.00311   0.98611   -2.000
 7072.00    1.00595   0.98600   -2.000
 7073.00    1.02436   0.98638   -2.000
 7074.00    1.05072   0.98769   -2.000
 7075.00    0.97528   0.98952   -2.000
 7076.00    0.85490   0.99046   -2.000
 7077.00    0.85587   0.98827   -2.000
 7078.00    0.90285   0.98066   -2.000
 7079.00    0.92700   0.96739   -2.000
 7080.00    0.94379   0.95174   -2.000
 7081.00    0.93316   0.93867   -2.000
 7082.00    0.91514   0.93107   -2.000
 7083.00    0.89540   0.92753   -2.000
 7084.00    0.87529   0.92460   -2.000
 7085.00    0.86364   0.92099   -2.000
 7086.00    0.85348   0.91769   -2.000
 7087.00    0.89394   0.91602   -2.000
 7088.00    0.94119   0.91632   -2.000
 7089.00    0.89126   0.91755   -2.000
 7090.00    0.83210   0.91866   -2.000
 7091.00    0.89400   0.91967   -2.000
 7092.00    0.96299   0.92110   -2.000
 7093.00    0.93293   0.92402   -2.000
 7094.00    0.90102   0.92883   -2.000
 7095.00    0.94956   0.93458   -2.000
 7096.00    0.99657   0.93923   -2.000
 7097.00    1.00553   0.94086   -2.000
 7098.00    1.00604   0.94021   -2.000
 7099.00    0.89446   0.93952   -2.000
 7100.00    0.78811   0.94062   -2.000
 7101.00    0.72808   0.94287   -2.000
 7102.00    0.68194   0.94421   -2.000
 7103.00    0.72655   0.94344   -2.000
 7104.00    0.77618   0.94108   -2.000
 7105.00    0.85131   0.93782   -2.000
 7106.00    0.90163   0.93379   -2.000
 7107.00    0.84982   0.92987   -2.000
 7108.00    0.80980   0.92819   -2.000
 7109.00    0.80999   0.93029   -2.000
 7110.00    0.81801   0.93530   -2.000
 7111.00    0.84855   0.94085   -2.000
 7112.00    0.85059   0.94513   -2.000
 7113.00    0.78273   0.94753   -2.000
 7114.00    0.75031   0.94803   -2.000
 7115.00    0.79287   0.94688   -2.000
 7116.00    0.81733   0.94440   -2.000
 7117.00    0.80849   0.94129   -2.000
 7118.00    0.80754   0.93867   -2.000
 7119.00    0.81923   0.93707   -2.000
 7120.00    0.80852   0.93578   -2.000
 7121.00    0.76624   0.93297   -2.000
 7122.00    0.78210   0.92814   -2.000
 7123.00    0.87008   0.92279   -2.000
 7124.00    0.91380   0.91792   -2.000
 7125.00    0.90914   0.91291   -2.000
 7126.00    0.91760   0.90750   -2.000
 7127.00    0.93870   0.90377   -2.000
 7128.00    1.00022   0.90478   -2.000
 7129.00    1.09610   0.91123   -2.000
 7130.00    1.06775   0.92034   -2.000
 7131.00    0.94637   0.92879   -2.000
 7132.00    0.95902   0.93441   -2.000
 7133.00    1.05984   0.93672   -2.000
 7134.00    0.97008   0.93642   -2.000
 7135.00    0.77054   0.93485   -2.000
 7136.00    0.73213   0.93407   -2.000
 7137.00    0.77457   0.93521   -2.000
 7138.00    0.78529   0.93742   -2.000
 7139.00    0.78224   0.93895   -2.000
 7140.00    0.78889   0.93894   -2.000
 7141.00    0.79916   0.93694   -2.000
 7142.00    0.81645   0.93233   -2.000
 7143.00    0.83594   0.92549   -2.000
 7144.00    0.82755   0.91880   -2.000
 7145.00    0.81181   0.91608   -2.000
 7146.00    0.83971   0.91994   -2.000
 7147.00    0.87703   0.92884   -2.000
 7148.00    0.87283   0.93906   -2.000
 7149.00    0.86153   0.94738   -2.000
 7150.00    0.78391   0.95219   -2.000
 7151.00    0.69771   0.95428   -2.000
 7152.00    0.83744   0.95575   -2.000
 7153.00    0.99769   0.95752   -2.000
 7154.00    0.95446   0.95829   -2.000
 7155.00    0.90009   0.95659   -2.000
 7156.00    0.87855   0.95319   -2.000
 7157.00    0.85728   0.94901   -2.000
 7158.00    0.79721   0.94289   -2.000
 7159.00    0.74659   0.93296   -2.000
 7160.00    0.91032   0.92013   -2.000
 7161.00    1.06239   0.91038   -2.000
 7162.00    1.06759   0.90911   -2.000
 7163.00    1.07248   0.91662   -2.000
 7164.00    1.07465   0.92754   -2.000
 7165.00    1.06167   0.93655   -2.000
 7166.00    0.95268   0.94215   -2.000
 7167.00    0.88041   0.94594   -2.000
 7168.00    0.99046   0.94916   -2.000
 7169.00    1.06225   0.95095   -2.000
 7170.00    0.98008   0.94973   -2.000
 7171.00    0.93389   0.94561   -2.000
 7172.00    1.00791   0.94089   -2.000
 7173.00    1.02943   0.93772   -2.000
 7174.00    0.90288   0.93563   -2.000
 7175.00    0.80255   0.93187   -2.000
 7176.00    0.76546   0.92538   -2.000
 7177.00    0.76589   0.91962   -2.000
 7178.00    0.84441   0.91933   -2.000
 7179.00    0.89582   0.92521   -2.000
 7180.00    0.89814   0.93244   -2.000
 7181.00    0.90452   0.93447   -2.000
 7182.00    0.91733   0.92864   -2.000
 7183.00    0.89750   0.91792   -2.000
 7184.00    0.83229   0.90811   -2.000
 7185.00    0.81440   0.90431   -2.000
 7186.00    0.85436   0.90715   -2.000
 7187.00    0.85199   0.91319   -2.000
 7188.00    0.80398   0.91871   -2.000
 7189.00    0.76702   0.92209   -2.000
 7190.00    0.74056   0.92436   -2.000
 7191.00    0.72855   0.92632   -2.000
 7192.00    0.72866   0.92756   -2.000
 7193.00    0.73284   0.92787   -2.000
 7194.00    0.74003   0.92829   -2.000
 7195.00    0.75439   0.92970   -2.000
 7196.00    0.77338   0.93100   -2.000
 7197.00    0.78680   0.93111   -2.000
 7198.00    0.79706   0.93100   -2.000
 7199.00    0.84082   0.93221   -2.000
 7200.00    0.90113   0.93395   -2.000
 7201.00    0.88481   0.93219   -2.000
 7202.00    0.83576   0.92417   -2.000
 7203.00    0.82115   0.91268   -2.000
 7204.00    0.81913   0.90462   -2.000
 7205.00    0.79235   0.90569   -2.000
 7206.00    0.75790   0.91492   -2.000
 7207.00    0.73986   0.92629   -2.000
 7208.00    0.72605   0.93391   -2.000
 7209.00    0.69270   0.93538   -2.000
 7210.00    0.65524   0.93312   -2.000
 7211.00    0.67606   0.93127   -2.000
 7212.00    0.70656   0.93257   -2.000
 7213.00    0.74771   0.93687   -2.000
 7214.00    0.79019   0.94178   -2.000
 7215.00    0.76612   0.94455   -2.000
 7216.00    0.73629   0.94400   -2.000
 7217.00    0.78531   0.94132   -2.000
 7218.00    0.83834   0.93861   -2.000
