###################################################################
## OUTPUT of StarlightChains_v04.for    [Cid@UFSC - 01/Apr/2007] ##
###################################################################

## Some input info
KUG0210-078._27_19.txt                   [arq_obs]
Base.CB07.vall.4m                        [arq_base]
Masks.EmLines.NEW.gm                     [arq_masks]
StCv04.C11.config                        [arq_config]
   66                                    [N_base]
    0                                    [N_YAV_components = # of components with extra extinction!]
    0                                    [i_FitPowerLaw (1/0 = Yes/No)]
-9.99                                    [alpha_PowerLaw]
CCM                                      [red_law_option]
 1.458241                                [q_norm = A(l_norm)/A(V)]

## (Re)Sampling Parameters
 3741.00                                 [l_ini (A)]
 7218.00                                 [l_fin (A)]
    1.00                                 [dl    (A)]     (OBS: dl_cushion =    50.00 A)

## Normalization info
 4020.00                                 [l_norm (A) - for base]
 4010.00                                 [llow_norm (A) - window for f_obs]
 4060.00                                 [lupp_norm (A) - window for f_obs]
1.086995E-17                             [fobs_norm (in input units)]

## S/N
 3691.00                                 [llow_SN (A) - window for S/N]
 7268.00                                 [lupp_SN (A) - window for S/N]
   2.209                                 [S/N in S/N window]
   4.146                                 [S/N in norm. window]
   0.007                                 [S/N_err in S/N window]
   0.012                                 [S/N_err in norm. window]
  1.0000                                 [fscale_chi2]

## etc...
    -2007339                             [idum_orig]
  2402                                   [NOl_eff]
  2371                                   [Nl_eff]
    31    NSIGMA                         [Ntot_cliped & clip_method]
  1528240                                [Nglobal_steps]
   7                                     [N_chains]
  49                                     [NEX0s_base = N_base in EX0s-fits]
 0   0   1       31   2.0   2.554E+03    [Clip-Bug, RC-Crash & Burn-In warning-flags, n_censored_weights, wei_nsig_threshold & wei_limit]
    38     38.158     37.764      0.394  [idt_all, wdt_TotTime, wdt_UsrTime & wdt_SysTime (sec)]

## Synthesis Results - Best model ##

 5.31630E-05                             [chi2/Nl_eff]
    33.52670                             [adev (%)]

    79.02631                             [sum-of-x (%)]
 1.33026E-17                             [Flux_tot (units of input spectrum!)]
 1.61467E-14                             [Mini_tot (???)]
 1.07675E-14                             [Mcor_tot (???)]

 159.34                                  [v0_min  (km/s)]
   0.19                                  [vd_min  (km/s)]
 0.3256                                  [AV_min  (mag)]
 0.0000                                  [YAV_min (mag)]

# j     x_j(%)      Mini_j(%)     Mcor_j(%)     age_j(yr)     Z_j      (L/M)_j    YAV?  Mstars   component_j        a/Fe...       SSP_chi2r SSP_adev(%)   SSP_AV   SSP_x(%)
  1      0.0000     0.0000E+00    0.0000E+00    1.000000E+06  0.00400  1.094E-02    0   1.0000   age020_m42            0.0000     8.3269E-05    32.6083   3.3185    42.0277
  2      0.0000     0.0000E+00    0.0000E+00    3.160000E+06  0.00400  4.007E-02    0   0.9999   age045_m42            0.0000     6.8691E-05    31.8739   2.0134    56.8996
  3      0.0000     0.0000E+00    0.0000E+00    5.010000E+06  0.00400  2.539E-02    0   0.9488   age055_m42            0.0000     7.0733E-05    31.9148   2.4273    53.5646
  4      0.0000     0.0000E+00    0.0000E+00    6.610000E+06  0.00400  2.620E-02    0   0.9220   age061_m42            0.0000     6.4527E-05    32.0170   1.7841    60.4300
  5      0.0000     0.0000E+00    0.0000E+00    1.000000E+07  0.00400  1.322E-02    0   0.8862   age070_m42            0.0000     6.6852E-05    31.3176   1.6791    58.3310
  6      0.0000     0.0000E+00    0.0000E+00    1.445000E+07  0.00400  7.883E-03    0   0.8571   age078_m42            0.0000     6.9069E-05    31.4097   2.0806    55.1362
  7      0.0000     0.0000E+00    0.0000E+00    2.512000E+07  0.00400  5.251E-03    0   0.8174   age090_m42            0.0000     6.5868E-05    31.2006   1.5247    59.2807
  8      0.0000     0.0000E+00    0.0000E+00    4.000000E+07  0.00400  3.649E-03    0   0.7851   age104_m42            0.0000     6.4984E-05    31.1807   1.2537    60.7729
  9      0.0000     0.0000E+00    0.0000E+00    5.500000E+07  0.00400  3.098E-03    0   0.7629   age110_m42            0.0000     6.2079E-05    31.5332   1.2461    64.1686
 10      3.1830     1.4894E+00    1.6096E+00    1.015200E+08  0.00400  2.228E-03    0   0.7207   age116_m42            0.0000     5.8526E-05    32.3045   1.0843    68.2059
 11      0.0000     0.0000E+00    0.0000E+00    2.861200E+08  0.00400  1.093E-03    0   0.6648   age125_m42            0.0000     5.5644E-05    32.0560   0.4133    72.6868
 12      0.0000     0.0000E+00    0.0000E+00    5.088000E+08  0.00400  6.597E-04    0   0.6365   age130_m42            0.0000     5.4176E-05    33.1147   0.2670    76.1445
 13      0.0000     0.0000E+00    0.0000E+00    1.434000E+09  0.00400  2.132E-04    0   0.5798   age139_m42            0.0000     6.2555E-05    31.5505  -0.3827    70.0141
 14      0.0000     0.0000E+00    0.0000E+00    4.250000E+09  0.00400  5.895E-05    0   0.5377   age158_m42            0.0000     7.3434E-05    31.4635  -0.4164    57.9954
 15      0.0000     0.0000E+00    0.0000E+00    7.500000E+09  0.00400  3.510E-05    0   0.5212   age171_m42            0.0000     7.7287E-05    31.4190  -0.4803    54.7553
 16      0.0000     0.0000E+00    0.0000E+00    1.300000E+10  0.00400  2.005E-05    0   0.5034   age193_m42            0.0000     8.0589E-05    31.4111  -0.5363    52.0324
 17      0.0000     0.0000E+00    0.0000E+00    1.800000E+10  0.00400  1.525E-05    0   0.4967   age213_m42            0.0000     8.0330E-05    31.4074  -0.5638    51.9030
 18      0.0000     0.0000E+00    0.0000E+00    1.000000E+06  0.00800  1.238E-02    0   1.0000   age020_m52            0.0000     8.3076E-05    32.6131   3.3089    42.2314
 19      0.0000     0.0000E+00    0.0000E+00    3.160000E+06  0.00800  3.074E-02    0   0.9966   age045_m52            0.0000     7.8211E-05    32.2218   3.0362    46.2656
 20      0.0000     0.0000E+00    0.0000E+00    5.010000E+06  0.00800  2.668E-02    0   0.9443   age055_m52            0.0000     7.2162E-05    31.8456   2.5647    51.9101
 21      0.0000     0.0000E+00    0.0000E+00    6.610000E+06  0.00800  2.136E-02    0   0.9177   age061_m52            0.0000     7.3924E-05    31.8015   1.4516    53.1302
 22      0.0000     0.0000E+00    0.0000E+00    1.000000E+07  0.00800  1.215E-02    0   0.8827   age070_m52            0.0000     6.9359E-05    31.3891   1.9755    55.7426
 23      0.0000     0.0000E+00    0.0000E+00    1.445000E+07  0.00800  8.717E-03    0   0.8552   age078_m52            0.0000     6.8042E-05    31.3987   2.0148    56.6827
 24      0.0000     0.0000E+00    0.0000E+00    2.512000E+07  0.00800  5.592E-03    0   0.8162   age090_m52            0.0000     6.5189E-05    31.0711   1.5648    60.5310
 25      0.0000     0.0000E+00    0.0000E+00    4.000000E+07  0.00800  3.896E-03    0   0.7841   age104_m52            0.0000     6.2955E-05    31.0671   1.3671    63.3841
 26      0.0000     0.0000E+00    0.0000E+00    1.015200E+08  0.00800  2.148E-03    0   0.7226   age116_m52            0.0000     5.8584E-05    31.9290   1.0820    68.1354
 27      0.0000     0.0000E+00    0.0000E+00    2.861200E+08  0.00800  9.925E-04    0   0.6683   age125_m52            0.0000     5.5247E-05    32.7899   0.3773    75.8000
 28      0.0000     0.0000E+00    0.0000E+00    9.047900E+08  0.00800  3.141E-04    0   0.6138   age135_m52            0.0000     6.1763E-05    32.0248  -0.2559    74.4723
 29      0.0000     0.0000E+00    0.0000E+00    1.434000E+09  0.00800  1.719E-04    0   0.5853   age139_m52            0.0000     6.8650E-05    31.2112  -0.5185    65.5598
 30      0.0000     0.0000E+00    0.0000E+00    2.500000E+09  0.00800  7.872E-05    0   0.5600   age150_m52            0.0000     7.4745E-05    31.4559  -0.6049    59.3851
 31      0.0000     0.0000E+00    0.0000E+00    4.250000E+09  0.00800  4.336E-05    0   0.5426   age158_m52            0.0000     7.6264E-05    31.4512  -0.5594    57.4831
 32      0.0000     0.0000E+00    0.0000E+00    6.250000E+09  0.00800  3.159E-05    0   0.5319   age166_m52            0.0000     7.9294E-05    31.5184  -0.6869    55.6751
 33      0.0000     0.0000E+00    0.0000E+00    1.300000E+10  0.00800  1.361E-05    0   0.5073   age193_m52            0.0000     8.4805E-05    31.8426  -0.9663    51.3112
 34      0.0000     0.0000E+00    0.0000E+00    1.800000E+10  0.00800  9.886E-06    0   0.4990   age213_m52            0.0000     8.6603E-05    32.6814  -1.0000    50.0638
 35      0.0000     0.0000E+00    0.0000E+00    1.000000E+06  0.02000  1.544E-02    0   1.0000   age020_m62            0.0000     8.2086E-05    32.5814   3.2680    43.0344
 36      0.0000     0.0000E+00    0.0000E+00    3.160000E+06  0.02000  3.762E-02    0   0.9858   age045_m62            0.0000     7.7892E-05    32.2222   3.0385    46.5742
 37      0.0000     0.0000E+00    0.0000E+00    5.010000E+06  0.02000  3.296E-02    0   0.9342   age055_m62            0.0000     6.7033E-05    32.0915   2.2350    57.4725
 38      0.0000     0.0000E+00    0.0000E+00    8.710000E+06  0.02000  1.154E-02    0   0.8861   age067_m62            0.0000     7.5219E-05    33.0238   1.7590    50.6140
 39      0.0000     0.0000E+00    0.0000E+00    1.445000E+07  0.02000  7.663E-03    0   0.8472   age078_m62            0.0000     7.0881E-05    31.5782   1.7206    55.0590
 40      0.0000     0.0000E+00    0.0000E+00    2.512000E+07  0.02000  4.532E-03    0   0.8099   age090_m62            0.0000     6.7723E-05    31.2280   1.6046    57.3805
 41      5.4789     2.0900E+00    2.3803E+00    5.500000E+07  0.02000  2.733E-03    0   0.7595   age110_m62            0.0000     6.1537E-05    31.1959   1.3008    64.0826
 42      0.0000     0.0000E+00    0.0000E+00    1.609000E+08  0.02000  1.369E-03    0   0.6985   age120_m62            0.0000     5.3642E-05    33.0170   0.7244    75.0759
 43     19.6436     2.2721E+01    2.2876E+01    2.861200E+08  0.02000  9.013E-04    0   0.6714   age125_m62            0.0000     5.1824E-05    34.0397   0.3121    80.7469
 44      0.0000     0.0000E+00    0.0000E+00    5.088000E+08  0.02000  5.028E-04    0   0.6449   age130_m62            0.0000     5.5175E-05    34.1502  -0.0422    81.8347
 45      0.0000     0.0000E+00    0.0000E+00    9.047900E+08  0.02000  2.428E-04    0   0.6179   age135_m62            0.0000     6.3769E-05    32.4529  -0.2671    72.6944
 46      0.0000     0.0000E+00    0.0000E+00    1.434000E+09  0.02000  1.263E-04    0   0.5908   age139_m62            0.0000     7.0715E-05    31.7965  -0.4248    64.8535
 47      0.0000     0.0000E+00    0.0000E+00    2.500000E+09  0.02000  5.985E-05    0   0.5673   age150_m62            0.0000     7.6370E-05    31.8483  -0.6099    59.6633
 48      0.0000     0.0000E+00    0.0000E+00    4.250000E+09  0.02000  3.271E-05    0   0.5468   age158_m62            0.0000     8.1598E-05    31.9099  -0.7697    55.6364
 49      0.0000     0.0000E+00    0.0000E+00    1.000000E+10  0.02000  1.360E-05    0   0.5167   age181_m62            0.0000     8.6247E-05    32.2675  -1.0000    52.8154
 50      0.0000     0.0000E+00    0.0000E+00    1.800000E+10  0.02000  7.124E-06    0   0.5013   age213_m62            0.0000     8.9356E-05    34.4568  -1.0000    49.7404
 51      0.0311     1.2520E-03    1.8771E-03    1.000000E+06  0.05000  2.592E-02    0   0.9998   age020_m72            0.0000     8.1216E-05    32.5907   3.2290    43.6323
 52      0.0000     0.0000E+00    0.0000E+00    3.160000E+06  0.05000  4.845E-02    0   0.9577   age045_m72            0.0000     7.1607E-05    32.0541   2.6726    52.1749
 53      0.0000     0.0000E+00    0.0000E+00    5.010000E+06  0.05000  3.072E-02    0   0.9147   age055_m72            0.0000     7.1253E-05    31.4401   2.2660    53.3886
 54      0.0000     0.0000E+00    0.0000E+00    6.610000E+06  0.05000  1.455E-02    0   0.8877   age061_m72            0.0000     7.6038E-05    33.1588   1.8558    49.8480
 55      0.0000     0.0000E+00    0.0000E+00    1.000000E+07  0.05000  9.074E-03    0   0.8524   age070_m72            0.0000     7.1368E-05    31.4947   2.4419    53.1792
 56      0.0000     0.0000E+00    0.0000E+00    2.512000E+07  0.05000  4.250E-03    0   0.7902   age090_m72            0.0000     6.3883E-05    30.9322   1.8677    60.3982
 57      0.0000     0.0000E+00    0.0000E+00    4.000000E+07  0.05000  3.087E-03    0   0.7618   age104_m72            0.0000     6.0753E-05    30.8914   1.5343    63.9737
 58      0.0000     0.0000E+00    0.0000E+00    1.015200E+08  0.05000  1.700E-03    0   0.7096   age116_m72            0.0000     5.3605E-05    32.4929   0.9116    73.9664
 59     49.0722     6.9283E+01    6.8913E+01    2.861200E+08  0.05000  7.384E-04    0   0.6633   age125_m72            0.0000     5.2230E-05    34.6033   0.1242    82.9031
 60      1.6174     4.4151E+00    4.2187E+00    5.088000E+08  0.05000  3.819E-04    0   0.6372   age130_m72            0.0000     5.7974E-05    33.8890  -0.1892    79.6824
 61      0.0000     0.0000E+00    0.0000E+00    9.047900E+08  0.05000  1.676E-04    0   0.6110   age135_m72            0.0000     6.9607E-05    32.7166  -0.4540    67.8147
 62      0.0000     0.0000E+00    0.0000E+00    1.434000E+09  0.05000  8.837E-05    0   0.5874   age139_m72            0.0000     7.6091E-05    31.9416  -0.6475    61.3139
 63      0.0000     0.0000E+00    0.0000E+00    2.500000E+09  0.05000  4.233E-05    0   0.5598   age150_m72            0.0000     8.1534E-05    32.1601  -0.8061    56.8949
 64      0.0000     0.0000E+00    0.0000E+00    6.250000E+09  0.05000  1.435E-05    0   0.5249   age166_m72            0.0000     8.7551E-05    33.1549  -1.0000    51.3522
 65      0.0000     0.0000E+00    0.0000E+00    1.300000E+10  0.05000  6.513E-06    0   0.5036   age193_m72            0.0000     9.1177E-05    37.0148  -1.0000    48.3801
 66      0.0000     0.0000E+00    0.0000E+00    1.800000E+10  0.05000  4.527E-06    0   0.4945   age213_m72            0.0000     9.2410E-05    40.8542  -1.0000    46.8353


## Synthesis Results - Average & Chains ##

# j      x_j: min, <> & last-chain-values for 1 ...  7 chains
  1      0.0000      0.5322      0.0840      1.8263      0.0000      0.1395      1.1066      0.0000      0.0000
  2      0.0000      0.5602      1.4889      0.5794      2.3141      0.5110      2.1857      0.7347      0.4586
  3      0.0000      0.5395      0.0000      1.1337      0.3321      0.4390      0.2659      0.0000      2.7872
  4      0.0000      0.4430      0.2250      0.9311      0.0147      2.2845      1.2281      0.0000      1.0214
  5      0.0000      0.5283      0.8924      2.4784      1.8346      1.1896      0.7302      0.0000      0.2691
  6      0.0000      0.5104      0.4376      1.4420      0.7681      0.0000      0.8235      0.0000      0.0033
  7      0.0000      0.5326      1.7166      0.5272      0.3104      1.2018      2.2706      0.0000      0.0184
  8      0.0000      0.4425      2.9698      1.6625      2.5045      2.8071      0.9989      0.0000      0.7230
  9      0.0000      0.4597      1.2778      0.5680      0.0000      0.0000      0.6524      0.0000      1.0146
 10      3.1830      0.4403      0.8236      1.9438      0.0000      1.5588      2.1990      2.6051      0.8021
 11      0.0000      0.7267      5.5402      3.8125      1.5105      2.3425      2.8564      2.6368      2.5377
 12      0.0000      0.3559      1.9332      0.0000      0.4187      0.4024      0.0000      1.1651      0.0000
 13      0.0000      0.5418      2.5649      0.5777      1.4898      0.6127      2.5452      0.0000      2.1197
 14      0.0000      0.6015      0.1901      1.0012      0.5113      2.7361      1.0527      0.0115      1.0721
 15      0.0000      0.5462      0.9841      2.7052      0.0002      0.4656      1.0319      1.9123      0.0000
 16      0.0000     22.4014      9.3509      8.8477     12.1948      7.7866      7.5264     11.1308      9.6848
 17      0.0000      7.6483      1.5459      4.1363      3.6485      3.0239      7.4208      4.3642      8.4017
 18      0.0000      0.5225      0.0000      1.8722      0.0000      1.0389      0.8179      0.2399      0.0000
 19      0.0000      0.5145      2.2506      0.0000      0.0000      0.3507      0.2752      0.0000      2.2270
 20      0.0000      0.4961      0.5514      1.6448      1.2979      1.2145      0.0000      0.0000      1.5114
 21      0.0000      0.4433      0.9842      2.5362      0.7779      0.0000      0.7412      0.0000      0.2056
 22      0.0000      0.4662      0.0000      0.0000      0.9131      1.7022      0.0000      0.0000      0.0000
 23      0.0000      0.5999      0.0000      1.5782      0.0424      2.7311      1.1582      0.1139      2.1961
 24      0.0000      0.2698      0.0000      2.0514      0.0000      0.2347      0.0000      0.2800      0.0000
 25      0.0000      0.4213      0.0000      0.6325      0.0000      2.1327      1.6957      0.0055      0.3314
 26      0.0000      0.3844      0.0000      0.9721      0.0000      3.0690      1.3126      0.0000      1.5405
 27      0.0000      0.4348      0.9900      1.2361      0.2678      0.0000      0.2846      0.7731      0.9482
 28      0.0000      0.6094      0.3887      1.0035      0.8108      0.3595      0.4074      2.2631      1.9427
 29      0.0000      0.4634      0.8891      1.3147      3.3540      0.6420      0.4057      0.9902      1.0899
 30      0.0000      0.4580      4.3146      3.7324      0.4417      0.6482      0.0000      0.9352      0.9000
 31      0.0000      0.5740      1.1832      0.0000      0.0000      0.0000      2.1496      0.8907      0.3829
 32      0.0000      0.4429      0.4286      0.3215      1.0994      0.0000      3.2430      1.4583      0.0000
 33      0.0000      0.4015      0.0000      0.9427      0.7967      1.4941      0.7591      0.4306      2.3791
 34      0.0000      0.5697      0.1449      0.9761      0.2297      1.0875      0.6384      1.1457      1.9232
 35      0.0000      0.6414      0.0605      0.4197      0.5981      1.1992      0.2276      0.3550      0.0000
 36      0.0000      0.5193      0.0000      0.4401      0.0898      0.0000      2.5234      0.3828      0.0000
 37      0.0000      0.7358      1.9502      0.4931      0.4060      0.8248      0.4274      0.4373      0.1087
 38      0.0000      0.4997      0.5852      0.1855      1.2768      1.1952      1.0564      0.6876      0.3482
 39      0.0000      0.5238      2.2383      0.0876      1.3861      1.2768      1.6642      0.3031      0.1223
 40      0.0000      0.4403      0.0000      0.3877      0.0000      0.4418      1.0871      0.3829      0.0000
 41      5.4789      0.4182      2.1302      0.9501      0.6747      0.0000      0.0000      1.2071      0.0464
 42      0.0000      0.4731      0.0000      0.9394      2.1503      0.0000      0.3147      0.3940      0.1611
 43     19.6436      0.5508      1.8859      1.6016      2.5550      0.9094      1.5568      0.3240      0.0000
 44      0.0000      0.5838      1.7703      1.5105      1.1470      0.1896      0.9934      0.8334      1.2165
 45      0.0000      0.4423      1.0373      0.0000      0.8645      0.0000      4.2132      0.0000      0.3491
 46      0.0000      0.4901      0.2957      0.0000      1.8199      1.3511      1.8407      0.9584      1.5451
 47      0.0000      0.5459      0.0000      1.0927      0.6727      1.5282      1.5644      4.0163      0.0000
 48      0.0000      0.4998      0.0000      1.2501      2.8661      0.9751      0.7020      0.3354      0.7680
 49      0.0000      0.3184      2.2424      0.5870      1.9893      0.2717      0.0000      0.6059      1.0171
 50      0.0000      0.5561      0.4581      1.4600      0.8667      0.0000      0.6876      4.1466      0.9136
 51      0.0311     19.4799      7.9007      4.5082     11.8273      5.4538      3.7289     12.5330      7.9595
 52      0.0000      0.4961      0.0000      0.0000      0.1831      3.4800      1.0115      1.6618      1.1646
 53      0.0000      0.4754      2.8815      1.3692      0.4907      0.6344      0.6205      0.0000      0.1611
 54      0.0000      0.5041      0.2095      0.0000      0.9129      2.3942      0.0847      1.3458      1.5878
 55      0.0000      0.4523      0.3568      0.0000      1.4263      1.7347      1.0005      1.6962      0.3506
 56      0.0000      0.6232      1.1302      0.0019      0.0000      1.3000      0.9398      3.4306      2.0036
 57      0.0000      0.6431      0.0000      1.8366      0.5300      0.7190      0.0000      0.0000      1.4095
 58      0.0000      0.6401      2.0767      0.3787      1.5911      0.0000      2.0015      0.1243      6.0778
 59     49.0722      0.3791      0.5012      0.4664      2.7551      3.3783      0.2929      0.0000      0.8277
 60      1.6174      0.5717      3.3138      1.1663      0.3598      0.0000      1.1865      4.7559      0.0000
 61      0.0000      0.6137      1.7140      0.1086      0.7679      0.3777      0.7179      0.0000      0.0000
 62      0.0000      0.4156      2.2176      0.7593      0.6107      2.7563      0.9112      2.2466      0.0000
 63      0.0000      0.5630      0.0000      2.1390      0.0000      0.8368      0.0000      0.4871      1.8841
 64      0.0000      0.5198      0.1416      1.3309      0.0000      0.9504      0.0000      1.6944      1.6269
 65      0.0000      0.5113      1.5425      0.2262      1.4192      1.4236      0.8411      1.3182      1.3427
 66      0.0000      0.4419      0.0000      0.0000      0.0000      1.8756      0.9322      0.9277      0.0000

# j      m_j: min, <> & last-chain-values for 1 ...  7 chains
  1  0.0000E+00  4.4838E-03  1.1646E-03  2.0864E-02  0.0000E+00  1.4423E-03  1.1392E-02  0.0000E+00  0.0000E+00
  2  0.0000E+00  1.2884E-03  5.6384E-03  1.8070E-03  6.8757E-03  1.4420E-03  6.1426E-03  1.4793E-03  1.0805E-03
  3  0.0000E+00  1.8580E-03  0.0000E+00  5.2948E-03  1.4775E-03  1.8551E-03  1.1189E-03  0.0000E+00  9.8348E-03
  4  0.0000E+00  1.4368E-03  1.2017E-03  4.0952E-03  6.1523E-05  9.0918E-03  4.8673E-03  0.0000E+00  3.3938E-03
  5  0.0000E+00  3.2639E-03  9.0782E-03  2.0764E-02  1.4643E-02  9.0184E-03  5.5129E-03  0.0000E+00  1.7036E-03
  6  0.0000E+00  5.1144E-03  7.2197E-03  1.9595E-02  9.9442E-03  0.0000E+00  1.0083E-02  0.0000E+00  3.4286E-05
  7  0.0000E+00  7.6403E-03  4.0551E-02  1.0257E-02  5.7530E-03  2.1157E-02  3.9806E-02  0.0000E+00  2.7060E-04
  8  0.0000E+00  8.7740E-03  9.6967E-02  4.4706E-02  6.4159E-02  6.8302E-02  2.4205E-02  0.0000E+00  1.4688E-02
  9  0.0000E+00  1.0433E-02  4.7753E-02  1.7482E-02  0.0000E+00  0.0000E+00  1.8093E-02  0.0000E+00  2.3591E-02
 10  1.6096E+00  1.3127E-02  4.0430E-02  7.8583E-02  0.0000E+00  5.7023E-02  8.0110E-02  6.7996E-02  2.4499E-02
 11  0.0000E+00  4.0735E-02  5.1138E-01  2.8982E-01  1.0939E-01  1.6113E-01  1.9566E-01  1.2941E-01  1.4574E-01
 12  0.0000E+00  3.1646E-02  2.8306E-01  0.0000E+00  4.8100E-02  4.3904E-02  0.0000E+00  9.0706E-02  0.0000E+00
 13  0.0000E+00  1.3580E-01  1.0586E+00  1.9635E-01  4.8239E-01  1.8844E-01  7.7954E-01  0.0000E+00  5.4432E-01
 14  0.0000E+00  5.0567E-01  2.6318E-01  1.1414E+00  5.5529E-01  2.8224E+00  1.0814E+00  8.4376E-03  9.2340E-01
 15  0.0000E+00  7.4746E-01  2.2175E+00  5.0205E+00  4.3091E-04  7.8195E-01  1.7257E+00  2.2912E+00  0.0000E+00
 16  0.0000E+00  5.1836E+01  3.5629E+01  2.7764E+01  3.6456E+01  2.2109E+01  2.1282E+01  2.2549E+01  2.2960E+01
 17  0.0000E+00  2.2959E+01  7.6409E+00  1.6838E+01  1.4149E+01  1.1138E+01  2.7220E+01  1.1469E+01  2.5839E+01
 18  0.0000E+00  3.8901E-03  0.0000E+00  1.8900E-02  0.0000E+00  9.4903E-03  7.4408E-03  1.5633E-03  0.0000E+00
 19  0.0000E+00  1.5373E-03  1.1073E-02  0.0000E+00  0.0000E+00  1.2857E-03  1.0050E-03  0.0000E+00  6.8173E-03
 20  0.0000E+00  1.6182E-03  2.9616E-03  7.2761E-03  5.4695E-03  4.8611E-03  0.0000E+00  0.0000E+00  5.0509E-03
 21  0.0000E+00  1.7552E-03  6.4172E-03  1.3619E-02  3.9796E-03  0.0000E+00  3.5861E-03  0.0000E+00  8.3390E-04
 22  0.0000E+00  3.1217E-03  0.0000E+00  0.0000E+00  7.8986E-03  1.3985E-02  0.0000E+00  0.0000E+00  0.0000E+00
 23  0.0000E+00  5.4243E-03  0.0000E+00  1.9352E-02  4.9557E-04  3.0302E-02  1.2797E-02  9.0184E-04  2.0344E-02
 24  0.0000E+00  3.6291E-03  0.0000E+00  3.7422E-02  0.0000E+00  3.8743E-03  0.0000E+00  3.2974E-03  0.0000E+00
 25  0.0000E+00  7.8146E-03  0.0000E+00  1.5911E-02  0.0000E+00  4.8540E-02  3.8434E-02  8.9850E-05  6.2979E-03
 26  0.0000E+00  1.1917E-02  0.0000E+00  4.0872E-02  0.0000E+00  1.1676E-01  4.9728E-02  0.0000E+00  4.8934E-02
 27  0.0000E+00  2.6981E-02  1.0116E-01  1.0402E-01  2.1470E-02  0.0000E+00  2.1581E-02  4.2002E-02  6.0290E-02
 28  0.0000E+00  1.0975E-01  1.1528E-01  2.4508E-01  1.8865E-01  7.9441E-02  8.9656E-02  3.5683E-01  3.5847E-01
 29  0.0000E+00  1.4542E-01  4.5939E-01  5.5947E-01  1.3597E+00  2.4721E-01  1.5558E-01  2.7203E-01  3.5040E-01
 30  0.0000E+00  3.0031E-01  4.6578E+00  3.3185E+00  3.7413E-01  5.2147E-01  0.0000E+00  5.3678E-01  6.0451E-01
 31  0.0000E+00  6.6201E-01  2.2469E+00  0.0000E+00  0.0000E+00  0.0000E+00  3.0294E+00  8.9937E-01  4.5248E-01
 32  0.0000E+00  6.8724E-01  1.0952E+00  6.7664E-01  2.2041E+00  0.0000E+00  6.1495E+00  1.9813E+00  0.0000E+00
 33  0.0000E+00  1.3791E+00  0.0000E+00  4.3917E+00  3.5360E+00  6.2983E+00  3.1867E+00  1.2950E+00  8.3735E+00
 34  0.0000E+00  2.6501E+00  1.1102E+00  6.1577E+00  1.3807E+00  6.2076E+00  3.6293E+00  4.6663E+00  9.1661E+00
 35  0.0000E+00  3.8285E-03  5.9451E-04  3.3976E-03  4.6120E-03  8.7837E-03  1.6603E-03  1.8554E-03  0.0000E+00
 36  0.0000E+00  1.2541E-03  0.0000E+00  1.4414E-03  2.8016E-04  0.0000E+00  7.4469E-03  8.0941E-04  0.0000E+00
 37  0.0000E+00  1.9220E-03  8.3883E-03  1.7469E-03  1.3701E-03  2.6438E-03  1.3643E-03  1.0000E-03  2.9102E-04
 38  0.0000E+00  3.5362E-03  6.8188E-03  1.7799E-03  1.1673E-02  1.0379E-02  9.1349E-03  4.2599E-03  2.5248E-03
 39  0.0000E+00  5.3376E-03  3.7554E-02  1.2100E-03  1.8246E-02  1.5964E-02  2.0721E-02  2.7041E-03  1.2764E-03
 40  0.0000E+00  7.2519E-03  0.0000E+00  8.6586E-03  0.0000E+00  8.9291E-03  2.1879E-02  5.5209E-03  0.0000E+00
 41  2.3803E+00  1.0710E-02  8.9837E-02  3.2999E-02  2.2325E-02  0.0000E+00  0.0000E+00  2.7068E-02  1.2176E-03
 42  0.0000E+00  2.2245E-02  0.0000E+00  5.9904E-02  1.3063E-01  0.0000E+00  1.8082E-02  1.6219E-02  7.7626E-03
 43  2.2876E+01  3.7816E-02  2.1319E-01  1.4911E-01  2.2662E-01  7.6611E-02  1.3060E-01  1.9474E-02  0.0000E+00
 44  0.0000E+00  6.9015E-02  3.4459E-01  2.4214E-01  1.7517E-01  2.7505E-02  1.4349E-01  8.6253E-02  1.4733E-01
 45  0.0000E+00  1.0374E-01  4.0059E-01  0.0000E+00  2.6196E-01  0.0000E+00  1.2075E+00  0.0000E+00  8.3895E-02
 46  0.0000E+00  2.1130E-01  2.0994E-01  0.0000E+00  1.0136E+00  7.1476E-01  9.6972E-01  3.6173E-01  6.8245E-01
 47  0.0000E+00  4.7690E-01  0.0000E+00  1.2945E+00  7.5922E-01  1.6382E+00  1.6700E+00  3.0717E+00  0.0000E+00
 48  0.0000E+00  7.7001E-01  0.0000E+00  2.6118E+00  5.7048E+00  1.8434E+00  1.3215E+00  4.5240E-01  1.2122E+00
 49  0.0000E+00  1.1148E+00  1.2929E+01  2.7872E+00  8.9990E+00  1.1672E+00  0.0000E+00  1.8576E+00  3.6489E+00
 50  0.0000E+00  3.6066E+00  4.8920E+00  1.2840E+01  7.2616E+00  0.0000E+00  5.4492E+00  2.3544E+01  6.0704E+00
 51  1.8771E-03  6.9250E-02  4.6247E-02  2.1734E-02  5.4320E-02  2.3790E-02  1.6199E-02  3.9007E-02  2.8990E-02
 52  0.0000E+00  9.0378E-04  0.0000E+00  0.0000E+00  4.3092E-04  7.7792E-03  2.2517E-03  2.6504E-03  2.1737E-03
 53  0.0000E+00  1.3046E-03  1.3021E-02  5.0951E-03  1.7395E-03  2.1364E-03  2.0808E-03  0.0000E+00  4.5286E-04
 54  0.0000E+00  2.8346E-03  1.9399E-03  0.0000E+00  6.6313E-03  1.6519E-02  5.8225E-04  6.6252E-03  9.1471E-03
 55  0.0000E+00  3.9157E-03  5.0865E-03  0.0000E+00  1.5953E-02  1.8429E-02  1.0585E-02  1.2857E-02  3.1098E-03
 56  0.0000E+00  1.0679E-02  3.1889E-02  4.5218E-05  0.0000E+00  2.7336E-02  1.9679E-02  5.1467E-02  3.5176E-02
 57  0.0000E+00  1.4626E-02  0.0000E+00  5.6646E-02  1.5574E-02  2.0065E-02  0.0000E+00  0.0000E+00  3.2844E-02
 58  0.0000E+00  2.4625E-02  1.3155E-01  1.9756E-02  7.9076E-02  0.0000E+00  9.4090E-02  4.1856E-03  2.3955E-01
 59  6.8913E+01  3.1383E-02  6.8323E-02  5.2363E-02  2.9468E-01  3.4320E-01  2.9633E-02  0.0000E+00  7.0204E-02
 60  4.2187E+00  8.7908E-02  8.3908E-01  2.4322E-01  7.1472E-02  0.0000E+00  2.2295E-01  6.4029E-01  0.0000E+00
 61  0.0000E+00  2.0620E-01  9.4823E-01  4.9490E-02  3.3333E-01  1.5572E-01  2.9474E-01  0.0000E+00  0.0000E+00
 62  0.0000E+00  2.5462E-01  2.2369E+00  6.3077E-01  4.8336E-01  2.0720E+00  6.8214E-01  1.2049E+00  0.0000E+00
 63  0.0000E+00  6.8618E-01  0.0000E+00  3.5355E+00  0.0000E+00  1.2514E+00  0.0000E+00  5.1980E-01  2.3527E+00
 64  0.0000E+00  1.7525E+00  7.8575E-01  6.0842E+00  0.0000E+00  3.9314E+00  0.0000E+00  5.0009E+00  5.6190E+00
 65  0.0000E+00  3.6436E+00  1.8100E+01  2.1858E+00  1.3066E+01  1.2448E+01  7.3245E+00  8.2242E+00  9.8031E+00
 66  0.0000E+00  4.4484E+00  0.0000E+00  0.0000E+00  0.0000E+00  2.3170E+01  1.1468E+01  8.1769E+00  0.0000E+00

# AV, chi2 & Mass for <> & i_chain = 1 ...  7 solutions
AV       0.3256     -0.8917     -0.8316     -0.6956     -0.8098     -0.8210     -0.7745     -0.7975     -0.8316
chi2 5.3163E-05  1.0603E-04  8.6601E-05  8.7608E-05  8.9737E-05  9.1620E-05  8.7386E-05  9.3138E-05  9.0147E-05
Mass 1.0768E-14  3.5608E-14  2.3444E-14  3.4170E-14  3.0766E-14  3.1908E-14  3.4107E-14  4.6154E-14  3.7675E-14
 159.34                                  [v0_min (km/s) before EX0s...]
   0.19                                  [vd_min (km/s) before EX0s...]


## Synthetic spectrum (Best Model) ##l_obs f_obs f_syn wei
 3478    [Nl_obs]
 3741.00    0.88740   0.40760    0.000
 3742.00    0.99330   0.44188    0.000
 3743.00    1.15646   0.45533    0.000
 3744.00    0.93120   0.45084    0.000
 3745.00    0.47961   0.43992   -1.000
 3746.00    0.40684   0.42612   -1.000
 3747.00    0.52644   0.40189   -1.000
 3748.00   -0.06202   0.36897    0.000
 3749.00   -0.96184   0.33397    0.000
 3750.00   -0.60043   0.28939    0.000
 3751.00    0.23714   0.24375   -1.000
 3752.00    0.72264   0.22558   -1.000
 3753.00    1.09532   0.25138   -1.000
 3754.00    0.72281   0.30207   -1.000
 3755.00    0.15060   0.35337   -1.000
 3756.00    0.39668   0.39951   -1.000
 3757.00    0.82236   0.43983   -1.000
 3758.00    0.60835   0.46471   -1.000
 3759.00    0.28266   0.46484   -1.000
 3760.00   -0.33295   0.45533    0.000
 3761.00   -0.98707   0.45972    0.000
 3762.00   -0.68971   0.47474    0.000
 3763.00   -0.30294   0.48278    0.000
 3764.00    0.42888   0.48345   -1.000
 3765.00    1.18061   0.47805   -1.000
 3766.00    1.20656   0.46329   -1.000
 3767.00    1.21466   0.44563   -1.000
 3768.00    1.14789   0.41515   -1.000
 3769.00    1.07871   0.37384   -1.000
 3770.00    0.95140   0.33484   -1.000
 3771.00    0.80332   0.29390   -1.000
 3772.00    0.38316   0.25468   -1.000
 3773.00    0.01266   0.24935    0.751
 3774.00    0.07817   0.28685    0.070
 3775.00    0.14237   0.33702    0.039
 3776.00    0.19805   0.37907    0.038
 3777.00    0.18082   0.41525    0.037
 3778.00   -0.20533   0.45251    0.000
 3779.00   -0.37095   0.49020    0.000
 3780.00    0.36607   0.52167    0.038
 3781.00    1.02457   0.54986    0.038
 3782.00    1.41678   0.57654    0.040
 3783.00    1.61187   0.59361    0.041
 3784.00    1.24318   0.60062    0.040
 3785.00    1.00865   0.60612    0.040
 3786.00    1.10189   0.61367    0.040
 3787.00    1.18392   0.60854    0.040
 3788.00    1.24232   0.58436    0.039
 3789.00    0.92766   0.56105    0.039
 3790.00   -0.07035   0.54601    0.000
 3791.00   -0.51915   0.53209    0.000
 3792.00   -0.08882   0.51670    0.000
 3793.00    0.57500   0.49945    0.040
 3794.00    1.56678   0.47373    0.041
 3795.00    1.66744   0.43498    0.041
 3796.00    0.66667   0.38835    0.039
 3797.00    0.38930   0.34209    0.039
 3798.00    0.90007   0.29718    0.040
 3799.00    1.43770   0.25211    0.040
 3800.00    2.00116   0.22889    0.040
 3801.00    1.56221   0.25056    0.040
 3802.00    0.27384   0.30284    0.038
 3803.00   -0.09472   0.35780    0.000
 3804.00    0.22311   0.40790    0.037
 3805.00    0.36382   0.45406    0.037
 3806.00    0.38841   0.48996    0.036
 3807.00    0.67915   0.51335    0.036
 3808.00    1.12262   0.52887    0.037
 3809.00    0.92322   0.54747    0.036
 3810.00    0.40251   0.57799    0.035
 3811.00    0.35010   0.61166    0.035
 3812.00    0.50020   0.63862    0.036
 3813.00    0.80785   0.65269    0.036
 3814.00    1.17393   0.64746    0.035
 3815.00    1.30231   0.62683    0.035
 3816.00    1.35597   0.61120    0.036
 3817.00    1.21860   0.61080    0.036
 3818.00    1.03112   0.62395    0.035
 3819.00    0.52566   0.64565    0.035
 3820.00   -0.04793   0.65522    0.000
 3821.00   -0.11002   0.63818    0.000
 3822.00   -0.08531   0.61183    0.000
 3823.00    0.02136   0.60612    0.035
 3824.00    0.13854   0.61917    0.035
 3825.00    0.57039   0.61636    0.036
 3826.00    1.03048   0.58425    0.037
 3827.00    0.73850   0.55045    0.036
 3828.00    0.40611   0.52973    0.035
 3829.00    0.31342   0.51086    0.036
 3830.00    0.22822   0.48697    0.037
 3831.00    0.36981   0.46035    0.037
 3832.00    0.50365   0.43362    0.037
 3833.00    0.46515   0.39904    0.036
 3834.00    0.48190   0.35043    0.036
 3835.00    1.18545   0.30062    0.037
 3836.00    1.79009   0.25696    0.037
 3837.00    1.55877   0.22791    0.037
 3838.00    1.32660   0.23218    0.037
 3839.00    1.08903   0.26534    0.037
 3840.00    0.91119   0.30492    0.036
 3841.00    1.02803   0.34502    0.037
 3842.00    1.06646   0.38443    0.037
 3843.00    0.79101   0.42685    0.036
 3844.00    0.70012   0.47411    0.036
 3845.00    1.22282   0.51462    0.036
 3846.00    1.63915   0.54329    0.035
 3847.00    1.75679   0.56464    0.000
 3848.00    1.62615   0.58473    0.000
 3849.00    0.89920   0.60785    0.000
 3850.00    0.45056   0.62671    0.000
 3851.00    0.57913   0.63033    0.000
 3852.00    0.79714   0.63354    0.000
 3853.00    1.17648   0.65679    0.000
 3854.00    1.20700   0.68204    0.000
 3855.00    0.68743   0.68707    0.000
 3856.00    0.37014   0.68324    0.000
 3857.00    0.33286   0.67414    0.000
 3858.00    0.60111   0.66634    0.000
 3859.00    1.24162   0.68047    0.000
 3860.00    1.48724   0.69422    0.000
 3861.00    1.30866   0.68795    0.000
 3862.00    0.92304   0.68803    0.000
 3863.00    0.34122   0.70373    0.000
 3864.00    0.20800   0.70938    0.000
 3865.00    0.44952   0.70629    0.000
 3866.00    0.50740   0.70895    0.000
 3867.00    0.43021   0.70733    0.000
 3868.00    0.39041   0.70186    0.000
 3869.00    0.37477   0.70530    0.000
 3870.00    0.31147   0.71570    0.000
 3871.00    0.22123   0.72078    0.000
 3872.00    0.14566   0.71209    0.000
 3873.00    0.07730   0.68913    0.000
 3874.00    0.15085   0.65956    0.000
 3875.00    0.28474   0.64479    0.000
 3876.00    0.54125   0.65127    0.000
 3877.00    0.84242   0.65877    0.000
 3878.00    0.68415   0.65082    0.000
 3879.00    0.38425   0.62049    0.000
 3880.00    0.01913   0.57793    0.000
 3881.00   -0.36272   0.55692    0.000
 3882.00    0.41170   0.55698    0.032
 3883.00    1.42785   0.54283    0.033
 3884.00    1.28897   0.50990    0.033
 3885.00    0.95962   0.47743    0.032
 3886.00    0.81122   0.44622    0.032
 3887.00    0.68523   0.40326    0.032
 3888.00    0.45804   0.35129    0.032
 3889.00    0.22218   0.30281    0.031
 3890.00    0.29583   0.25996    0.031
 3891.00    0.38491   0.23638    0.032
 3892.00    0.57747   0.25353    0.031
 3893.00    0.77196   0.30151    0.031
 3894.00    0.98163   0.35371    0.031
 3895.00    1.20046   0.39706    0.031
 3896.00    1.60659   0.43065    0.031
 3897.00    1.92947   0.45968    0.031
 3898.00    1.26783   0.49130    0.031
 3899.00    0.67306   0.52380    0.030
 3900.00    0.62306   0.54677    0.030
 3901.00    0.61313   0.55957    0.029
 3902.00    0.84792   0.57445    0.029
 3903.00    1.01867   0.60441    0.028
 3904.00    0.88122   0.63130    0.028
 3905.00    0.74746   0.63961    0.027
 3906.00    0.62814   0.64748    0.028
 3907.00    0.48115   0.65024    0.028
 3908.00    0.24397   0.65057    0.028
 3909.00    0.09183   0.67187    0.028
 3910.00    0.17418   0.70443    0.029
 3911.00    0.46301   0.72784    0.030
 3912.00    1.23940   0.74007    0.031
 3913.00    1.50478   0.74534    0.032
 3914.00    0.72726   0.74299    0.032
 3915.00    0.30376   0.72820    0.032
 3916.00    0.50906   0.71635    0.032
 3917.00    0.81206   0.72249    0.032
 3918.00    1.26686   0.72749    0.033
 3919.00    1.47141   0.72585    0.033
 3920.00    1.33452   0.72407    0.032
 3921.00    1.03796   0.71953    0.032
 3922.00    0.54960   0.71572    0.032
 3923.00    0.54175   0.71976    0.032
 3924.00    1.04278   0.72860    0.032
 3925.00    1.27501   0.73564    0.032
 3926.00    1.25612   0.74199    0.032
 3927.00    0.98101   0.73958    0.032
 3928.00    0.49488   0.72658    0.031
 3929.00    0.32942   0.71284    0.031
 3930.00    0.39642   0.69859    0.032
 3931.00    0.61210   0.68012    0.032
 3932.00    0.92240   0.65667    0.031
 3933.00    0.86387   0.62712    0.031
 3934.00    0.60007   0.57295    0.031
 3935.00    0.18412   0.49229    0.030
 3936.00   -0.30548   0.45895    0.000
 3937.00   -0.20361   0.51542    0.000
 3938.00    0.14554   0.59858    0.030
 3939.00    0.87155   0.65102    0.030
 3940.00    1.73236   0.67331    0.030
 3941.00    1.83216   0.69057    0.030
 3942.00    1.70193   0.70994    0.030
 3943.00    1.06973   0.71703    0.030
 3944.00    0.31145   0.71250    0.030
 3945.00    0.42563   0.70066    0.031
 3946.00    0.71773   0.68907    0.032
 3947.00    0.85539   0.69588    0.031
 3948.00    0.96834   0.71401    0.031
 3949.00    0.65182   0.71604    0.031
 3950.00    0.28402   0.70242    0.032
 3951.00    0.58880   0.69340    0.032
 3952.00    0.94834   0.69437    0.032
 3953.00    0.76734   0.69152    0.032
 3954.00    0.56149   0.68028    0.032
 3955.00    1.33050   0.67584    0.032
 3956.00    2.08247   0.67995    0.033
 3957.00    1.29564   0.67120    0.033
 3958.00    0.59774   0.64431    0.032
 3959.00    1.58454   0.62173    0.032
 3960.00    2.42778   0.61458    0.000
 3961.00    1.65312   0.60974    0.000
 3962.00    1.03026   0.58836    0.000
 3963.00    1.60068   0.54933    0.000
 3964.00    2.08405   0.51241    0.000
 3965.00    2.05088   0.48476    0.000
 3966.00    1.93949   0.45527    0.000
 3967.00    1.46082   0.41755    0.000
 3968.00    1.12271   0.37056    0.000
 3969.00    1.32331   0.31442    0.000
 3970.00    1.42629   0.25497    0.000
 3971.00    1.21725   0.21029    0.000
 3972.00    1.07538   0.19876    0.000
 3973.00    1.11543   0.22424    0.000
 3974.00    1.08903   0.27244    0.000
 3975.00    0.90833   0.32258    0.000
 3976.00    0.77441   0.36874    0.000
 3977.00    0.73446   0.41356    0.000
 3978.00    0.81963   0.45338    0.000
 3979.00    1.12367   0.48788    0.000
 3980.00    1.22229   0.52257    0.000
 3981.00    1.00643   0.55624    0.029
 3982.00    0.69290   0.58448    0.029
 3983.00    0.24802   0.60088    0.030
 3984.00   -0.04595   0.60916    0.000
 3985.00   -0.16121   0.62165    0.000
 3986.00    0.02424   0.64023    0.029
 3987.00    0.52369   0.65989    0.029
 3988.00    0.74588   0.67499    0.030
 3989.00    0.71269   0.68789    0.030
 3990.00    0.70043   0.70207    0.029
 3991.00    0.70517   0.70959    0.029
 3992.00    1.03728   0.71124    0.029
 3993.00    1.60331   0.71693    0.030
 3994.00    1.36617   0.72900    0.030
 3995.00    0.62546   0.74078    0.030
 3996.00    0.47533   0.74398    0.030
 3997.00    0.64887   0.73951    0.030
 3998.00    0.62212   0.73049    0.029
 3999.00    0.49998   0.72069    0.029
 4000.00    0.86042   0.72128    0.029
 4001.00    1.41921   0.73781    0.030
 4002.00    0.92572   0.75564    0.029
 4003.00    0.06266   0.75813    0.029
 4004.00    0.48551   0.75097    0.029
 4005.00    1.28936   0.74823    0.030
 4006.00    1.56415   0.74062    0.031
 4007.00    1.70897   0.72101    0.031
 4008.00    1.37317   0.71686    0.030
 4009.00    0.94180   0.73803    0.030
 4010.00    0.82293   0.76011    0.029
 4011.00    0.75260   0.76793    0.029
 4012.00    0.90930   0.76893    0.029
 4013.00    1.09210   0.76684    0.030
 4014.00    0.85675   0.75811    0.030
 4015.00    0.58907   0.75494    0.030
 4016.00    0.70452   0.76038    0.029
 4017.00    0.83610   0.76588    0.029
 4018.00    0.95510   0.76746    0.029
 4019.00    1.06759   0.76487    0.029
 4020.00    0.89959   0.76745    0.029
 4021.00    0.76905   0.78020    0.029
 4022.00    1.29894   0.78915    0.029
 4023.00    1.79278   0.78468    0.029
 4024.00    1.89876   0.77408    0.029
 4025.00    1.93534   0.76290    0.029
 4026.00    1.44517   0.74710    0.029
 4027.00    0.98801   0.73675    0.028
 4028.00    0.72125   0.74565    0.028
 4029.00    0.54202   0.76197    0.028
 4030.00    0.76391   0.76800    0.027
 4031.00    0.86920   0.76069    0.027
 4032.00    0.53712   0.74210    0.026
 4033.00    0.35210   0.72588    0.026
 4034.00    0.62812   0.72279    0.026
 4035.00    1.00000   0.72719    0.027
 4036.00    1.62688   0.73733    0.027
 4037.00    2.00160   0.75034    0.027
 4038.00    1.80053   0.76569    0.027
 4039.00    1.56404   0.78038    0.027
 4040.00    1.25752   0.78785    0.027
 4041.00    1.03436   0.78645    0.027
 4042.00    0.95481   0.77934    0.027
 4043.00    0.87600   0.77383    0.028
 4044.00    0.79833   0.77577    0.027
 4045.00    0.77133   0.77527    0.027
 4046.00    0.81152   0.75496    0.028
 4047.00    0.91901   0.72027    0.028
 4048.00    1.10508   0.70681    0.029
 4049.00    1.19901   0.73202    0.029
 4050.00    1.19807   0.75769    0.029
 4051.00    1.13404   0.76228    0.029
 4052.00    1.01273   0.76533    0.028
 4053.00    1.12093   0.76877    0.028
 4054.00    1.41284   0.76207    0.029
 4055.00    1.48687   0.74945    0.029
 4056.00    1.40748   0.73880    0.029
 4057.00    1.27860   0.73765    0.029
 4058.00    1.11915   0.74324    0.028
 4059.00    1.02550   0.74169    0.028
 4060.00    0.96736   0.73756    0.028
 4061.00    0.99079   0.74516    0.029
 4062.00    1.05245   0.75700    0.029
 4063.00    0.88223   0.75679    0.028
 4064.00    0.61834   0.73683    0.028
 4065.00    0.57402   0.70772    0.028
 4066.00    0.60540   0.70025    0.028
 4067.00    0.80203   0.71985    0.028
 4068.00    1.04664   0.72961    0.028
 4069.00    0.99680   0.72105    0.028
 4070.00    0.87624   0.72444    0.028
 4071.00    0.75907   0.74060    0.027
 4072.00    0.64257   0.73812    0.027
 4073.00    0.48992   0.71381    0.027
 4074.00    0.33183   0.69993    0.028
 4075.00    0.52193   0.71254    0.027
 4076.00    0.75056   0.72639    0.027
 4077.00    0.90060   0.71847    0.027
 4078.00    1.04489   0.69007    0.027
 4079.00    0.83640   0.65928    0.026
 4080.00    0.61440   0.65230    0.026
 4081.00    0.91055   0.67375    0.026
 4082.00    1.20444   0.69974    0.027
 4083.00    1.30536   0.71288    0.027
 4084.00    1.39114   0.70955    0.026
 4085.00    1.22756   0.69498    0.026
 4086.00    1.06853   0.67823    0.026
 4087.00    0.95633   0.66412    0.026
 4088.00    0.88695   0.65684    0.025
 4089.00    1.13173   0.65704    0.026
 4090.00    1.35867   0.65735    0.026
 4091.00    1.48550   0.64950    0.026
 4092.00    1.52835   0.63327    0.000
 4093.00    1.19541   0.61406    0.000
 4094.00    0.94333   0.59350    0.000
 4095.00    0.98825   0.57288    0.000
 4096.00    1.01547   0.55103    0.000
 4097.00    0.98827   0.52062    0.000
 4098.00    0.91937   0.48345    0.000
 4099.00    0.74147   0.44715    0.000
 4100.00    0.66781   0.41214    0.000
 4101.00    0.82821   0.37450    0.000
 4102.00    0.94472   0.32790    0.000
 4103.00    0.97582   0.27787    0.000
 4104.00    0.97029   0.25566    0.000
 4105.00    0.90265   0.27932    0.000
 4106.00    0.75146   0.32683    0.000
 4107.00    0.47610   0.37574    0.000
 4108.00    0.35873   0.41900    0.000
 4109.00    0.44781   0.45427    0.000
 4110.00    0.54862   0.48245    0.000
 4111.00    0.66295   0.50463    0.000
 4112.00    0.70456   0.52264    0.000
 4113.00    0.67236   0.54117    0.026
 4114.00    0.66377   0.56331    0.027
 4115.00    0.67632   0.58882    0.027
 4116.00    0.88211   0.61419    0.027
 4117.00    1.24036   0.63611    0.027
 4118.00    1.31560   0.65362    0.027
 4119.00    1.19446   0.66175    0.027
 4120.00    1.05990   0.65717    0.027
 4121.00    0.91719   0.65307    0.027
 4122.00    1.05134   0.66209    0.027
 4123.00    1.33258   0.67396    0.027
 4124.00    1.20234   0.67620    0.027
 4125.00    0.88237   0.67828    0.026
 4126.00    0.83072   0.69060    0.026
 4127.00    0.88562   0.70411    0.027
 4128.00    0.91893   0.70461    0.026
 4129.00    0.94492   0.68771    0.026
 4130.00    0.98896   0.66675    0.026
 4131.00    1.03812   0.66308    0.025
 4132.00    0.88519   0.66649    0.025
 4133.00    0.68482   0.66139    0.025
 4134.00    0.84464   0.65954    0.025
 4135.00    1.07245   0.67280    0.025
 4136.00    0.92423   0.69301    0.025
 4137.00    0.72110   0.71184    0.025
 4138.00    0.84674   0.72518    0.025
 4139.00    1.00731   0.72787    0.026
 4140.00    1.21120   0.73077    0.025
 4141.00    1.41809   0.73889    0.025
 4142.00    1.41991   0.74522    0.025
 4143.00    1.41465   0.74189    0.025
 4144.00    1.13205   0.72237    0.025
 4145.00    0.86032   0.69137    0.024
 4146.00    0.96573   0.67724    0.025
 4147.00    1.06349   0.69284    0.025
 4148.00    1.04292   0.71425    0.025
 4149.00    1.04265   0.72616    0.025
 4150.00    1.24248   0.72820    0.025
 4151.00    1.40351   0.72104    0.025
 4152.00    1.28918   0.71415    0.025
 4153.00    1.10662   0.71574    0.025
 4154.00    0.55159   0.71947    0.024
 4155.00    0.12301   0.71734    0.024
 4156.00    0.24719   0.70873    0.024
 4157.00    0.43802   0.70421    0.024
 4158.00    0.86860   0.70585    0.024
 4159.00    1.18886   0.70908    0.024
 4160.00    1.17625   0.71698    0.024
 4161.00    1.07761   0.72655    0.024
 4162.00    0.75803   0.72911    0.024
 4163.00    0.52415   0.72432    0.024
 4164.00    0.47959   0.72336    0.023
 4165.00    0.48607   0.72791    0.023
 4166.00    0.59030   0.73181    0.024
 4167.00    0.74409   0.73648    0.024
 4168.00    0.98070   0.73597    0.024
 4169.00    0.96003   0.72930    0.024
 4170.00    0.56250   0.72817    0.024
 4171.00    0.40668   0.73388    0.024
 4172.00    0.56220   0.73050    0.025
 4173.00    0.77817   0.70895    0.025
 4174.00    1.06274   0.67876    0.025
 4175.00    1.03702   0.66117    0.025
 4176.00    0.70075   0.66890    0.025
 4177.00    0.65213   0.69115    0.025
 4178.00    0.85742   0.70370    0.025
 4179.00    0.91866   0.69598    0.025
 4180.00    0.86785   0.68022    0.025
 4181.00    0.81897   0.67891    0.025
 4182.00    0.77141   0.69652    0.025
 4183.00    0.74093   0.71044    0.024
 4184.00    0.72069   0.71046    0.024
 4185.00    0.64717   0.70970    0.024
 4186.00    0.54577   0.71364    0.025
 4187.00    0.59914   0.72194    0.025
 4188.00    0.72270   0.72209    0.025
 4189.00    0.96143   0.70584    0.025
 4190.00    1.24511   0.69740    0.025
 4191.00    1.05487   0.71049    0.024
 4192.00    0.70724   0.72287    0.024
 4193.00    0.75817   0.72117    0.024
 4194.00    0.92019   0.72259    0.025
 4195.00    0.91645   0.73580    0.025
 4196.00    0.87468   0.74185    0.025
 4197.00    0.82412   0.72937    0.025
 4198.00    0.77193   0.71308    0.025
 4199.00    0.56299   0.70175    0.025
 4200.00    0.33189   0.68772    0.024
 4201.00    0.56509   0.68174    0.024
 4202.00    0.84563   0.69223    0.024
 4203.00    1.11032   0.69811    0.024
 4204.00    1.37397   0.69269    0.024
 4205.00    1.16926   0.69384    0.023
 4206.00    0.95024   0.69953    0.023
 4207.00    0.77973   0.70178    0.023
 4208.00    0.61552   0.70891    0.023
 4209.00    0.63669   0.71940    0.023
 4210.00    0.65950   0.72389    0.023
 4211.00    0.70638   0.72043    0.023
 4212.00    0.75670   0.71595    0.023
 4213.00    0.83960   0.71947    0.023
 4214.00    0.90490   0.72912    0.023
 4215.00    0.84916   0.73297    0.023
 4216.00    0.74766   0.72172    0.023
 4217.00    0.40291   0.69700    0.022
 4218.00    0.17513   0.68435    0.022
 4219.00    0.44689   0.70017    0.023
 4220.00    0.69814   0.72358    0.023
 4221.00    0.87709   0.73378    0.022
 4222.00    0.95859   0.73485    0.022
 4223.00    0.75147   0.73644    0.022
 4224.00    0.59161   0.73239    0.022
 4225.00    0.55100   0.71992    0.022
 4226.00    0.54504   0.70090    0.022
 4227.00    0.61436   0.67626    0.022
 4228.00    0.67653   0.65075    0.022
 4229.00    0.72525   0.64056    0.021
 4230.00    0.80428   0.66443    0.021
 4231.00    0.93322   0.70377    0.021
 4232.00    0.97352   0.72945    0.021
 4233.00    0.88586   0.73664    0.021
 4234.00    0.77801   0.72020    0.021
 4235.00    0.64453   0.68940    0.021
 4236.00    0.64010   0.67969    0.021
 4237.00    0.78006   0.69038    0.021
 4238.00    0.83977   0.69598    0.020
 4239.00    0.82029   0.70040    0.020
 4240.00    0.79288   0.70394    0.020
 4241.00    0.75857   0.70261    0.021
 4242.00    0.87711   0.70670    0.021
 4243.00    1.11283   0.71611    0.021
 4244.00    1.06163   0.71773    0.021
 4245.00    0.81707   0.71850    0.021
 4246.00    0.50733   0.72840    0.021
 4247.00    0.15912   0.73209    0.022
 4248.00    0.34633   0.71714    0.022
 4249.00    0.80921   0.69907    0.022
 4250.00    0.80281   0.69733    0.023
 4251.00    0.58703   0.70121    0.023
 4252.00    0.64511   0.69039    0.023
 4253.00    0.80818   0.68160    0.023
 4254.00    0.67975   0.69086    0.023
 4255.00    0.45631   0.69878    0.023
 4256.00    0.34647   0.69416    0.022
 4257.00    0.26764   0.69392    0.022
 4258.00    0.53553   0.70755    0.022
 4259.00    0.88112   0.71900    0.022
 4260.00    0.84538   0.71237    0.022
 4261.00    0.74143   0.69588    0.023
 4262.00    0.65875   0.67960    0.023
 4263.00    0.57898   0.67324    0.023
 4264.00    0.58269   0.68672    0.023
 4265.00    0.59455   0.71043    0.022
 4266.00    0.61801   0.72775    0.022
 4267.00    0.64218   0.73655    0.023
 4268.00    0.36017   0.73813    0.022
 4269.00    0.07314   0.73008    0.022
 4270.00    0.41892   0.71723    0.022
 4271.00    0.75378   0.70510    0.022
 4272.00    0.79993   0.68946    0.022
 4273.00    0.85171   0.66530    0.022
 4274.00    0.98086   0.64969    0.023
 4275.00    1.03933   0.65685    0.023
 4276.00    0.45572   0.66759    0.023
 4277.00   -0.00250   0.67248    0.000
 4278.00    0.37445   0.68524    0.023
 4279.00    0.66960   0.70381    0.023
 4280.00    0.54126   0.71419    0.023
 4281.00    0.47543   0.71446    0.023
 4282.00    0.67052   0.70830   -2.000
 4283.00    0.81471   0.70158   -2.000
 4284.00    0.78319   0.69634   -2.000
 4285.00    0.73545   0.69298   -2.000
 4286.00    0.64057   0.69321   -2.000
 4287.00    0.40849   0.69361   -2.000
 4288.00   -0.16393   0.69360   -2.000
 4289.00   -0.41248   0.69229   -2.000
 4290.00    0.03133   0.68337   -2.000
 4291.00    0.35845   0.66042   -2.000
 4292.00    0.46894   0.63876   -2.000
 4293.00    0.59625   0.64584   -2.000
 4294.00    0.75086   0.67363   -2.000
 4295.00    0.74476   0.68849   -2.000
 4296.00    0.51004   0.68081   -2.000
 4297.00    0.29880   0.67135   -2.000
 4298.00    0.11693   0.66885    0.022
 4299.00    0.11901   0.66750    0.022
 4300.00    0.32399   0.66056    0.022
 4301.00    0.42633   0.63834    0.022
 4302.00    0.42879   0.61587    0.022
 4303.00    0.41843   0.61340    0.022
 4304.00    0.39708   0.61678    0.021
 4305.00    0.38044   0.61836    0.021
 4306.00    0.36736   0.62996    0.021
 4307.00    0.32042   0.64224    0.021
 4308.00    0.25099   0.64213    0.021
 4309.00    0.33965   0.62882    0.021
 4310.00    0.52023   0.61170    0.021
 4311.00    0.56989   0.60997    0.021
 4312.00    0.55320   0.62749    0.021
 4313.00    0.62907   0.64799    0.021
 4314.00    0.74554   0.65388    0.020
 4315.00    0.60461   0.64252    0.020
 4316.00    0.36673   0.62604    0.020
 4317.00    0.29415   0.62464    0.020
 4318.00    0.27442   0.64774    0.020
 4319.00    0.46305   0.67283    0.020
 4320.00    0.70736   0.67927    0.020
 4321.00    0.75034   0.67143    0.020
 4322.00    0.74927   0.65675    0.021
 4323.00    0.99157   0.64249    0.021
 4324.00    1.27621   0.63869    0.021
 4325.00    1.07489   0.63454    0.021
 4326.00    0.80930   0.61145    0.021
 4327.00    0.58600   0.57324    0.021
 4328.00    0.36665   0.54792    0.021
 4329.00    0.33347   0.55596    0.021
 4330.00    0.31094   0.57971    0.000
 4331.00    0.32031   0.58791    0.000
 4332.00    0.33014   0.57212    0.000
 4333.00    0.30674   0.54938    0.000
 4334.00    0.27918   0.53361    0.000
 4335.00    0.15206   0.51946    0.000
 4336.00    0.06190   0.50237    0.000
 4337.00    0.45301   0.48299    0.000
 4338.00    0.79582   0.45368    0.000
 4339.00    0.71668   0.40736    0.000
 4340.00    0.61446   0.35576    0.000
 4341.00    0.36316   0.30972    0.000
 4342.00    0.13471   0.27096    0.000
 4343.00    0.02151   0.26070    0.000
 4344.00   -0.03033   0.29274    0.000
 4345.00    0.16830   0.33986    0.000
 4346.00    0.33168   0.37777    0.000
 4347.00    0.37581   0.41224    0.000
 4348.00    0.35570   0.44593    0.000
 4349.00    0.15223   0.47378    0.000
 4350.00    0.02551   0.50107    0.000
 4351.00    0.08589   0.52894    0.020
 4352.00    0.19717   0.54223    0.020
 4353.00    0.41551   0.53145    0.020
 4354.00    0.58579   0.52014    0.020
 4355.00    0.66819   0.53679    0.021
 4356.00    0.58412   0.56954    0.021
 4357.00    0.23407   0.59609    0.022
 4358.00   -0.20127   0.61566    0.000
 4359.00   -0.75619   0.62897    0.000
 4360.00   -1.17287   0.63145    0.000
 4361.00   -1.41899   0.62816    0.000
 4362.00   -1.39727   0.63231    0.000
 4363.00   -1.08424   0.64643    0.000
 4364.00   -0.45705   0.65975    0.000
 4365.00    0.47152   0.66757    0.024
 4366.00    0.88592   0.67709    0.022
 4367.00    0.86540   0.68832    0.022
 4368.00    0.58700   0.68947    0.021
 4369.00    0.11650   0.67530    0.021
 4370.00   -0.00858   0.65874    0.000
 4371.00    0.09237   0.65486    0.020
 4372.00    0.19920   0.66163    0.021
 4373.00    0.30940   0.67186    0.021
 4374.00    0.44080   0.68084    0.021
 4375.00    0.58278   0.67898    0.021
 4376.00    0.64118   0.66012    0.021
 4377.00    0.66352   0.64259    0.021
 4378.00    0.62947   0.64946    0.021
 4379.00    0.57456   0.67495    0.020
 4380.00    0.55381   0.69581    0.021
 4381.00    0.54378   0.70026    0.021
 4382.00    0.39604   0.69439    0.022
 4383.00    0.21227   0.68728    0.022
 4384.00    0.23351   0.67115    0.021
 4385.00    0.29854   0.63389    0.020
 4386.00    0.48631   0.59604    0.020
 4387.00    0.69484   0.59171    0.020
 4388.00    0.56257   0.61979    0.020
 4389.00    0.38677   0.64778    0.020
 4390.00    0.23140   0.66036    0.020
 4391.00    0.07785   0.66498    0.020
 4392.00    0.17666   0.66273    0.021
 4393.00    0.28892   0.65948    0.021
 4394.00    0.32079   0.66799    0.021
 4395.00    0.35126   0.67757    0.020
 4396.00    0.39540   0.66879    0.021
 4397.00    0.44049   0.65327    0.021
 4398.00    0.50647   0.65979    0.021
 4399.00    0.54709   0.68415    0.020
 4400.00    0.27442   0.69670    0.021
 4401.00    0.03886   0.68703    0.021
 4402.00    0.11542   0.66773    0.021
 4403.00    0.18787   0.66124    0.020
 4404.00    0.23451   0.67444    0.021
 4405.00    0.25603   0.68231    0.021
 4406.00    0.15396   0.66611    0.021
 4407.00    0.12982   0.64877    0.021
 4408.00    0.41681   0.65484    0.021
 4409.00    0.62548   0.66774    0.021
 4410.00    0.57444   0.66880    0.021
 4411.00    0.51721   0.66957    0.021
 4412.00    0.44261   0.67996    0.021
 4413.00    0.41013   0.69144    0.021
 4414.00    0.47859   0.69906    0.021
 4415.00    0.47243   0.69978    0.020
 4416.00    0.31186   0.68350    0.020
 4417.00    0.21712   0.65689    0.020
 4418.00    0.24090   0.64156    0.020
 4419.00    0.39414   0.64141    0.020
 4420.00    0.75119   0.65236    0.020
 4421.00    0.90466   0.67434    0.020
 4422.00    0.77682   0.69496    0.020
 4423.00    0.66235   0.69731    0.020
 4424.00    0.56415   0.68250    0.020
 4425.00    0.52637   0.67065    0.020
 4426.00    0.55337   0.67494    0.020
 4427.00    0.61203   0.68511    0.020
 4428.00    0.70064   0.68774    0.020
 4429.00    0.50200   0.68351    0.020
 4430.00    0.06383   0.68225    0.020
 4431.00    0.05945   0.68311    0.020
 4432.00    0.37356   0.67769    0.020
 4433.00    0.49420   0.67420    0.020
 4434.00    0.49010   0.67852    0.020
 4435.00    0.39444   0.67666    0.020
 4436.00    0.24713   0.66282    0.020
 4437.00    0.33806   0.64985    0.020
 4438.00    0.54594   0.65231    0.020
 4439.00    0.52485   0.67083    0.020
 4440.00    0.40659   0.69216    0.020
 4441.00    0.63037   0.70538    0.020
 4442.00    0.97844   0.70459    0.021
 4443.00    0.95337   0.68893    0.020
 4444.00    0.81354   0.66481    0.020
 4445.00    0.56574   0.64272    0.020
 4446.00    0.29030   0.63853    0.020
 4447.00    0.27591   0.65964    0.020
 4448.00    0.31593   0.68468    0.019
 4449.00    0.27542   0.69239    0.019
 4450.00    0.22168   0.69128    0.019
 4451.00    0.43313   0.68956    0.019
 4452.00    0.67727   0.68102    0.019
 4453.00    0.55011   0.67377    0.019
 4454.00    0.39136   0.67795    0.019
 4455.00    0.41923   0.68175    0.019
 4456.00    0.45632   0.67018    0.019
 4457.00    0.32101   0.65085    0.019
 4458.00    0.18589   0.64516    0.019
 4459.00    0.23514   0.65333    0.019
 4460.00    0.28820   0.65759    0.019
 4461.00    0.41827   0.65475    0.000
 4462.00    0.52744   0.65235    0.000
 4463.00    0.39100   0.64751    0.000
 4464.00    0.29106   0.64409    0.000
 4465.00    0.48718   0.65371    0.000
 4466.00    0.64409   0.66618    0.000
 4467.00    0.56239   0.66789    0.000
 4468.00    0.49659   0.66431    0.000
 4469.00    0.50701   0.66018    0.000
 4470.00    0.51817   0.65200    0.000
 4471.00    0.53220   0.64284    0.000
 4472.00    0.54718   0.64188    0.000
 4473.00    0.56524   0.64719    0.000
 4474.00    0.54840   0.65528    0.000
 4475.00    0.43557   0.66835    0.000
 4476.00    0.39510   0.68186    0.000
 4477.00    0.52515   0.68661    0.000
 4478.00    0.55006   0.68655    0.000
 4479.00    0.36080   0.69259    0.000
 4480.00    0.26154   0.69864    0.000
 4481.00    0.32180   0.68795    0.000
 4482.00    0.36669   0.65065    0.018
 4483.00    0.38776   0.60290    0.019
 4484.00    0.41601   0.58936    0.019
 4485.00    0.45403   0.62278    0.018
 4486.00    0.47342   0.66417    0.018
 4487.00    0.47045   0.68733    0.018
 4488.00    0.48559   0.69625    0.018
 4489.00    0.51988   0.69337    0.018
 4490.00    0.53616   0.67654    0.018
 4491.00    0.53566   0.65579    0.018
 4492.00    0.42584   0.64675    0.018
 4493.00    0.22616   0.65200    0.018
 4494.00    0.25006   0.66516    0.018
 4495.00    0.43574   0.67498    0.018
 4496.00    0.57832   0.67071    0.018
 4497.00    0.69353   0.66120    0.018
 4498.00    0.67509   0.66089    0.018
 4499.00    0.58240   0.66930    0.018
 4500.00    0.54879   0.68078    0.018
 4501.00    0.54373   0.68853    0.018
 4502.00    0.56084   0.68375    0.018
 4503.00    0.58719   0.66845    0.018
 4504.00    0.74342   0.66505    0.018
 4505.00    0.94601   0.68405    0.018
 4506.00    0.87775   0.70528    0.018
 4507.00    0.72783   0.71163    0.018
 4508.00    0.71280   0.70527    0.018
 4509.00    0.73156   0.69142    0.018
 4510.00    0.85010   0.67693    0.018
 4511.00    0.98892   0.67443    0.018
 4512.00    0.69890   0.68604    0.018
 4513.00    0.34047   0.69631    0.018
 4514.00    0.34957   0.69511    0.018
 4515.00    0.40236   0.68719    0.018
 4516.00    0.53568   0.67503    0.018
 4517.00    0.67553   0.66187    0.018
 4518.00    0.73809   0.66049    0.018
 4519.00    0.79713   0.67008    0.018
 4520.00    0.62757   0.67588    0.018
 4521.00    0.45852   0.67443    0.017
 4522.00    0.45878   0.67191    0.017
 4523.00    0.46165   0.67147    0.017
 4524.00    0.51365   0.66508    0.018
 4525.00    0.54601   0.65425    0.018
 4526.00    0.35833   0.65364    0.017
 4527.00    0.20135   0.65727    0.017
 4528.00    0.28463   0.65425    0.017
 4529.00    0.34317   0.64670    0.018
 4530.00    0.25549   0.63718    0.018
 4531.00    0.21498   0.63029    0.018
 4532.00    0.39529   0.63286    0.018
 4533.00    0.55866   0.64270    0.018
 4534.00    0.65731   0.65157    0.018
 4535.00    0.74091   0.64676    0.018
 4536.00    0.77653   0.62947    0.018
 4537.00    0.75775   0.62341    0.018
 4538.00    0.59199   0.64122    0.018
 4539.00    0.47655   0.66966    0.018
 4540.00    0.47767   0.68683    0.018
 4541.00    0.49656   0.68343    0.018
 4542.00    0.55104   0.66809    0.018
 4543.00    0.57535   0.65497    0.018
 4544.00    0.54697   0.65584    0.017
 4545.00    0.46281   0.66808    0.018
 4546.00    0.29343   0.67338    0.018
 4547.00    0.26897   0.66725    0.018
 4548.00    0.43904   0.66359    0.018
 4549.00    0.57137   0.66539    0.017
 4550.00    0.65908   0.65657    0.000
 4551.00    0.65078   0.62831    0.000
 4552.00    0.54241   0.60987    0.000
 4553.00    0.51237   0.62723    0.000
 4554.00    0.55435   0.65279    0.000
 4555.00    0.54517   0.65603    0.000
 4556.00    0.49455   0.64098    0.000
 4557.00    0.49079   0.62369    0.000
 4558.00    0.52047   0.62229    0.000
 4559.00    0.48276   0.63989    0.000
 4560.00    0.40289   0.65462    0.000
 4561.00    0.40417   0.65872    0.000
 4562.00    0.44984   0.66548    0.000
 4563.00    0.54014   0.67569    0.000
 4564.00    0.65167   0.67890    0.000
 4565.00    0.56218   0.66692    0.000
 4566.00    0.39025   0.64729    0.000
 4567.00    0.35725   0.63886    0.000
 4568.00    0.37295   0.64753    0.000
 4569.00    0.40894   0.66546    0.000
 4570.00    0.45092   0.68048    0.000
 4571.00    0.59681   0.68494    0.000
 4572.00    0.76815   0.67886    0.000
 4573.00    0.74867   0.66048    0.000
 4574.00    0.69138   0.64209    0.000
 4575.00    0.50290   0.64706    0.000
 4576.00    0.29411   0.66592    0.000
 4577.00    0.24263   0.67211    0.000
 4578.00    0.20915   0.66627    0.000
 4579.00    0.43153   0.66375    0.000
 4580.00    0.67356   0.66557    0.000
 4581.00    0.66539   0.66048    0.000
 4582.00    0.64681   0.64841    0.000
 4583.00    0.50391   0.64085    0.000
 4584.00    0.36664   0.63773    0.000
 4585.00    0.51741   0.62919    0.000
 4586.00    0.65164   0.62216    0.000
 4587.00    0.49664   0.63007    0.000
 4588.00    0.35030   0.64440    0.000
 4589.00    0.29652   0.64998    0.000
 4590.00    0.27207   0.64873    0.000
 4591.00    0.46934   0.65007    0.000
 4592.00    0.63298   0.65373    0.000
 4593.00    0.60331   0.65135    0.000
 4594.00    0.57369   0.64372    0.000
 4595.00    0.54422   0.64194    0.000
 4596.00    0.50106   0.64728    0.000
 4597.00    0.40667   0.64946    0.000
 4598.00    0.34530   0.64770    0.000
 4599.00    0.38722   0.64862    0.000
 4600.00    0.45114   0.65254    0.000
 4601.00    0.57344   0.65626    0.000
 4602.00    0.62167   0.65483    0.000
 4603.00    0.50110   0.64996    0.000
 4604.00    0.46295   0.65032    0.000
 4605.00    0.58739   0.65431    0.000
 4606.00    0.66939   0.65490    0.000
 4607.00    0.67843   0.65153    0.000
 4608.00    0.68509   0.65066    0.000
 4609.00    0.68815   0.65752    0.000
 4610.00    0.70161   0.66975    0.000
 4611.00    0.72880   0.68008    0.000
 4612.00    0.69401   0.68128    0.000
 4613.00    0.58699   0.67363    0.000
 4614.00    0.58432   0.66567    0.000
 4615.00    0.68889   0.66168    0.000
 4616.00    0.75114   0.66139    0.000
 4617.00    0.77500   0.66310    0.000
 4618.00    0.75347   0.66084    0.000
 4619.00    0.69567   0.65713    0.000
 4620.00    0.60461   0.65397    0.000
 4621.00    0.49018   0.64586    0.000
 4622.00    0.51162   0.64157    0.000
 4623.00    0.61684   0.64966    0.000
 4624.00    0.65262   0.66029    0.000
 4625.00    0.65101   0.66626    0.000
 4626.00    0.65848   0.66850    0.000
 4627.00    0.67018   0.66513    0.000
 4628.00    0.69662   0.65924    0.000
 4629.00    0.72900   0.65789    0.000
 4630.00    0.81062   0.65596    0.000
 4631.00    0.90920   0.64658    0.000
 4632.00    0.69381   0.64286    0.000
 4633.00    0.38750   0.65479    0.000
 4634.00    0.39390   0.66526    0.000
 4635.00    0.47519   0.65841    0.000
 4636.00    0.58184   0.64313    0.000
 4637.00    0.69338   0.63643    0.000
 4638.00    0.65941   0.64101    0.000
 4639.00    0.60361   0.64560    0.000
 4640.00    0.61277   0.64440    0.000
 4641.00    0.62908   0.64241    0.000
 4642.00    0.58048   0.64244    0.000
 4643.00    0.52716   0.64613    0.000
 4644.00    0.53867   0.65316    0.000
 4645.00    0.55263   0.65586    0.000
 4646.00    0.45501   0.65221    0.000
 4647.00    0.35934   0.64520    0.000
 4648.00    0.35666   0.63328    0.000
 4649.00    0.35625   0.62101    0.000
 4650.00    0.39293   0.61792    0.000
 4651.00    0.42118   0.62511    0.000
 4652.00    0.36311   0.63745    0.000
 4653.00    0.32939   0.64769    0.000
 4654.00    0.47362   0.65276    0.000
 4655.00    0.60821   0.65444    0.000
 4656.00    0.68888   0.64967    0.000
 4657.00    0.72039   0.63953    0.000
 4658.00    0.53255   0.63137    0.000
 4659.00    0.40508   0.63021    0.000
 4660.00    0.49867   0.64097    0.000
 4661.00    0.57985   0.65920    0.000
 4662.00    0.62293   0.67097    0.000
 4663.00    0.60143   0.66944    0.000
 4664.00    0.41150   0.65740    0.000
 4665.00    0.36109   0.64240    0.000
 4666.00    0.62338   0.63408    0.000
 4667.00    0.79835   0.63228    0.000
 4668.00    0.80377   0.62248    0.000
 4669.00    0.74212   0.60289    0.000
 4670.00    0.56689   0.59313    0.000
 4671.00    0.48830   0.60128    0.000
 4672.00    0.55309   0.61674    0.000
 4673.00    0.59582   0.63083    0.000
 4674.00    0.60978   0.63900    0.000
 4675.00    0.63067   0.63940    0.000
 4676.00    0.65950   0.63784    0.000
 4677.00    0.62107   0.64107    0.000
 4678.00    0.51446   0.64860    0.000
 4679.00    0.56025   0.65262    0.000
 4680.00    0.74226   0.64656    0.000
 4681.00    0.78537   0.63592    0.000
 4682.00    0.71909   0.63006    0.000
 4683.00    0.57676   0.62906    0.000
 4684.00    0.38175   0.63082    0.000
 4685.00    0.20638   0.63643    0.000
 4686.00    0.04294   0.64244    0.000
 4687.00    0.20589   0.64431    0.000
 4688.00    0.54191   0.64381    0.000
 4689.00    0.62596   0.64239    0.000
 4690.00    0.59407   0.63958    0.000
 4691.00    0.46147   0.63777    0.000
 4692.00    0.28898   0.63741    0.000
 4693.00    0.48467   0.63532    0.000
 4694.00    0.80467   0.63303    0.000
 4695.00    0.83937   0.63419    0.000
 4696.00    0.79310   0.63779    0.000
 4697.00    0.56467   0.64276    0.000
 4698.00    0.29359   0.64741    0.000
 4699.00    0.26125   0.64597    0.000
 4700.00    0.27383   0.63523    0.000
 4701.00    0.35493   0.62347    0.000
 4702.00    0.44600   0.62086    0.000
 4703.00    0.50601   0.62354    0.000
 4704.00    0.56274   0.62113    0.000
 4705.00    0.58003   0.61470    0.000
 4706.00    0.59461   0.61563    0.000
 4707.00    0.56241   0.62529    0.000
 4708.00    0.52862   0.63151    0.000
 4709.00    0.59695   0.62756    0.000
 4710.00    0.66076   0.61958    0.000
 4711.00    0.57266   0.61614    0.000
 4712.00    0.49434   0.62049    0.000
 4713.00    0.56587   0.63026    0.000
 4714.00    0.63101   0.63654    0.000
 4715.00    0.63350   0.63236    0.000
 4716.00    0.61502   0.62207    0.000
 4717.00    0.44820   0.61730    0.000
 4718.00    0.31706   0.62443    0.000
 4719.00    0.38002   0.63610    0.000
 4720.00    0.43840   0.64287    0.000
 4721.00    0.47677   0.64651    0.000
 4722.00    0.49283   0.65038    0.000
 4723.00    0.42887   0.65128    0.000
 4724.00    0.40404   0.64736    0.000
 4725.00    0.49699   0.64276    0.000
 4726.00    0.54873   0.64409    0.000
 4727.00    0.49487   0.65000    0.000
 4728.00    0.47335   0.64990    0.000
 4729.00    0.52313   0.63783    0.000
 4730.00    0.55519   0.62153    0.000
 4731.00    0.55336   0.61278    0.000
 4732.00    0.51747   0.61089    0.000
 4733.00    0.42476   0.60929    0.000
 4734.00    0.37692   0.61183    0.000
 4735.00    0.39466   0.62173    0.000
 4736.00    0.40424   0.63088    0.000
 4737.00    0.40333   0.63443    0.000
 4738.00    0.41183   0.63105    0.000
 4739.00    0.43101   0.62358    0.000
 4740.00    0.50193   0.62460    0.000
 4741.00    0.62455   0.63334    0.000
 4742.00    0.63361   0.63587    0.000
 4743.00    0.54262   0.63228    0.000
 4744.00    0.43880   0.63151    0.000
 4745.00    0.32503   0.63463    0.000
 4746.00    0.36914   0.63640    0.000
 4747.00    0.52102   0.63477    0.000
 4748.00    0.63063   0.63508    0.000
 4749.00    0.71495   0.63853    0.000
 4750.00    0.65150   0.63876    0.000
 4751.00    0.51090   0.63675    0.000
 4752.00    0.54436   0.63804    0.000
 4753.00    0.65661   0.63948    0.000
 4754.00    0.67836   0.63561    0.000
 4755.00    0.66488   0.62943    0.000
 4756.00    0.63228   0.62501    0.000
 4757.00    0.59335   0.62137    0.000
 4758.00    0.56589   0.61888    0.000
 4759.00    0.54163   0.62012    0.000
 4760.00    0.61810   0.62493    0.000
 4761.00    0.71761   0.63014    0.016
 4762.00    0.67305   0.63310    0.016
 4763.00    0.60210   0.63031    0.016
 4764.00    0.59893   0.62044    0.016
 4765.00    0.60530   0.61040    0.015
 4766.00    0.57770   0.60489    0.015
 4767.00    0.54666   0.60090    0.015
 4768.00    0.48316   0.59887    0.016
 4769.00    0.41756   0.60255    0.016
 4770.00    0.32171   0.61125    0.016
 4771.00    0.22517   0.62098    0.016
 4772.00    0.24332   0.62738    0.016
 4773.00    0.26368   0.62560    0.016
 4774.00    0.34814   0.61886    0.015
 4775.00    0.43684   0.61828    0.015
 4776.00    0.58661   0.62586    0.015
 4777.00    0.71995   0.63261    0.015
 4778.00    0.69880   0.63326    0.015
 4779.00    0.66897   0.63352    0.015
 4780.00    0.57973   0.63597    0.015
 4781.00    0.52325   0.63377    0.015
 4782.00    0.64029   0.62766    0.015
 4783.00    0.71158   0.62573    0.015
 4784.00    0.58807   0.62588    0.015
 4785.00    0.50378   0.62120    0.015
 4786.00    0.55727   0.61687    0.015
 4787.00    0.62183   0.61838    0.015
 4788.00    0.71913   0.61755    0.015
 4789.00    0.76710   0.61307    0.015
 4790.00    0.69084   0.61365    0.015
 4791.00    0.62403   0.61569    0.015
 4792.00    0.57770   0.61459    0.015
 4793.00    0.56823   0.61541    0.015
 4794.00    0.62813   0.61896    0.015
 4795.00    0.66731   0.62454    0.015
 4796.00    0.67246   0.63338    0.015
 4797.00    0.64533   0.64036    0.016
 4798.00    0.57167   0.63947    0.016
 4799.00    0.48521   0.63277    0.016
 4800.00    0.38252   0.62475    0.016
 4801.00    0.40207   0.61665    0.016
 4802.00    0.55815   0.61109    0.016
 4803.00    0.61971   0.61330    0.016
 4804.00    0.58818   0.62245    0.016
 4805.00    0.55733   0.62941    0.016
 4806.00    0.52707   0.62618    0.016
 4807.00    0.55877   0.61496    0.016
 4808.00    0.63788   0.60767    0.016
 4809.00    0.59358   0.60903    0.016
 4810.00    0.46625   0.61132    0.015
 4811.00    0.49089   0.61212    0.015
 4812.00    0.60509   0.61398    0.016
 4813.00    0.60075   0.61509    0.016
 4814.00    0.53552   0.61390    0.016
 4815.00    0.51557   0.61324    0.016
 4816.00    0.51578   0.61494    0.016
 4817.00    0.38155   0.61688    0.016
 4818.00    0.19589   0.61847    0.016
 4819.00    0.29251   0.62097    0.016
 4820.00    0.48090   0.62391    0.016
 4821.00    0.57153   0.62639    0.016
 4822.00    0.63553   0.62712    0.016
 4823.00    0.68467   0.62448    0.016
 4824.00    0.73049   0.61698    0.016
 4825.00    0.63720   0.60079    0.016
 4826.00    0.51911   0.58216    0.016
 4827.00    0.47139   0.57996    0.016
 4828.00    0.43326   0.59400    0.016
 4829.00    0.42463   0.60475    0.016
 4830.00    0.41886   0.60431    0.016
 4831.00    0.45986   0.59927    0.016
 4832.00    0.50369   0.59700    0.016
 4833.00    0.44181   0.59597    0.016
 4834.00    0.37766   0.59072    0.016
 4835.00    0.40842   0.58635    0.016
 4836.00    0.43725   0.58891    0.015
 4837.00    0.41589   0.59169    0.015
 4838.00    0.40370   0.58834    0.015
 4839.00    0.51661   0.58423    0.015
 4840.00    0.60712   0.58261    0.015
 4841.00    0.49503   0.57734    0.015
 4842.00    0.39084   0.56851    0.015
 4843.00    0.33911   0.56418    0.015
 4844.00    0.31242   0.56400    0.015
 4845.00    0.41486   0.56022    0.015
 4846.00    0.48086   0.55407    0.015
 4847.00    0.39514   0.55262    0.015
 4848.00    0.34834   0.55263    0.000
 4849.00    0.43553   0.54444    0.000
 4850.00    0.51815   0.52665    0.000
 4851.00    0.58754   0.51023    0.000
 4852.00    0.61877   0.50524    0.000
 4853.00    0.55559   0.50486    0.000
 4854.00    0.45993   0.49798    0.000
 4855.00    0.29498   0.48539    0.000
 4856.00    0.20679   0.46746    0.000
 4857.00    0.26083   0.44138    0.000
 4858.00    0.34578   0.41632    0.000
 4859.00    0.48078   0.40260    0.000
 4860.00    0.53958   0.39169    0.000
 4861.00    0.49016   0.36822    0.000
 4862.00    0.50811   0.32834    0.000
 4863.00    0.61024   0.28409    0.000
 4864.00    0.63588   0.26541    0.000
 4865.00    0.57731   0.28885    0.000
 4866.00    0.50287   0.32953    0.000
 4867.00    0.41303   0.36213    0.000
 4868.00    0.39090   0.38935    0.000
 4869.00    0.42675   0.41419    0.000
 4870.00    0.45964   0.43366    0.000
 4871.00    0.49028   0.44923    0.000
 4872.00    0.37729   0.45946    0.000
 4873.00    0.16911   0.45892    0.000
 4874.00    0.21545   0.45645    0.000
 4875.00    0.40951   0.46844    0.015
 4876.00    0.52777   0.49025    0.015
 4877.00    0.60769   0.50538    0.015
 4878.00    0.62343   0.51177    0.015
 4879.00    0.61106   0.51841    0.015
 4880.00    0.53590   0.52975    0.015
 4881.00    0.43715   0.54497    0.015
 4882.00    0.41715   0.55906    0.015
 4883.00    0.42228   0.56232    0.015
 4884.00    0.48660   0.55699    0.015
 4885.00    0.56669   0.55489    0.014
 4886.00    0.48792   0.55500    0.014
 4887.00    0.37449   0.55156    0.014
 4888.00    0.40201   0.54815    0.014
 4889.00    0.45396   0.55043    0.014
 4890.00    0.39025   0.55795    0.014
 4891.00    0.31130   0.56388    0.014
 4892.00    0.32360   0.56019    0.014
 4893.00    0.34437   0.54730    0.014
 4894.00    0.44641   0.54391    0.014
 4895.00    0.55306   0.56248    0.014
 4896.00    0.46662   0.58647    0.015
 4897.00    0.37716   0.60176    0.015
 4898.00    0.43827   0.60936    0.015
 4899.00    0.50197   0.61101    0.015
 4900.00    0.62740   0.60927    0.015
 4901.00    0.73722   0.60341    0.014
 4902.00    0.64521   0.59306    0.014
 4903.00    0.55335   0.58759    0.014
 4904.00    0.46279   0.59057    0.014
 4905.00    0.39729   0.59127    0.014
 4906.00    0.49309   0.58865    0.014
 4907.00    0.56980   0.59311    0.014
 4908.00    0.55050   0.60466    0.015
 4909.00    0.53193   0.61144    0.015
 4910.00    0.51635   0.60686    0.014
 4911.00    0.50841   0.59530    0.014
 4912.00    0.52621   0.58193    0.014
 4913.00    0.53902   0.57249    0.014
 4914.00    0.53760   0.57424    0.014
 4915.00    0.55495   0.58426    0.014
 4916.00    0.61791   0.59428    0.014
 4917.00    0.62944   0.60299    0.014
 4918.00    0.53299   0.60913    0.014
 4919.00    0.47516   0.60604    0.014
 4920.00    0.48779   0.58967    0.015
 4921.00    0.52219   0.56485    0.015
 4922.00    0.59128   0.54359    0.014
 4923.00    0.59329   0.53691    0.014
 4924.00    0.50142   0.54641    0.014
 4925.00    0.47547   0.55729    0.014
 4926.00    0.53071   0.55583    0.014
 4927.00    0.54248   0.55666    0.014
 4928.00    0.50707   0.57402    0.014
 4929.00    0.57021   0.59440    0.014
 4930.00    0.72773   0.60405    0.015
 4931.00    0.81265   0.60940    0.015
 4932.00    0.83627   0.61389    0.014
 4933.00    0.73095   0.61383    0.014
 4934.00    0.52975   0.60904    0.014
 4935.00    0.45862   0.59658    0.014
 4936.00    0.47243   0.58013    0.015
 4937.00    0.51484   0.57733    0.014
 4938.00    0.57359   0.58757    0.014
 4939.00    0.54694   0.58954    0.014
 4940.00    0.47777   0.57759    0.000
 4941.00    0.47050   0.56553    0.000
 4942.00    0.48989   0.56808    0.000
 4943.00    0.59886   0.58476    0.000
 4944.00    0.74091   0.59995    0.000
 4945.00    0.77020   0.60581    0.000
 4946.00    0.76421   0.60817    0.000
 4947.00    0.62034   0.60758    0.000
 4948.00    0.44048   0.60230    0.000
 4949.00    0.40767   0.59966    0.000
 4950.00    0.40618   0.60258    0.000
 4951.00    0.58763   0.60540    0.000
 4952.00    0.79990   0.60633    0.000
 4953.00    0.71342   0.60735    0.000
 4954.00    0.58893   0.60642    0.000
 4955.00    0.47841   0.60189    0.000
 4956.00    0.36913   0.59822    0.000
 4957.00    0.48503   0.59829    0.000
 4958.00    0.61282   0.59320    0.000
 4959.00    0.54737   0.57115    0.000
 4960.00    0.47924   0.54732    0.000
 4961.00    0.49074   0.55426    0.000
 4962.00    0.50283   0.58406    0.000
 4963.00    0.52788   0.60319    0.000
 4964.00    0.54020   0.60570    0.000
 4965.00    0.39612   0.60455    0.000
 4966.00    0.28401   0.60424    0.000
 4967.00    0.43959   0.59829    0.000
 4968.00    0.55487   0.58738    0.000
 4969.00    0.41850   0.58123    0.000
 4970.00    0.32695   0.58117    0.000
 4971.00    0.45514   0.58230    0.000
 4972.00    0.56210   0.58391    0.000
 4973.00    0.58453   0.58693    0.000
 4974.00    0.59946   0.59212    0.000
 4975.00    0.58956   0.59791    0.000
 4976.00    0.59444   0.60186    0.000
 4977.00    0.64063   0.60398    0.000
 4978.00    0.63713   0.60224    0.000
 4979.00    0.51481   0.59700    0.000
 4980.00    0.41527   0.59090    0.000
 4981.00    0.36279   0.58522    0.000
 4982.00    0.34221   0.58177    0.000
 4983.00    0.37897   0.57714    0.000
 4984.00    0.46498   0.56393    0.000
 4985.00    0.62840   0.54584    0.000
 4986.00    0.65462   0.53761    0.000
 4987.00    0.49159   0.54431    0.000
 4988.00    0.37666   0.55795    0.000
 4989.00    0.32012   0.57333    0.000
 4990.00    0.32822   0.58562    0.000
 4991.00    0.40551   0.58856    0.000
 4992.00    0.45060   0.58353    0.000
 4993.00    0.46530   0.57632    0.000
 4994.00    0.43692   0.57338    0.000
 4995.00    0.37269   0.57587    0.000
 4996.00    0.38623   0.57675    0.000
 4997.00    0.45675   0.57852    0.000
 4998.00    0.49442   0.58480    0.000
 4999.00    0.51093   0.58878    0.000
 5000.00    0.51394   0.58752    0.000
 5001.00    0.50935   0.58112    0.000
 5002.00    0.43802   0.56969    0.000
 5003.00    0.33399   0.55763    0.000
 5004.00    0.26597   0.55038    0.000
 5005.00    0.21319   0.55217    0.000
 5006.00    0.30979   0.55751    0.000
 5007.00    0.46055   0.55428    0.000
 5008.00    0.46255   0.54271    0.000
 5009.00    0.41892   0.53780    0.000
 5010.00    0.46379   0.54951    0.000
 5011.00    0.53125   0.56744    0.000
 5012.00    0.56739   0.57501    0.000
 5013.00    0.59703   0.57178    0.000
 5014.00    0.46751   0.56318    0.000
 5015.00    0.31194   0.55140    0.000
 5016.00    0.23603   0.54220    0.000
 5017.00    0.16989   0.54019    0.000
 5018.00    0.31204   0.54535    0.000
 5019.00    0.47181   0.54768    0.000
 5020.00    0.52186   0.53553    0.000
 5021.00    0.56654   0.52313    0.000
 5022.00    0.57837   0.53034    0.000
 5023.00    0.58837   0.54644    0.000
 5024.00    0.51687   0.55148    0.000
 5025.00    0.45052   0.55088    0.000
 5026.00    0.48733   0.55773    0.000
 5027.00    0.52603   0.56837    0.000
 5028.00    0.58674   0.57193    0.000
 5029.00    0.63774   0.56619    0.014
 5030.00    0.61030   0.55760    0.014
 5031.00    0.59129   0.55816    0.014
 5032.00    0.62334   0.56592    0.014
 5033.00    0.63888   0.56956    0.014
 5034.00    0.57549   0.57218    0.014
 5035.00    0.53148   0.57956    0.014
 5036.00    0.56300   0.58534    0.014
 5037.00    0.57843   0.57871    0.014
 5038.00    0.54165   0.56230    0.014
 5039.00    0.51654   0.55417    0.014
 5040.00    0.52345   0.55936    0.014
 5041.00    0.51683   0.55956    0.014
 5042.00    0.47838   0.54406    0.014
 5043.00    0.45153   0.52123    0.014
 5044.00    0.44822   0.51383    0.014
 5045.00    0.47901   0.53405    0.014
 5046.00    0.57012   0.56144    0.014
 5047.00    0.61240   0.57638    0.014
 5048.00    0.57908   0.58420    0.014
 5049.00    0.53475   0.58556    0.014
 5050.00    0.47546   0.57527    0.014
 5051.00    0.45579   0.55965    0.014
 5052.00    0.48355   0.55111    0.014
 5053.00    0.44162   0.55073    0.014
 5054.00    0.32612   0.55213    0.014
 5055.00    0.32674   0.55589    0.014
 5056.00    0.43546   0.56381    0.014
 5057.00    0.52790   0.56744    0.014
 5058.00    0.60698   0.56097    0.014
 5059.00    0.59794   0.55710    0.014
 5060.00    0.52524   0.56554    0.014
 5061.00    0.51582   0.57686    0.014
 5062.00    0.54651   0.58058    0.014
 5063.00    0.57981   0.58232    0.014
 5064.00    0.61455   0.58484    0.014
 5065.00    0.56546   0.58411    0.014
 5066.00    0.47596   0.57468    0.014
 5067.00    0.48667   0.55841    0.014
 5068.00    0.53909   0.54967    0.014
 5069.00    0.56624   0.55342    0.014
 5070.00    0.58438   0.55602    0.014
 5071.00    0.45775   0.55475    0.014
 5072.00    0.28758   0.55804    0.014
 5073.00    0.32649   0.56235    0.014
 5074.00    0.41763   0.55804    0.014
 5075.00    0.43322   0.55130    0.014
 5076.00    0.43349   0.55263    0.014
 5077.00    0.48316   0.55534    0.014
 5078.00    0.54068   0.55386    0.014
 5079.00    0.59805   0.55565    0.014
 5080.00    0.65540   0.55914    0.013
 5081.00    0.58561   0.55083    0.013
 5082.00    0.50560   0.53310    0.013
 5083.00    0.44871   0.52602    0.013
 5084.00    0.39286   0.53371    0.013
 5085.00    0.43729   0.54242    0.013
 5086.00    0.47975   0.54569    0.013
 5087.00    0.36422   0.54993    0.013
 5088.00    0.25723   0.55585    0.013
 5089.00    0.30898   0.55756    0.013
 5090.00    0.36370   0.55636    0.013
 5091.00    0.45140   0.55817    0.013
 5092.00    0.53071   0.56152    0.013
 5093.00    0.54466   0.56236    0.013
 5094.00    0.55216   0.56344    0.013
 5095.00    0.52175   0.56736    0.013
 5096.00    0.49298   0.57100    0.013
 5097.00    0.47183   0.57049    0.013
 5098.00    0.46931   0.56450    0.013
 5099.00    0.53782   0.55359    0.013
 5100.00    0.57996   0.54106    0.013
 5101.00    0.53825   0.53091    0.013
 5102.00    0.50191   0.52686    0.013
 5103.00    0.48008   0.53320    0.013
 5104.00    0.48286   0.54651    0.013
 5105.00    0.54256   0.55632    0.013
 5106.00    0.55825   0.55832    0.013
 5107.00    0.48592   0.55628    0.013
 5108.00    0.42104   0.55394    0.013
 5109.00    0.36914   0.54951    0.013
 5110.00    0.35538   0.54372    0.013
 5111.00    0.39979   0.54153    0.013
 5112.00    0.45960   0.54159    0.013
 5113.00    0.54004   0.54234    0.013
 5114.00    0.53322   0.54829    0.013
 5115.00    0.42342   0.55487    0.014
 5116.00    0.33835   0.55748    0.014
 5117.00    0.27903   0.55913    0.014
 5118.00    0.32369   0.56054    0.014
 5119.00    0.46378   0.56294    0.014
 5120.00    0.48369   0.56725    0.014
 5121.00    0.40637   0.56869    0.013
 5122.00    0.41553   0.56494    0.013
 5123.00    0.48626   0.55847    0.013
 5124.00    0.49760   0.55147    0.013
 5125.00    0.47184   0.54308    0.013
 5126.00    0.40167   0.53315    0.013
 5127.00    0.30727   0.52799    0.014
 5128.00    0.36089   0.53027    0.014
 5129.00    0.48474   0.53351    0.014
 5130.00    0.58677   0.53311    0.014
 5131.00    0.67987   0.53073    0.014
 5132.00    0.59264   0.53078    0.014
 5133.00    0.44236   0.53616    0.013
 5134.00    0.43274   0.54294    0.013
 5135.00    0.46459   0.54441    0.014
 5136.00    0.43118   0.54333    0.014
 5137.00    0.38183   0.54759    0.014
 5138.00    0.35895   0.55374    0.014
 5139.00    0.34130   0.54996    0.014
 5140.00    0.43751   0.53950    0.014
 5141.00    0.55128   0.53059    0.014
 5142.00    0.37070   0.52702    0.014
 5143.00    0.15661   0.53362    0.013
 5144.00    0.25672   0.53818    0.013
 5145.00    0.38081   0.53118    0.013
 5146.00    0.44876   0.52891    0.013
 5147.00    0.51440   0.53482    0.013
 5148.00    0.53958   0.53455    0.013
 5149.00    0.56256   0.52911    0.014
 5150.00    0.50663   0.52631    0.013
 5151.00    0.45229   0.52776    0.013
 5152.00    0.42566   0.53168    0.013
 5153.00    0.39416   0.53313    0.013
 5154.00    0.31083   0.53081    0.013
 5155.00    0.24908   0.52708    0.013
 5156.00    0.34975   0.52245    0.013
 5157.00    0.44192   0.52234    0.014
 5158.00    0.48541   0.53078    0.013
 5159.00    0.51489   0.54163    0.013
 5160.00    0.48061   0.54954    0.013
 5161.00    0.46056   0.55322    0.013
 5162.00    0.49362   0.55227    0.013
 5163.00    0.52659   0.54955    0.013
 5164.00    0.55924   0.54435    0.013
 5165.00    0.57056   0.53808    0.013
 5166.00    0.52535   0.53647    0.013
 5167.00    0.47155   0.53246    0.013
 5168.00    0.39820   0.51474    0.013
 5169.00    0.31915   0.48557    0.013
 5170.00    0.22886   0.45878    0.013
 5171.00    0.21126   0.45205    0.013
 5172.00    0.31841   0.47085    0.013
 5173.00    0.39810   0.49254    0.013
 5174.00    0.43653   0.48747    0.013
 5175.00    0.42626   0.46686    0.013
 5176.00    0.35167   0.47209    0.013
 5177.00    0.32043   0.50482    0.013
 5178.00    0.33962   0.53031    0.013
 5179.00    0.37182   0.53571    0.013
 5180.00    0.41736   0.53634    0.013
 5181.00    0.41654   0.53876    0.012
 5182.00    0.37378   0.53826    0.013
 5183.00    0.36111   0.53336    0.013
 5184.00    0.37245   0.52182    0.013
 5185.00    0.36751   0.49590    0.013
 5186.00    0.35114   0.46582    0.013
 5187.00    0.35197   0.46453    0.013
 5188.00    0.36337   0.49382    0.013
 5189.00    0.39431   0.52110    0.013
 5190.00    0.43573   0.52963    0.000
 5191.00    0.46759   0.52813    0.000
 5192.00    0.49499   0.53106    0.000
 5193.00    0.55554   0.53277    0.000
 5194.00    0.62944   0.51762    0.000
 5195.00    0.57630   0.50286    0.000
 5196.00    0.47957   0.50813    0.000
 5197.00    0.48784   0.51756    0.000
 5198.00    0.52645   0.51691    0.000
 5199.00    0.51881   0.51529    0.000
 5200.00    0.50012   0.51820    0.000
 5201.00    0.49749   0.52509    0.000
 5202.00    0.49794   0.53400    0.000
 5203.00    0.54763   0.53830    0.000
 5204.00    0.60468   0.53722    0.000
 5205.00    0.43098   0.53360    0.000
 5206.00    0.23201   0.52700    0.000
 5207.00    0.28227   0.51301    0.000
 5208.00    0.35053   0.49831    0.000
 5209.00    0.30195   0.49582    0.000
 5210.00    0.24901   0.49922    0.000
 5211.00    0.36081   0.49744    0.013
 5212.00    0.46718   0.50095    0.013
 5213.00    0.34788   0.51300    0.013
 5214.00    0.24233   0.52531    0.013
 5215.00    0.35978   0.53642    0.013
 5216.00    0.46491   0.54138    0.013
 5217.00    0.44475   0.53508    0.013
 5218.00    0.43519   0.52168    0.013
 5219.00    0.50282   0.51436    0.013
 5220.00    0.54466   0.52022    0.013
 5221.00    0.44280   0.53330    0.013
 5222.00    0.36395   0.54382    0.013
 5223.00    0.38745   0.54804    0.013
 5224.00    0.40127   0.54882    0.013
 5225.00    0.37968   0.54567    0.013
 5226.00    0.37246   0.53643    0.013
 5227.00    0.40926   0.52112    0.013
 5228.00    0.42488   0.49937    0.013
 5229.00    0.38538   0.47579    0.013
 5230.00    0.36114   0.47200    0.013
 5231.00    0.37101   0.49764    0.013
 5232.00    0.37237   0.52654    0.013
 5233.00    0.35726   0.53851    0.013
 5234.00    0.36197   0.53701    0.013
 5235.00    0.40019   0.52347    0.013
 5236.00    0.44989   0.50760    0.013
 5237.00    0.51662   0.50379    0.013
 5238.00    0.50468   0.51259    0.013
 5239.00    0.39035   0.52527    0.013
 5240.00    0.35259   0.53383    0.013
 5241.00    0.40266   0.53804    0.013
 5242.00    0.45265   0.54048    0.013
 5243.00    0.50257   0.54203    0.013
 5244.00    0.49029   0.54281    0.013
 5245.00    0.42254   0.54128    0.013
 5246.00    0.41951   0.54080    0.013
 5247.00    0.46738   0.54604    0.013
 5248.00    0.51272   0.54754    0.013
 5249.00    0.55630   0.53546    0.013
 5250.00    0.49156   0.52185    0.013
 5251.00    0.36115   0.52094    0.013
 5252.00    0.37698   0.52276    0.013
 5253.00    0.47021   0.51826    0.013
 5254.00    0.43861   0.51861    0.013
 5255.00    0.34968   0.52643    0.013
 5256.00    0.35569   0.52971    0.013
 5257.00    0.39924   0.52324    0.013
 5258.00    0.35940   0.51870    0.013
 5259.00    0.29148   0.52729    0.013
 5260.00    0.30074   0.54147    0.013
 5261.00    0.33184   0.54865    0.013
 5262.00    0.30859   0.54620    0.014
 5263.00    0.27264   0.53642    0.014
 5264.00    0.31839   0.52353    0.014
 5265.00    0.37947   0.50841    0.014
 5266.00    0.36551   0.49099    0.014
 5267.00    0.34069   0.47646    0.014
 5268.00    0.38684   0.47031    0.014
 5269.00    0.44045   0.47665    0.014
 5270.00    0.31230   0.49232    0.014
 5271.00    0.17177   0.49363    0.014
 5272.00    0.20682   0.47306    0.014
 5273.00    0.24776   0.46554    0.014
 5274.00    0.32162   0.48697    0.014
 5275.00    0.39445   0.50833    0.014
 5276.00    0.43327   0.51159    0.014
 5277.00    0.47147   0.50312    0.014
 5278.00    0.50027   0.49270    0.013
 5279.00    0.51049   0.49937    0.013
 5280.00    0.33957   0.52300    0.013
 5281.00    0.21298   0.53801    0.013
 5282.00    0.39851   0.53490    0.013
 5283.00    0.56590   0.52593    0.013
 5284.00    0.63491   0.51965    0.013
 5285.00    0.67663   0.51383    0.013
 5286.00    0.59977   0.50549    0.013
 5287.00    0.53675   0.50581    0.013
 5288.00    0.52320   0.52442    0.013
 5289.00    0.54202   0.54533    0.013
 5290.00    0.65803   0.55131    0.013
 5291.00    0.71144   0.54811    0.013
 5292.00    0.60477   0.54734    0.013
 5293.00    0.51167   0.54995    0.013
 5294.00    0.44842   0.54984    0.013
 5295.00    0.41089   0.54552    0.013
 5296.00    0.42246   0.54077    0.013
 5297.00    0.43781   0.53960    0.013
 5298.00    0.45943   0.53616    0.013
 5299.00    0.47062   0.52282    0.013
 5300.00    0.46659   0.50466    0.012
 5301.00    0.45413   0.49897    0.012
 5302.00    0.43086   0.51123    0.012
 5303.00    0.43959   0.52316    0.013
 5304.00    0.48451   0.52293    0.013
 5305.00    0.50469   0.52138    0.013
 5306.00    0.50021   0.52920    0.013
 5307.00    0.50979   0.53999    0.013
 5308.00    0.53171   0.54330    0.013
 5309.00    0.51647   0.53906    0.013
 5310.00    0.47241   0.53435    0.013
 5311.00    0.49490   0.53559    0.013
 5312.00    0.56274   0.54176    0.013
 5313.00    0.60666   0.54578    0.013
 5314.00    0.63628   0.54501    0.013
 5315.00    0.57042   0.54081    0.013
 5316.00    0.45480   0.53499    0.013
 5317.00    0.41257   0.53110    0.013
 5318.00    0.40350   0.52210    0.013
 5319.00    0.40381   0.50781    0.013
 5320.00    0.40778   0.50698    0.013
 5321.00    0.42002   0.52129    0.013
 5322.00    0.43501   0.53210    0.013
 5323.00    0.40830   0.53417    0.013
 5324.00    0.37003   0.53398    0.013
 5325.00    0.39680   0.53060    0.013
 5326.00    0.43842   0.52010    0.013
 5327.00    0.42577   0.50792    0.013
 5328.00    0.40321   0.50688    0.013
 5329.00    0.44726   0.50797    0.013
 5330.00    0.50066   0.48958    0.013
 5331.00    0.43813   0.46531    0.013
 5332.00    0.36391   0.46963    0.012
 5333.00    0.40661   0.49796    0.013
 5334.00    0.45681   0.51953    0.013
 5335.00    0.49184   0.52412    0.013
 5336.00    0.52619   0.52298    0.013
 5337.00    0.47163   0.52588    0.013
 5338.00    0.41991   0.52935    0.012
 5339.00    0.44951   0.52685    0.012
 5340.00    0.47974   0.52160    0.012
 5341.00    0.51903   0.51798    0.012
 5342.00    0.54965   0.50990    0.012
 5343.00    0.49905   0.49982    0.012
 5344.00    0.46140   0.50315    0.012
 5345.00    0.51197   0.51871    0.012
 5346.00    0.54752   0.52938    0.012
 5347.00    0.50372   0.52955    0.012
 5348.00    0.47077   0.52194    0.012
 5349.00    0.48387   0.51611    0.012
 5350.00    0.48449   0.51788    0.012
 5351.00    0.44132   0.51784    0.012
 5352.00    0.40013   0.51501    0.012
 5353.00    0.36473   0.51932    0.012
 5354.00    0.35639   0.52930    0.012
 5355.00    0.41604   0.53486    0.012
 5356.00    0.45251   0.53525    0.012
 5357.00    0.43885   0.53875    0.012
 5358.00    0.44089   0.54489    0.013
 5359.00    0.47242   0.54742    0.012
 5360.00    0.49043   0.54693    0.012
 5361.00    0.48626   0.54599    0.012
 5362.00    0.48123   0.54535    0.012
 5363.00    0.47497   0.54258    0.012
 5364.00    0.47138   0.53349    0.012
 5365.00    0.47117   0.52124    0.013
 5366.00    0.47776   0.51631    0.013
 5367.00    0.49194   0.51649    0.013
 5368.00    0.51095   0.51578   -2.000
 5369.00    0.53473   0.51554   -2.000
 5370.00    0.50358   0.51567   -2.000
 5371.00    0.42481   0.51331   -2.000
 5372.00    0.40932   0.50409   -2.000
 5373.00    0.44216   0.48900   -2.000
 5374.00    0.41349   0.48280   -2.000
 5375.00    0.34353   0.49570   -2.000
 5376.00    0.37185   0.51740   -2.000
 5377.00    0.45800   0.53137   -2.000
 5378.00    0.43962   0.53564   -2.000
 5379.00    0.36765   0.53406   -2.000
 5380.00    0.37232   0.53068   -2.000
 5381.00    0.41103   0.53089   -2.000
 5382.00    0.38230   0.53061   -2.000
 5383.00    0.32783   0.52589    0.012
 5384.00    0.38924   0.52123    0.012
 5385.00    0.48824   0.51812    0.012
 5386.00    0.57288   0.51562    0.012
 5387.00    0.65361   0.51991    0.013
 5388.00    0.62152   0.52759    0.013
 5389.00    0.56429   0.52853    0.012
 5390.00    0.51831   0.52579    0.012
 5391.00    0.47432   0.52268    0.012
 5392.00    0.43172   0.51713    0.012
 5393.00    0.38930   0.51075    0.012
 5394.00    0.43649   0.50889    0.012
 5395.00    0.49235   0.50900    0.012
 5396.00    0.38382   0.50879    0.012
 5397.00    0.26539   0.50894    0.012
 5398.00    0.34098   0.50621    0.012
 5399.00    0.42113   0.49478    0.012
 5400.00    0.41990   0.48488    0.012
 5401.00    0.41842   0.49280    0.012
 5402.00    0.41047   0.50673    0.012
 5403.00    0.40712   0.50926    0.012
 5404.00    0.46606   0.50769    0.012
 5405.00    0.50967   0.50884    0.012
 5406.00    0.41545   0.50251    0.012
 5407.00    0.33640   0.48652    0.012
 5408.00    0.35753   0.47450    0.012
 5409.00    0.38435   0.47697    0.012
 5410.00    0.44049   0.48970    0.012
 5411.00    0.46998   0.49756    0.012
 5412.00    0.38881   0.49267    0.012
 5413.00    0.33585   0.48732    0.012
 5414.00    0.37980   0.49623    0.012
 5415.00    0.42740   0.51064    0.012
 5416.00    0.48554   0.51472    0.012
 5417.00    0.50576   0.50913    0.012
 5418.00    0.43235   0.50827    0.012
 5419.00    0.37831   0.51752    0.012
 5420.00    0.36550   0.52593    0.012
 5421.00    0.36251   0.52471    0.012
 5422.00    0.37768   0.51859    0.012
 5423.00    0.38717   0.51281    0.012
 5424.00    0.38749   0.51293    0.012
 5425.00    0.42841   0.51623    0.012
 5426.00    0.52687   0.51002    0.012
 5427.00    0.58182   0.49839    0.012
 5428.00    0.58250   0.50108    0.013
 5429.00    0.54742   0.51583    0.013
 5430.00    0.47302   0.52350    0.012
 5431.00    0.40019   0.51350    0.012
 5432.00    0.32888   0.49281    0.012
 5433.00    0.29328   0.48846    0.012
 5434.00    0.28820   0.50180    0.012
 5435.00    0.25697   0.50515    0.012
 5436.00    0.20606   0.49646    0.012
 5437.00    0.27803   0.49051    0.012
 5438.00    0.43129   0.49121    0.012
 5439.00    0.47291   0.49763    0.012
 5440.00    0.44985   0.50797    0.012
 5441.00    0.44228   0.51971    0.012
 5442.00    0.44252   0.52732    0.012
 5443.00    0.47025   0.52960    0.012
 5444.00    0.50999   0.52892    0.012
 5445.00    0.50789   0.52779    0.012
 5446.00    0.49009   0.52584    0.012
 5447.00    0.49102   0.51751    0.012
 5448.00    0.49790   0.50213    0.012
 5449.00    0.49000   0.48579    0.012
 5450.00    0.47816   0.48250    0.012
 5451.00    0.43452   0.49761    0.012
 5452.00    0.38397   0.51439    0.012
 5453.00    0.44461   0.52099    0.012
 5454.00    0.52446   0.52080    0.012
 5455.00    0.52096   0.51798    0.012
 5456.00    0.50654   0.51201    0.012
 5457.00    0.49970   0.49890    0.012
 5458.00    0.49356   0.48317    0.012
 5459.00    0.45233   0.48336    0.012
 5460.00    0.40914   0.50096    0.012
 5461.00    0.50336   0.51665    0.012
 5462.00    0.59950   0.52097    0.012
 5463.00    0.57530   0.51698    0.012
 5464.00    0.55192   0.50980    0.012
 5465.00    0.54789   0.49974    0.012
 5466.00    0.53438   0.49215    0.012
 5467.00    0.39923   0.49664    0.012
 5468.00    0.28714   0.50458    0.012
 5469.00    0.37455   0.50449    0.012
 5470.00    0.45130   0.50492    0.012
 5471.00    0.45973   0.51004    0.012
 5472.00    0.46673   0.51123    0.012
 5473.00    0.46652   0.50726    0.012
 5474.00    0.46416   0.50515    0.012
 5475.00    0.45303   0.50354    0.012
 5476.00    0.42915   0.49824    0.012
 5477.00    0.36235   0.49564    0.012
 5478.00    0.31484   0.49189   -2.000
 5479.00    0.32213   0.47772   -2.000
 5480.00    0.33777   0.46965   -2.000
 5481.00    0.37367   0.48290   -2.000
 5482.00    0.40090   0.49937   -2.000
 5483.00    0.40994   0.49918   -2.000
 5484.00    0.35138   0.48936   -2.000
 5485.00    0.16970   0.48824   -2.000
 5486.00   -0.10605   0.49733   -2.000
 5487.00   -0.53153   0.50779   -2.000
 5488.00   -0.57309   0.51415   -2.000
 5489.00   -0.07833   0.50978   -2.000
 5490.00    0.35604   0.49811   -2.000
 5491.00    0.71615   0.49387   -2.000
 5492.00    0.89881   0.49927   -2.000
 5493.00    0.88916   0.50307   -2.000
 5494.00    0.79825   0.50448   -2.000
 5495.00    0.62965   0.50460   -2.000
 5496.00    0.49884   0.50091   -2.000
 5497.00    0.39989   0.50040   -2.000
 5498.00    0.35065   0.50481   -2.000
 5499.00    0.33832   0.50334   -2.000
 5500.00    0.34830   0.49637   -2.000
 5501.00    0.37284   0.49795   -2.000
 5502.00    0.39829   0.50816   -1.000
 5503.00    0.42425   0.50819   -1.000
 5504.00    0.47137   0.49637   -1.000
 5505.00    0.52899   0.48768   -1.000
 5506.00    0.54359   0.48959    0.032
 5507.00    0.53971   0.49509    0.013
 5508.00    0.48512   0.49328    0.011
 5509.00    0.41184   0.48520    0.012
 5510.00    0.45863   0.48523    0.012
 5511.00    0.54289   0.49419    0.012
 5512.00    0.55666   0.49751    0.012
 5513.00    0.55210   0.49459    0.012
 5514.00    0.54806   0.49070    0.020
 5515.00    0.54413   0.48604    0.158
 5516.00    0.51590   0.48512   -1.000
 5517.00    0.48358   0.48878   -1.000
 5518.00    0.45198   0.49319   -1.000
 5519.00    0.42047   0.49711   -1.000
 5520.00    0.49220   0.50119   -1.000
 5521.00    0.57304   0.50754   -1.000
 5522.00    0.55160   0.51123    0.024
 5523.00    0.52481   0.50940    0.012
 5524.00    0.48865   0.50667    0.012
 5525.00    0.45307   0.50629    0.011
 5526.00    0.47399   0.50655    0.012
 5527.00    0.49056   0.50448    0.012
 5528.00    0.41351   0.49959    0.012
 5529.00    0.35020   0.49343    0.011
 5530.00    0.45454   0.48434    0.011
 5531.00    0.54656   0.47597    0.012
 5532.00    0.53589   0.47991    0.012
 5533.00    0.51321   0.49287    0.012
 5534.00    0.41581   0.50049    0.011
 5535.00    0.34992   0.50021    0.011
 5536.00    0.43804   0.49628    0.011
 5537.00    0.50250   0.48915    0.011
 5538.00    0.47306   0.48512    0.011
 5539.00    0.46510   0.49057    0.011
 5540.00    0.52800   0.49771    0.011
 5541.00    0.58281   0.49950    0.011
 5542.00    0.61505   0.50222    0.011
 5543.00    0.60341   0.50648    0.011
 5544.00    0.48702   0.50767    0.011
 5545.00    0.41408   0.50287    0.011
 5546.00    0.43070   0.49525    0.011
 5547.00    0.42532   0.49253    0.011
 5548.00    0.38049   0.49442    0.011
 5549.00    0.36352   0.49539    0.011
 5550.00    0.39024   0.49826    0.011
 5551.00    0.38948   0.50405    0.011
 5552.00    0.35089   0.50758    0.011
 5553.00    0.35849   0.50843    0.011
 5554.00    0.42208   0.50849    0.011
 5555.00    0.46813   0.50592    0.011
 5556.00    0.49544   0.50105    0.011
 5557.00    0.51461   0.49668    0.011
 5558.00    0.52610   0.49670    0.011
 5559.00    0.51051   0.49950    0.011
 5560.00    0.47243   0.49947    0.011
 5561.00    0.44509   0.49727    0.011
 5562.00    0.42561   0.49756    0.011
 5563.00    0.43155   0.49835    0.011
 5564.00    0.45382   0.49687    0.011
 5565.00    0.47804   0.49297    0.011
 5566.00    0.50334   0.48980    0.011
 5567.00    0.52314   0.49053    0.011
 5568.00    0.54025   0.48967    0.011
 5569.00    0.55018   0.48638    0.011
 5570.00    0.55707   0.48612    0.011
 5571.00    0.57752   0.48624    0.011
 5572.00    0.60287   0.48343    0.011
 5573.00    0.59047   0.48523    0.011
 5574.00    0.56651   0.49156    0.011
 5575.00    0.52216   0.48784    0.011
 5576.00    0.47261   0.48209    0.011
 5577.00    0.47652   0.48877    0.011
 5578.00    0.49150   0.49478    0.011
 5579.00    0.51509   0.49319    0.011
 5580.00    0.54008   0.49327    0.011
 5581.00    0.48884   0.49411    0.011
 5582.00    0.42829   0.49434    0.011
 5583.00    0.47755   0.49701    0.011
 5584.00    0.53604   0.49685    0.011
 5585.00    0.51366   0.49363    0.011
 5586.00    0.48737   0.49298    0.011
 5587.00    0.40606   0.49248    0.011
 5588.00    0.32610   0.48606    0.011
 5589.00    0.37604   0.47308    0.011
 5590.00    0.42473   0.46116    0.011
 5591.00    0.44881   0.45820    0.011
 5592.00    0.47094   0.46291    0.011
 5593.00    0.47053   0.47141    0.011
 5594.00    0.46744   0.47903    0.011
 5595.00    0.44284   0.48163    0.011
 5596.00    0.42250   0.47989    0.011
 5597.00    0.42790   0.47687    0.011
 5598.00    0.44307   0.48185    0.012
 5599.00    0.50481   0.49306    0.012
 5600.00    0.54746   0.49365    0.012
 5601.00    0.51599   0.48401    0.012
 5602.00    0.47981   0.47938    0.011
 5603.00    0.42839   0.47917    0.011
 5604.00    0.40215   0.47473    0.011
 5605.00    0.44486   0.46971    0.011
 5606.00    0.46409   0.47144    0.011
 5607.00    0.42821   0.48271    0.011
 5608.00    0.42404   0.49460    0.011
 5609.00    0.48417   0.50083    0.011
 5610.00    0.51892   0.50297    0.011
 5611.00    0.50884   0.50170    0.011
 5612.00    0.49542   0.49953    0.011
 5613.00    0.47681   0.49864    0.011
 5614.00    0.47678   0.50059    0.011
 5615.00    0.50193   0.50299    0.011
 5616.00    0.49733   0.50114    0.011
 5617.00    0.45719   0.48758    0.011
 5618.00    0.41844   0.46678    0.011
 5619.00    0.38117   0.46188    0.011
 5620.00    0.36867   0.47530    0.010
 5621.00    0.37918   0.48520    0.010
 5622.00    0.39770   0.48428    0.010
 5623.00    0.42279   0.48221    0.011
 5624.00    0.42666   0.48543    0.011
 5625.00    0.41521   0.49013    0.011
 5626.00    0.40366   0.48605    0.011
 5627.00    0.39204   0.47291    0.011
 5628.00    0.44383   0.46627    0.011
 5629.00    0.53071   0.47295    0.011
 5630.00    0.51773   0.48106    0.011
 5631.00    0.45670   0.48528    0.011
 5632.00    0.49478   0.49115    0.011
 5633.00    0.57403   0.49607    0.011
 5634.00    0.55522   0.49711    0.011
 5635.00    0.50157   0.49542    0.011
 5636.00    0.45608   0.49168    0.011
 5637.00    0.41304   0.48814    0.011
 5638.00    0.36865   0.48575    0.011
 5639.00    0.32393   0.48234    0.011
 5640.00    0.34708   0.47755    0.011
 5641.00    0.38393   0.47708    0.011
 5642.00    0.35591   0.48099    0.011
 5643.00    0.31761   0.48134    0.011
 5644.00    0.38088   0.47699    0.011
 5645.00    0.45610   0.47613    0.011
 5646.00    0.44939   0.47881    0.011
 5647.00    0.43613   0.48056    0.011
 5648.00    0.44954   0.48194    0.011
 5649.00    0.46414   0.48388    0.011
 5650.00    0.47422   0.48601    0.011
 5651.00    0.48502   0.48598    0.011
 5652.00    0.53358   0.48305    0.011
 5653.00    0.57580   0.48135    0.011
 5654.00    0.50100   0.48449    0.011
 5655.00    0.43351   0.48901    0.011
 5656.00    0.44684   0.48897    0.011
 5657.00    0.45595   0.48209    0.011
 5658.00    0.43226   0.47620    0.011
 5659.00    0.41186   0.47866    0.011
 5660.00    0.41086   0.47517    0.011
 5661.00    0.40702   0.45927    0.011
 5662.00    0.38992   0.45471    0.010
 5663.00    0.38708   0.46736    0.010
 5664.00    0.43848   0.47408    0.010
 5665.00    0.47131   0.46848    0.010
 5666.00    0.44520   0.46651    0.010
 5667.00    0.44948   0.47484    0.010
 5668.00    0.53553   0.48344    0.011
 5669.00    0.60342   0.48416    0.011
 5670.00    0.62943   0.47893    0.011
 5671.00    0.62471   0.47518    0.011
 5672.00    0.55864   0.47621    0.011
 5673.00    0.49778   0.47863    0.011
 5674.00    0.44599   0.48062    0.011
 5675.00    0.41868   0.48523    0.011
 5676.00    0.42866   0.49099    0.011
 5677.00    0.45157   0.49171    0.011
 5678.00    0.49176   0.48783    0.011
 5679.00    0.49559   0.48745    0.011
 5680.00    0.45659   0.48948    0.011
 5681.00    0.47435   0.48740    0.011
 5682.00    0.55105   0.48390    0.011
 5683.00    0.56878   0.48331    0.011
 5684.00    0.53249   0.48193    0.011
 5685.00    0.46412   0.47502    0.011
 5686.00    0.36984   0.47056    0.011
 5687.00    0.34092   0.47409    0.011
 5688.00    0.35845   0.47803    0.011
 5689.00    0.40233   0.47589    0.011
 5690.00    0.46263   0.47079    0.011
 5691.00    0.47326   0.46901    0.011
 5692.00    0.45684   0.47245    0.011
 5693.00    0.52121   0.47830    0.011
 5694.00    0.62383   0.48250    0.011
 5695.00    0.62028   0.48648    0.011
 5696.00    0.57338   0.48816    0.011
 5697.00    0.53322   0.48607    0.011
 5698.00    0.49540   0.48386    0.011
 5699.00    0.50223   0.48473    0.011
 5700.00    0.52220   0.48427    0.011
 5701.00    0.53669   0.47904    0.011
 5702.00    0.54986   0.47529    0.011
 5703.00    0.51419   0.47314    0.011
 5704.00    0.46890   0.46825    0.010
 5705.00    0.52267   0.46548    0.010
 5706.00    0.59166   0.46941    0.011
 5707.00    0.58180   0.47480    0.010
 5708.00    0.56300   0.47388    0.010
 5709.00    0.49817   0.46726    0.010
 5710.00    0.42985   0.46155    0.010
 5711.00    0.43120   0.45741    0.010
 5712.00    0.43539   0.45389    0.010
 5713.00    0.45084   0.45599    0.010
 5714.00    0.46582   0.45812    0.010
 5715.00    0.45794   0.45869    0.010
 5716.00    0.45151   0.46636    0.010
 5717.00    0.46987   0.47484    0.010
 5718.00    0.48892   0.47779    0.010
 5719.00    0.51516   0.47961    0.010
 5720.00    0.53661   0.48025    0.010
 5721.00    0.52212   0.47945    0.010
 5722.00    0.51202   0.48055    0.011
 5723.00    0.52702   0.48225    0.011
 5724.00    0.53664   0.48409    0.011
 5725.00    0.52176   0.48697    0.011
 5726.00    0.50750   0.48901    0.010
 5727.00    0.49555   0.48896    0.011
 5728.00    0.49028   0.48744    0.011
 5729.00    0.50582   0.48251    0.010
 5730.00    0.50527   0.47581    0.010
 5731.00    0.46223   0.47593    0.010
 5732.00    0.42217   0.48148    0.010
 5733.00    0.38890   0.48218    0.010
 5734.00    0.37304   0.47598    0.010
 5735.00    0.39137   0.47268    0.010
 5736.00    0.40505   0.47771    0.010
 5737.00    0.41076   0.48366    0.010
 5738.00    0.41915   0.48586    0.010
 5739.00    0.43157   0.48454    0.010
 5740.00    0.44792   0.48161    0.000
 5741.00    0.46948   0.48006    0.000
 5742.00    0.46711   0.48025    0.000
 5743.00    0.43697   0.48066    0.000
 5744.00    0.42970   0.48022    0.000
 5745.00    0.44585   0.47813    0.000
 5746.00    0.45189   0.47635    0.000
 5747.00    0.44878   0.47870    0.000
 5748.00    0.43687   0.48366    0.000
 5749.00    0.41794   0.48483    0.000
 5750.00    0.44023   0.47828    0.000
 5751.00    0.49138   0.47096    0.000
 5752.00    0.50966   0.47209    0.000
 5753.00    0.50775   0.47913    0.000
 5754.00    0.51612   0.48127    0.000
 5755.00    0.53000   0.47456    0.000
 5756.00    0.51792   0.46468    0.000
 5757.00    0.49374   0.46017    0.000
 5758.00    0.49867   0.46580    0.000
 5759.00    0.51528   0.47631    0.000
 5760.00    0.48864   0.48261    0.000
 5761.00    0.44718   0.48363    0.000
 5762.00    0.43252   0.48073    0.000
 5763.00    0.42558   0.47475    0.000
 5764.00    0.42414   0.46737    0.000
 5765.00    0.42400   0.46065    0.000
 5766.00    0.42820   0.45999    0.000
 5767.00    0.43323   0.46928    0.000
 5768.00    0.46775   0.47977    0.000
 5769.00    0.50667   0.48329    0.000
 5770.00    0.53476   0.48332    0.000
 5771.00    0.56166   0.48259    0.000
 5772.00    0.54266   0.48088    0.000
 5773.00    0.52036   0.47947    0.000
 5774.00    0.52589   0.47776    0.000
 5775.00    0.53244   0.47481    0.000
 5776.00    0.52392   0.47385    0.000
 5777.00    0.51473   0.47333    0.000
 5778.00    0.48370   0.47250    0.000
 5779.00    0.45573   0.47442    0.000
 5780.00    0.47688   0.47722    0.000
 5781.00    0.49576   0.47745    0.000
 5782.00    0.49168   0.47296    0.000
 5783.00    0.48634   0.46293    0.000
 5784.00    0.47178   0.45119    0.000
 5785.00    0.45456   0.44780    0.000
 5786.00    0.42260   0.45122    0.000
 5787.00    0.39998   0.45134    0.000
 5788.00    0.41878   0.44822    0.000
 5789.00    0.43651   0.45078    0.000
 5790.00    0.45035   0.45951    0.000
 5791.00    0.43150   0.46649   -2.000
 5792.00    0.31284   0.46978   -2.000
 5793.00    0.24112   0.46711   -2.000
 5794.00    0.29125   0.46217   -2.000
 5795.00    0.32628   0.46343   -2.000
 5796.00    0.32758   0.46849   -2.000
 5797.00    0.35566   0.47307   -2.000
 5798.00    0.43553   0.47675   -2.000
 5799.00    0.48092   0.47586   -2.000
 5800.00    0.46813   0.46885   -2.000
 5801.00    0.46685   0.46405   -2.000
 5802.00    0.48258   0.46867   -2.000
 5803.00    0.47947   0.47699   -2.000
 5804.00    0.45190   0.48119   -2.000
 5805.00    0.44674   0.48228   -2.000
 5806.00    0.46722   0.47955   -2.000
 5807.00    0.47259   0.47233   -2.000
 5808.00    0.46270   0.46707   -2.000
 5809.00    0.44457   0.46658   -2.000
 5810.00    0.41911   0.46861   -2.000
 5811.00    0.38991   0.47073    0.000
 5812.00    0.35777   0.47208    0.000
 5813.00    0.36228   0.47391    0.000
 5814.00    0.39209   0.47598    0.000
 5815.00    0.40748   0.47609    0.000
 5816.00    0.41414   0.47467    0.000
 5817.00    0.43531   0.47232    0.000
 5818.00    0.46413   0.46783    0.000
 5819.00    0.46690   0.46342    0.000
 5820.00    0.45772   0.46498    0.000
 5821.00    0.42018   0.47208    0.000
 5822.00    0.37146   0.47756    0.000
 5823.00    0.37423   0.47927    0.000
 5824.00    0.39430   0.47881    0.000
 5825.00    0.44778   0.47689    0.000
 5826.00    0.51069   0.47455    0.000
 5827.00    0.50908   0.47372    0.000
 5828.00    0.49244   0.47529    0.000
 5829.00    0.44989   0.47571    0.000
 5830.00    0.40249   0.47502    0.000
 5831.00    0.39982   0.47515    0.000
 5832.00    0.40361   0.47629    0.000
 5833.00    0.40623   0.47668    0.000
 5834.00    0.40873   0.47580    0.000
 5835.00    0.41978   0.47544    0.000
 5836.00    0.43140   0.47451    0.000
 5837.00    0.40807   0.47095    0.000
 5838.00    0.38358   0.46765    0.000
 5839.00    0.39912   0.46975    0.000
 5840.00    0.41421   0.47226    0.000
 5841.00    0.41439   0.47065    0.000
 5842.00    0.41629   0.46992    0.000
 5843.00    0.44441   0.47309    0.000
 5844.00    0.46995   0.47623    0.000
 5845.00    0.47051   0.47736    0.000
 5846.00    0.47040   0.47736    0.000
 5847.00    0.46554   0.47544    0.000
 5848.00    0.46327   0.47239    0.000
 5849.00    0.47508   0.46911    0.000
 5850.00    0.47968   0.46604    0.000
 5851.00    0.45308   0.46538    0.000
 5852.00    0.42765   0.46728    0.000
 5853.00    0.40640   0.46865    0.000
 5854.00    0.39884   0.46742    0.000
 5855.00    0.43227   0.46247    0.000
 5856.00    0.45629   0.45575    0.000
 5857.00    0.45627   0.45398    0.000
 5858.00    0.45715   0.45811    0.000
 5859.00    0.46000   0.45825    0.000
 5860.00    0.44276   0.45070    0.000
 5861.00    0.38724   0.44546    0.000
 5862.00    0.33738   0.44895    0.000
 5863.00    0.29693   0.45602    0.000
 5864.00    0.28860   0.46131    0.000
 5865.00    0.32710   0.46119    0.000
 5866.00    0.37753   0.45963    0.000
 5867.00    0.44326   0.46178    0.000
 5868.00    0.47699   0.46402    0.000
 5869.00    0.47461   0.46165    0.000
 5870.00    0.45888   0.45870    0.000
 5871.00    0.42986   0.46117    0.000
 5872.00    0.40125   0.46630    0.000
 5873.00    0.37299   0.46914    0.000
 5874.00    0.38611   0.46869    0.000
 5875.00    0.43123   0.46642    0.000
 5876.00    0.45923   0.46439    0.000
 5877.00    0.47558   0.46429    0.000
 5878.00    0.43886   0.46452    0.000
 5879.00    0.37051   0.46251    0.000
 5880.00    0.37572   0.46074    0.000
 5881.00    0.41917   0.46079    0.000
 5882.00    0.45422   0.45835    0.000
 5883.00    0.48547   0.45408    0.000
 5884.00    0.50430   0.45322    0.000
 5885.00    0.51832   0.45619    0.000
 5886.00    0.50507   0.45630    0.000
 5887.00    0.48282   0.45260    0.000
 5888.00    0.45941   0.45152    0.000
 5889.00    0.43568   0.45267    0.000
 5890.00    0.42535   0.44946    0.000
 5891.00    0.41806   0.43243    0.000
 5892.00    0.41337   0.39658    0.000
 5893.00    0.40917   0.36802    0.000
 5894.00    0.41139   0.37634    0.000
 5895.00    0.41452   0.40456    0.000
 5896.00    0.39927   0.42252    0.000
 5897.00    0.38218   0.42346    0.000
 5898.00    0.36562   0.40295    0.000
 5899.00    0.34909   0.38231    0.000
 5900.00    0.35888   0.39232    0.000
 5901.00    0.36948   0.41907    0.010
 5902.00    0.39499   0.43530    0.010
 5903.00    0.41886   0.44244    0.010
 5904.00    0.39652   0.44743    0.010
 5905.00    0.37572   0.44983    0.010
 5906.00    0.37693   0.45119    0.010
 5907.00    0.37830   0.45272    0.010
 5908.00    0.38111   0.45243    0.010
 5909.00    0.38147   0.45187    0.010
 5910.00    0.36517   0.45366    0.010
 5911.00    0.35489   0.45623    0.009
 5912.00    0.37633   0.45716    0.010
 5913.00    0.39660   0.45708    0.010
 5914.00    0.41197   0.45836    0.009
 5915.00    0.42471   0.45857    0.009
 5916.00    0.42824   0.45325    0.009
 5917.00    0.42813   0.44550    0.010
 5918.00    0.41736   0.44293    0.009
 5919.00    0.40758   0.44501    0.009
 5920.00    0.40033   0.44938    0.010
 5921.00    0.39974   0.45301    0.010
 5922.00    0.41353   0.45401    0.010
 5923.00    0.42959   0.45526    0.010
 5924.00    0.44989   0.45563    0.010
 5925.00    0.46487   0.45377    0.010
 5926.00    0.47115   0.45278    0.010
 5927.00    0.46016   0.45401    0.010
 5928.00    0.42439   0.45566    0.009
 5929.00    0.39776   0.45762    0.009
 5930.00    0.38266   0.45782    0.009
 5931.00    0.38920   0.45488    0.009
 5932.00    0.41983   0.44916    0.010
 5933.00    0.44645   0.44483    0.010
 5934.00    0.46915   0.44791    0.010
 5935.00    0.47112   0.45464    0.010
 5936.00    0.45515   0.45624    0.010
 5937.00    0.44724   0.45161    0.009
 5938.00    0.44546   0.44815    0.010
 5939.00    0.45253   0.45089    0.010
 5940.00    0.46552   0.45490    0.010
 5941.00    0.46004   0.45705    0.010
 5942.00    0.44372   0.45854    0.010
 5943.00    0.44015   0.45616    0.009
 5944.00    0.44310   0.44991    0.009
 5945.00    0.44109   0.44689    0.009
 5946.00    0.43687   0.44886    0.009
 5947.00    0.42725   0.45233    0.009
 5948.00    0.41557   0.45528    0.009
 5949.00    0.40288   0.45683    0.009
 5950.00    0.38985   0.45496    0.009
 5951.00    0.39597   0.44938    0.009
 5952.00    0.40727   0.44491    0.010
 5953.00    0.41356   0.44739    0.010
 5954.00    0.41874   0.45182    0.009
 5955.00    0.41424   0.44949    0.010
 5956.00    0.40802   0.44507    0.010
 5957.00    0.39435   0.44677    0.010
 5958.00    0.37968   0.45032    0.009
 5959.00    0.36411   0.44805    0.009
 5960.00    0.34844   0.44344    0.009
 5961.00    0.35660   0.44278    0.009
 5962.00    0.36617   0.44686    0.009
 5963.00    0.40223   0.45222    0.009
 5964.00    0.43864   0.45488    0.009
 5965.00    0.42652   0.45617    0.010
 5966.00    0.41481   0.45684    0.010
 5967.00    0.41367   0.45649    0.009
 5968.00    0.41773   0.45357    0.009
 5969.00    0.49188   0.45032    0.009
 5970.00    0.56064   0.45134    0.010
 5971.00    0.58116   0.45418    0.010
 5972.00    0.58560   0.45605    0.010
 5973.00    0.48423   0.45784    0.009
 5974.00    0.39430   0.45917    0.009
 5975.00    0.36302   0.45916    0.009
 5976.00    0.34798   0.45871    0.009
 5977.00    0.40020   0.45742    0.009
 5978.00    0.45088   0.45322    0.009
 5979.00    0.49630   0.44721    0.009
 5980.00    0.52219   0.44255    0.009
 5981.00    0.49171   0.44042    0.009
 5982.00    0.46156   0.44235    0.009
 5983.00    0.43222   0.44811    0.009
 5984.00    0.41098   0.45281    0.009
 5985.00    0.40695   0.45180    0.009
 5986.00    0.41217   0.44550    0.009
 5987.00    0.43450   0.43785    0.009
 5988.00    0.46303   0.43630    0.009
 5989.00    0.50157   0.44087    0.009
 5990.00    0.52526   0.44451    0.009
 5991.00    0.52793   0.44606    0.009
 5992.00    0.51711   0.44859    0.009
 5993.00    0.48951   0.44941    0.009
 5994.00    0.45945   0.44585    0.009
 5995.00    0.42669   0.44375    0.009
 5996.00    0.39620   0.44783    0.009
 5997.00    0.36792   0.45262    0.009
 5998.00    0.34536   0.45303    0.009
 5999.00    0.32767   0.44988    0.009
 6000.00    0.34373   0.44475    0.009
 6001.00    0.38515   0.44127    0.009
 6002.00    0.46008   0.44200    0.009
 6003.00    0.55715   0.44528    0.009
 6004.00    0.59114   0.44752    0.009
 6005.00    0.58867   0.44539    0.009
 6006.00    0.53625   0.44165    0.009
 6007.00    0.45866   0.44247    0.009
 6008.00    0.41070   0.44486    0.009
 6009.00    0.37566   0.44349    0.009
 6010.00    0.38303   0.43832    0.009
 6011.00    0.40627   0.43254    0.009
 6012.00    0.41808   0.43405    0.009
 6013.00    0.42626   0.44267    0.009
 6014.00    0.42653   0.44773    0.009
 6015.00    0.42469   0.44457    0.009
 6016.00    0.41437   0.43816    0.009
 6017.00    0.40220   0.43650    0.009
 6018.00    0.39969   0.43892    0.010
 6019.00    0.39884   0.43890    0.010
 6020.00    0.39589   0.43761    0.010
 6021.00    0.39265   0.43892    0.010
 6022.00    0.40100   0.43848    0.009
 6023.00    0.41040   0.43495    0.009
 6024.00    0.46182   0.43337    0.009
 6025.00    0.51559   0.43517    0.009
 6026.00    0.52755   0.43683    0.009
 6027.00    0.53820   0.43735    0.009
 6028.00    0.50889   0.43993    0.009
 6029.00    0.48012   0.44256    0.009
 6030.00    0.46391   0.44232    0.009
 6031.00    0.44795   0.44349    0.009
 6032.00    0.43516   0.44660    0.009
 6033.00    0.42463   0.44790    0.009
 6034.00    0.43350   0.44704    0.009
 6035.00    0.44087   0.44744    0.009
 6036.00    0.43858   0.44936    0.009
 6037.00    0.44222   0.45014    0.009
 6038.00    0.47550   0.44939    0.009
 6039.00    0.49890   0.44900    0.009
 6040.00    0.48223   0.44936    0.009
 6041.00    0.46125   0.44989    0.009
 6042.00    0.42578   0.44878    0.009
 6043.00    0.40152   0.44608    0.009
 6044.00    0.40902   0.44430    0.009
 6045.00    0.41787   0.44391    0.009
 6046.00    0.43001   0.44606    0.009
 6047.00    0.43680   0.44886    0.009
 6048.00    0.43238   0.44929    0.009
 6049.00    0.44120   0.44881    0.009
 6050.00    0.47407   0.44951    0.009
 6051.00    0.48183   0.44977    0.009
 6052.00    0.44969   0.44900    0.009
 6053.00    0.41406   0.44916    0.009
 6054.00    0.37354   0.44970    0.009
 6055.00    0.35574   0.44747    0.009
 6056.00    0.36580   0.44339    0.009
 6057.00    0.37676   0.44129    0.009
 6058.00    0.38868   0.44074    0.009
 6059.00    0.40766   0.43933    0.009
 6060.00    0.43338   0.43914    0.009
 6061.00    0.46960   0.44147    0.009
 6062.00    0.51466   0.44442    0.009
 6063.00    0.52736   0.44610    0.009
 6064.00    0.51611   0.44647    0.009
 6065.00    0.49289   0.44530    0.009
 6066.00    0.46190   0.44279    0.009
 6067.00    0.44713   0.43880    0.009
 6068.00    0.44159   0.43243    0.009
 6069.00    0.44823   0.43099    0.009
 6070.00    0.46090   0.43843    0.009
 6071.00    0.48473   0.44602    0.009
 6072.00    0.51334   0.44834    0.009
 6073.00    0.54020   0.44791    0.009
 6074.00    0.56642   0.44785    0.009
 6075.00    0.55937   0.44905    0.009
 6076.00    0.54197   0.45041    0.009
 6077.00    0.55207   0.45101    0.009
 6078.00    0.56931   0.45019    0.009
 6079.00    0.52094   0.44803    0.009
 6080.00    0.45868   0.44456    0.009
 6081.00    0.40004   0.43918    0.009
 6082.00    0.34202   0.43564    0.009
 6083.00    0.35822   0.43720    0.009
 6084.00    0.38379   0.43806    0.009
 6085.00    0.41900   0.43492    0.009
 6086.00    0.45506   0.43319    0.009
 6087.00    0.45069   0.43468    0.009
 6088.00    0.44422   0.43522    0.009
 6089.00    0.44627   0.43485    0.009
 6090.00    0.44828   0.43636    0.009
 6091.00    0.43598   0.43901    0.009
 6092.00    0.42566   0.43842    0.009
 6093.00    0.45753   0.43428    0.009
 6094.00    0.48544   0.43217    0.009
 6095.00    0.46538   0.43309    0.009
 6096.00    0.44882   0.43350    0.009
 6097.00    0.46119   0.43540    0.009
 6098.00    0.47347   0.43961    0.009
 6099.00    0.48517   0.44152    0.009
 6100.00    0.49636   0.43967    0.009
 6101.00    0.50499   0.43827    0.009
 6102.00    0.51031   0.44004    0.009
 6103.00    0.50249   0.44168    0.009
 6104.00    0.48897   0.43793    0.009
 6105.00    0.45665   0.42516    0.009
 6106.00    0.43025   0.41385    0.009
 6107.00    0.42029   0.41824    0.009
 6108.00    0.41424   0.43050    0.009
 6109.00    0.41747   0.43699    0.009
 6110.00    0.41778   0.43686    0.009
 6111.00    0.41206   0.43535    0.009
 6112.00    0.41629   0.43747    0.009
 6113.00    0.43832   0.44041    0.009
 6114.00    0.45875   0.43851    0.009
 6115.00    0.47670   0.43522    0.009
 6116.00    0.47823   0.43637    0.009
 6117.00    0.45721   0.44017    0.009
 6118.00    0.45310   0.44128    0.009
 6119.00    0.46945   0.43766    0.009
 6120.00    0.50168   0.43518    0.009
 6121.00    0.55086   0.43674    0.009
 6122.00    0.57008   0.43663    0.009
 6123.00    0.56112   0.43202    0.009
 6124.00    0.51894   0.42467    0.009
 6125.00    0.44920   0.41685    0.009
 6126.00    0.43017   0.41694    0.009
 6127.00    0.44815   0.42570    0.009
 6128.00    0.47502   0.43179    0.009
 6129.00    0.50760   0.43195    0.009
 6130.00    0.49734   0.43007    0.009
 6131.00    0.46307   0.42748    0.009
 6132.00    0.44430   0.42646    0.009
 6133.00    0.43309   0.42915    0.009
 6134.00    0.42658   0.43359    0.009
 6135.00    0.42204   0.43667    0.009
 6136.00    0.40745   0.43832    0.009
 6137.00    0.38923   0.43653    0.009
 6138.00    0.38904   0.42851    0.009
 6139.00    0.39436   0.41387    0.009
 6140.00    0.37756   0.39944    0.009
 6141.00    0.35516   0.39945    0.009
 6142.00    0.37631   0.41535    0.009
 6143.00    0.40645   0.42855    0.009
 6144.00    0.43935   0.42652    0.009
 6145.00    0.47271   0.42016    0.009
 6146.00    0.44980   0.42359    0.009
 6147.00    0.42006   0.43260    0.009
 6148.00    0.40158   0.43711    0.009
 6149.00    0.38404   0.43574    0.009
 6150.00    0.39744   0.43140    0.009
 6151.00    0.41232   0.42602    0.009
 6152.00    0.46093   0.42254    0.009
 6153.00    0.50926   0.42242    0.009
 6154.00    0.51290   0.42522    0.009
 6155.00    0.51563   0.42916    0.009
 6156.00    0.50046   0.43170    0.009
 6157.00    0.48350   0.42958    0.009
 6158.00    0.44579   0.42465    0.009
 6159.00    0.41236   0.42252    0.009
 6160.00    0.41320   0.42225    0.009
 6161.00    0.40737   0.42246    0.009
 6162.00    0.36138   0.42396    0.009
 6163.00    0.31966   0.42153    0.009
 6164.00    0.29829   0.40914    0.009
 6165.00    0.28551   0.39518    0.009
 6166.00    0.30598   0.39241    0.009
 6167.00    0.32049   0.40069    0.009
 6168.00    0.31573   0.41088    0.009
 6169.00    0.30962   0.41728    0.009
 6170.00    0.29983   0.42132    0.009
 6171.00    0.29257   0.42126    0.009
 6172.00    0.29123   0.41237    0.009
 6173.00    0.29692   0.40336    0.009
 6174.00    0.31685   0.40681    0.009
 6175.00    0.33692   0.41699    0.009
 6176.00    0.35722   0.42173    0.009
 6177.00    0.37947   0.42192    0.009
 6178.00    0.40474   0.42214    0.009
 6179.00    0.41893   0.42140    0.009
 6180.00    0.41810   0.42025    0.009
 6181.00    0.40973   0.42212    0.009
 6182.00    0.39236   0.42464    0.009
 6183.00    0.37810   0.42424    0.009
 6184.00    0.36711   0.42465    0.009
 6185.00    0.34936   0.42740    0.009
 6186.00    0.32535   0.42889    0.009
 6187.00    0.32970   0.42874    0.009
 6188.00    0.35726   0.42809    0.009
 6189.00    0.35852   0.42490    0.009
 6190.00    0.34086   0.42028    0.009
 6191.00    0.34770   0.41788    0.009
 6192.00    0.37002   0.41816    0.009
 6193.00    0.36022   0.41629    0.009
 6194.00    0.33268   0.40808    0.009
 6195.00    0.32685   0.40260    0.010
 6196.00    0.33146   0.40924   -2.000
 6197.00    0.29345   0.41925   -2.000
 6198.00    0.23777   0.42367   -2.000
 6199.00    0.21530   0.42553   -2.000
 6200.00    0.20460   0.42778   -2.000
 6201.00    0.13034   0.42694   -2.000
 6202.00    0.03705   0.42014   -2.000
 6203.00    0.05095   0.41339   -2.000
 6204.00    0.09148   0.41444   -2.000
 6205.00    0.16857   0.42117   -2.000
 6206.00    0.25302   0.42613   -2.000
 6207.00    0.29320   0.42689   -2.000
 6208.00    0.32640   0.42620    0.009
 6209.00    0.35198   0.42632    0.009
 6210.00    0.37667   0.42658    0.009
 6211.00    0.36740   0.42619    0.009
 6212.00    0.35543   0.42584    0.009
 6213.00    0.35234   0.42486    0.009
 6214.00    0.34964   0.42300    0.009
 6215.00    0.38154   0.42028    0.009
 6216.00    0.41277   0.41419    0.009
 6217.00    0.39398   0.40612    0.009
 6218.00    0.37553   0.40182    0.009
 6219.00    0.36342   0.40296    0.009
 6220.00    0.35510   0.40799    0.009
 6221.00    0.38863   0.41227    0.009
 6222.00    0.41847   0.41063    0.009
 6223.00    0.41978   0.40611    0.009
 6224.00    0.41894   0.40548    0.009
 6225.00    0.40552   0.40954    0.009
 6226.00    0.39153   0.41368    0.009
 6227.00    0.37493   0.41391    0.009
 6228.00    0.36807   0.41302    0.009
 6229.00    0.39816   0.41432    0.009
 6230.00    0.42544   0.41605    0.009
 6231.00    0.44380   0.41630    0.009
 6232.00    0.45634   0.41237    0.009
 6233.00    0.45324   0.40258    0.009
 6234.00    0.45108   0.39441    0.009
 6235.00    0.45108   0.39501    0.009
 6236.00    0.44834   0.40081    0.009
 6237.00    0.44012   0.40911    0.009
 6238.00    0.42199   0.41769    0.009
 6239.00    0.38665   0.42089    0.009
 6240.00    0.36939   0.41690    0.009
 6241.00    0.37960   0.40985    0.009
 6242.00    0.39563   0.40363    0.009
 6243.00    0.41944   0.40032    0.009
 6244.00    0.42464   0.40232    0.009
 6245.00    0.40796   0.40514    0.009
 6246.00    0.41845   0.40198    0.009
 6247.00    0.45712   0.39842    0.009
 6248.00    0.48465   0.39918    0.009
 6249.00    0.50199   0.39848    0.009
 6250.00    0.50141   0.39776    0.009
 6251.00    0.48640   0.40260    0.009
 6252.00    0.47704   0.40931    0.009
 6253.00    0.47169   0.41271    0.009
 6254.00    0.47194   0.41093    0.009
 6255.00    0.47566   0.40383    0.009
 6256.00    0.43476   0.39721    0.009
 6257.00    0.36960   0.39576    0.009
 6258.00    0.31114   0.39733    0.010
 6259.00    0.25583   0.39738    0.010
 6260.00    0.27694   0.39483    0.011
 6261.00    0.32918   0.39151    0.011
 6262.00    0.34312   0.39161    0.011
 6263.00    0.34372   0.39734    0.011
 6264.00    0.37301   0.40307    0.011
 6265.00    0.41071   0.40708    0.011
 6266.00    0.42458   0.41223    0.010
 6267.00    0.43266   0.41423    0.010
 6268.00    0.41231   0.40982    0.010
 6269.00    0.38637   0.40650    0.009
 6270.00    0.38491   0.40909    0.009
 6271.00    0.38719   0.41174    0.009
 6272.00    0.38457   0.41045    0.009
 6273.00    0.38140   0.40856    0.009
 6274.00    0.40387   0.40897    0.009
 6275.00    0.42828   0.41101    0.009
 6276.00    0.45172   0.41328    0.009
 6277.00    0.47511   0.41406    0.009
 6278.00    0.45721   0.41393    0.009
 6279.00    0.43989   0.41426    0.009
 6280.00    0.45829   0.41421    0.000
 6281.00    0.47671   0.41347    0.000
 6282.00    0.49554   0.41171    0.000
 6283.00    0.50952   0.40760    0.000
 6284.00    0.47236   0.40469    0.000
 6285.00    0.43625   0.40589    0.000
 6286.00    0.40787   0.40939    0.000
 6287.00    0.38898   0.41297    0.000
 6288.00    0.42407   0.41403    0.000
 6289.00    0.45551   0.41360    0.000
 6290.00    0.47040   0.41488    0.000
 6291.00    0.48495   0.41729    0.000
 6292.00    0.49824   0.41887    0.000
 6293.00    0.50530   0.41724    0.000
 6294.00    0.49303   0.41311    0.000
 6295.00    0.49098   0.40995    0.000
 6296.00    0.51586   0.40894    0.000
 6297.00    0.53296   0.41037    0.000
 6298.00    0.53245   0.41220    0.000
 6299.00    0.52719   0.40988    0.000
 6300.00    0.51261   0.40458    0.000
 6301.00    0.50495   0.40182    0.000
 6302.00    0.50914   0.40338    0.000
 6303.00    0.50842   0.40536    0.000
 6304.00    0.50038   0.40303    0.000
 6305.00    0.49159   0.39886    0.000
 6306.00    0.48183   0.39943    0.000
 6307.00    0.48269   0.40376    0.000
 6308.00    0.49588   0.40569    0.000
 6309.00    0.49895   0.40582    0.000
 6310.00    0.49168   0.40923    0.000
 6311.00    0.47722   0.41416    0.000
 6312.00    0.45628   0.41568    0.000
 6313.00    0.44137   0.41295    0.000
 6314.00    0.43125   0.40879    0.000
 6315.00    0.43909   0.40639    0.000
 6316.00    0.45950   0.40673    0.000
 6317.00    0.48842   0.40568    0.000
 6318.00    0.52255   0.40120    0.000
 6319.00    0.53111   0.39891    0.000
 6320.00    0.52598   0.39837    0.000
 6321.00    0.51368   0.39463    0.009
 6322.00    0.49804   0.39259    0.009
 6323.00    0.49224   0.39713    0.009
 6324.00    0.49038   0.40315    0.009
 6325.00    0.46107   0.40563    0.008
 6326.00    0.42238   0.40645    0.009
 6327.00    0.41644   0.40886    0.008
 6328.00    0.41990   0.41170    0.008
 6329.00    0.45829   0.41253    0.008
 6330.00    0.50497   0.41121    0.008
 6331.00    0.51312   0.41039    0.008
 6332.00    0.51390   0.41133    0.009
 6333.00    0.49013   0.41052    0.009
 6334.00    0.46272   0.40811    0.009
 6335.00    0.45311   0.40859    0.009
 6336.00    0.44543   0.41161    0.008
 6337.00    0.45333   0.41162    0.009
 6338.00    0.46234   0.40432    0.009
 6339.00    0.46971   0.39496    0.009
 6340.00    0.47703   0.39319    0.009
 6341.00    0.48401   0.39804    0.009
 6342.00    0.49141   0.40175    0.009
 6343.00    0.51347   0.40418    0.009
 6344.00    0.53179   0.40757    0.009
 6345.00    0.49021   0.40839    0.009
 6346.00    0.45057   0.40420    0.009
 6347.00    0.43026   0.39857    0.009
 6348.00    0.41432   0.39578    0.008
 6349.00    0.42994   0.39294    0.008
 6350.00    0.44577   0.39004    0.008
 6351.00    0.46279   0.39293    0.008
 6352.00    0.47395   0.40111    0.008
 6353.00    0.45918   0.40676    0.009
 6354.00    0.44208   0.40838    0.009
 6355.00    0.41653   0.40935    0.008
 6356.00    0.39190   0.40908    0.008
 6357.00    0.37009   0.40539    0.008
 6358.00    0.34997   0.40072    0.008
 6359.00    0.33423   0.39990    0.009
 6360.00    0.33645   0.40096    0.009
 6361.00    0.37866   0.39842    0.009
 6362.00    0.40752   0.39350    0.009
 6363.00    0.41063   0.39110    0.009
 6364.00    0.41687   0.39010    0.009
 6365.00    0.42841   0.38747    0.009
 6366.00    0.43677   0.38607    0.009
 6367.00    0.44044   0.38866    0.009
 6368.00    0.44641   0.39307    0.009
 6369.00    0.45539   0.39686    0.009
 6370.00    0.44713   0.40041    0.009
 6371.00    0.41915   0.40387    0.009
 6372.00    0.41880   0.40424    0.009
 6373.00    0.44629   0.39872    0.009
 6374.00    0.46725   0.39306    0.008
 6375.00    0.48239   0.39541    0.008
 6376.00    0.46346   0.40351    0.008
 6377.00    0.41783   0.40895    0.008
 6378.00    0.41372   0.40920    0.009
 6379.00    0.43822   0.40889    0.009
 6380.00    0.48134   0.40906    0.008
 6381.00    0.53571   0.40706    0.008
 6382.00    0.56364   0.40385    0.008
 6383.00    0.57764   0.40178    0.008
 6384.00    0.57786   0.40125    0.008
 6385.00    0.57177   0.40242    0.008
 6386.00    0.53975   0.40363    0.009
 6387.00    0.49752   0.40244    0.009
 6388.00    0.47503   0.40095    0.009
 6389.00    0.45916   0.40276    0.009
 6390.00    0.45594   0.40617    0.009
 6391.00    0.45628   0.40763    0.009
 6392.00    0.41136   0.40767    0.009
 6393.00    0.35595   0.40815    0.009
 6394.00    0.34516   0.40779    0.009
 6395.00    0.34268   0.40334    0.009
 6396.00    0.38199   0.39471    0.009
 6397.00    0.42730   0.38961    0.009
 6398.00    0.43250   0.39382    0.009
 6399.00    0.43352   0.40209    0.009
 6400.00    0.42182   0.40771    0.009
 6401.00    0.40927   0.40833    0.009
 6402.00    0.42863   0.40128    0.009
 6403.00    0.44902   0.38996    0.008
 6404.00    0.47717   0.38753    0.009
 6405.00    0.50382   0.39669    0.009
 6406.00    0.48371   0.40567    0.008
 6407.00    0.46387   0.40871    0.008
 6408.00    0.44798   0.40845    0.008
 6409.00    0.43656   0.40585    0.009
 6410.00    0.46820   0.40043    0.009
 6411.00    0.49744   0.39511    0.009
 6412.00    0.50999   0.39594    0.008
 6413.00    0.52257   0.40043    0.008
 6414.00    0.53528   0.39971    0.009
 6415.00    0.54611   0.39623    0.009
 6416.00    0.54879   0.39671    0.009
 6417.00    0.55302   0.39868    0.009
 6418.00    0.56277   0.39915    0.009
 6419.00    0.56726   0.39923    0.009
 6420.00    0.55603   0.39934    0.009
 6421.00    0.53908   0.39936    0.009
 6422.00    0.50756   0.39776    0.009
 6423.00    0.49279   0.39301    0.009
 6424.00    0.51471   0.38896    0.009
 6425.00    0.52763   0.39167    0.008
 6426.00    0.52345   0.40034    0.008
 6427.00    0.50000   0.40656    0.008
 6428.00    0.44458   0.40674    0.009
 6429.00    0.41289   0.40602    0.009
 6430.00    0.41571   0.40769    0.009
 6431.00    0.42118   0.40947    0.009
 6432.00    0.43004   0.40775    0.008
 6433.00    0.44097   0.40037    0.008
 6434.00    0.45424   0.39087    0.008
 6435.00    0.47328   0.38740    0.009
 6436.00    0.49805   0.39183    0.009
 6437.00    0.52519   0.39875    0.009
 6438.00    0.55439   0.40375    0.009
 6439.00    0.55090   0.40542    0.009
 6440.00    0.52217   0.40352    0.009
 6441.00    0.50072   0.39705    0.009
 6442.00    0.48423   0.38934    0.009
 6443.00    0.48226   0.38929    0.009
 6444.00    0.48892   0.39740    0.009
 6445.00    0.47056   0.40425    0.009
 6446.00    0.43922   0.40609    0.009
 6447.00    0.43914   0.40594    0.009
 6448.00    0.45312   0.40622    0.009
 6449.00    0.45490   0.40758    0.009
 6450.00    0.45195   0.40883    0.009
 6451.00    0.44160   0.40566    0.009
 6452.00    0.42882   0.39415    0.009
 6453.00    0.42946   0.38098    0.008
 6454.00    0.43381   0.37911    0.008
 6455.00    0.42539   0.38818    0.008
 6456.00    0.41409   0.39749    0.008
 6457.00    0.42919   0.40038    0.008
 6458.00    0.44907   0.39426    0.009
 6459.00    0.45840   0.38432    0.008
 6460.00    0.46627   0.38251    0.008
 6461.00    0.49806   0.39145    0.009
 6462.00    0.53223   0.40167    0.009
 6463.00    0.52814   0.40638    0.009
 6464.00    0.52162   0.40402    0.009
 6465.00    0.51780   0.39422    0.009
 6466.00    0.51417   0.38458    0.009
 6467.00    0.54130   0.38526    0.009
 6468.00    0.56763   0.39274    0.009
 6469.00    0.57181   0.39850    0.009
 6470.00    0.57406   0.40161    0.009
 6471.00    0.54904   0.40302    0.009
 6472.00    0.52551   0.40178    0.009
 6473.00    0.51579   0.39866    0.009
 6474.00    0.50618   0.39549    0.009
 6475.00    0.49726   0.39417    0.009
 6476.00    0.48686   0.39676    0.009
 6477.00    0.46863   0.39963    0.008
 6478.00    0.45514   0.39849    0.008
 6479.00    0.46164   0.39692    0.008
 6480.00    0.46625   0.39871    0.008
 6481.00    0.46429   0.40063    0.008
 6482.00    0.46124   0.40038    0.008
 6483.00    0.45503   0.39920    0.008
 6484.00    0.44741   0.39529    0.008
 6485.00    0.43625   0.38808    0.008
 6486.00    0.42869   0.38364    0.008
 6487.00    0.42891   0.38601    0.008
 6488.00    0.43714   0.39136    0.008
 6489.00    0.46035   0.39510    0.009
 6490.00    0.47341   0.39672    0.009
 6491.00    0.46989   0.39748    0.009
 6492.00    0.47664   0.39690    0.009
 6493.00    0.49812   0.39386    0.009
 6494.00    0.50572   0.38975    0.009
 6495.00    0.49583   0.38627    0.009
 6496.00    0.48247   0.38030    0.008
 6497.00    0.46524   0.36829    0.008
 6498.00    0.44334   0.35604    0.008
 6499.00    0.41687   0.35207    0.008
 6500.00    0.41826   0.35642    0.008
 6501.00    0.44371   0.36470    0.008
 6502.00    0.46282   0.37168    0.008
 6503.00    0.47710   0.37634    0.008
 6504.00    0.46601   0.38140    0.008
 6505.00    0.43796   0.38596    0.008
 6506.00    0.42310   0.38855    0.008
 6507.00    0.41596   0.39019    0.008
 6508.00    0.41004   0.39167    0.008
 6509.00    0.40474   0.39322    0.008
 6510.00    0.39094   0.39405    0.008
 6511.00    0.37338   0.39258    0.008
 6512.00    0.38953   0.39026    0.008
 6513.00    0.41849   0.39018    0.008
 6514.00    0.46167   0.39180    0.009
 6515.00    0.50944   0.39253    0.009
 6516.00    0.51656   0.39234    0.009
 6517.00    0.51270   0.39167    0.009
 6518.00    0.48258   0.38843    0.009
 6519.00    0.44665   0.38310    0.009
 6520.00    0.42614   0.37983    0.009
 6521.00    0.40835   0.37924    0.008
 6522.00    0.42568   0.37977    0.008
 6523.00    0.44774   0.38305    0.008
 6524.00    0.46550   0.38824    0.008
 6525.00    0.48285   0.39104    0.008
 6526.00    0.46171   0.39057    0.008
 6527.00    0.43829   0.38974    0.008
 6528.00    0.44996   0.38975    0.000
 6529.00    0.46242   0.38779    0.000
 6530.00    0.46083   0.38354    0.000
 6531.00    0.45820   0.38124    0.000
 6532.00    0.42924   0.38262    0.000
 6533.00    0.40089   0.38490    0.000
 6534.00    0.38066   0.38487    0.000
 6535.00    0.36407   0.38166    0.000
 6536.00    0.37984   0.37780    0.000
 6537.00    0.39362   0.37682    0.000
 6538.00    0.39439   0.37950    0.000
 6539.00    0.40079   0.38219    0.000
 6540.00    0.43596   0.38128    0.000
 6541.00    0.46858   0.37883    0.000
 6542.00    0.49071   0.37881    0.000
 6543.00    0.49892   0.38042    0.000
 6544.00    0.45961   0.37989    0.000
 6545.00    0.43454   0.37624    0.000
 6546.00    0.45048   0.37190    0.000
 6547.00    0.47340   0.36863    0.000
 6548.00    0.51346   0.36449    0.000
 6549.00    0.55682   0.35778    0.000
 6550.00    0.60719   0.35281    0.000
 6551.00    0.64105   0.35340    0.000
 6552.00    0.64451   0.35612    0.000
 6553.00    0.63343   0.35614    0.000
 6554.00    0.59894   0.35246    0.000
 6555.00    0.56149   0.34727    0.000
 6556.00    0.51984   0.34231    0.000
 6557.00    0.49006   0.33627    0.000
 6558.00    0.47502   0.32859    0.000
 6559.00    0.48464   0.32190    0.000
 6560.00    0.52125   0.31804    0.000
 6561.00    0.61215   0.31490    0.000
 6562.00    0.75549   0.30912    0.000
 6563.00    0.92505   0.29947    0.000
 6564.00    1.11695   0.28111    0.000
 6565.00    1.24882   0.24822    0.000
 6566.00    1.33567   0.21762    0.000
 6567.00    1.28380   0.22049    0.000
 6568.00    1.14050   0.25460    0.000
 6569.00    0.96422   0.28829    0.000
 6570.00    0.76890   0.30745    0.000
 6571.00    0.63591   0.31725    0.000
 6572.00    0.53425   0.32133    0.000
 6573.00    0.47770   0.32351    0.000
 6574.00    0.44078   0.32793    0.000
 6575.00    0.43148   0.33283    0.000
 6576.00    0.43249   0.33474    0.000
 6577.00    0.43977   0.33468    0.000
 6578.00    0.44903   0.33609    0.000
 6579.00    0.46683   0.34180    0.000
 6580.00    0.48688   0.35107    0.000
 6581.00    0.51641   0.35911    0.000
 6582.00    0.54799   0.36302    0.000
 6583.00    0.62288   0.36300    0.000
 6584.00    0.70520   0.36086    0.000
 6585.00    0.80754   0.36058    0.000
 6586.00    0.91248   0.36376    0.000
 6587.00    0.88655   0.36728    0.000
 6588.00    0.84866   0.36868    0.000
 6589.00    0.78708   0.36803    0.000
 6590.00    0.72419   0.36785    0.000
 6591.00    0.63567   0.37057    0.000
 6592.00    0.54726   0.37429    0.000
 6593.00    0.52143   0.37643    0.000
 6594.00    0.49706   0.37580    0.000
 6595.00    0.50608   0.36995    0.000
 6596.00    0.51275   0.36035    0.000
 6597.00    0.48979   0.35596    0.000
 6598.00    0.46981   0.36133    0.000
 6599.00    0.47541   0.36920    0.000
 6600.00    0.48716   0.37246    0.000
 6601.00    0.53801   0.37180    0.000
 6602.00    0.57995   0.37113    0.000
 6603.00    0.57752   0.37340    0.000
 6604.00    0.57621   0.37793    0.000
 6605.00    0.57949   0.38110    0.000
 6606.00    0.57678   0.38103    0.000
 6607.00    0.55402   0.37890    0.000
 6608.00    0.52867   0.37613    0.000
 6609.00    0.49597   0.37412    0.009
 6610.00    0.47446   0.37325    0.009
 6611.00    0.47998   0.37149    0.009
 6612.00    0.48528   0.36813    0.009
 6613.00    0.49010   0.36752    0.009
 6614.00    0.48115   0.37268    0.009
 6615.00    0.44724   0.37835    0.008
 6616.00    0.42523   0.37906    0.008
 6617.00    0.42209   0.37712    0.008
 6618.00    0.42931   0.37797    0.008
 6619.00    0.45095   0.38095    0.008
 6620.00    0.46320   0.38180    0.008
 6621.00    0.46396   0.38081    0.008
 6622.00    0.47671   0.38090    0.008
 6623.00    0.50240   0.38237    0.008
 6624.00    0.52315   0.38340    0.008
 6625.00    0.53919   0.38300    0.008
 6626.00    0.55312   0.38069    0.009
 6627.00    0.56528   0.37627    0.009
 6628.00    0.56901   0.37206    0.009
 6629.00    0.56650   0.37205    0.009
 6630.00    0.53960   0.37530    0.009
 6631.00    0.49688   0.37752    0.009
 6632.00    0.45628   0.37767    0.009
 6633.00    0.41690   0.37662    0.009
 6634.00    0.41184   0.37512    0.009
 6635.00    0.42378   0.37313    0.009
 6636.00    0.44467   0.36939    0.009
 6637.00    0.46940   0.36523    0.008
 6638.00    0.48557   0.36537    0.008
 6639.00    0.49859   0.37051    0.008
 6640.00    0.49683   0.37582    0.008
 6641.00    0.49048   0.37816    0.008
 6642.00    0.48490   0.37723    0.008
 6643.00    0.47953   0.37511    0.008
 6644.00    0.48079   0.37547    0.008
 6645.00    0.48344   0.37708    0.008
 6646.00    0.47047   0.37459    0.008
 6647.00    0.45491   0.36965    0.008
 6648.00    0.46929   0.36918    0.008
 6649.00    0.48742   0.37298    0.008
 6650.00    0.48877   0.37541    0.009
 6651.00    0.48866   0.37528    0.009
 6652.00    0.48536   0.37564    0.009
 6653.00    0.48190   0.37697    0.009
 6654.00    0.49349   0.37719    0.009
 6655.00    0.50559   0.37626    0.009
 6656.00    0.53539   0.37566    0.009
 6657.00    0.56258   0.37570    0.009
 6658.00    0.53465   0.37603    0.009
 6659.00    0.50752   0.37601    0.008
 6660.00    0.48990   0.37541    0.008
 6661.00    0.47528   0.37550    0.008
 6662.00    0.48536   0.37594    0.008
 6663.00    0.49489   0.37512    0.008
 6664.00    0.50104   0.37337    0.008
 6665.00    0.50016   0.37105    0.008
 6666.00    0.46513   0.36721    0.008
 6667.00    0.43872   0.36409    0.008
 6668.00    0.44628   0.36524    0.008
 6669.00    0.46363   0.36798    0.008
 6670.00    0.51308   0.36848    0.008
 6671.00    0.55318   0.36813    0.008
 6672.00    0.56728   0.36968    0.008
 6673.00    0.56004   0.37297    0.009
 6674.00    0.50209   0.37547    0.009
 6675.00    0.46004   0.37597    0.009
 6676.00    0.45063   0.37581    0.009
 6677.00    0.44108   0.37628    0.009
 6678.00    0.43128   0.37678    0.009
 6679.00    0.43611   0.37534    0.009
 6680.00    0.46381   0.36916    0.009
 6681.00    0.48714   0.35954    0.009
 6682.00    0.50449   0.35538    0.008
 6683.00    0.51679   0.36081    0.008
 6684.00    0.52299   0.36802    0.008
 6685.00    0.52385   0.37118    0.008
 6686.00    0.51902   0.37252    0.008
 6687.00    0.51226   0.37395    0.008
 6688.00    0.50371   0.37498    0.008
 6689.00    0.50533   0.37516    0.008
 6690.00    0.51540   0.37477    0.008
 6691.00    0.50281   0.37415    0.008
 6692.00    0.47371   0.37386    0.008
 6693.00    0.46015   0.37417    0.008
 6694.00    0.45655   0.37456    0.008
 6695.00    0.46868   0.37462    0.008
 6696.00    0.48962   0.37445    0.000
 6697.00    0.46851   0.37416    0.000
 6698.00    0.42692   0.37255    0.000
 6699.00    0.41482   0.36873    0.000
 6700.00    0.41513   0.36512    0.000
 6701.00    0.43859   0.36464    0.000
 6702.00    0.47039   0.36688    0.000
 6703.00    0.47720   0.37035    0.000
 6704.00    0.47640   0.37313    0.000
 6705.00    0.48534   0.37346    0.000
 6706.00    0.49676   0.37118    0.000
 6707.00    0.48871   0.36758    0.000
 6708.00    0.47667   0.36585    0.000
 6709.00    0.45596   0.36743    0.000
 6710.00    0.43385   0.36957    0.000
 6711.00    0.44632   0.37021    0.000
 6712.00    0.46298   0.37002    0.000
 6713.00    0.48704   0.36920    0.000
 6714.00    0.51170   0.36810    0.000
 6715.00    0.56603   0.36790    0.000
 6716.00    0.62177   0.36750    0.000
 6717.00    0.69279   0.36588    0.000
 6718.00    0.76257   0.36373    0.000
 6719.00    0.74967   0.36079    0.000
 6720.00    0.73366   0.35708    0.000
 6721.00    0.65705   0.35526    0.000
 6722.00    0.58524   0.35871    0.000
 6723.00    0.56835   0.36482    0.000
 6724.00    0.55084   0.36754    0.000
 6725.00    0.52839   0.36690    0.000
 6726.00    0.51239   0.36719    0.000
 6727.00    0.53515   0.36932    0.000
 6728.00    0.54888   0.36995    0.000
 6729.00    0.51975   0.36761    0.000
 6730.00    0.50473   0.36535    0.000
 6731.00    0.54426   0.36573    0.000
 6732.00    0.58345   0.36731    0.000
 6733.00    0.62155   0.36894    0.000
 6734.00    0.63880   0.37043    0.000
 6735.00    0.59920   0.37063    0.000
 6736.00    0.55717   0.36910    0.000
 6737.00    0.50948   0.36738    0.000
 6738.00    0.48144   0.36730    0.000
 6739.00    0.49311   0.36863    0.000
 6740.00    0.50721   0.36908    0.000
 6741.00    0.52559   0.36674    0.000
 6742.00    0.54686   0.36334    0.000
 6743.00    0.57256   0.36249    0.000
 6744.00    0.57259   0.36437    0.000
 6745.00    0.53790   0.36521    0.000
 6746.00    0.48745   0.36321    0.000
 6747.00    0.41823   0.36163    0.000
 6748.00    0.38467   0.36254    0.000
 6749.00    0.38854   0.36350    0.000
 6750.00    0.38305   0.36301    0.000
 6751.00    0.36890   0.36198    0.000
 6752.00    0.35852   0.36099    0.000
 6753.00    0.35122   0.36022    0.009
 6754.00    0.37064   0.36031    0.009
 6755.00    0.40925   0.36096    0.009
 6756.00    0.42385   0.36067    0.010
 6757.00    0.42331   0.36064    0.010
 6758.00    0.40994   0.36241    0.010
 6759.00    0.38949   0.36377    0.010
 6760.00    0.39763   0.36443    0.010
 6761.00    0.41946   0.36610    0.010
 6762.00    0.43853   0.36840    0.010
 6763.00    0.45644   0.37011    0.011
 6764.00    0.49372   0.37056    0.011
 6765.00    0.53785   0.36937    0.011
 6766.00    0.58298   0.36793    0.011
 6767.00    0.62841   0.36799    0.011
 6768.00    0.62886   0.36812    0.010
 6769.00    0.61817   0.36628    0.010
 6770.00    0.58610   0.36239    0.010
 6771.00    0.54974   0.35925    0.010
 6772.00    0.55185   0.35971    0.009
 6773.00    0.56001   0.36170    0.009
 6774.00    0.53468   0.36139    0.009
 6775.00    0.50544   0.36019    0.009
 6776.00    0.48309   0.36166    0.009
 6777.00    0.46128   0.36513    0.009
 6778.00    0.46895   0.36793    0.009
 6779.00    0.47790   0.36914    0.009
 6780.00    0.46934   0.36896    0.009
 6781.00    0.46134   0.36836    0.010
 6782.00    0.48783   0.36922    0.010
 6783.00    0.51399   0.37060    0.009
 6784.00    0.53414   0.36987    0.010
 6785.00    0.55092   0.36715    0.010
 6786.00    0.53094   0.36298    0.010
 6787.00    0.50812   0.35803    0.010
 6788.00    0.46352   0.35517    0.010
 6789.00    0.42624   0.35572    0.010
 6790.00    0.43171   0.35825    0.010
 6791.00    0.43669   0.36168    0.010
 6792.00    0.43937   0.36407    0.010
 6793.00    0.44838   0.36419    0.010
 6794.00    0.48136   0.36396    0.010
 6795.00    0.50930   0.36421    0.010
 6796.00    0.52132   0.36311    0.009
 6797.00    0.52326   0.36059    0.009
 6798.00    0.49820   0.35927    0.009
 6799.00    0.47703   0.35955    0.009
 6800.00    0.46477   0.36037    0.009
 6801.00    0.45610   0.36164    0.009
 6802.00    0.45456   0.36244    0.009
 6803.00    0.44990   0.36254    0.009
 6804.00    0.43985   0.36291    0.009
 6805.00    0.43778   0.36370    0.009
 6806.00    0.44782   0.36371    0.009
 6807.00    0.46274   0.36244    0.009
 6808.00    0.48416   0.36180    0.009
 6809.00    0.48396   0.36229    0.009
 6810.00    0.45837   0.36174    0.009
 6811.00    0.43781   0.36086    0.010
 6812.00    0.42246   0.36101    0.010
 6813.00    0.42354   0.36040    0.010
 6814.00    0.43964   0.35967    0.010
 6815.00    0.47739   0.36068    0.010
 6816.00    0.53257   0.36164    0.010
 6817.00    0.54303   0.36045    0.010
 6818.00    0.52185   0.35812    0.009
 6819.00    0.51155   0.35799    0.009
 6820.00    0.50802   0.36104    0.009
 6821.00    0.52182   0.36359    0.009
 6822.00    0.54502   0.36286    0.009
 6823.00    0.53966   0.36035    0.009
 6824.00    0.52084   0.35898    0.009
 6825.00    0.48756   0.36052    0.009
 6826.00    0.44840   0.36360    0.009
 6827.00    0.42395   0.36556    0.009
 6828.00    0.40461   0.36579    0.009
 6829.00    0.40420   0.36510    0.009
 6830.00    0.40932   0.36347    0.010
 6831.00    0.43154   0.36014    0.010
 6832.00    0.45789   0.35710    0.010
 6833.00    0.47159   0.35762    0.010
 6834.00    0.48282   0.36088    0.010
 6835.00    0.48173   0.36295    0.010
 6836.00    0.47877   0.36233    0.010
 6837.00    0.51624   0.36147    0.010
 6838.00    0.55825   0.36249    0.010
 6839.00    0.55546   0.36345    0.010
 6840.00    0.54933   0.36221    0.010
 6841.00    0.52993   0.35968    0.010
 6842.00    0.51000   0.35669    0.010
 6843.00    0.50282   0.35315    0.009
 6844.00    0.49635   0.34952    0.009
 6845.00    0.51461   0.34675    0.009
 6846.00    0.52907   0.34690    0.009
 6847.00    0.47948   0.35070    0.009
 6848.00    0.44063   0.35571    0.009
 6849.00    0.51398   0.35878    0.009
 6850.00    0.57376   0.35952    0.009
 6851.00    0.53261   0.35971    0.009
 6852.00    0.49978   0.36022    0.009
 6853.00    0.51409   0.36059    0.009
 6854.00    0.51954   0.36064    0.009
 6855.00    0.48504   0.36079    0.009
 6856.00    0.44934   0.36125    0.009
 6857.00    0.40921   0.36018    0.009
 6858.00    0.38933   0.35569    0.009
 6859.00    0.43217   0.35114    0.009
 6860.00    0.46881   0.35093    0.009
 6861.00    0.48918   0.35309    0.009
 6862.00    0.48189   0.35495    0.009
 6863.00    0.41213   0.35575    0.009
 6864.00    0.36088   0.35360    0.009
 6865.00    0.34587   0.35014    0.009
 6866.00    0.36169   0.35094    0.009
 6867.00    0.43011   0.35619    0.009
 6868.00    0.47137   0.36040    0.009
 6869.00    0.47204   0.36007    0.009
 6870.00    0.45913   0.35615    0.009
 6871.00    0.42840   0.35170    0.009
 6872.00    0.44828   0.35065    0.009
 6873.00    0.52673   0.35377    0.009
 6874.00    0.54462   0.35637    0.010
 6875.00    0.50070   0.35510    0.009
 6876.00    0.45844   0.35266    0.009
 6877.00    0.41766   0.35269    0.009
 6878.00    0.41239   0.35366    0.009
 6879.00    0.43528   0.35376    0.009
 6880.00    0.44076   0.35476    0.009
 6881.00    0.43410   0.35721    0.009
 6882.00    0.46188   0.35894    0.009
 6883.00    0.51074   0.35850    0.009
 6884.00    0.52287   0.35592    0.009
 6885.00    0.51538   0.35171    0.009
 6886.00    0.48116   0.34861    0.009
 6887.00    0.43454   0.34986    0.009
 6888.00    0.43575   0.35397    0.009
 6889.00    0.45608   0.35630    0.009
 6890.00    0.47673   0.35623    0.009
 6891.00    0.49749   0.35757    0.009
 6892.00    0.48852   0.35994    0.009
 6893.00    0.47103   0.36117    0.009
 6894.00    0.43153   0.36204    0.009
 6895.00    0.38681   0.36232    0.009
 6896.00    0.43612   0.36129    0.010
 6897.00    0.50336   0.36048    0.010
 6898.00    0.49886   0.35959    0.010
 6899.00    0.48376   0.35748    0.010
 6900.00    0.48553   0.35680    0.010
 6901.00    0.48912   0.35864    0.010
 6902.00    0.49260   0.35974    0.010
 6903.00    0.49607   0.35828    0.010
 6904.00    0.48985   0.35715    0.010
 6905.00    0.48328   0.35883    0.009
 6906.00    0.48857   0.36076    0.009
 6907.00    0.49404   0.36023    0.009
 6908.00    0.50416   0.35850    0.009
 6909.00    0.51337   0.35821    0.009
 6910.00    0.50816   0.35941    0.009
 6911.00    0.49938   0.36048    0.009
 6912.00    0.45478   0.36085    0.009
 6913.00    0.41473   0.36107    0.009
 6914.00    0.40741   0.36056    0.009
 6915.00    0.40376   0.35879    0.009
 6916.00    0.42028   0.35647    0.009
 6917.00    0.43659   0.35391    0.010
 6918.00    0.45197   0.35215    0.010
 6919.00    0.46624   0.35299    0.010
 6920.00    0.47651   0.35419    0.010
 6921.00    0.49105   0.35446    0.010
 6922.00    0.51851   0.35598    0.010
 6923.00    0.52584   0.35833    0.010
 6924.00    0.48113   0.35982    0.010
 6925.00    0.44708   0.36037    0.010
 6926.00    0.43676   0.35971    0.010
 6927.00    0.43049   0.35634    0.010
 6928.00    0.43206   0.35126    0.010
 6929.00    0.44713   0.34828    0.010
 6930.00    0.48490   0.34921    0.010
 6931.00    0.51470   0.35252    0.010
 6932.00    0.53275   0.35534    0.010
 6933.00    0.51434   0.35658    0.010
 6934.00    0.44870   0.35668    0.010
 6935.00    0.41890   0.35559    0.010
 6936.00    0.42997   0.35335    0.010
 6937.00    0.41694   0.35153    0.010
 6938.00    0.37966   0.35283    0.010
 6939.00    0.38739   0.35565    0.010
 6940.00    0.43507   0.35627    0.010
 6941.00    0.47825   0.35535    0.010
 6942.00    0.51792   0.35565    0.010
 6943.00    0.51984   0.35731    0.010
 6944.00    0.49581   0.35880    0.010
 6945.00    0.45835   0.35894    0.010
 6946.00    0.41280   0.35643    0.010
 6947.00    0.37592   0.35206    0.010
 6948.00    0.34359   0.34770    0.010
 6949.00    0.36480   0.34568    0.010
 6950.00    0.41043   0.34800    0.010
 6951.00    0.44513   0.35226    0.010
 6952.00    0.47554   0.35513    0.010
 6953.00    0.48924   0.35582    0.010
 6954.00    0.49734   0.35381    0.010
 6955.00    0.46968   0.35031    0.010
 6956.00    0.43199   0.34853    0.010
 6957.00    0.45551   0.34840    0.010
 6958.00    0.49320   0.34883    0.010
 6959.00    0.47891   0.35035    0.010
 6960.00    0.45496   0.35284    0.010
 6961.00    0.44995   0.35431    0.010
 6962.00    0.44764   0.35396    0.010
 6963.00    0.40274   0.35374    0.010
 6964.00    0.35342   0.35387    0.010
 6965.00    0.46623   0.35449    0.010
 6966.00    0.58984   0.35501    0.010
 6967.00    0.51169   0.35535    0.010
 6968.00    0.42708   0.35527    0.010
 6969.00    0.44412   0.35362    0.010
 6970.00    0.45997   0.35213    0.010
 6971.00    0.43935   0.35412    0.010
 6972.00    0.42229   0.35714    0.010
 6973.00    0.45816   0.35748    0.010
 6974.00    0.48823   0.35510    0.010
 6975.00    0.46261   0.35265    0.010
 6976.00    0.43824   0.35380    0.010
 6977.00    0.42255   0.35611    0.010
 6978.00    0.41618   0.35444    0.010
 6979.00    0.45977   0.35007    0.010
 6980.00    0.48860   0.34586    0.010
 6981.00    0.45384   0.34016    0.010
 6982.00    0.43812   0.33359    0.010
 6983.00    0.49001   0.33287    0.010
 6984.00    0.51864   0.34014    0.010
 6985.00    0.47790   0.34811    0.010
 6986.00    0.44111   0.35271    0.010
 6987.00    0.41432   0.35510    0.010
 6988.00    0.39506   0.35567    0.010
 6989.00    0.39225   0.35472    0.010
 6990.00    0.40073   0.35406    0.010
 6991.00    0.43064   0.35377    0.010
 6992.00    0.45659   0.35261    0.010
 6993.00    0.47598   0.35058    0.010
 6994.00    0.48338   0.35061    0.010
 6995.00    0.47339   0.35343    0.010
 6996.00    0.46595   0.35559    0.010
 6997.00    0.46178   0.35508    0.010
 6998.00    0.47609   0.35299    0.010
 6999.00    0.51118   0.35195    0.010
 7000.00    0.51553   0.35286    0.010
 7001.00    0.48939   0.35347    0.010
 7002.00    0.46186   0.35138    0.010
 7003.00    0.43311   0.34694    0.010
 7004.00    0.40324   0.34437    0.010
 7005.00    0.37250   0.34673    0.010
 7006.00    0.37625   0.35030    0.010
 7007.00    0.40337   0.34997    0.010
 7008.00    0.41859   0.34664    0.010
 7009.00    0.42673   0.34477    0.010
 7010.00    0.47302   0.34537    0.010
 7011.00    0.53907   0.34713    0.011
 7012.00    0.53095   0.34935    0.010
 7013.00    0.48956   0.35092    0.010
 7014.00    0.45510   0.35052    0.010
 7015.00    0.42332   0.34914    0.010
 7016.00    0.40697   0.34903    0.010
 7017.00    0.39569   0.34996    0.010
 7018.00    0.40589   0.34824    0.010
 7019.00    0.42199   0.34195    0.010
 7020.00    0.44895   0.33550    0.010
 7021.00    0.47837   0.33652    0.010
 7022.00    0.48269   0.34457    0.010
 7023.00    0.48248   0.35111    0.010
 7024.00    0.44385   0.35333    0.010
 7025.00    0.39991   0.35291    0.010
 7026.00    0.38405   0.34950    0.010
 7027.00    0.37098   0.34373    0.011
 7028.00    0.36496   0.34003    0.010
 7029.00    0.35938   0.34144    0.010
 7030.00    0.40009   0.34553    0.011
 7031.00    0.44201   0.34826    0.011
 7032.00    0.45523   0.34912    0.011
 7033.00    0.46789   0.34963    0.010
 7034.00    0.46523   0.35060    0.010
 7035.00    0.46157   0.35103    0.010
 7036.00    0.44378   0.35012    0.010
 7037.00    0.42332   0.34915    0.010
 7038.00    0.37832   0.34884    0.010
 7039.00    0.34564   0.34997    0.010
 7040.00    0.39608   0.35137    0.010
 7041.00    0.43968   0.34814    0.010
 7042.00    0.44754   0.34207    0.010
 7043.00    0.46811   0.34264    0.010
 7044.00    0.54220   0.35068    0.010
 7045.00    0.57713   0.35763    0.010
 7046.00    0.47583   0.36001    0.010
 7047.00    0.40356   0.35876    0.010
 7048.00    0.41623   0.35450    0.011
 7049.00    0.44276   0.35069    0.011
 7050.00    0.50388   0.35164   -2.000
 7051.00    0.53000   0.35592   -2.000
 7052.00    0.48083   0.35934   -2.000
 7053.00    0.45962   0.36013   -2.000
 7054.00    0.49065   0.35834   -2.000
 7055.00    0.51087   0.35429   -2.000
 7056.00    0.51347   0.34740   -2.000
 7057.00    0.50814   0.34097   -2.000
 7058.00    0.49149   0.33953   -2.000
 7059.00    0.48570   0.34203   -2.000
 7060.00    0.49358   0.34553   -2.000
 7061.00    0.47736   0.34776   -2.000
 7062.00    0.43442   0.34687   -2.000
 7063.00    0.38943   0.34276   -2.000
 7064.00    0.34244   0.33885   -2.000
 7065.00    0.34713   0.33893   -2.000
 7066.00    0.39639   0.34163   -2.000
 7067.00    0.45990   0.34445   -2.000
 7068.00    0.53423   0.34748   -2.000
 7069.00    0.53830   0.34787   -2.000
 7070.00    0.49545   0.34327   -2.000
 7071.00    0.48980   0.33663   -2.000
 7072.00    0.50592   0.33233   -2.000
 7073.00    0.49518   0.33423   -2.000
 7074.00    0.47075   0.34084   -2.000
 7075.00    0.44844   0.34566   -2.000
 7076.00    0.42708   0.34666   -2.000
 7077.00    0.44605   0.34648   -2.000
 7078.00    0.48033   0.34624   -2.000
 7079.00    0.45909   0.34526   -2.000
 7080.00    0.41999   0.34400   -2.000
 7081.00    0.43041   0.34399   -2.000
 7082.00    0.45418   0.34506   -2.000
 7083.00    0.42784   0.34599   -2.000
 7084.00    0.39044   0.34740   -2.000
 7085.00    0.34876   0.34816   -2.000
 7086.00    0.30632   0.34502   -2.000
 7087.00    0.34918   0.33817   -2.000
 7088.00    0.40347   0.33081   -2.000
 7089.00    0.40324   0.32823   -2.000
 7090.00    0.39783   0.33114   -2.000
 7091.00    0.42004   0.33353   -2.000
 7092.00    0.44388   0.33314   -2.000
 7093.00    0.42161   0.33184   -2.000
 7094.00    0.39795   0.33051   -2.000
 7095.00    0.33962   0.33064   -2.000
 7096.00    0.28496   0.33140   -2.000
 7097.00    0.32140   0.33121   -2.000
 7098.00    0.35645   0.33159   -2.000
 7099.00    0.37296   0.33231   -2.000
 7100.00    0.39025   0.33262   -2.000
 7101.00    0.41441   0.33323   -2.000
 7102.00    0.43240   0.33477   -2.000
 7103.00    0.41014   0.33729   -2.000
 7104.00    0.38554   0.33822   -2.000
 7105.00    0.34908   0.33699   -2.000
 7106.00    0.31473   0.33469   -2.000
 7107.00    0.28913   0.33412   -2.000
 7108.00    0.29116   0.33640   -2.000
 7109.00    0.38738   0.33862   -2.000
 7110.00    0.47240   0.33715   -2.000
 7111.00    0.52524   0.33390   -2.000
 7112.00    0.54489   0.33312   -2.000
 7113.00    0.48314   0.33374   -2.000
 7114.00    0.41950   0.33184   -2.000
 7115.00    0.35188   0.32846   -2.000
 7116.00    0.31776   0.32774   -2.000
 7117.00    0.34521   0.33027   -2.000
 7118.00    0.37791   0.33292   -2.000
 7119.00    0.41901   0.33407   -2.000
 7120.00    0.46018   0.33459   -2.000
 7121.00    0.50145   0.33421   -2.000
 7122.00    0.52266   0.33305   -2.000
 7123.00    0.51900   0.33223   -2.000
 7124.00    0.47575   0.33198   -2.000
 7125.00    0.38922   0.33141   -2.000
 7126.00    0.31083   0.33034   -2.000
 7127.00    0.24030   0.33134   -2.000
 7128.00    0.23597   0.33341   -2.000
 7129.00    0.28795   0.33285   -2.000
 7130.00    0.25174   0.33073   -2.000
 7131.00    0.14950   0.33036   -2.000
 7132.00    0.13438   0.33147   -2.000
 7133.00    0.17659   0.32978   -2.000
 7134.00    0.30294   0.32463   -2.000
 7135.00    0.47776   0.32205   -2.000
 7136.00    0.47123   0.32529   -2.000
 7137.00    0.37371   0.33037   -2.000
 7138.00    0.36426   0.33378   -2.000
 7139.00    0.39306   0.33478   -2.000
 7140.00    0.34918   0.33523   -2.000
 7141.00    0.27823   0.33693   -2.000
 7142.00    0.32649   0.33630   -2.000
 7143.00    0.41240   0.33257   -2.000
 7144.00    0.44681   0.33175   -2.000
 7145.00    0.46762   0.33490   -2.000
 7146.00    0.41103   0.33611   -2.000
 7147.00    0.33774   0.33506   -2.000
 7148.00    0.29804   0.33461   -2.000
 7149.00    0.26407   0.33441   -2.000
 7150.00    0.32147   0.33358   -2.000
 7151.00    0.39068   0.32973   -2.000
 7152.00    0.36977   0.32433   -2.000
 7153.00    0.34067   0.32418   -2.000
 7154.00    0.23371   0.32783   -2.000
 7155.00    0.12249   0.33105   -2.000
 7156.00    0.36399   0.33488   -2.000
 7157.00    0.60949   0.33802   -2.000
 7158.00    0.54464   0.33718   -2.000
 7159.00    0.47742   0.33405   -2.000
 7160.00    0.35636   0.33409   -2.000
 7161.00    0.23022   0.33781   -2.000
 7162.00    0.03999   0.33842   -2.000
 7163.00   -0.09174   0.33538   -2.000
 7164.00    0.27563   0.33315   -2.000
 7165.00    0.60206   0.33385   -2.000
 7166.00    0.66903   0.33569   -2.000
 7167.00    0.68974   0.33312   -2.000
 7168.00    0.48068   0.32549   -2.000
 7169.00    0.31211   0.32075   -2.000
 7170.00    0.30650   0.32442   -2.000
 7171.00    0.31463   0.33255   -2.000
 7172.00    0.36864   0.33829   -2.000
 7173.00    0.41160   0.33870   -2.000
 7174.00    0.42341   0.33692   -2.000
 7175.00    0.42092   0.33711   -2.000
 7176.00    0.38397   0.33953   -2.000
 7177.00    0.36481   0.34106   -2.000
 7178.00    0.38271   0.33997   -2.000
 7179.00    0.37643   0.33666   -2.000
 7180.00    0.32639   0.33301   -2.000
 7181.00    0.29945   0.33397   -2.000
 7182.00    0.30908   0.33769   -2.000
 7183.00    0.32215   0.33650   -2.000
 7184.00    0.34001   0.32937   -2.000
 7185.00    0.34146   0.32381   -2.000
 7186.00    0.32286   0.32602   -2.000
 7187.00    0.31957   0.33324   -2.000
 7188.00    0.33278   0.33699   -2.000
 7189.00    0.29059   0.33558   -2.000
 7190.00    0.19572   0.33125   -2.000
 7191.00    0.21217   0.32476   -2.000
 7192.00    0.32194   0.32125   -2.000
 7193.00    0.39087   0.32254   -2.000
 7194.00    0.42965   0.32593   -2.000
 7195.00    0.34486   0.32920   -2.000
 7196.00    0.17996   0.32905   -2.000
 7197.00    0.25343   0.32708   -2.000
 7198.00    0.46214   0.32777   -2.000
 7199.00    0.43660   0.33119   -2.000
 7200.00    0.29538   0.33200   -2.000
 7201.00    0.15904   0.32990   -2.000
 7202.00    0.02479   0.33038   -2.000
 7203.00    0.07482   0.33284   -2.000
 7204.00    0.19226   0.33306   -2.000
 7205.00    0.26649   0.33083   -2.000
 7206.00    0.32735   0.32959   -2.000
 7207.00    0.38728   0.33207   -2.000
 7208.00    0.44699   0.33613   -2.000
 7209.00    0.44120   0.33644   -2.000
 7210.00    0.42165   0.32954   -2.000
 7211.00    0.38596   0.32037   -2.000
 7212.00    0.34760   0.31836   -2.000
 7213.00    0.26602   0.32334   -2.000
 7214.00    0.17904   0.33012   -2.000
 7215.00    0.21124   0.33528   -2.000
 7216.00    0.25377   0.33505   -2.000
 7217.00    0.31205   0.33103   -2.000
 7218.00    0.37114   0.32799   -2.000
