###################################################################
## OUTPUT of StarlightChains_v04.for    [Cid@UFSC - 01/Apr/2007] ##
###################################################################

## Some input info
KUG0210-078._5_57.txt                    [arq_obs]
Base.CB07.vall.4m                        [arq_base]
Masks.EmLines.NEW.gm                     [arq_masks]
StCv04.C11.config                        [arq_config]
   66                                    [N_base]
    0                                    [N_YAV_components = # of components with extra extinction!]
    0                                    [i_FitPowerLaw (1/0 = Yes/No)]
-9.99                                    [alpha_PowerLaw]
CCM                                      [red_law_option]
 1.458241                                [q_norm = A(l_norm)/A(V)]

## (Re)Sampling Parameters
 3741.00                                 [l_ini (A)]
 7218.00                                 [l_fin (A)]
    1.00                                 [dl    (A)]     (OBS: dl_cushion =    50.00 A)

## Normalization info
 4020.00                                 [l_norm (A) - for base]
 4010.00                                 [llow_norm (A) - window for f_obs]
 4060.00                                 [lupp_norm (A) - window for f_obs]
2.312823E-18                             [fobs_norm (in input units)]

## S/N
 3691.00                                 [llow_SN (A) - window for S/N]
 7268.00                                 [lupp_SN (A) - window for S/N]
   2.874                                 [S/N in S/N window]
   0.644                                 [S/N in norm. window]
   0.014                                 [S/N_err in S/N window]
   0.003                                 [S/N_err in norm. window]
  1.0000                                 [fscale_chi2]

## etc...
    -2007211                             [idum_orig]
  2375                                   [NOl_eff]
  2339                                   [Nl_eff]
    36    NSIGMA                         [Ntot_cliped & clip_method]
  5325460                                [Nglobal_steps]
   7                                     [N_chains]
   7                                     [NEX0s_base = N_base in EX0s-fits]
 0   0   1       36   2.0   5.909E+02    [Clip-Bug, RC-Crash & Burn-In warning-flags, n_censored_weights, wei_nsig_threshold & wei_limit]
    48     48.249     47.749      0.500  [idt_all, wdt_TotTime, wdt_UsrTime & wdt_SysTime (sec)]

## Synthesis Results - Best model ##

 2.87373E-05                             [chi2/Nl_eff]
    41.27828                             [adev (%)]

   130.00000                             [sum-of-x (%)]
 1.81799E-17                             [Flux_tot (units of input spectrum!)]
 4.01587E-12                             [Mini_tot (???)]
 1.98585E-12                             [Mcor_tot (???)]

-332.30                                  [v0_min  (km/s)]
  79.29                                  [vd_min  (km/s)]
 1.3398                                  [AV_min  (mag)]
 0.0000                                  [YAV_min (mag)]

# j     x_j(%)      Mini_j(%)     Mcor_j(%)     age_j(yr)     Z_j      (L/M)_j    YAV?  Mstars   component_j        a/Fe...       SSP_chi2r SSP_adev(%)   SSP_AV   SSP_x(%)
  1      0.0000     0.0000E+00    0.0000E+00    1.000000E+06  0.00400  1.094E-02    0   1.0000   age020_m42            0.0000     1.5257E-05    71.3925   4.0000   288.7368
  2      0.0000     0.0000E+00    0.0000E+00    3.160000E+06  0.00400  4.007E-02    0   0.9999   age045_m42            0.0000     1.4570E-05    64.9223   3.6671   266.5385
  3      0.0000     0.0000E+00    0.0000E+00    5.010000E+06  0.00400  2.539E-02    0   0.9488   age055_m42            0.0000     1.4333E-05    64.6474   3.9845   260.4442
  4      0.0000     0.0000E+00    0.0000E+00    6.610000E+06  0.00400  2.620E-02    0   0.9220   age061_m42            0.0000     1.4905E-05    65.4227   3.5912   267.2052
  5      0.0000     0.0000E+00    0.0000E+00    1.000000E+07  0.00400  1.322E-02    0   0.8862   age070_m42            0.0000     1.6413E-05    68.1057   3.2897   274.4101
  6      0.0000     0.0000E+00    0.0000E+00    1.445000E+07  0.00400  7.883E-03    0   0.8571   age078_m42            0.0000     1.5992E-05    67.4934   3.6172   267.6308
  7      0.0000     0.0000E+00    0.0000E+00    2.512000E+07  0.00400  5.251E-03    0   0.8174   age090_m42            0.0000     1.6831E-05    68.6796   3.1580   275.9993
  8      0.0000     0.0000E+00    0.0000E+00    4.000000E+07  0.00400  3.649E-03    0   0.7851   age104_m42            0.0000     1.6812E-05    68.5045   2.9343   277.8647
  9      0.0000     0.0000E+00    0.0000E+00    5.500000E+07  0.00400  3.098E-03    0   0.7629   age110_m42            0.0000     1.6283E-05    67.4957   3.0959   277.1793
 10      0.0000     0.0000E+00    0.0000E+00    1.015200E+08  0.00400  2.228E-03    0   0.7207   age116_m42            0.0000     1.6041E-05    66.8938   3.1219   277.1552
 11      0.0000     0.0000E+00    0.0000E+00    2.861200E+08  0.00400  1.093E-03    0   0.6648   age125_m42            0.0000     1.7093E-05    68.2498   2.5396   286.2073
 12      0.0000     0.0000E+00    0.0000E+00    5.088000E+08  0.00400  6.597E-04    0   0.6365   age130_m42            0.0000     1.6542E-05    66.9810   2.5396   287.6740
 13      0.0000     0.0000E+00    0.0000E+00    1.434000E+09  0.00400  2.132E-04    0   0.5798   age139_m42            0.0000     1.6433E-05    65.5089   1.5854   291.2348
 14      0.0000     0.0000E+00    0.0000E+00    4.250000E+09  0.00400  5.895E-05    0   0.5377   age158_m42            0.0000     1.4990E-05    62.5507   1.1633   278.3380
 15      0.0000     0.0000E+00    0.0000E+00    7.500000E+09  0.00400  3.510E-05    0   0.5212   age171_m42            0.0000     1.4762E-05    61.4861   0.9824   275.6469
 16      0.0000     0.0000E+00    0.0000E+00    1.300000E+10  0.00400  2.005E-05    0   0.5034   age193_m42            0.0000     1.4601E-05    60.5171   0.8231   273.4423
 17      0.0000     0.0000E+00    0.0000E+00    1.800000E+10  0.00400  1.525E-05    0   0.4967   age213_m42            0.0000     1.4618E-05    60.6481   0.7989   272.3885
 18      0.0000     0.0000E+00    0.0000E+00    1.000000E+06  0.00800  1.238E-02    0   1.0000   age020_m52            0.0000     1.5214E-05    71.2159   4.0000   288.9189
 19      0.0000     0.0000E+00    0.0000E+00    3.160000E+06  0.00800  3.074E-02    0   0.9966   age045_m52            0.0000     1.4738E-05    69.5729   4.0000   283.7785
 20      0.0000     0.0000E+00    0.0000E+00    5.010000E+06  0.00800  2.668E-02    0   0.9443   age055_m52            0.0000     1.4360E-05    65.7767   4.0000   264.9285
 21      0.0000     0.0000E+00    0.0000E+00    6.610000E+06  0.00800  2.136E-02    0   0.9177   age061_m52            0.0000     1.6004E-05    67.0865   2.7959   276.8379
 22      0.0000     0.0000E+00    0.0000E+00    1.000000E+07  0.00800  1.215E-02    0   0.8827   age070_m52            0.0000     1.6816E-05    68.8255   3.4605   274.5644
 23      0.0000     0.0000E+00    0.0000E+00    1.445000E+07  0.00800  8.717E-03    0   0.8552   age078_m52            0.0000     1.6135E-05    67.7335   3.5839   271.1844
 24      0.0000     0.0000E+00    0.0000E+00    2.512000E+07  0.00800  5.592E-03    0   0.8162   age090_m52            0.0000     1.7087E-05    69.0865   3.2166   279.7192
 25      0.0000     0.0000E+00    0.0000E+00    4.000000E+07  0.00800  3.896E-03    0   0.7841   age104_m52            0.0000     1.6963E-05    68.7115   3.1343   281.2450
 26      0.0000     0.0000E+00    0.0000E+00    1.015200E+08  0.00800  2.148E-03    0   0.7226   age116_m52            0.0000     1.6431E-05    67.6097   3.0824   279.9070
 27      0.0000     0.0000E+00    0.0000E+00    2.861200E+08  0.00800  9.925E-04    0   0.6683   age125_m52            0.0000     1.6755E-05    67.1873   2.6031   290.2759
 28      0.0000     0.0000E+00    0.0000E+00    9.047900E+08  0.00800  3.141E-04    0   0.6138   age135_m52            0.0000     1.6370E-05    64.8420   1.8248   299.8118
 29      0.0000     0.0000E+00    0.0000E+00    1.434000E+09  0.00800  1.719E-04    0   0.5853   age139_m52            0.0000     1.6032E-05    64.0216   1.2469   293.3106
 30      0.0000     0.0000E+00    0.0000E+00    2.500000E+09  0.00800  7.872E-05    0   0.5600   age150_m52            0.0000     1.4880E-05    61.3591   1.0030   283.1934
 31      0.0000     0.0000E+00    0.0000E+00    4.250000E+09  0.00800  4.336E-05    0   0.5426   age158_m52            0.0000     1.4762E-05    61.0221   0.9889   280.4553
 32      0.0000     0.0000E+00    0.0000E+00    6.250000E+09  0.00800  3.159E-05    0   0.5319   age166_m52            0.0000     1.4582E-05    59.6306   0.7961   279.3922
 33      0.0000     0.0000E+00    0.0000E+00    1.300000E+10  0.00800  1.361E-05    0   0.5073   age193_m52            0.0000     1.4533E-05    57.7044   0.3475   275.2452
 34      0.0000     0.0000E+00    0.0000E+00    1.800000E+10  0.00800  9.886E-06    0   0.4990   age213_m52            0.0000     1.4374E-05    56.2990   0.2500   272.8046
 35      0.0000     0.0000E+00    0.0000E+00    1.000000E+06  0.02000  1.544E-02    0   1.0000   age020_m62            0.0000     1.5164E-05    71.0610   4.0000   289.1782
 36      0.0000     0.0000E+00    0.0000E+00    3.160000E+06  0.02000  3.762E-02    0   0.9858   age045_m62            0.0000     1.4780E-05    69.8558   4.0000   285.5863
 37      0.0000     0.0000E+00    0.0000E+00    5.010000E+06  0.02000  3.296E-02    0   0.9342   age055_m62            0.0000     1.4380E-05    64.6688   3.9474   263.3161
 38      0.0000     0.0000E+00    0.0000E+00    8.710000E+06  0.02000  1.154E-02    0   0.8861   age067_m62            0.0000     2.0675E-05    73.8394   2.8708   285.1761
 39      0.0000     0.0000E+00    0.0000E+00    1.445000E+07  0.02000  7.663E-03    0   0.8472   age078_m62            0.0000     1.8065E-05    70.6245   3.0894   282.0675
 40      0.0000     0.0000E+00    0.0000E+00    2.512000E+07  0.02000  4.532E-03    0   0.8099   age090_m62            0.0000     1.8493E-05    71.2267   3.0758   281.7269
 41      0.0000     0.0000E+00    0.0000E+00    5.500000E+07  0.02000  2.733E-03    0   0.7595   age110_m62            0.0000     1.6902E-05    68.5262   3.1178   279.0738
 42      0.0000     0.0000E+00    0.0000E+00    1.609000E+08  0.02000  1.369E-03    0   0.6985   age120_m62            0.0000     1.6676E-05    67.5090   2.9667   285.6405
 43      0.0000     0.0000E+00    0.0000E+00    2.861200E+08  0.02000  9.013E-04    0   0.6714   age125_m62            0.0000     1.6744E-05    66.9224   2.7242   292.8919
 44      0.0000     0.0000E+00    0.0000E+00    5.088000E+08  0.02000  5.028E-04    0   0.6449   age130_m62            0.0000     1.6129E-05    64.8118   2.3629   298.8623
 45      0.0000     0.0000E+00    0.0000E+00    9.047900E+08  0.02000  2.428E-04    0   0.6179   age135_m62            0.0000     1.5555E-05    63.0597   1.7864   295.8483
 46      0.0000     0.0000E+00    0.0000E+00    1.434000E+09  0.02000  1.263E-04    0   0.5908   age139_m62            0.0000     1.5199E-05    61.9005   1.3483   290.7243
 47      0.0000     0.0000E+00    0.0000E+00    2.500000E+09  0.02000  5.985E-05    0   0.5673   age150_m62            0.0000     1.4563E-05    59.7354   0.9979   285.0892
 48      0.0000     0.0000E+00    0.0000E+00    4.250000E+09  0.02000  3.271E-05    0   0.5468   age158_m62            0.0000     1.4330E-05    57.3741   0.7139   280.3220
 49      0.0000     0.0000E+00    0.0000E+00    1.000000E+10  0.02000  1.360E-05    0   0.5167   age181_m62            0.0000     1.4342E-05    55.0279   0.3850   276.9375
 50      0.0000     0.0000E+00    0.0000E+00    1.800000E+10  0.02000  7.124E-06    0   0.5013   age213_m62            0.0000     1.4290E-05    53.4118   0.1885   273.2296
 51      0.0000     0.0000E+00    0.0000E+00    1.000000E+06  0.05000  2.592E-02    0   0.9998   age020_m72            0.0000     1.5102E-05    70.7143   4.0000   288.4116
 52      0.0000     0.0000E+00    0.0000E+00    3.160000E+06  0.05000  4.845E-02    0   0.9577   age045_m72            0.0000     1.4318E-05    67.7169   4.0000   277.3390
 53      0.0000     0.0000E+00    0.0000E+00    5.010000E+06  0.05000  3.072E-02    0   0.9147   age055_m72            0.0000     1.6611E-05    68.5535   3.6795   271.3013
 54      0.0000     0.0000E+00    0.0000E+00    6.610000E+06  0.05000  1.455E-02    0   0.8877   age061_m72            0.0000     2.3922E-05    77.8651   2.8685   291.2287
 55      0.0000     0.0000E+00    0.0000E+00    1.000000E+07  0.05000  9.074E-03    0   0.8524   age070_m72            0.0000     1.7407E-05    69.5796   3.8337   272.5367
 56      0.0000     0.0000E+00    0.0000E+00    2.512000E+07  0.05000  4.250E-03    0   0.7902   age090_m72            0.0000     1.7475E-05    69.7451   3.5528   276.1247
 57      0.0000     0.0000E+00    0.0000E+00    4.000000E+07  0.05000  3.087E-03    0   0.7618   age104_m72            0.0000     1.8047E-05    70.4325   3.3244   280.6249
 58      0.0000     0.0000E+00    0.0000E+00    1.015200E+08  0.05000  1.700E-03    0   0.7096   age116_m72            0.0000     1.7153E-05    68.5156   3.0989   285.4157
 59      0.0000     0.0000E+00    0.0000E+00    2.861200E+08  0.05000  7.384E-04    0   0.6633   age125_m72            0.0000     1.6414E-05    65.6966   2.5995   296.1228
 60      0.0000     0.0000E+00    0.0000E+00    5.088000E+08  0.05000  3.819E-04    0   0.6372   age130_m72            0.0000     1.5636E-05    63.1563   2.1249   298.9333
 61      0.0000     0.0000E+00    0.0000E+00    9.047900E+08  0.05000  1.676E-04    0   0.6110   age135_m72            0.0000     1.4622E-05    59.8345   1.4566   290.5687
 62      0.0000     0.0000E+00    0.0000E+00    1.434000E+09  0.05000  8.837E-05    0   0.5874   age139_m72            0.0000     1.4819E-05    59.2656   0.9985   288.9323
 63      0.0000     0.0000E+00    0.0000E+00    2.500000E+09  0.05000  4.233E-05    0   0.5598   age150_m72            0.0000     1.4302E-05    56.7043   0.7139   282.6552
 64      0.0000     0.0000E+00    0.0000E+00    6.250000E+09  0.05000  1.435E-05    0   0.5249   age166_m72            0.0000     1.4309E-05    54.4291   0.2894   275.6189
 65      0.0000     0.0000E+00    0.0000E+00    1.300000E+10  0.05000  6.513E-06    0   0.5036   age193_m72            0.0000     1.4374E-05    52.3955   0.0325   275.5386
 66    130.0000     1.0000E+02    1.0000E+02    1.800000E+10  0.05000  4.527E-06    0   0.4945   age213_m72            0.0000     1.4452E-05    51.3399  -0.1179   273.6686


## Synthesis Results - Average & Chains ##

# j      x_j: min, <> & last-chain-values for 1 ...  7 chains
  1      0.0000      0.5334      0.0191      0.1487      0.0519      0.0728      0.0000      0.0000      0.0034
  2      0.0000      0.3735      0.0568      0.1789      0.0891      0.0122      0.0839      0.0000      0.0522
  3      0.0000      0.5678      0.0000      0.2903      0.0759      0.0000      0.0000      0.1486      0.0598
  4      0.0000      0.8491      0.0000      0.0289      0.0910      0.0425      0.0438      0.0691      0.2114
  5      0.0000      0.4992      0.0000      0.0684      0.1729      0.0564      0.0003      0.0281      0.1648
  6      0.0000      0.5042      0.0000      0.0000      0.0346      0.0604      0.0000      0.0000      0.0000
  7      0.0000      0.6141      0.0000      0.1374      0.2017      0.0000      0.0249      0.0000      0.0742
  8      0.0000      0.4243      0.0228      0.0000      0.0325      0.0414      0.0159      0.1259      0.0115
  9      0.0000      0.4293      0.0022      0.1114      0.0000      0.0424      0.0000      0.0003      0.2773
 10      0.0000      0.6073      0.0000      0.0249      0.0007      0.0009      0.0050      0.0000      0.0061
 11      0.0000      0.5949      0.0316      0.0000      0.1995      0.0043      0.0088      0.2390      0.1022
 12      0.0000      0.5781      0.0000      0.1983      0.0840      0.0236      0.1090      0.2806      0.0491
 13      0.0000      0.6675      0.0785      0.0427      0.0699      0.0702      0.0359      0.0640      0.1939
 14      0.0000      0.4717      0.0000      0.0000      0.1362      0.0000      0.0004      0.0293      0.0904
 15      0.0000      0.5513      0.0062      0.1753      0.0000      0.0543      0.0681      0.0472      0.0017
 16      0.0000      0.5055      0.0000      0.1697      0.1271      0.0546      0.1200      0.0221      0.0239
 17      0.0000      0.6417      0.0000      0.0102      0.1438      0.0525      0.0082      0.0000      0.0000
 18      0.0000      0.4882      0.0000      0.0000      0.0364      0.0063      0.0035      0.0784      0.0726
 19      0.0000      0.5280      0.0000      0.1064      0.0519      0.0469      0.0000      0.0987      0.0587
 20      0.0000      0.6137      0.0211      0.2785      0.0000      0.0093      0.0179      0.0000      0.0000
 21      0.0000      0.5448      0.0000      0.1245      0.0000      0.0099      0.0000      0.1197      0.0865
 22      0.0000      0.5894      0.0394      0.0810      0.0673      0.0308      0.0055      0.0000      0.1304
 23      0.0000      0.5402      0.1550      0.0000      0.1450      0.0467      0.0060      0.1378      0.1353
 24      0.0000      0.4394      0.0000      0.0000      0.0107      0.0167      0.0065      0.0754      0.2246
 25      0.0000      0.5864      0.0019      0.0000      0.0555      0.0494      0.0265      0.0000      0.1892
 26      0.0000      0.6704      0.0000      0.1509      0.0831      0.0000      0.0000      0.0000      0.1697
 27      0.0000      0.5847      0.0000      0.3511      0.0000      0.0000      0.0173      0.2640      0.1255
 28      0.0000      0.4647      0.0403      0.0000      0.0965      0.0000      0.0133      0.0000      0.0084
 29      0.0000      0.5666      0.0000      0.0144      0.0331      0.0175      0.0000      0.1349      0.0191
 30      0.0000      0.5508      0.0001      0.0483      0.2479      0.0435      0.0068      0.0514      0.1638
 31      0.0000      0.6094      0.0367      0.3253      0.0000      0.0527      0.0000      0.0000      0.0823
 32      0.0000      0.5822      0.0166      0.0000      0.4252      0.1141      0.0237      0.0000      0.0895
 33      0.0000      0.9151      0.0329      0.0204      0.1312      0.0471      0.0133      0.1528      0.0024
 34      0.0000      0.6341      0.0337      0.0909      0.0033      0.0217      0.0279      0.0473      0.0408
 35      0.0000      0.6324      0.1233      0.0012      0.3779      0.0000      0.0232      0.0000      0.0238
 36      0.0000      0.5595      0.0000      0.0904      0.1475      0.0513      0.0000      0.2949      0.0486
 37      0.0000      0.6616      0.0146      0.0040      0.0000      0.0731      0.0000      0.2640      0.1150
 38      0.0000      0.6355      0.0167      0.0396      0.0000      0.0355      0.0000      0.0334      0.0638
 39      0.0000      0.4774      0.0135      0.0090      0.0000      0.0000      0.0205      0.0930      0.0000
 40      0.0000      0.5613      0.0302      0.1205      0.0000      0.0076      0.0521      0.0000      0.0526
 41      0.0000      0.4845      0.0359      0.0000      0.0175      0.0277      0.0000      0.0000      0.1055
 42      0.0000      0.5966      0.0248      0.0000      0.0738      0.0022      0.0000      0.0000      0.0000
 43      0.0000      0.5040      0.0108      0.0000      0.0830      0.0000      0.0050      0.0363      0.0000
 44      0.0000      0.5612      0.0047      0.0000      0.0510      0.0021      0.0440      0.0262      0.0228
 45      0.0000      0.5077      0.0134      0.2361      0.0000      0.0000      0.0000      0.0029      0.0148
 46      0.0000      0.5759      0.1026      0.0652      0.4264      0.0000      0.0000      0.0000      0.0000
 47      0.0000      0.5917      0.0140      0.0552      0.0820      0.0000      0.0000      0.0650      0.0369
 48      0.0000      0.6358      0.0906      0.1043      0.0000      0.0000      0.0070      0.0599      0.0381
 49      0.0000      0.6836      0.0000      0.0000      0.0303      0.0599      0.0557      0.0363      0.0200
 50      0.0000      0.6394      0.0000      0.0720      0.0544      0.0368      0.0041      0.1265      0.4508
 51      0.0000      0.4740      0.0712      0.0155      0.0645      0.0409      0.0584      0.0819      0.0303
 52      0.0000      0.5617      0.0000      0.0201      0.0000      0.0321      0.0089      0.0082      0.0137
 53      0.0000      0.5399      0.0128      0.0437      0.0000      0.0505      0.0333      0.0986      0.0674
 54      0.0000      0.4900      0.0000      0.1186      0.1161      0.0784      0.0000      0.0422      0.0522
 55      0.0000      0.5584      0.0173      0.1023      0.0109      0.0577      0.0388      0.0963      0.1088
 56      0.0000      0.5387      0.0278      0.0455      0.0439      0.0144      0.0000      0.0000      0.0403
 57      0.0000      0.5291      0.0403      0.1415      0.0236      0.0075      0.0000      0.0000      0.1688
 58      0.0000      0.5888      0.0341      0.0000      0.0000      0.0000      0.0274      0.0000      0.0169
 59      0.0000      0.3990      0.0000      0.0000      0.0000      0.0000      0.0190      0.0577      0.0377
 60      0.0000      0.7189      0.0141      0.0265      0.0000      0.0131      0.0359      0.1009      0.0000
 61      0.0000      0.5537      0.0032      0.0000      0.0817      0.0000      0.0240      0.1578      0.0555
 62      0.0000      0.5719      0.0626      0.2569      0.0000      0.0091      0.0053      0.0682      0.0000
 63      0.0000      0.6769      0.0000      0.0039      0.0006      0.0106      0.0021      0.0000      0.1230
 64      0.0000      0.5770      0.0192      0.1464      0.1404      0.0187      0.0000      0.0808      0.0408
 65      0.0000      2.9982      2.4627      4.2507      3.8358      2.2510      1.8137      3.8142      8.1492
 66    130.0000     90.3297    126.1446    120.8175    121.3707    126.0154    127.0294    122.1401    117.1820

# j      m_j: min, <> & last-chain-values for 1 ...  7 chains
  1  0.0000E+00  4.7013E-04  1.2474E-05  1.0025E-04  3.4926E-05  4.7689E-05  0.0000E+00  0.0000E+00  2.2958E-06
  2  0.0000E+00  8.9878E-05  1.0138E-05  3.2916E-05  1.6358E-05  2.1737E-06  1.4931E-05  0.0000E+00  9.6574E-06
  3  0.0000E+00  2.0461E-04  0.0000E+00  8.0015E-05  2.0870E-05  0.0000E+00  0.0000E+00  4.0633E-05  1.6583E-05
  4  0.0000E+00  2.8812E-04  0.0000E+00  7.5048E-06  2.3572E-05  1.0730E-05  1.0980E-05  1.7808E-05  5.5203E-05
  5  0.0000E+00  3.2266E-04  0.0000E+00  3.3801E-05  8.5276E-05  2.7093E-05  1.2730E-07  1.3774E-05  8.1977E-05
  6  0.0000E+00  5.2856E-04  0.0000E+00  0.0000E+00  2.7654E-05  4.7042E-05  0.0000E+00  0.0000E+00  0.0000E+00
  7  0.0000E+00  9.2172E-04  0.0000E+00  1.5775E-04  2.3102E-04  0.0000E+00  2.7683E-05  0.0000E+00  8.5720E-05
  8  0.0000E+00  8.8032E-04  3.5090E-05  0.0000E+00  5.1495E-05  6.3832E-05  2.4346E-05  1.9827E-04  1.8350E-05
  9  0.0000E+00  1.0194E-03  3.8427E-06  2.0240E-04  0.0000E+00  7.4906E-05  0.0000E+00  5.1817E-07  5.0665E-04
 10  0.0000E+00  1.8943E-03  0.0000E+00  5.9348E-05  1.7130E-06  2.0090E-06  1.1569E-05  0.0000E+00  1.4711E-05
 11  0.0000E+00  3.4890E-03  1.3744E-04  0.0000E+00  8.9260E-04  1.8948E-05  3.8170E-05  1.0638E-03  4.6107E-04
 12  0.0000E+00  5.3783E-03  0.0000E+00  1.4111E-03  5.9603E-04  1.6335E-04  7.4952E-04  1.9811E-03  3.5127E-04
 13  0.0000E+00  1.7503E-02  1.5271E-03  8.5688E-04  1.3979E-03  1.3674E-03  6.9597E-04  1.2744E-03  3.9130E-03
 14  0.0000E+00  4.1485E-02  0.0000E+00  0.0000E+00  9.1419E-03  0.0000E+00  2.5439E-05  1.9553E-03  6.1181E-03
 15  0.0000E+00  7.8933E-02  6.5884E-04  1.9194E-02  0.0000E+00  5.7739E-03  7.2059E-03  5.1343E-03  1.8194E-04
 16  0.0000E+00  1.2238E-01  0.0000E+00  3.1432E-02  2.3476E-02  9.8209E-03  2.1476E-02  4.0605E-03  4.4591E-03
 17  0.0000E+00  2.0152E-01  0.0000E+00  2.4541E-03  3.4456E-02  1.2250E-02  1.9068E-03  0.0000E+00  0.0000E+00
 18  0.0000E+00  3.8027E-04  0.0000E+00  0.0000E+00  2.1627E-05  3.6419E-06  1.9942E-06  4.6359E-05  4.3537E-05
 19  0.0000E+00  1.6505E-04  0.0000E+00  2.5439E-05  1.2374E-05  1.0897E-05  0.0000E+00  2.3427E-05  1.4126E-05
 20  0.0000E+00  2.0943E-04  5.3530E-06  7.2693E-05  0.0000E+00  2.3643E-06  4.5207E-06  0.0000E+00  0.0000E+00
 21  0.0000E+00  2.2570E-04  0.0000E+00  3.9436E-05  0.0000E+00  3.0508E-06  0.0000E+00  3.7626E-05  2.7590E-05
 22  0.0000E+00  4.1287E-04  2.0473E-05  4.3424E-05  3.5951E-05  1.6016E-05  2.8395E-06  0.0000E+00  7.0310E-05
 23  0.0000E+00  5.1104E-04  1.0877E-04  0.0000E+00  1.0466E-04  3.2806E-05  4.2240E-06  9.8965E-05  9.8472E-05
 24  0.0000E+00  6.1841E-04  0.0000E+00  0.0000E+00  1.1501E-05  1.7509E-05  6.7551E-06  8.0568E-05  2.4332E-04
 25  0.0000E+00  1.1380E-03  2.7315E-06  0.0000E+00  8.2184E-05  7.1255E-05  3.7977E-05  0.0000E+00  2.8257E-04
 26  0.0000E+00  2.1748E-03  0.0000E+00  3.7445E-04  2.0557E-04  0.0000E+00  0.0000E+00  0.0000E+00  4.2358E-04
 27  0.0000E+00  3.7962E-03  0.0000E+00  1.7437E-03  0.0000E+00  0.0000E+00  8.3270E-05  1.3010E-03  6.2728E-04
 28  0.0000E+00  8.7561E-03  5.6381E-04  0.0000E+00  1.3877E-03  0.0000E+00  1.8551E-04  0.0000E+00  1.2200E-04
 29  0.0000E+00  1.8604E-02  0.0000E+00  3.6073E-04  8.2909E-04  4.2802E-04  0.0000E+00  3.3611E-03  4.8250E-04
 30  0.0000E+00  3.7784E-02  6.7363E-06  2.5337E-03  1.2973E-02  2.2172E-03  3.4663E-04  2.6757E-03  8.6477E-03
 31  0.0000E+00  7.3528E-02  3.2828E-03  3.0025E-02  0.0000E+00  4.7225E-03  0.0000E+00  0.0000E+00  7.6449E-03
 32  0.0000E+00  9.4521E-02  2.0018E-03  0.0000E+00  5.2673E-02  1.3767E-02  2.8435E-03  0.0000E+00  1.1177E-02
 33  0.0000E+00  3.2891E-01  8.7796E-03  5.6102E-03  3.5993E-02  1.2583E-02  3.5314E-03  4.1693E-02  6.5726E-04
 34  0.0000E+00  3.0862E-01  1.2180E-02  3.3841E-02  1.2150E-03  7.8578E-03  1.0038E-02  1.7473E-02  1.5285E-02
 35  0.0000E+00  3.9496E-04  5.7127E-05  5.7390E-07  1.8009E-04  0.0000E+00  1.0697E-05  0.0000E+00  1.1423E-05
 36  0.0000E+00  1.4138E-04  0.0000E+00  1.7466E-05  2.8442E-05  9.6280E-06  0.0000E+00  5.6547E-05  9.4541E-06
 37  0.0000E+00  1.8080E-04  2.9653E-06  8.3168E-07  0.0000E+00  1.4849E-05  0.0000E+00  5.4751E-05  2.4181E-05
 38  0.0000E+00  4.7052E-04  9.1503E-06  2.2404E-05  0.0000E+00  1.9544E-05  0.0000E+00  1.8773E-05  3.6357E-05
 39  0.0000E+00  5.0892E-04  1.0676E-05  7.3344E-06  0.0000E+00  0.0000E+00  1.6135E-05  7.5222E-05  0.0000E+00
 40  0.0000E+00  9.6721E-04  3.8572E-05  1.5880E-04  0.0000E+00  9.7535E-06  6.6338E-05  0.0000E+00  6.9801E-05
 41  0.0000E+00  1.2983E-03  7.1324E-05  0.0000E+00  3.5874E-05  5.5169E-05  0.0000E+00  0.0000E+00  2.1755E-04
 42  0.0000E+00  2.9353E-03  9.0409E-05  0.0000E+00  2.7695E-04  8.0237E-06  0.0000E+00  0.0000E+00  0.0000E+00
 43  0.0000E+00  3.6202E-03  5.7817E-05  0.0000E+00  4.5512E-04  0.0000E+00  2.6776E-05  1.9784E-04  0.0000E+00
 44  0.0000E+00  6.9410E-03  4.3090E-05  0.0000E+00  4.8175E-04  1.8931E-05  4.0216E-04  2.4592E-04  2.1691E-04
 45  0.0000E+00  1.2459E-02  2.4468E-04  4.4313E-03  0.0000E+00  0.0000E+00  0.0000E+00  5.3956E-05  2.7905E-04
 46  0.0000E+00  2.5978E-02  3.4350E-03  2.2491E-03  1.4676E-02  0.0000E+00  0.0000E+00  0.0000E+00  0.0000E+00
 47  0.0000E+00  5.4078E-02  9.4887E-04  3.8609E-03  5.7165E-03  0.0000E+00  0.0000E+00  4.5118E-03  2.5939E-03
 48  0.0000E+00  1.0248E-01  1.0841E-02  1.2862E-02  0.0000E+00  0.0000E+00  8.3761E-04  7.3294E-03  4.7325E-03
 49  0.0000E+00  2.5044E-01  0.0000E+00  0.0000E+00  8.4737E-03  1.6321E-02  1.5091E-02  1.0097E-02  5.6303E-03
 50  0.0000E+00  4.3387E-01  0.0000E+00  3.7360E-02  2.8169E-02  1.8561E-02  2.0655E-03  6.5154E-02  2.3540E-01
 51  0.0000E+00  1.7631E-04  1.9661E-05  4.4234E-06  1.8295E-05  1.1311E-05  1.6058E-05  2.3133E-05  8.6820E-06
 52  0.0000E+00  1.0706E-04  0.0000E+00  2.9236E-06  0.0000E+00  4.5529E-06  1.2544E-06  1.1811E-06  2.0084E-06
 53  0.0000E+00  1.5502E-04  2.7183E-06  9.6058E-06  0.0000E+00  1.0765E-05  7.0648E-06  2.1491E-05  1.4886E-05
 54  0.0000E+00  2.8826E-04  0.0000E+00  5.3376E-05  5.2093E-05  3.4264E-05  0.0000E+00  1.8858E-05  2.3627E-05
 55  0.0000E+00  5.0585E-04  1.1658E-05  7.0880E-05  7.5473E-06  3.8831E-05  2.5969E-05  6.6214E-05  7.5873E-05
 56  0.0000E+00  9.6572E-04  3.6970E-05  6.2446E-05  6.0101E-05  1.9220E-05  0.0000E+00  0.0000E+00  5.5564E-05
 57  0.0000E+00  1.2590E-03  7.1189E-05  2.5746E-04  4.2924E-05  1.3270E-05  0.0000E+00  0.0000E+00  3.0921E-04
 58  0.0000E+00  2.3699E-03  1.0198E-04  0.0000E+00  0.0000E+00  0.0000E+00  8.1527E-05  0.0000E+00  5.2333E-05
 59  0.0000E+00  3.4562E-03  0.0000E+00  0.0000E+00  0.0000E+00  0.0000E+00  1.2196E-04  3.7933E-04  2.5131E-04
 60  0.0000E+00  1.1566E-02  1.6786E-04  3.2598E-04  0.0000E+00  1.5681E-04  4.2685E-04  1.2320E-03  0.0000E+00
 61  0.0000E+00  1.9465E-02  8.4674E-05  0.0000E+00  2.1912E-03  0.0000E+00  6.2333E-04  4.2096E-03  1.5025E-03
 62  0.0000E+00  3.6658E-02  2.9774E-03  1.2593E-02  0.0000E+00  4.3309E-04  2.5171E-04  3.3166E-03  0.0000E+00
 63  0.0000E+00  8.6312E-02  0.0000E+00  3.7871E-04  6.0797E-05  1.0018E-03  1.9953E-04  0.0000E+00  1.2071E-02
 64  0.0000E+00  2.0350E-01  5.0188E-03  3.9500E-02  3.7786E-02  4.8984E-03  0.0000E+00  2.1627E-02  1.1088E-02
 65  0.0000E+00  2.2354E+00  1.3624E+00  2.4240E+00  2.1821E+00  1.2472E+00  9.9986E-01  2.1583E+00  4.6759E+00
 66  1.0000E+02  9.5143E+01  9.8584E+01  9.7331E+01  9.7543E+01  9.8640E+01  9.8931E+01  9.7640E+01  9.4987E+01

# AV, chi2 & Mass for <> & i_chain = 1 ...  7 solutions
AV       1.3398      1.3836      1.3578      1.3942      1.3906      1.3596      1.3537      1.3863      1.3959
chi2 2.8737E-05  3.5580E-05  2.8820E-05  2.9015E-05  2.8994E-05  2.8831E-05  2.8801E-05  2.8972E-05  2.9010E-05
Mass 1.9858E-12  1.5381E-12  2.0023E-12  2.0398E-12  2.0350E-12  2.0040E-12  1.9984E-12  2.0340E-12  2.0321E-12
-332.30                                  [v0_min (km/s) before EX0s...]
  79.29                                  [vd_min (km/s) before EX0s...]


## Synthetic spectrum (Best Model) ##l_obs f_obs f_syn wei
 3478    [Nl_obs]
 3741.00   -0.95695   0.27861    0.000
 3742.00    0.83539   0.26058    0.000
 3743.00    2.94623   0.24831    0.000
 3744.00    3.57542   0.24015    0.000
 3745.00    3.34132   0.25490    0.007
 3746.00    3.78618   0.30883    0.007
 3747.00    4.57581   0.38700    0.007
 3748.00    3.10188   0.46220    0.007
 3749.00    0.63258   0.52575    0.007
 3750.00   -1.91686   0.57263    0.000
 3751.00   -4.49656   0.57781    0.000
 3752.00   -6.13941   0.52098    0.000
 3753.00   -7.48202   0.42808    0.000
 3754.00   -6.32303   0.36025    0.000
 3755.00   -4.49367   0.35400    0.000
 3756.00   -4.09846   0.38901    0.000
 3757.00   -4.01804   0.41847    0.000
 3758.00   -2.35501   0.41780    0.000
 3759.00   -0.41571   0.40152    0.000
 3760.00    1.16778   0.39521    0.007
 3761.00    2.70401   0.39913    0.007
 3762.00    1.05543   0.40408    0.007
 3763.00   -0.89243   0.42610    0.000
 3764.00    1.62708   0.48138    0.006
 3765.00    4.40430   0.54895    0.006
 3766.00    2.77459   0.59974    0.006
 3767.00    1.05857   0.63171    0.006
 3768.00    1.55698   0.65055    0.006
 3769.00    2.04317   0.65020    0.006
 3770.00    2.23273   0.63095    0.006
 3771.00    2.31467   0.61071    0.006
 3772.00    0.98631   0.60409    0.006
 3773.00   -0.12283   0.60969    0.000
 3774.00    0.69251   0.62453    0.006
 3775.00    1.44344   0.64771    0.006
 3776.00    1.77676   0.66909    0.006
 3777.00    2.01570   0.67889    0.006
 3778.00    1.77700   0.68159    0.006
 3779.00    1.70280   0.68014    0.006
 3780.00    2.30198   0.65625    0.006
 3781.00    2.33475   0.59266    0.006
 3782.00    0.44643   0.50777    0.006
 3783.00   -0.60647   0.43931    0.000
 3784.00    0.72997   0.40597    0.006
 3785.00    1.59701   0.40671    0.006
 3786.00    1.31718   0.43410    0.006
 3787.00    0.16688   0.46566    0.006
 3788.00   -2.81805   0.47173    0.000
 3789.00   -2.85020   0.44747    0.000
 3790.00    2.52627   0.41805    0.006
 3791.00    4.82036   0.40595    0.006
 3792.00    2.18033   0.40407    0.006
 3793.00    0.66110   0.39353    0.006
 3794.00    0.71614   0.38088    0.006
 3795.00    0.59699   0.39363    0.006
 3796.00    0.26253   0.43964    0.006
 3797.00    0.68564   0.49773    0.006
 3798.00    1.93411   0.54637    0.006
 3799.00    2.46404   0.57617    0.006
 3800.00    2.30345   0.58019    0.006
 3801.00    2.21046   0.55473    0.006
 3802.00    2.17475   0.51479    0.006
 3803.00    2.10627   0.49244    0.006
 3804.00    2.01335   0.50548    0.006
 3805.00    1.14337   0.53738    0.006
 3806.00   -0.23601   0.55650    0.000
 3807.00   -0.15609   0.54343    0.000
 3808.00    0.76123   0.49860    0.006
 3809.00    1.14003   0.43861    0.006
 3810.00    1.24967   0.38449    0.006
 3811.00    0.37112   0.35125    0.006
 3812.00   -0.93477   0.34348    0.000
 3813.00    0.17290   0.34791    0.006
 3814.00    2.17566   0.33865    0.006
 3815.00    2.97261   0.30854    0.006
 3816.00    3.39051   0.28276    0.006
 3817.00    1.81597   0.28428    0.006
 3818.00   -0.28123   0.29989    0.000
 3819.00   -0.31167   0.29914    0.000
 3820.00    0.10071   0.27615    0.005
 3821.00    1.73430   0.25289    0.006
 3822.00    3.57514   0.24818    0.006
 3823.00    2.50607   0.26126    0.006
 3824.00    1.06360   0.28202    0.006
 3825.00    0.95460   0.30118    0.006
 3826.00    0.96529   0.30937    0.006
 3827.00    1.48509   0.30023    0.006
 3828.00    2.03225   0.28149    0.006
 3829.00    2.05658   0.27337    0.006
 3830.00    2.05583   0.28878    0.006
 3831.00    0.82253   0.31669    0.006
 3832.00   -0.35217   0.33081    0.000
 3833.00   -0.22516   0.31798    0.000
 3834.00   -0.05255   0.29128    0.000
 3835.00    0.68720   0.27369    0.006
 3836.00    1.32804   0.28147    0.006
 3837.00    1.13283   0.31911    0.006
 3838.00    1.12953   0.37265    0.006
 3839.00    2.33354   0.41623    0.006
 3840.00    3.15688   0.43565    0.006
 3841.00    2.10195   0.43784    0.006
 3842.00    1.35372   0.43553    0.006
 3843.00    1.83327   0.42950    0.006
 3844.00    2.05983   0.41176    0.006
 3845.00    1.44534   0.38776    0.006
 3846.00    1.37483   0.37904    0.006
 3847.00    2.83187   0.39224    0.000
 3848.00    4.12506   0.40611    0.000
 3849.00    5.02473   0.40150    0.000
 3850.00    4.51781   0.38174    0.000
 3851.00    1.09376   0.35845    0.000
 3852.00   -1.30960   0.33733    0.000
 3853.00   -1.87199   0.31673    0.000
 3854.00   -1.28199   0.29396    0.000
 3855.00    1.12542   0.27856    0.000
 3856.00    2.36252   0.29057    0.000
 3857.00    1.97949   0.33517    0.000
 3858.00    1.44673   0.38856    0.000
 3859.00    0.73153   0.41948    0.000
 3860.00    1.05356   0.42049    0.000
 3861.00    2.48974   0.40907    0.000
 3862.00    3.23487   0.40134    0.000
 3863.00    3.32522   0.39632    0.000
 3864.00    2.86599   0.38508    0.000
 3865.00    1.94764   0.36464    0.000
 3866.00    2.10718   0.34193    0.000
 3867.00    3.05950   0.33114    0.000
 3868.00    2.41026   0.34694    0.000
 3869.00    0.72654   0.39149    0.000
 3870.00    0.07108   0.44300    0.000
 3871.00   -0.00329   0.46659    0.000
 3872.00    0.02027   0.44618    0.000
 3873.00    0.09199   0.40233    0.000
 3874.00    0.66242   0.37265    0.000
 3875.00    1.44491   0.37218    0.000
 3876.00    1.81997   0.38270    0.000
 3877.00    2.04663   0.39194    0.000
 3878.00    2.70696   0.41599    0.000
 3879.00    3.50098   0.45593    0.000
 3880.00    2.99751   0.47207    0.000
 3881.00    2.16095   0.44212    0.005
 3882.00    1.93901   0.40483    0.005
 3883.00    1.84556   0.40868    0.005
 3884.00    0.92402   0.45720    0.005
 3885.00   -0.13407   0.52834    0.000
 3886.00   -0.08605   0.60462    0.000
 3887.00    0.09896   0.66860    0.005
 3888.00    1.85065   0.69925    0.005
 3889.00    3.73642   0.68744    0.005
 3890.00    2.28540   0.65010    0.005
 3891.00    0.66808   0.62049    0.005
 3892.00    1.27895   0.61498    0.005
 3893.00    1.89812   0.61519    0.005
 3894.00    0.69689   0.60148    0.005
 3895.00   -0.43067   0.58841    0.000
 3896.00   -0.05111   0.59696    0.000
 3897.00    0.23746   0.61394    0.005
 3898.00   -0.54994   0.61321    0.000
 3899.00   -1.20307   0.59452    0.000
 3900.00   -0.76231   0.57212    0.000
 3901.00   -0.33507   0.55862    0.000
 3902.00    0.00966   0.57404    0.005
 3903.00    0.46926   0.62656    0.004
 3904.00    1.48166   0.69096    0.004
 3905.00    2.40060   0.73708    0.004
 3906.00    2.95354   0.76166    0.004
 3907.00    3.30174   0.77773    0.004
 3908.00    2.98264   0.78932    0.005
 3909.00    2.72064   0.79073    0.005
 3910.00    2.61606   0.77883    0.005
 3911.00    2.58280   0.75430    0.005
 3912.00    2.71794   0.72071    0.005
 3913.00    2.98300   0.68225    0.005
 3914.00    3.51318   0.63476    0.005
 3915.00    2.64852   0.57515    0.005
 3916.00   -0.69359   0.51982    0.000
 3917.00   -1.58596   0.49255    0.000
 3918.00    1.32810   0.49910    0.005
 3919.00    3.30448   0.52332    0.005
 3920.00    4.00144   0.53969    0.005
 3921.00    3.67688   0.52782    0.005
 3922.00    2.12524   0.48532    0.005
 3923.00    1.25453   0.42564    0.005
 3924.00    1.10497   0.36485    0.005
 3925.00    0.85981   0.31331    0.005
 3926.00    0.52535   0.27426    0.005
 3927.00    0.60716   0.24821    0.005
 3928.00    1.03181   0.23470    0.005
 3929.00    1.98889   0.23054    0.005
 3930.00    3.33193   0.23423    0.005
 3931.00    3.17066   0.25189    0.005
 3932.00    2.05202   0.29079    0.005
 3933.00    2.16121   0.34795    0.005
 3934.00    2.95370   0.41023    0.005
 3935.00    3.11641   0.46093    0.005
 3936.00    2.97426   0.48751    0.005
 3937.00    2.91696   0.48885    0.005
 3938.00    2.89514   0.47561    0.005
 3939.00    3.02464   0.46964    0.005
 3940.00    3.20828   0.49806    0.005
 3941.00    1.94271   0.56329    0.005
 3942.00    0.23911   0.62851    0.005
 3943.00   -0.64534   0.66488    0.000
 3944.00   -1.32406   0.69042    0.000
 3945.00   -1.44233   0.73090    0.000
 3946.00   -1.44631   0.77248    0.000
 3947.00    0.08745   0.78764    0.005
 3948.00    1.86744   0.78545    0.005
 3949.00    1.75752   0.79491    0.005
 3950.00    1.42195   0.80734    0.005
 3951.00    0.29266   0.79111    0.005
 3952.00   -0.90126   0.75361    0.000
 3953.00    0.14033   0.72815    0.005
 3954.00    1.28466   0.71264    0.005
 3955.00    1.61563   0.66982    0.005
 3956.00    1.92989   0.58397    0.005
 3957.00    1.91212   0.48995    0.005
 3958.00    1.88704   0.43243    0.005
 3959.00    1.72363   0.41186    0.005
 3960.00    1.42739   0.39315    0.000
 3961.00   -0.36580   0.35446    0.000
 3962.00   -1.65322   0.30567    0.000
 3963.00    1.03483   0.26913    0.000
 3964.00    3.28717   0.25804    0.000
 3965.00    2.95409   0.27350    0.000
 3966.00    2.55925   0.31076    0.000
 3967.00    1.87443   0.36248    0.000
 3968.00    0.90177   0.42275    0.000
 3969.00   -1.17398   0.49040    0.000
 3970.00   -2.25322   0.56396    0.000
 3971.00   -0.14729   0.63619    0.000
 3972.00    1.17018   0.70235    0.000
 3973.00    0.35226   0.76795    0.000
 3974.00   -0.17114   0.83509    0.000
 3975.00   -0.01065   0.89072    0.000
 3976.00    0.09786   0.91712    0.000
 3977.00    0.10198   0.91291    0.000
 3978.00    0.29933   0.90014    0.000
 3979.00    0.83466   0.90280    0.000
 3980.00    1.06901   0.92644    0.000
 3981.00    0.84255   0.96213    0.005
 3982.00    0.92677   0.99931    0.005
 3983.00    1.42882   1.02993    0.005
 3984.00    1.05951   1.04046    0.005
 3985.00   -0.34168   1.02755    0.000
 3986.00   -0.91159   1.01932    0.000
 3987.00   -0.61347   1.03754    0.000
 3988.00    0.64165   1.06484    0.005
 3989.00    2.77823   1.07372    0.005
 3990.00    3.09521   1.05589    0.005
 3991.00    1.93487   1.02199    0.005
 3992.00    1.62598   0.99102    0.005
 3993.00    1.92544   0.98912    0.005
 3994.00    2.13391   1.03475    0.005
 3995.00    2.28533   1.11043    0.005
 3996.00    2.34610   1.17389    0.005
 3997.00    2.35719   1.20502    0.005
 3998.00    1.49203   1.20178    0.005
 3999.00    0.20949   1.14812    0.005
 4000.00    0.36802   1.04916    0.005
 4001.00    1.11884   0.96976    0.005
 4002.00    1.74043   0.97338    0.005
 4003.00    2.31662   1.04446    0.005
 4004.00    1.90109   1.11898    0.005
 4005.00    1.19172   1.16160    0.005
 4006.00    0.52915   1.17849    0.005
 4007.00   -0.12194   1.18789    0.000
 4008.00    0.69669   1.20167    0.005
 4009.00    1.80753   1.22216    0.005
 4010.00    0.90595   1.24420    0.005
 4011.00   -0.30833   1.25559    0.000
 4012.00    0.44721   1.24755    0.005
 4013.00    1.42927   1.23754    0.005
 4014.00    0.18925   1.24911    0.005
 4015.00   -1.22257   1.26826    0.000
 4016.00   -0.26512   1.26658    0.000
 4017.00    0.79210   1.24606    0.005
 4018.00    1.44374   1.22192    0.005
 4019.00    2.07580   1.19874    0.005
 4020.00    2.01229   1.18805    0.005
 4021.00    1.94550   1.21030    0.005
 4022.00    1.82079   1.26164    0.005
 4023.00    1.70658   1.30240    0.005
 4024.00    1.70548   1.27897    0.005
 4025.00    1.81662   1.16757    0.005
 4026.00    2.77972   1.01323    0.005
 4027.00    3.39159   0.89108    0.005
 4028.00    1.97759   0.83380    0.005
 4029.00    0.80729   0.84049    0.005
 4030.00    0.75390   0.91496    0.004
 4031.00    0.76186   1.04885    0.004
 4032.00    1.00000   1.19858    0.004
 4033.00    1.02774   1.30429    0.004
 4034.00    0.39586   1.33373    0.004
 4035.00    0.26412   1.30508    0.004
 4036.00    1.46287   1.26418    0.004
 4037.00    2.15196   1.23328    0.004
 4038.00    1.67723   1.17798    0.004
 4039.00    1.50088   1.05148    0.004
 4040.00    1.91439   0.88198    0.004
 4041.00    1.84831   0.77508    0.004
 4042.00    0.95604   0.80983    0.004
 4043.00    0.38093   0.95704    0.004
 4044.00    0.28429   1.12175    0.004
 4045.00    0.24491   1.24011    0.004
 4046.00    0.28144   1.29963    0.004
 4047.00    0.62452   1.30638    0.004
 4048.00    1.32549   1.27311    0.004
 4049.00    1.36857   1.21825    0.004
 4050.00    0.73433   1.16112    0.004
 4051.00    0.41997   1.11464    0.004
 4052.00    0.39610   1.07654    0.004
 4053.00    0.73149   1.05034    0.005
 4054.00    1.35443   1.06048    0.005
 4055.00    1.21983   1.10548    0.005
 4056.00    0.55181   1.12672    0.004
 4057.00    0.54958   1.06581    0.004
 4058.00    0.95861   0.94543    0.005
 4059.00    1.67441   0.86384    0.005
 4060.00    2.55573   0.88675    0.004
 4061.00    1.73515   0.97391    0.005
 4062.00    0.11693   1.05512    0.005
 4063.00    0.02304   1.12051    0.005
 4064.00    0.54501   1.17425    0.004
 4065.00    1.00887   1.17521    0.004
 4066.00    1.45269   1.10349    0.004
 4067.00    1.67395   1.03285    0.004
 4068.00    1.83058   1.04822    0.004
 4069.00    2.02094   1.12111    0.004
 4070.00    2.21941   1.14962    0.004
 4071.00    1.40256   1.09292    0.004
 4072.00    0.38897   1.00855    0.004
 4073.00    0.79081   0.98279    0.004
 4074.00    1.40595   1.05157    0.004
 4075.00    1.89891   1.18116    0.004
 4076.00    2.37835   1.30239    0.004
 4077.00    1.53676   1.35606    0.004
 4078.00    0.59844   1.33476    0.004
 4079.00    0.83145   1.28657    0.004
 4080.00    1.10931   1.26544    0.004
 4081.00    1.14864   1.29557    0.004
 4082.00    1.18232   1.37154    0.004
 4083.00    1.05270   1.45982    0.004
 4084.00    0.94194   1.51357    0.004
 4085.00    1.14203   1.51006    0.004
 4086.00    1.34847   1.46803    0.004
 4087.00    1.62037   1.42367    0.004
 4088.00    1.77796   1.39862    0.004
 4089.00    1.09678   1.37727    0.004
 4090.00    0.41704   1.32357    0.004
 4091.00   -0.25457   1.24222    0.000
 4092.00   -0.67794   1.18112    0.000
 4093.00    0.00962   1.16263    0.000
 4094.00    0.61965   1.15805    0.000
 4095.00    0.94492   1.13045    0.000
 4096.00    1.34884   1.08487    0.000
 4097.00    1.99460   1.06495    0.000
 4098.00    2.26159   1.09469    0.000
 4099.00    1.53863   1.15589    0.000
 4100.00    0.72749   1.22747    0.000
 4101.00   -0.28171   1.29718    0.000
 4102.00   -0.60623   1.34158    0.000
 4103.00    0.40156   1.34095    0.000
 4104.00    1.30914   1.30152    0.000
 4105.00    2.04670   1.24762    0.000
 4106.00    2.18506   1.20684    0.000
 4107.00    1.43275   1.20032    0.000
 4108.00    0.92103   1.23122    0.000
 4109.00    0.72368   1.27837    0.000
 4110.00    0.86979   1.31595    0.000
 4111.00    1.41120   1.33314    0.000
 4112.00    1.47614   1.32240    0.000
 4113.00    1.05739   1.27877    0.004
 4114.00    1.27622   1.22765    0.004
 4115.00    2.06588   1.20701    0.004
 4116.00    2.52821   1.21482    0.004
 4117.00    2.73229   1.22405    0.004
 4118.00    2.99222   1.23373    0.004
 4119.00    3.29092   1.26193    0.004
 4120.00    2.85728   1.30044    0.004
 4121.00    1.97801   1.31526    0.004
 4122.00    1.80186   1.29303    0.004
 4123.00    1.99925   1.25294    0.004
 4124.00    1.14847   1.21346    0.004
 4125.00   -0.18562   1.17061    0.000
 4126.00    0.15988   1.11247    0.004
 4127.00    1.17232   1.04792    0.004
 4128.00    1.31171   1.01164    0.004
 4129.00    1.15563   1.03212    0.004
 4130.00    0.75501   1.10696    0.004
 4131.00    0.28480   1.20036    0.004
 4132.00    0.90600   1.26890    0.004
 4133.00    1.78343   1.30151    0.004
 4134.00    1.90699   1.31225    0.004
 4135.00    1.88826   1.30164    0.004
 4136.00    1.03778   1.24612    0.004
 4137.00    0.06583   1.12954    0.004
 4138.00    0.49816   0.99221    0.004
 4139.00    1.07971   0.92185    0.004
 4140.00    1.25933   0.96331    0.004
 4141.00    1.41115   1.06714    0.004
 4142.00    1.32769   1.15202    0.004
 4143.00    1.23610   1.18003    0.004
 4144.00    2.86479   1.16066    0.004
 4145.00    4.42567   1.12400    0.004
 4146.00    3.63418   1.09742    0.004
 4147.00    2.76583   1.08798    0.004
 4148.00    0.70909   1.08578    0.004
 4149.00   -1.20821   1.08130    0.000
 4150.00   -1.75108   1.07554    0.000
 4151.00   -2.02224   1.07690    0.000
 4152.00   -0.36441   1.09884    0.000
 4153.00    1.18316   1.15074    0.004
 4154.00    2.12880   1.21883    0.004
 4155.00    2.83020   1.27563    0.004
 4156.00    2.46405   1.31376    0.004
 4157.00    2.06254   1.34411    0.004
 4158.00    1.53387   1.35935    0.004
 4159.00    1.06772   1.33888    0.004
 4160.00    0.79023   1.28687    0.004
 4161.00    0.61916   1.22819    0.004
 4162.00    0.72141   1.18593    0.004
 4163.00    1.02570   1.18025    0.004
 4164.00    1.77631   1.21134    0.004
 4165.00    2.35163   1.23962    0.004
 4166.00    2.59118   1.21648    0.004
 4167.00    2.64231   1.14051    0.004
 4168.00    2.37853   1.06591    0.004
 4169.00    1.93934   1.04236    0.004
 4170.00    1.24320   1.06416    0.004
 4171.00    0.80472   1.09290    0.004
 4172.00    0.69808   1.10817    0.004
 4173.00    0.36336   1.12068    0.004
 4174.00   -0.23021   1.14206    0.000
 4175.00   -0.14720   1.16046    0.000
 4176.00    0.61296   1.16276    0.004
 4177.00    1.11108   1.16490    0.004
 4178.00    1.37791   1.19586    0.004
 4179.00    1.37119   1.25576    0.004
 4180.00    1.15172   1.30140    0.004
 4181.00    1.63355   1.28501    0.004
 4182.00    2.59498   1.22029    0.004
 4183.00    2.73413   1.17960    0.004
 4184.00    2.38041   1.20040    0.004
 4185.00    2.12398   1.24467    0.004
 4186.00    1.91843   1.27395    0.004
 4187.00    1.83621   1.30023    0.004
 4188.00    1.80994   1.33125    0.004
 4189.00    2.32199   1.33076    0.004
 4190.00    3.04409   1.27088    0.004
 4191.00    2.56000   1.17804    0.004
 4192.00    1.67528   1.10039    0.004
 4193.00    1.97492   1.06315    0.004
 4194.00    2.60466   1.06378    0.004
 4195.00    2.04836   1.08004    0.004
 4196.00    1.21996   1.08860    0.004
 4197.00    0.73660   1.09694    0.004
 4198.00    0.31665   1.13352    0.004
 4199.00    1.53091   1.20232    0.004
 4200.00    2.97626   1.28087    0.004
 4201.00    3.23775   1.35151    0.004
 4202.00    3.37853   1.40620    0.004
 4203.00    1.76596   1.43320    0.004
 4204.00    0.03915   1.42415    0.004
 4205.00    2.40418   1.39584    0.004
 4206.00    4.88963   1.37967    0.004
 4207.00    3.98920   1.37594    0.004
 4208.00    3.08206   1.34613    0.004
 4209.00    1.97778   1.26989    0.004
 4210.00    0.98167   1.19433    0.004
 4211.00    1.56020   1.20235    0.004
 4212.00    2.05832   1.31963    0.004
 4213.00    1.79595   1.47849    0.004
 4214.00    1.45684   1.59467    0.004
 4215.00    0.59012   1.63929    0.004
 4216.00   -0.13679   1.61719    0.000
 4217.00   -0.12066   1.52840    0.000
 4218.00   -0.07189   1.37676    0.000
 4219.00    0.11630   1.18005    0.004
 4220.00    0.34073   0.96554    0.004
 4221.00    0.69281   0.78696    0.004
 4222.00    1.19240   0.72735    0.004
 4223.00    2.12877   0.83353    0.004
 4224.00    2.88163   1.05498    0.004
 4225.00    3.17139   1.28296    0.004
 4226.00    3.48913   1.43054    0.004
 4227.00    3.86772   1.46750    0.004
 4228.00    3.48753   1.42518    0.004
 4229.00    1.67642   1.36562    0.004
 4230.00    0.48647   1.32431    0.004
 4231.00    0.31917   1.30555    0.004
 4232.00    0.67036   1.31384    0.004
 4233.00    1.77000   1.34745    0.004
 4234.00    2.18571   1.39303    0.004
 4235.00    1.73308   1.44768    0.004
 4236.00    1.60603   1.51423    0.004
 4237.00    1.84323   1.58610    0.004
 4238.00    2.57839   1.66188    0.004
 4239.00    3.80493   1.73983    0.004
 4240.00    4.51437   1.78498    0.004
 4241.00    4.77379   1.75237    0.004
 4242.00    3.95896   1.64643    0.004
 4243.00    2.32055   1.51398    0.004
 4244.00    1.36057   1.39189    0.004
 4245.00    0.85779   1.30268    0.004
 4246.00    1.89635   1.27201    0.004
 4247.00    3.84495   1.29174    0.004
 4248.00    4.63073   1.30338    0.004
 4249.00    4.81782   1.28179    0.004
 4250.00    3.85730   1.28763    0.004
 4251.00    2.38476   1.37214    0.004
 4252.00    1.69387   1.47823    0.004
 4253.00    1.30266   1.49985    0.004
 4254.00    1.15002   1.41375    0.004
 4255.00    1.07512   1.30722    0.004
 4256.00    1.38974   1.29064    0.004
 4257.00    1.81070   1.40065    0.004
 4258.00    1.57980   1.57685    0.004
 4259.00    1.20282   1.72836    0.004
 4260.00    0.88694   1.80940    0.004
 4261.00    0.58199   1.81744    0.004
 4262.00    0.89178   1.75887    0.004
 4263.00    1.28567   1.64701    0.004
 4264.00    0.70867   1.49858    0.004
 4265.00    0.03682   1.32275    0.004
 4266.00    0.82661   1.14836    0.004
 4267.00    1.70578   1.03615    0.004
 4268.00    2.04831   1.01777    0.004
 4269.00    2.36732   1.06607    0.004
 4270.00    0.91948   1.16011    0.004
 4271.00   -0.44693   1.31030    0.000
 4272.00    0.33944   1.49361    0.004
 4273.00    1.09509   1.63360    0.004
 4274.00    1.42826   1.66852    0.004
 4275.00    1.77948   1.61430    0.004
 4276.00    2.29461   1.54740    0.004
 4277.00    2.86197   1.52451    0.004
 4278.00    3.77717   1.53853    0.004
 4279.00    4.38468   1.54960    0.004
 4280.00    3.39927   1.53527    0.004
 4281.00    2.57486   1.50625    0.004
 4282.00    2.42257   1.46987   -2.000
 4283.00    2.14267   1.40131   -2.000
 4284.00    1.42224   1.29337   -2.000
 4285.00    0.94878   1.20780   -2.000
 4286.00    1.19319   1.21872   -2.000
 4287.00    1.78294   1.31852   -2.000
 4288.00    3.22920   1.42457   -2.000
 4289.00    4.02588   1.47464   -2.000
 4290.00    3.43385   1.47729   -2.000
 4291.00    2.62799   1.45598   -2.000
 4292.00    1.42513   1.39612   -2.000
 4293.00    0.58885   1.28054   -2.000
 4294.00    0.34711   1.14142   -2.000
 4295.00   -0.13882   1.04602   -2.000
 4296.00   -0.97212   1.02975   -2.000
 4297.00   -0.58064   1.06482   -2.000
 4298.00    1.34372   1.10526    0.004
 4299.00    2.93752   1.12521    0.004
 4300.00    4.16668   1.10776    0.004
 4301.00    4.56697   1.04502    0.004
 4302.00    4.16083   0.95790    0.004
 4303.00    3.76917   0.89466    0.004
 4304.00    3.38995   0.90165    0.004
 4305.00    2.62575   0.98878    0.004
 4306.00    1.57064   1.12541    0.004
 4307.00    2.09835   1.27130    0.004
 4308.00    3.67714   1.40718    0.004
 4309.00    4.11249   1.54828    0.004
 4310.00    3.88290   1.72852    0.004
 4311.00    3.18213   1.94126    0.004
 4312.00    2.24257   2.11270    0.004
 4313.00    2.14245   2.17715    0.004
 4314.00    2.41069   2.14543    0.004
 4315.00    2.53734   2.06927    0.004
 4316.00    2.61066   1.97702    0.004
 4317.00    2.83733   1.85566    0.004
 4318.00    3.11304   1.67485    0.004
 4319.00    2.41608   1.44556    0.004
 4320.00    1.45915   1.25830    0.004
 4321.00    1.80634   1.23514    0.004
 4322.00    2.43891   1.41749    0.004
 4323.00    1.98294   1.70459    0.004
 4324.00    1.33760   1.93370    0.004
 4325.00    1.37507   2.02951    0.004
 4326.00    1.50286   2.04520    0.004
 4327.00    2.93891   2.06453    0.004
 4328.00    4.49722   2.11496    0.004
 4329.00    4.31885   2.17318    0.004
 4330.00    4.04116   2.18904    0.000
 4331.00    3.67504   2.10385    0.000
 4332.00    3.31559   1.91127    0.000
 4333.00    3.95996   1.69205    0.000
 4334.00    4.55521   1.54198    0.000
 4335.00    3.97106   1.50134    0.000
 4336.00    3.40405   1.56623    0.000
 4337.00    3.06031   1.69668    0.000
 4338.00    2.73630   1.82343    0.000
 4339.00    2.58461   1.90902    0.000
 4340.00    2.39667   1.96833    0.000
 4341.00    1.97450   2.01756    0.000
 4342.00    1.63063   2.06532    0.000
 4343.00    1.68176   2.12281    0.000
 4344.00    1.68445   2.15297    0.000
 4345.00    1.48947   2.07290    0.000
 4346.00    1.28459   1.87973    0.000
 4347.00    1.04620   1.70283    0.000
 4348.00    1.27357   1.66350    0.000
 4349.00    2.83002   1.74786    0.000
 4350.00    3.71953   1.86966    0.000
 4351.00    2.98307   1.97366    0.004
 4352.00    2.39425   2.03078    0.004
 4353.00    2.11596   2.02184    0.004
 4354.00    2.16534   1.98001    0.004
 4355.00    2.81377   1.97973    0.004
 4356.00    3.20921   2.04558    0.004
 4357.00    3.20042   2.13002    0.004
 4358.00    2.91456   2.19507    0.004
 4359.00    2.24022   2.24686    0.004
 4360.00    2.30228   2.27425    0.004
 4361.00    3.27288   2.23436    0.004
 4362.00    3.68206   2.12862    0.004
 4363.00    3.48064   2.02689    0.004
 4364.00    3.36482   1.98702    0.004
 4365.00    3.33112   1.99766    0.004
 4366.00    3.72025   2.01105    0.004
 4367.00    4.46704   1.98572    0.004
 4368.00    4.29519   1.90192    0.004
 4369.00    3.43908   1.78536    0.004
 4370.00    3.30075   1.71303    0.004
 4371.00    3.63209   1.75176    0.004
 4372.00    3.53313   1.88158    0.004
 4373.00    3.18771   2.00410    0.004
 4374.00    2.50081   2.03331    0.004
 4375.00    1.64356   1.95169    0.004
 4376.00    1.73719   1.77610    0.004
 4377.00    2.24114   1.52681    0.004
 4378.00    3.31591   1.27249    0.004
 4379.00    4.60189   1.14587    0.004
 4380.00    4.93612   1.23028    0.004
 4381.00    4.97190   1.45288    0.004
 4382.00    4.06619   1.65441    0.004
 4383.00    2.91417   1.74573    0.004
 4384.00    3.59967   1.75268    0.004
 4385.00    4.67766   1.74522    0.004
 4386.00    4.54976   1.76882    0.004
 4387.00    4.21793   1.82039    0.004
 4388.00    3.69937   1.86488    0.004
 4389.00    3.15696   1.88858    0.004
 4390.00    2.80598   1.92985    0.004
 4391.00    2.47208   2.02585    0.004
 4392.00    3.10449   2.13898    0.004
 4393.00    3.78836   2.18237    0.004
 4394.00    3.70377   2.12217    0.004
 4395.00    3.59221   2.01915    0.004
 4396.00    2.51121   1.95294    0.004
 4397.00    1.50829   1.91225    0.004
 4398.00    2.22142   1.80671    0.004
 4399.00    2.85032   1.62125    0.004
 4400.00    2.43836   1.47584    0.004
 4401.00    2.04793   1.46870    0.004
 4402.00    1.83852   1.56331    0.004
 4403.00    1.74812   1.69041    0.004
 4404.00    2.40363   1.84695    0.004
 4405.00    3.03053   2.03374    0.004
 4406.00    3.51673   2.19491    0.004
 4407.00    3.87121   2.26061    0.004
 4408.00    3.69988   2.19572    0.004
 4409.00    3.61831   2.02757    0.004
 4410.00    3.83447   1.86501    0.004
 4411.00    3.71871   1.83011    0.004
 4412.00    2.67302   1.94203    0.004
 4413.00    2.18017   2.11586    0.004
 4414.00    3.01235   2.25219    0.004
 4415.00    3.60783   2.28865    0.004
 4416.00    3.71339   2.21786    0.004
 4417.00    3.48413   2.10131    0.004
 4418.00    2.65212   2.02710    0.004
 4419.00    2.39554   2.02590    0.004
 4420.00    3.04478   2.05661    0.004
 4421.00    3.26708   2.08072    0.004
 4422.00    2.89942   2.10190    0.004
 4423.00    3.06821   2.12211    0.004
 4424.00    3.88948   2.11909    0.004
 4425.00    4.14841   2.09509    0.004
 4426.00    3.80436   2.08766    0.004
 4427.00    3.27113   2.09266    0.004
 4428.00    2.55897   2.04797    0.004
 4429.00    2.07088   1.93943    0.004
 4430.00    1.76963   1.85507    0.004
 4431.00    1.66211   1.89458    0.004
 4432.00    1.69683   2.06044    0.004
 4433.00    2.12245   2.25530    0.004
 4434.00    2.80010   2.36486    0.004
 4435.00    2.87745   2.33422    0.004
 4436.00    2.61620   2.19893    0.004
 4437.00    2.75953   2.06367    0.004
 4438.00    3.10147   2.03005    0.004
 4439.00    3.01415   2.12361    0.004
 4440.00    2.74468   2.27783    0.004
 4441.00    2.90273   2.39579    0.004
 4442.00    3.21616   2.43985    0.004
 4443.00    2.92825   2.44113    0.004
 4444.00    2.45541   2.42728    0.004
 4445.00    3.29787   2.39925    0.004
 4446.00    4.47706   2.36062    0.004
 4447.00    4.56552   2.30250    0.004
 4448.00    4.42665   2.19576    0.004
 4449.00    3.74321   2.04770    0.004
 4450.00    2.97030   1.92399    0.004
 4451.00    3.33894   1.87923    0.004
 4452.00    3.84831   1.89296    0.004
 4453.00    3.89230   1.90383    0.004
 4454.00    3.89669   1.88386    0.004
 4455.00    4.23529   1.84941    0.004
 4456.00    4.59039   1.83726    0.004
 4457.00    3.45585   1.89207    0.004
 4458.00    2.32925   2.02028    0.004
 4459.00    3.18813   2.15272    0.004
 4460.00    4.01800   2.21764    0.004
 4461.00    4.26035   2.22260    0.000
 4462.00    4.46789   2.21056    0.000
 4463.00    4.26624   2.19476    0.000
 4464.00    4.07970   2.18117    0.000
 4465.00    4.01569   2.19815    0.000
 4466.00    3.88040   2.26659    0.000
 4467.00    3.31129   2.36968    0.000
 4468.00    3.05993   2.46655    0.000
 4469.00    4.33285   2.52565    0.000
 4470.00    5.17477   2.55721    0.000
 4471.00    4.33341   2.60019    0.000
 4472.00    3.28132   2.65185    0.000
 4473.00    1.54408   2.64585    0.000
 4474.00    0.53667   2.53414    0.000
 4475.00    1.53724   2.36009    0.000
 4476.00    2.29653   2.22720    0.000
 4477.00    2.48725   2.21518    0.000
 4478.00    2.25302   2.32899    0.000
 4479.00    1.15322   2.50235    0.000
 4480.00    1.27504   2.64636    0.000
 4481.00    3.56243   2.69916    0.000
 4482.00    4.78143   2.64161    0.004
 4483.00    4.34345   2.50500    0.004
 4484.00    3.80901   2.36977    0.004
 4485.00    3.14318   2.31855    0.004
 4486.00    2.88846   2.36228    0.004
 4487.00    3.12668   2.41995    0.004
 4488.00    3.25395   2.39807    0.004
 4489.00    3.26393   2.29554    0.004
 4490.00    2.99367   2.20679    0.004
 4491.00    2.46207   2.21739    0.004
 4492.00    2.39129   2.32759    0.004
 4493.00    2.69935   2.47154    0.004
 4494.00    3.04786   2.57379    0.004
 4495.00    3.42566   2.60235    0.004
 4496.00    3.61356   2.60161    0.004
 4497.00    3.68083   2.65555    0.004
 4498.00    3.71032   2.78224    0.004
 4499.00    3.71883   2.90072    0.004
 4500.00    4.09772   2.93244    0.004
 4501.00    4.65553   2.88373    0.004
 4502.00    4.34050   2.81833    0.004
 4503.00    3.66132   2.78973    0.004
 4504.00    4.29878   2.80323    0.004
 4505.00    5.40614   2.82079    0.004
 4506.00    4.64504   2.79504    0.004
 4507.00    3.32059   2.71387    0.004
 4508.00    2.86346   2.61687    0.004
 4509.00    2.62357   2.55851    0.004
 4510.00    3.29241   2.55628    0.004
 4511.00    4.14599   2.57812    0.004
 4512.00    3.50313   2.58970    0.004
 4513.00    2.62155   2.60730    0.004
 4514.00    3.07717   2.66715    0.004
 4515.00    3.69172   2.75267    0.004
 4516.00    3.23374   2.79746    0.004
 4517.00    2.68897   2.76009    0.004
 4518.00    3.35864   2.66645    0.004
 4519.00    4.08354   2.55727    0.004
 4520.00    3.63052   2.43267    0.004
 4521.00    3.18121   2.28577    0.004
 4522.00    3.65987   2.14576    0.004
 4523.00    4.11137   2.05983    0.004
 4524.00    4.05324   2.05293    0.004
 4525.00    3.99431   2.11240    0.004
 4526.00    3.92653   2.20109    0.004
 4527.00    3.89579   2.26989    0.004
 4528.00    4.15495   2.27664    0.004
 4529.00    4.25296   2.23790    0.004
 4530.00    3.39813   2.24412    0.004
 4531.00    2.85857   2.36812    0.004
 4532.00    3.79478   2.55836    0.004
 4533.00    4.50064   2.68117    0.004
 4534.00    4.32613   2.67260    0.004
 4535.00    4.16315   2.59468    0.004
 4536.00    4.03693   2.54898    0.004
 4537.00    4.09944   2.56939    0.004
 4538.00    4.67191   2.60301    0.004
 4539.00    4.40396   2.59367    0.004
 4540.00    2.18867   2.55687    0.004
 4541.00    1.29481   2.53925    0.004
 4542.00    3.04984   2.54085    0.004
 4543.00    3.80489   2.53071    0.004
 4544.00    2.81414   2.51356    0.004
 4545.00    2.57055   2.51923    0.004
 4546.00    3.46874   2.53785    0.004
 4547.00    3.92139   2.52967    0.004
 4548.00    3.77594   2.49043    0.004
 4549.00    3.31930   2.46295    0.004
 4550.00    2.49478   2.49677    0.000
 4551.00    2.65964   2.60661    0.000
 4552.00    3.85577   2.75256    0.000
 4553.00    4.65221   2.86786    0.000
 4554.00    5.08116   2.91712    0.000
 4555.00    4.48784   2.91649    0.000
 4556.00    3.06604   2.89213    0.000
 4557.00    2.88878   2.83672    0.000
 4558.00    3.59910   2.73669    0.000
 4559.00    3.79128   2.63095    0.000
 4560.00    3.65918   2.59874    0.000
 4561.00    3.50745   2.67776    0.000
 4562.00    3.34498   2.81564    0.000
 4563.00    3.51886   2.91418    0.000
 4564.00    3.85263   2.91305    0.000
 4565.00    4.23963   2.82970    0.000
 4566.00    4.64846   2.74587    0.000
 4567.00    3.97315   2.74347    0.000
 4568.00    2.91795   2.81723    0.000
 4569.00    2.82979   2.88601    0.000
 4570.00    3.02745   2.90175    0.000
 4571.00    2.43831   2.87879    0.000
 4572.00    1.65643   2.82689    0.000
 4573.00    2.08215   2.73434    0.000
 4574.00    2.74719   2.61746    0.000
 4575.00    3.72621   2.53652    0.000
 4576.00    4.75382   2.53976    0.000
 4577.00    3.42709   2.60403    0.000
 4578.00    1.83093   2.65661    0.000
 4579.00    2.37423   2.65582    0.000
 4580.00    3.08185   2.63086    0.000
 4581.00    3.20952   2.64579    0.000
 4582.00    3.31304   2.73256    0.000
 4583.00    3.15049   2.85187    0.000
 4584.00    2.99090   2.92392    0.000
 4585.00    3.05802   2.90224    0.000
 4586.00    3.22433   2.81198    0.000
 4587.00    5.12435   2.71536    0.000
 4588.00    6.79608   2.64917    0.000
 4589.00    6.02528   2.61027    0.000
 4590.00    5.31055   2.59047    0.000
 4591.00    5.01969   2.59350    0.000
 4592.00    4.69381   2.61958    0.000
 4593.00    4.16664   2.65399    0.000
 4594.00    3.64150   2.67338    0.000
 4595.00    3.12570   2.67070    0.000
 4596.00    2.79657   2.66674    0.000
 4597.00    3.16581   2.67502    0.000
 4598.00    3.80037   2.67970    0.000
 4599.00    5.26470   2.67104    0.000
 4600.00    6.09222   2.67829    0.000
 4601.00    5.22938   2.74891    0.000
 4602.00    4.48896   2.89417    0.000
 4603.00    4.02752   3.05871    0.000
 4604.00    3.99939   3.15714    0.000
 4605.00    4.82615   3.14897    0.000
 4606.00    4.65961   3.06986    0.000
 4607.00    2.78513   2.99013    0.000
 4608.00    2.17740   2.96103    0.000
 4609.00    3.47707   2.99170    0.000
 4610.00    4.15630   3.05164    0.000
 4611.00    4.01456   3.10123    0.000
 4612.00    3.57173   3.11958    0.000
 4613.00    2.77800   3.10548    0.000
 4614.00    2.59117   3.08204    0.000
 4615.00    3.02807   3.08168    0.000
 4616.00    3.87182   3.10092    0.000
 4617.00    5.08438   3.10950    0.000
 4618.00    5.70122   3.09801    0.000
 4619.00    5.84210   3.07479    0.000
 4620.00    5.72335   3.04744    0.000
 4621.00    5.42211   3.03002    0.000
 4622.00    4.70959   3.02980    0.000
 4623.00    3.74350   3.03365    0.000
 4624.00    3.32343   3.03802    0.000
 4625.00    3.19740   3.05640    0.000
 4626.00    3.66848   3.07395    0.000
 4627.00    4.41885   3.05059    0.000
 4628.00    4.89101   2.98666    0.000
 4629.00    5.25101   2.92599    0.000
 4630.00    5.28072   2.88815    0.000
 4631.00    5.19681   2.84905    0.000
 4632.00    4.31173   2.78896    0.000
 4633.00    3.19461   2.72270    0.000
 4634.00    2.84459   2.68459    0.000
 4635.00    2.67832   2.70189    0.000
 4636.00    2.81078   2.76483    0.000
 4637.00    3.00095   2.81741    0.000
 4638.00    3.58291   2.80417    0.000
 4639.00    4.22367   2.71689    0.000
 4640.00    4.20871   2.58728    0.000
 4641.00    4.12158   2.46987    0.000
 4642.00    4.50427   2.42514    0.000
 4643.00    4.92112   2.47877    0.000
 4644.00    4.05537   2.60174    0.000
 4645.00    3.14113   2.74055    0.000
 4646.00    4.31410   2.85175    0.000
 4647.00    5.47512   2.90726    0.000
 4648.00    5.79987   2.89243    0.000
 4649.00    6.10363   2.82485    0.000
 4650.00    6.06429   2.76472    0.000
 4651.00    5.89690   2.77910    0.000
 4652.00    4.41908   2.89086    0.000
 4653.00    3.24953   3.05778    0.000
 4654.00    4.33265   3.19512    0.000
 4655.00    5.09843   3.23155    0.000
 4656.00    4.09008   3.15726    0.000
 4657.00    3.19720   3.02389    0.000
 4658.00    2.81953   2.89591    0.000
 4659.00    2.70101   2.78996    0.000
 4660.00    3.53177   2.66795    0.000
 4661.00    4.30834   2.51168    0.000
 4662.00    4.91867   2.38703    0.000
 4663.00    5.07887   2.38810    0.000
 4664.00    4.06520   2.52603    0.000
 4665.00    3.60539   2.71319    0.000
 4666.00    4.38688   2.84866    0.000
 4667.00    4.92505   2.89513    0.000
 4668.00    4.99066   2.88675    0.000
 4669.00    4.57790   2.88474    0.000
 4670.00    3.35499   2.91950    0.000
 4671.00    2.73517   2.96187    0.000
 4672.00    3.01018   2.95765    0.000
 4673.00    3.62969   2.89182    0.000
 4674.00    4.69852   2.80112    0.000
 4675.00    4.88198   2.73299    0.000
 4676.00    4.04819   2.71779    0.000
 4677.00    3.17412   2.76169    0.000
 4678.00    2.25923   2.83814    0.000
 4679.00    2.44346   2.90153    0.000
 4680.00    3.60999   2.92383    0.000
 4681.00    4.43463   2.90806    0.000
 4682.00    4.99002   2.87638    0.000
 4683.00    4.60693   2.85411    0.000
 4684.00    3.57376   2.84778    0.000
 4685.00    3.71302   2.84360    0.000
 4686.00    4.56435   2.83808    0.000
 4687.00    4.56897   2.84878    0.000
 4688.00    4.12463   2.89062    0.000
 4689.00    3.94222   2.95726    0.000
 4690.00    3.88034   3.01597    0.000
 4691.00    3.16857   3.01814    0.000
 4692.00    2.19931   2.94235    0.000
 4693.00    2.54487   2.83013    0.000
 4694.00    3.33438   2.74840    0.000
 4695.00    4.13164   2.71710    0.000
 4696.00    4.93110   2.70683    0.000
 4697.00    4.56760   2.70227    0.000
 4698.00    3.93184   2.72266    0.000
 4699.00    3.56185   2.77263    0.000
 4700.00    3.24186   2.81374    0.000
 4701.00    3.54391   2.80912    0.000
 4702.00    3.93643   2.77205    0.000
 4703.00    4.36496   2.75090    0.000
 4704.00    4.79730   2.78276    0.000
 4705.00    4.50694   2.86246    0.000
 4706.00    4.16696   2.93788    0.000
 4707.00    4.33611   2.95021    0.000
 4708.00    4.52259   2.89922    0.000
 4709.00    4.81174   2.85506    0.000
 4710.00    5.07864   2.88940    0.000
 4711.00    4.61652   3.00249    0.000
 4712.00    4.20568   3.13704    0.000
 4713.00    4.58165   3.24777    0.000
 4714.00    4.93933   3.32027    0.000
 4715.00    5.11766   3.34535    0.000
 4716.00    5.21751   3.32413    0.000
 4717.00    4.76247   3.29062    0.000
 4718.00    4.37683   3.28732    0.000
 4719.00    4.36884   3.30636    0.000
 4720.00    4.34119   3.27978    0.000
 4721.00    4.22792   3.15231    0.000
 4722.00    4.26933   2.95584    0.000
 4723.00    4.86561   2.78876    0.000
 4724.00    5.39461   2.72379    0.000
 4725.00    5.72110   2.75852    0.000
 4726.00    5.72249   2.84658    0.000
 4727.00    4.89083   2.94156    0.000
 4728.00    4.17208   3.01400    0.000
 4729.00    3.70221   3.05114    0.000
 4730.00    3.54407   3.05417    0.000
 4731.00    3.98187   3.04980    0.000
 4732.00    4.11732   3.08173    0.000
 4733.00    3.74841   3.15127    0.000
 4734.00    3.65683   3.20302    0.000
 4735.00    3.97076   3.20466    0.000
 4736.00    4.36954   3.18886    0.000
 4737.00    4.87741   3.19420    0.000
 4738.00    5.05192   3.21596    0.000
 4739.00    4.84880   3.23639    0.000
 4740.00    4.64468   3.26285    0.000
 4741.00    4.43957   3.30475    0.000
 4742.00    4.42528   3.34428    0.000
 4743.00    4.57913   3.36164    0.000
 4744.00    4.88590   3.35832    0.000
 4745.00    5.31140   3.33637    0.000
 4746.00    5.44040   3.28855    0.000
 4747.00    5.36702   3.22038    0.000
 4748.00    4.85514   3.15651    0.000
 4749.00    4.08094   3.11940    0.000
 4750.00    4.13700   3.11392    0.000
 4751.00    4.62647   3.13054    0.000
 4752.00    5.09648   3.15837    0.000
 4753.00    5.55770   3.18993    0.000
 4754.00    5.49396   3.20964    0.000
 4755.00    5.22583   3.19075    0.000
 4756.00    5.22261   3.12339    0.000
 4757.00    5.30717   3.03279    0.000
 4758.00    5.54640   2.94728    0.000
 4759.00    5.82861   2.87203    0.000
 4760.00    5.61148   2.81799    0.000
 4761.00    5.28012   2.82101    0.004
 4762.00    5.11191   2.90237    0.004
 4763.00    4.97359   3.03126    0.004
 4764.00    4.17519   3.14182    0.004
 4765.00    3.28382   3.18523    0.004
 4766.00    3.94146   3.17481    0.004
 4767.00    4.75621   3.17477    0.004
 4768.00    4.72838   3.22771    0.004
 4769.00    4.64609   3.30849    0.004
 4770.00    5.01417   3.36830    0.004
 4771.00    5.39525   3.39601    0.004
 4772.00    5.46388   3.40645    0.004
 4773.00    5.52233   3.40040    0.004
 4774.00    5.28608   3.37009    0.004
 4775.00    5.04228   3.31569    0.004
 4776.00    4.68947   3.24019    0.004
 4777.00    4.35026   3.15748    0.004
 4778.00    4.13899   3.10021    0.004
 4779.00    3.93386   3.08497    0.004
 4780.00    3.77067   3.08931    0.004
 4781.00    3.76765   3.09188    0.004
 4782.00    4.61308   3.09788    0.004
 4783.00    5.20362   3.10990    0.004
 4784.00    4.70866   3.12428    0.004
 4785.00    4.17190   3.15542    0.004
 4786.00    3.48830   3.22577    0.004
 4787.00    3.16147   3.33971    0.004
 4788.00    3.88873   3.47283    0.004
 4789.00    4.60249   3.57528    0.004
 4790.00    5.28229   3.59954    0.004
 4791.00    5.65792   3.53777    0.004
 4792.00    5.37398   3.42524    0.004
 4793.00    5.34047   3.31563    0.004
 4794.00    5.77830   3.26198    0.004
 4795.00    5.69780   3.29547    0.004
 4796.00    4.76554   3.39507    0.004
 4797.00    4.33249   3.48907    0.004
 4798.00    4.61873   3.50991    0.004
 4799.00    4.88649   3.44980    0.004
 4800.00    5.13082   3.35405    0.004
 4801.00    5.14762   3.26978    0.004
 4802.00    4.91028   3.22187    0.004
 4803.00    4.94140   3.22408    0.004
 4804.00    5.23696   3.27229    0.004
 4805.00    5.37650   3.33317    0.004
 4806.00    5.38053   3.37098    0.004
 4807.00    5.15967   3.38071    0.004
 4808.00    4.76673   3.38332    0.004
 4809.00    4.64578   3.40110    0.004
 4810.00    4.70780   3.44352    0.004
 4811.00    5.01773   3.50544    0.004
 4812.00    5.47374   3.57151    0.004
 4813.00    5.02844   3.62354    0.004
 4814.00    4.11998   3.64293    0.004
 4815.00    3.62007   3.61066    0.004
 4816.00    3.30205   3.51754    0.004
 4817.00    3.47053   3.38760    0.004
 4818.00    3.82514   3.28708    0.004
 4819.00    4.20135   3.27534    0.004
 4820.00    4.58459   3.33610    0.004
 4821.00    5.32298   3.39411    0.004
 4822.00    6.15806   3.40322    0.004
 4823.00    5.71815   3.38071    0.004
 4824.00    4.99335   3.35434    0.004
 4825.00    4.61660   3.32053    0.004
 4826.00    4.30187   3.27956    0.004
 4827.00    4.28112   3.26978    0.004
 4828.00    4.30041   3.32013    0.004
 4829.00    3.95139   3.39993    0.004
 4830.00    3.56658   3.45542    0.004
 4831.00    3.51390   3.46460    0.004
 4832.00    3.48136   3.43178    0.004
 4833.00    3.43746   3.36902    0.004
 4834.00    3.39695   3.30464    0.004
 4835.00    4.01810   3.27123    0.004
 4836.00    4.63265   3.27044    0.004
 4837.00    5.07470   3.28413    0.004
 4838.00    5.48510   3.31858    0.004
 4839.00    5.46346   3.38929    0.004
 4840.00    5.46271   3.46627    0.004
 4841.00    5.65083   3.48882    0.004
 4842.00    5.73920   3.44202    0.004
 4843.00    5.16572   3.38239    0.004
 4844.00    4.64143   3.37154    0.004
 4845.00    4.37098   3.40679    0.004
 4846.00    4.38573   3.43714    0.004
 4847.00    5.58770   3.41926    0.004
 4848.00    6.35628   3.33917    0.000
 4849.00    5.63256   3.22441    0.000
 4850.00    5.04327   3.14313    0.000
 4851.00    4.84381   3.13498    0.000
 4852.00    4.52544   3.14674    0.000
 4853.00    3.91279   3.08540    0.000
 4854.00    3.78636   2.93033    0.000
 4855.00    4.69727   2.76541    0.000
 4856.00    5.49185   2.70265    0.000
 4857.00    6.07087   2.77513    0.000
 4858.00    6.24214   2.91794    0.000
 4859.00    5.75336   3.05429    0.000
 4860.00    5.49506   3.15679    0.000
 4861.00    5.56407   3.22309    0.000
 4862.00    5.51138   3.24727    0.000
 4863.00    5.30665   3.21809    0.000
 4864.00    4.94270   3.12232    0.000
 4865.00    4.40342   2.98030    0.000
 4866.00    4.09673   2.87629    0.000
 4867.00    4.01593   2.88978    0.000
 4868.00    3.99754   3.00037    0.000
 4869.00    4.03260   3.12355    0.000
 4870.00    3.86258   3.21748    0.000
 4871.00    3.53788   3.29870    0.000
 4872.00    3.65241   3.38639    0.000
 4873.00    4.05808   3.46807    0.000
 4874.00    4.45496   3.50242    0.000
 4875.00    4.84674   3.46543    0.004
 4876.00    5.31462   3.39680    0.004
 4877.00    5.82098   3.35048    0.004
 4878.00    6.10508   3.31336    0.004
 4879.00    6.29185   3.24045    0.004
 4880.00    5.90905   3.14576    0.004
 4881.00    5.31216   3.08919    0.004
 4882.00    5.18500   3.08510    0.004
 4883.00    5.20765   3.07727    0.004
 4884.00    5.63304   3.01773    0.004
 4885.00    6.16577   2.95156    0.004
 4886.00    6.14285   2.99037    0.004
 4887.00    5.99870   3.18498    0.004
 4888.00    5.85410   3.46220    0.004
 4889.00    5.70942   3.70355    0.004
 4890.00    5.98237   3.84402    0.004
 4891.00    6.31032   3.88436    0.004
 4892.00    6.48027   3.85090    0.004
 4893.00    6.63554   3.76970    0.004
 4894.00    6.17253   3.67509    0.004
 4895.00    5.67446   3.60367    0.004
 4896.00    4.98572   3.56105    0.004
 4897.00    4.30613   3.53353    0.004
 4898.00    5.10331   3.53709    0.004
 4899.00    5.85245   3.59942    0.004
 4900.00    5.46150   3.69130    0.004
 4901.00    5.13022   3.73074    0.004
 4902.00    5.57033   3.66623    0.004
 4903.00    5.96497   3.52716    0.004
 4904.00    5.96419   3.39452    0.004
 4905.00    5.87377   3.33844    0.004
 4906.00    5.20658   3.37529    0.004
 4907.00    4.81913   3.47127    0.004
 4908.00    5.83841   3.58192    0.004
 4909.00    6.61201   3.67128    0.004
 4910.00    6.38559   3.69423    0.004
 4911.00    6.11097   3.59585    0.004
 4912.00    5.67366   3.36073    0.004
 4913.00    5.51119   3.06085    0.004
 4914.00    6.13115   2.83385    0.004
 4915.00    6.48730   2.79005    0.004
 4916.00    6.20164   2.92215    0.004
 4917.00    6.05655   3.11330    0.004
 4918.00    6.20650   3.25400    0.004
 4919.00    6.21652   3.34035    0.004
 4920.00    5.97118   3.43532    0.004
 4921.00    5.79664   3.56628    0.004
 4922.00    5.73501   3.70744    0.004
 4923.00    5.71733   3.82609    0.004
 4924.00    5.76115   3.89792    0.004
 4925.00    6.05131   3.90259    0.004
 4926.00    6.64484   3.82944    0.004
 4927.00    6.72581   3.69984    0.004
 4928.00    6.25035   3.58225    0.004
 4929.00    5.38214   3.53132    0.004
 4930.00    4.13781   3.50697    0.004
 4931.00    4.29465   3.42354    0.004
 4932.00    5.63457   3.28039    0.004
 4933.00    6.19912   3.18565    0.004
 4934.00    6.18717   3.23807    0.004
 4935.00    6.29420   3.41865    0.004
 4936.00    6.47893   3.62427    0.004
 4937.00    6.45678   3.77617    0.004
 4938.00    6.31636   3.85205    0.004
 4939.00    5.47216   3.86020    0.004
 4940.00    4.27760   3.83845    0.000
 4941.00    3.90881   3.83876    0.000
 4942.00    3.89561   3.87746    0.000
 4943.00    4.66927   3.93039    0.000
 4944.00    5.73344   3.97483    0.000
 4945.00    5.78155   3.99952    0.000
 4946.00    5.51182   3.98709    0.000
 4947.00    4.89686   3.92547    0.000
 4948.00    4.19183   3.82158    0.000
 4949.00    3.72804   3.67363    0.000
 4950.00    3.31562   3.46204    0.000
 4951.00    3.91227   3.22039    0.000
 4952.00    4.67895   3.08206    0.000
 4953.00    4.95694   3.15862    0.000
 4954.00    5.17278   3.38995    0.000
 4955.00    5.55547   3.60942    0.000
 4956.00    5.95297   3.72179    0.000
 4957.00    6.01383   3.73737    0.000
 4958.00    6.05693   3.68307    0.000
 4959.00    5.62326   3.57402    0.000
 4960.00    5.17900   3.45491    0.000
 4961.00    4.61968   3.38596    0.000
 4962.00    4.10649   3.38678    0.000
 4963.00    4.59663   3.43615    0.000
 4964.00    5.10432   3.50958    0.000
 4965.00    5.82751   3.59424    0.000
 4966.00    6.51720   3.68188    0.000
 4967.00    6.92634   3.75883    0.000
 4968.00    7.08559   3.80826    0.000
 4969.00    5.68441   3.81741    0.000
 4970.00    4.66969   3.77958    0.000
 4971.00    5.54981   3.69813    0.000
 4972.00    6.16813   3.58930    0.000
 4973.00    5.74423   3.47900    0.000
 4974.00    5.44578   3.37892    0.000
 4975.00    5.56231   3.26490    0.000
 4976.00    5.73229   3.12097    0.000
 4977.00    6.05173   2.99727    0.000
 4978.00    6.43617   2.97063    0.000
 4979.00    6.97611   3.05850    0.000
 4980.00    7.04577   3.21482    0.000
 4981.00    6.14401   3.38201    0.000
 4982.00    5.21394   3.50980    0.000
 4983.00    4.23304   3.56473    0.000
 4984.00    3.93197   3.55742    0.000
 4985.00    4.69907   3.53421    0.000
 4986.00    5.23724   3.53210    0.000
 4987.00    5.45964   3.54887    0.000
 4988.00    5.37419   3.56393    0.000
 4989.00    4.91495   3.57852    0.000
 4990.00    4.99013   3.59867    0.000
 4991.00    5.63733   3.60050    0.000
 4992.00    6.26614   3.55320    0.000
 4993.00    6.87761   3.45403    0.000
 4994.00    6.54250   3.33659    0.000
 4995.00    5.41946   3.25064    0.000
 4996.00    5.26126   3.21573    0.000
 4997.00    5.81014   3.20301    0.000
 4998.00    5.73625   3.16729    0.000
 4999.00    5.26159   3.09391    0.000
 5000.00    5.31313   3.02866    0.000
 5001.00    5.66089   3.04761    0.000
 5002.00    5.88064   3.16968    0.000
 5003.00    6.03767   3.31719    0.000
 5004.00    6.15565   3.38808    0.000
 5005.00    6.25710   3.34284    0.000
 5006.00    6.12537   3.21029    0.000
 5007.00    5.90908   3.05625    0.000
 5008.00    5.68250   2.95578    0.000
 5009.00    5.45277   2.95193    0.000
 5010.00    5.78861   3.02367    0.000
 5011.00    6.26885   3.10771    0.000
 5012.00    6.38517   3.16337    0.000
 5013.00    6.42587   3.19742    0.000
 5014.00    6.04265   3.22012    0.000
 5015.00    5.59004   3.22220    0.000
 5016.00    5.52334   3.21189    0.000
 5017.00    5.50400   3.22892    0.000
 5018.00    4.92003   3.29319    0.000
 5019.00    4.28832   3.36662    0.000
 5020.00    4.75263   3.39500    0.000
 5021.00    5.27049   3.37465    0.000
 5022.00    5.21994   3.35955    0.000
 5023.00    5.16149   3.40420    0.000
 5024.00    5.15782   3.50765    0.000
 5025.00    5.19202   3.62965    0.000
 5026.00    5.98580   3.73825    0.000
 5027.00    6.74053   3.80498    0.000
 5028.00    7.03905   3.78742    0.000
 5029.00    7.23528   3.67118    0.004
 5030.00    6.60569   3.51288    0.004
 5031.00    6.05080   3.38925    0.004
 5032.00    5.94889   3.30154    0.004
 5033.00    5.77405   3.18373    0.004
 5034.00    5.25041   3.02004    0.004
 5035.00    4.82826   2.90220    0.004
 5036.00    4.80144   2.94358    0.010
 5037.00    4.79351   3.15856   -1.000
 5038.00    4.84688   3.44912   -1.000
 5039.00    4.94620   3.69722   -1.000
 5040.00    5.17162   3.83048   -1.000
 5041.00    5.46242   3.81827   -1.000
 5042.00    5.90690   3.67855   -1.000
 5043.00    6.21985   3.49305   -1.000
 5044.00    6.26542   3.35961   -1.000
 5045.00    6.10466   3.32071    0.020
 5046.00    5.57883   3.36135    0.005
 5047.00    5.42288   3.45493    0.004
 5048.00    5.83951   3.57704    0.004
 5049.00    5.97882   3.69365    0.004
 5050.00    5.74111   3.77469    0.004
 5051.00    5.30191   3.81967    0.004
 5052.00    4.62155   3.85015    0.004
 5053.00    4.62920   3.88401    0.004
 5054.00    5.36293   3.92551    0.004
 5055.00    6.04938   3.96167    0.004
 5056.00    6.69182   3.95460    0.004
 5057.00    6.61731   3.86202    0.004
 5058.00    5.95444   3.69223    0.004
 5059.00    5.99590   3.52247    0.004
 5060.00    6.54609   3.43107    0.004
 5061.00    6.37945   3.42268    0.004
 5062.00    5.75832   3.45127    0.004
 5063.00    5.66365   3.49071    0.004
 5064.00    5.86083   3.53481    0.004
 5065.00    6.17545   3.56082    0.004
 5066.00    6.54669   3.55580    0.004
 5067.00    6.06346   3.54855    0.004
 5068.00    5.22450   3.56550    0.004
 5069.00    4.98657   3.58914    0.004
 5070.00    4.96265   3.59015    0.004
 5071.00    5.06975   3.55437    0.004
 5072.00    5.21626   3.46271    0.004
 5073.00    4.74910   3.31106    0.004
 5074.00    4.12866   3.16028    0.004
 5075.00    4.42310   3.09730    0.004
 5076.00    4.90292   3.13925    0.004
 5077.00    5.28380   3.23225    0.004
 5078.00    5.64897   3.33267    0.004
 5079.00    5.96728   3.43285    0.004
 5080.00    6.28004   3.52447    0.004
 5081.00    5.46194   3.59156    0.003
 5082.00    4.55292   3.63500    0.003
 5083.00    5.08472   3.67081    0.003
 5084.00    5.68134   3.70947    0.004
 5085.00    5.64151   3.75470    0.004
 5086.00    5.58736   3.80812    0.003
 5087.00    5.19471   3.85544    0.003
 5088.00    4.87142   3.86187    0.003
 5089.00    5.83787   3.80147    0.003
 5090.00    6.61093   3.68263    0.004
 5091.00    5.23013   3.53587    0.004
 5092.00    4.09867   3.39868    0.004
 5093.00    4.90988   3.32074    0.004
 5094.00    5.66686   3.34454    0.004
 5095.00    6.10431   3.45383    0.004
 5096.00    6.41785   3.56941    0.004
 5097.00    6.15315   3.62049    0.004
 5098.00    5.85672   3.60207    0.004
 5099.00    5.43939   3.55032    0.004
 5100.00    5.21892   3.49041    0.004
 5101.00    5.62460   3.42860    0.004
 5102.00    5.99722   3.37414    0.004
 5103.00    6.28070   3.34394    0.004
 5104.00    6.13866   3.35247    0.004
 5105.00    5.01271   3.40532    0.004
 5106.00    4.50610   3.49245    0.004
 5107.00    5.23849   3.58904    0.004
 5108.00    5.83266   3.67558    0.004
 5109.00    6.18597   3.75114    0.004
 5110.00    6.00885   3.82206    0.004
 5111.00    5.02263   3.88458    0.004
 5112.00    4.76162   3.91892    0.004
 5113.00    5.47236   3.90022    0.004
 5114.00    5.93238   3.82028    0.004
 5115.00    6.09654   3.69292    0.004
 5116.00    5.75688   3.54013    0.004
 5117.00    4.89301   3.38881    0.004
 5118.00    5.20833   3.27698    0.004
 5119.00    6.60589   3.23289    0.004
 5120.00    7.06648   3.24346    0.004
 5121.00    6.76907   3.26699    0.004
 5122.00    6.46247   3.28177    0.004
 5123.00    6.14932   3.30451    0.004
 5124.00    5.65911   3.36112    0.004
 5125.00    5.05830   3.45242    0.004
 5126.00    5.38291   3.55142    0.004
 5127.00    6.21270   3.63212    0.004
 5128.00    6.06207   3.68938    0.004
 5129.00    5.44630   3.71970    0.004
 5130.00    5.01284   3.70114    0.004
 5131.00    4.65399   3.62098    0.004
 5132.00    4.66519   3.51299    0.004
 5133.00    4.80576   3.43936    0.004
 5134.00    5.43218   3.42852    0.004
 5135.00    6.20184   3.44625    0.004
 5136.00    5.88259   3.44567    0.004
 5137.00    5.29734   3.42821    0.004
 5138.00    5.13921   3.42038    0.004
 5139.00    5.06545   3.41617    0.004
 5140.00    4.80171   3.39307    0.004
 5141.00    4.50868   3.36293    0.003
 5142.00    4.41870   3.35777    0.004
 5143.00    4.35184   3.37817    0.004
 5144.00    4.81541   3.39077    0.004
 5145.00    5.31943   3.37342    0.003
 5146.00    5.21818   3.34163    0.003
 5147.00    5.09203   3.33179    0.003
 5148.00    4.70536   3.37275    0.003
 5149.00    4.33932   3.47127    0.003
 5150.00    4.93184   3.60747    0.003
 5151.00    5.50844   3.74079    0.004
 5152.00    5.80898   3.83286    0.004
 5153.00    6.07114   3.87104    0.004
 5154.00    5.92495   3.86386    0.004
 5155.00    5.74051   3.81640    0.004
 5156.00    5.26821   3.72375    0.003
 5157.00    4.94789   3.58025    0.003
 5158.00    5.49812   3.37410    0.003
 5159.00    5.99949   3.09182    0.004
 5160.00    6.27831   2.76288    0.004
 5161.00    6.44817   2.48738    0.004
 5162.00    6.21146   2.37265    0.003
 5163.00    5.99767   2.42156    0.003
 5164.00    5.85537   2.50546    0.004
 5165.00    5.92357   2.48917    0.004
 5166.00    6.54927   2.38859    0.004
 5167.00    6.55137   2.36282    0.004
 5168.00    5.13548   2.53053    0.004
 5169.00    4.47821   2.83931    0.004
 5170.00    5.31474   3.13933    0.004
 5171.00    5.63243   3.33394    0.004
 5172.00    5.05970   3.41535    0.004
 5173.00    4.32219   3.39933    0.004
 5174.00    3.33703   3.28115    0.004
 5175.00    3.14361   3.05247    0.005
 5176.00    3.99591   2.74988    0.005
 5177.00    4.78018   2.49027    0.004
 5178.00    5.48531   2.42671    0.004
 5179.00    6.07894   2.62357    0.004
 5180.00    6.55818   2.98395    0.004
 5181.00    6.64103   3.33339    0.004
 5182.00    6.36518   3.56491    0.004
 5183.00    6.21608   3.66617    0.004
 5184.00    6.16804   3.64863    0.004
 5185.00    5.68222   3.52727    0.004
 5186.00    4.88927   3.36776    0.004
 5187.00    4.80088   3.27115    0.004
 5188.00    5.14607   3.28332    0.004
 5189.00    5.21251   3.37082    0.004
 5190.00    5.12912   3.48695    0.000
 5191.00    4.92442   3.61217    0.000
 5192.00    4.66308   3.73242    0.000
 5193.00    4.79750   3.82283    0.000
 5194.00    5.09112   3.86107    0.000
 5195.00    5.27612   3.83909    0.000
 5196.00    5.42385   3.75614    0.000
 5197.00    5.28969   3.60826    0.000
 5198.00    5.07409   3.40232    0.000
 5199.00    4.79569   3.18053    0.000
 5200.00    4.50231   3.00453    0.000
 5201.00    5.35312   2.90859    0.000
 5202.00    6.42421   2.89440    0.000
 5203.00    6.12631   2.96783    0.000
 5204.00    5.62373   3.14081    0.000
 5205.00    6.27605   3.39013    0.000
 5206.00    7.05484   3.64286    0.000
 5207.00    6.93559   3.81334    0.000
 5208.00    6.75149   3.85756    0.000
 5209.00    6.74637   3.80589    0.000
 5210.00    6.74792   3.74528    0.000
 5211.00    6.55029   3.75425    0.003
 5212.00    6.34830   3.84492    0.003
 5213.00    6.02149   3.96823    0.003
 5214.00    5.70212   4.06412    0.003
 5215.00    5.50336   4.09430    0.003
 5216.00    5.29469   4.03811    0.003
 5217.00    4.98500   3.88681    0.003
 5218.00    4.71382   3.65683    0.003
 5219.00    4.72289   3.40443    0.003
 5220.00    4.82144   3.22295    0.003
 5221.00    5.41856   3.20374    0.003
 5222.00    5.92445   3.36636    0.003
 5223.00    6.02447   3.62572    0.003
 5224.00    6.10896   3.84670    0.003
 5225.00    6.13670   3.93818    0.003
 5226.00    6.26606   3.90306    0.003
 5227.00    6.70643   3.82146    0.003
 5228.00    6.83024   3.79113    0.003
 5229.00    6.13034   3.86134    0.003
 5230.00    5.54969   4.00595    0.003
 5231.00    5.23574   4.15262    0.003
 5232.00    5.39874   4.24129    0.004
 5233.00    6.48620   4.26316    0.004
 5234.00    6.85049   4.25034    0.004
 5235.00    5.99239   4.23731    0.004
 5236.00    5.60718   4.24089    0.004
 5237.00    5.92236   4.26145    0.004
 5238.00    5.99993   4.27244    0.004
 5239.00    5.76815   4.22109    0.004
 5240.00    5.51336   4.08459    0.004
 5241.00    5.23215   3.91697    0.004
 5242.00    5.21572   3.79518    0.004
 5243.00    5.46712   3.73832    0.004
 5244.00    5.38175   3.72355    0.004
 5245.00    4.99592   3.74364    0.004
 5246.00    4.74251   3.79788    0.004
 5247.00    4.59320   3.85657    0.004
 5248.00    4.66017   3.89287    0.004
 5249.00    4.87667   3.93716    0.004
 5250.00    5.01088   4.04346    0.004
 5251.00    5.09519   4.20572    0.004
 5252.00    5.80001   4.34507    0.004
 5253.00    6.83319   4.37811    0.004
 5254.00    6.35832   4.27461    0.004
 5255.00    5.19096   4.05842    0.004
 5256.00    4.76643   3.78132    0.004
 5257.00    4.63559   3.50210    0.004
 5258.00    4.77334   3.27264    0.004
 5259.00    5.00157   3.13317    0.004
 5260.00    5.13025   3.09745    0.004
 5261.00    5.23075   3.11215    0.004
 5262.00    5.75608   3.08337    0.004
 5263.00    6.38057   3.00328    0.004
 5264.00    6.06589   2.99081    0.004
 5265.00    5.57511   3.14348    0.004
 5266.00    5.56966   3.40790    0.004
 5267.00    5.63453   3.64574    0.004
 5268.00    5.87871   3.78185    0.004
 5269.00    6.14176   3.86105    0.004
 5270.00    6.45689   3.97184    0.004
 5271.00    6.77557   4.13501    0.004
 5272.00    5.93291   4.28191    0.004
 5273.00    5.05129   4.32834    0.004
 5274.00    5.23201   4.25405    0.004
 5275.00    5.39974   4.11052    0.003
 5276.00    5.11417   3.97495    0.003
 5277.00    4.86073   3.91702    0.004
 5278.00    5.09642   3.98470    0.003
 5279.00    5.33792   4.16816    0.003
 5280.00    5.63601   4.38453    0.003
 5281.00    5.94333   4.53892    0.003
 5282.00    6.31562   4.60557    0.003
 5283.00    6.55810   4.62850    0.003
 5284.00    6.09668   4.64823    0.003
 5285.00    5.54016   4.65780    0.003
 5286.00    4.57035   4.63236    0.003
 5287.00    3.96969   4.56876    0.003
 5288.00    4.68993   4.47057    0.003
 5289.00    5.30841   4.32001    0.003
 5290.00    5.62127   4.10942    0.003
 5291.00    5.89451   3.89900    0.004
 5292.00    6.06645   3.79298    0.004
 5293.00    5.98922   3.82988    0.003
 5294.00    5.36387   3.94570    0.004
 5295.00    4.85754   4.06821    0.004
 5296.00    4.57831   4.19375    0.004
 5297.00    4.40101   4.34926    0.004
 5298.00    4.39343   4.51993    0.003
 5299.00    4.36181   4.64735    0.003
 5300.00    4.29510   4.69371    0.004
 5301.00    4.52021   4.68641    0.004
 5302.00    5.11981   4.68447    0.004
 5303.00    5.53533   4.71219    0.004
 5304.00    5.74269   4.74419    0.004
 5305.00    5.80774   4.74551    0.004
 5306.00    5.73084   4.70913    0.004
 5307.00    5.59727   4.65539    0.004
 5308.00    5.41383   4.60478    0.004
 5309.00    5.07659   4.56135    0.004
 5310.00    4.62016   4.52491    0.004
 5311.00    4.61722   4.50094    0.004
 5312.00    4.92328   4.48994    0.003
 5313.00    5.38485   4.48344    0.004
 5314.00    5.93927   4.46972    0.004
 5315.00    6.38570   4.43367    0.004
 5316.00    6.77587   4.35906    0.004
 5317.00    6.45976   4.24821    0.004
 5318.00    5.82462   4.13147    0.004
 5319.00    5.70030   4.01766    0.003
 5320.00    5.77446   3.85906    0.003
 5321.00    6.02272   3.63596    0.003
 5322.00    6.32854   3.45565    0.003
 5323.00    6.40952   3.46734    0.003
 5324.00    6.42816   3.68414    0.003
 5325.00    6.18670   3.96965    0.003
 5326.00    5.88591   4.19578    0.003
 5327.00    5.54055   4.34770    0.003
 5328.00    5.18705   4.46723    0.003
 5329.00    5.05159   4.56155    0.003
 5330.00    4.94670   4.60352    0.003
 5331.00    4.88212   4.57386    0.003
 5332.00    4.82161   4.46881    0.003
 5333.00    5.34852   4.30611    0.003
 5334.00    5.91311   4.15541    0.003
 5335.00    5.33096   4.11016    0.003
 5336.00    4.71643   4.19110    0.003
 5337.00    4.82420   4.31907    0.003
 5338.00    4.92897   4.39933    0.003
 5339.00    4.94845   4.40233    0.003
 5340.00    4.97427   4.36185    0.003
 5341.00    5.09094   4.31340    0.003
 5342.00    5.28690   4.27262    0.003
 5343.00    6.22511   4.27030    0.003
 5344.00    7.02640   4.34227    0.003
 5345.00    6.89390   4.47818    0.003
 5346.00    6.59960   4.62658    0.003
 5347.00    5.45110   4.75331    0.003
 5348.00    4.62377   4.85982    0.003
 5349.00    5.16036   4.94768    0.003
 5350.00    5.64631   5.00547    0.003
 5351.00    5.95473   5.02789    0.003
 5352.00    6.13764   5.01868    0.003
 5353.00    5.95061   4.98065    0.003
 5354.00    5.87651   4.91237    0.003
 5355.00    6.08616   4.81961    0.003
 5356.00    6.31906   4.72350    0.003
 5357.00    6.60228   4.64108    0.003
 5358.00    6.64559   4.57014    0.003
 5359.00    6.23824   4.50849    0.003
 5360.00    5.79665   4.45911    0.003
 5361.00    5.29892   4.40599    0.003
 5362.00    4.87006   4.31321    0.003
 5363.00    4.54027   4.15932    0.003
 5364.00    4.52386   3.98843    0.003
 5365.00    4.90392   3.91291    0.003
 5366.00    5.39210   4.01885    0.003
 5367.00    6.00083   4.26944    0.003
 5368.00    6.21074   4.53319   -2.000
 5369.00    6.02848   4.70315   -2.000
 5370.00    5.55142   4.76167   -2.000
 5371.00    4.81874   4.76300   -2.000
 5372.00    4.65944   4.76432   -2.000
 5373.00    4.93815   4.76977   -2.000
 5374.00    5.36787   4.75242   -2.000
 5375.00    5.89899   4.70532   -2.000
 5376.00    5.86202   4.65006   -2.000
 5377.00    5.49091   4.61877   -2.000
 5378.00    5.51259   4.63157   -2.000
 5379.00    5.73569   4.67070   -2.000
 5380.00    5.76830   4.69244   -2.000
 5381.00    5.71628   4.66774   -2.000
 5382.00    5.41301   4.59445   -2.000
 5383.00    5.01385   4.49060    0.003
 5384.00    4.84066   4.38951    0.003
 5385.00    4.74076   4.32115    0.003
 5386.00    5.33930   4.28999    0.003
 5387.00    6.12747   4.27461    0.003
 5388.00    6.19048   4.24360    0.003
 5389.00    6.09193   4.17492    0.003
 5390.00    5.43384   4.08036    0.003
 5391.00    4.67635   4.02709    0.003
 5392.00    4.56292   4.08376    0.003
 5393.00    4.53686   4.22289    0.003
 5394.00    5.00068   4.35395    0.003
 5395.00    5.51184   4.42092    0.003
 5396.00    5.70012   4.39989    0.003
 5397.00    5.86897   4.27114    0.003
 5398.00    6.14146   4.06267    0.003
 5399.00    6.41810   3.87538    0.003
 5400.00    6.93548   3.81088    0.003
 5401.00    7.39919   3.87546    0.003
 5402.00    6.47921   3.97896    0.003
 5403.00    5.62718   4.05094    0.003
 5404.00    5.69625   4.12026    0.003
 5405.00    5.78273   4.24630    0.003
 5406.00    6.02569   4.41233    0.003
 5407.00    6.21481   4.55138    0.003
 5408.00    6.04802   4.63681    0.003
 5409.00    5.95730   4.69961    0.003
 5410.00    6.25778   4.76903    0.003
 5411.00    6.44563   4.82471    0.003
 5412.00    6.16596   4.82694    0.003
 5413.00    5.88328   4.77376    0.003
 5414.00    5.59023   4.70436    0.003
 5415.00    5.29490   4.65804    0.003
 5416.00    4.99298   4.63368    0.003
 5417.00    4.78963   4.60618    0.003
 5418.00    4.82972   4.59100    0.003
 5419.00    5.10701   4.63104    0.003
 5420.00    5.88933   4.70189    0.003
 5421.00    6.19304   4.71018    0.003
 5422.00    5.61156   4.59615    0.003
 5423.00    5.05881   4.41529    0.003
 5424.00    4.55246   4.29553    0.003
 5425.00    4.55099   4.27865    0.003
 5426.00    5.26515   4.27918    0.003
 5427.00    5.56979   4.23306    0.003
 5428.00    5.36374   4.17493    0.003
 5429.00    5.11210   4.17703    0.003
 5430.00    4.81033   4.27914    0.003
 5431.00    4.84092   4.46614    0.003
 5432.00    5.19373   4.68761    0.003
 5433.00    5.64513   4.88327    0.003
 5434.00    6.18081   5.01331    0.003
 5435.00    6.18755   5.07040    0.003
 5436.00    5.79601   5.06005    0.003
 5437.00    5.69800   4.97613    0.003
 5438.00    5.79420   4.80366    0.003
 5439.00    5.82307   4.56246    0.003
 5440.00    5.81293   4.33766    0.003
 5441.00    5.78608   4.24211    0.003
 5442.00    5.75079   4.31985    0.003
 5443.00    5.70257   4.49222    0.003
 5444.00    5.64868   4.63639    0.003
 5445.00    5.67818   4.68361    0.003
 5446.00    5.73895   4.62838    0.003
 5447.00    5.64902   4.49617    0.003
 5448.00    5.51114   4.33419    0.003
 5449.00    5.27013   4.22123    0.003
 5450.00    5.00171   4.23816    0.003
 5451.00    4.77709   4.38721    0.003
 5452.00    4.56201   4.56948    0.003
 5453.00    4.94132   4.67393    0.003
 5454.00    5.42332   4.66294    0.003
 5455.00    5.46218   4.57638    0.003
 5456.00    5.44294   4.48259    0.003
 5457.00    5.51698   4.43808    0.003
 5458.00    5.59964   4.46782    0.003
 5459.00    5.69954   4.54448    0.003
 5460.00    5.80041   4.61446    0.003
 5461.00    5.63564   4.65112    0.003
 5462.00    5.46629   4.65369    0.003
 5463.00    5.43793   4.62387    0.003
 5464.00    5.43577   4.57387    0.003
 5465.00    6.04854   4.52539    0.003
 5466.00    6.58089   4.48094    0.003
 5467.00    6.08037   4.42137    0.003
 5468.00    5.64909   4.33902    0.003
 5469.00    5.81695   4.24539    0.003
 5470.00    5.93751   4.17007    0.003
 5471.00    5.75498   4.16690    0.003
 5472.00    5.58603   4.25345    0.003
 5473.00    5.48517   4.35505    0.003
 5474.00    5.42150   4.38508    0.003
 5475.00    5.50871   4.35780    0.003
 5476.00    5.55142   4.36490    0.003
 5477.00    5.44430   4.45589    0.003
 5478.00    5.52460   4.58681   -2.000
 5479.00    6.13720   4.67482   -2.000
 5480.00    6.56694   4.67254   -2.000
 5481.00    6.55275   4.60645   -2.000
 5482.00    6.64623   4.55037   -2.000
 5483.00    6.96528   4.55044   -2.000
 5484.00    6.40335   4.59023   -2.000
 5485.00    4.23709   4.63255   -2.000
 5486.00    2.78622   4.65486   -2.000
 5487.00    2.47407   4.65243   -2.000
 5488.00    2.93474   4.63914   -2.000
 5489.00    4.47502   4.62802   -2.000
 5490.00    5.67232   4.61740   -2.000
 5491.00    6.44796   4.61520   -2.000
 5492.00    6.35648   4.64084   -2.000
 5493.00    5.32528   4.67860   -2.000
 5494.00    4.97445   4.67722   -2.000
 5495.00    5.27396   4.62162   -2.000
 5496.00    5.81194   4.55526   -2.000
 5497.00    6.55091   4.51417   -2.000
 5498.00    6.70095   4.48760   -2.000
 5499.00    6.41389   4.45813   -2.000
 5500.00    6.28475   4.44181   -2.000
 5501.00    6.25856   4.47068   -2.000
 5502.00    6.13912   4.53734    0.003
 5503.00    5.96648   4.58078    0.003
 5504.00    5.72471   4.55065    0.003
 5505.00    5.44858   4.45744    0.003
 5506.00    5.30086   4.35344    0.003
 5507.00    5.20830   4.29504    0.003
 5508.00    4.96808   4.30936    0.003
 5509.00    4.67348   4.38632    0.003
 5510.00    4.97225   4.50435    0.003
 5511.00    5.45620   4.64221    0.003
 5512.00    5.57333   4.77210    0.003
 5513.00    5.59501   4.86139    0.003
 5514.00    5.78963   4.89430    0.003
 5515.00    6.02096   4.88842    0.003
 5516.00    6.01411   4.87112    0.003
 5517.00    5.96727   4.84886    0.003
 5518.00    6.04365   4.80737    0.003
 5519.00    6.13565   4.72965    0.003
 5520.00    6.04813   4.61769    0.003
 5521.00    5.94478   4.50786    0.003
 5522.00    5.72546   4.45705    0.003
 5523.00    5.50008   4.49884    0.003
 5524.00    4.74361   4.60445    0.003
 5525.00    3.99141   4.70055    0.003
 5526.00    4.31135   4.73894    0.003
 5527.00    4.65527   4.72772    0.003
 5528.00    5.51495   4.69991    0.003
 5529.00    6.30767   4.67993    0.003
 5530.00    6.28346   4.68015    0.003
 5531.00    6.24977   4.70543    0.003
 5532.00    6.13713   4.75337    0.003
 5533.00    6.03112   4.81864    0.003
 5534.00    5.96633   4.88283    0.003
 5535.00    5.90970   4.91408    0.003
 5536.00    5.89295   4.89940    0.007
 5537.00    5.85484   4.85901   -1.000
 5538.00    5.73192   4.82567   -1.000
 5539.00    5.63045   4.82051   -1.000
 5540.00    5.59978   4.84837   -1.000
 5541.00    5.54722   4.90829   -1.000
 5542.00    5.43366   4.98897   -1.000
 5543.00    5.43055   5.05838    0.020
 5544.00    5.69104   5.08542    0.005
 5545.00    5.78180   5.06454    0.003
 5546.00    5.52268   5.00896    0.003
 5547.00    5.35840   4.94142    0.003
 5548.00    5.36419   4.88883    0.003
 5549.00    5.55909   4.86549    0.003
 5550.00    6.05055   4.86463    0.003
 5551.00    6.25074   4.86956    0.003
 5552.00    6.04988   4.87066    0.003
 5553.00    5.85591   4.86626    0.003
 5554.00    5.67028   4.84963    0.003
 5555.00    5.55152   4.81541    0.003
 5556.00    5.50420   4.77512    0.003
 5557.00    5.62285   4.74251    0.003
 5558.00    5.89793   4.71779    0.003
 5559.00    6.04320   4.69271    0.003
 5560.00    6.08061   4.66428    0.003
 5561.00    5.83601   4.64435    0.003
 5562.00    5.38511   4.64589    0.003
 5563.00    5.09759   4.66579    0.003
 5564.00    4.91499   4.68756    0.003
 5565.00    4.86836   4.69959    0.003
 5566.00    4.89811   4.70446    0.003
 5567.00    5.21033   4.71530    0.003
 5568.00    5.66066   4.75180    0.003
 5569.00    6.16734   4.80884    0.003
 5570.00    6.69781   4.85349    0.003
 5571.00    6.77435   4.87675    0.003
 5572.00    6.68665   4.89331    0.003
 5573.00    6.02399   4.90282    0.003
 5574.00    5.18540   4.90010    0.003
 5575.00    4.89787   4.88401    0.003
 5576.00    4.75065   4.84660    0.003
 5577.00    5.18873   4.78141    0.003
 5578.00    5.74804   4.68089    0.003
 5579.00    5.84447   4.53801    0.003
 5580.00    5.86541   4.37597    0.003
 5581.00    5.99346   4.24519    0.003
 5582.00    6.13460   4.19222    0.003
 5583.00    6.13451   4.22999    0.003
 5584.00    6.12256   4.32541    0.003
 5585.00    6.07891   4.42813    0.003
 5586.00    6.03373   4.50457    0.003
 5587.00    5.83377   4.56158    0.003
 5588.00    5.62736   4.63204    0.003
 5589.00    5.17618   4.71824    0.003
 5590.00    4.74733   4.77966    0.003
 5591.00    4.76196   4.77339    0.003
 5592.00    4.77650   4.69555    0.003
 5593.00    4.79007   4.58997    0.003
 5594.00    4.80992   4.50360    0.003
 5595.00    4.88023   4.45726    0.003
 5596.00    5.00800   4.47179    0.003
 5597.00    5.48290   4.56728    0.003
 5598.00    5.91477   4.72981    0.003
 5599.00    6.14150   4.90815    0.003
 5600.00    6.15867   5.04348    0.003
 5601.00    5.36184   5.11068    0.003
 5602.00    4.76124   5.12467    0.003
 5603.00    4.79553   5.11898    0.003
 5604.00    4.89482   5.11871    0.003
 5605.00    5.17213   5.11601    0.003
 5606.00    5.48292   5.06652    0.003
 5607.00    5.87228   4.92728    0.003
 5608.00    6.03947   4.72282    0.003
 5609.00    5.75597   4.54635    0.003
 5610.00    5.59127   4.48172    0.003
 5611.00    5.63638   4.53334    0.003
 5612.00    5.56877   4.62931    0.003
 5613.00    5.32697   4.70648    0.003
 5614.00    5.27182   4.75765    0.003
 5615.00    5.46998   4.78339    0.003
 5616.00    5.57230   4.75841    0.003
 5617.00    5.56012   4.67277    0.003
 5618.00    5.51896   4.57303    0.003
 5619.00    5.44728   4.53023    0.003
 5620.00    5.23752   4.57906    0.003
 5621.00    4.89947   4.69570    0.003
 5622.00    4.78695   4.82880    0.003
 5623.00    4.85917   4.94239    0.003
 5624.00    4.89326   5.01975    0.003
 5625.00    4.89987   5.04948    0.003
 5626.00    4.96064   5.03093    0.003
 5627.00    5.05569   4.97678    0.003
 5628.00    5.35794   4.90354    0.003
 5629.00    5.77485   4.82708    0.003
 5630.00    5.73135   4.76654    0.003
 5631.00    5.46633   4.73768    0.003
 5632.00    5.33183   4.73805    0.003
 5633.00    5.25155   4.74538    0.003
 5634.00    5.27685   4.74034    0.003
 5635.00    5.33967   4.72685    0.003
 5636.00    5.22379   4.72495    0.003
 5637.00    5.05429   4.74861    0.003
 5638.00    5.08480   4.79094    0.003
 5639.00    5.16512   4.83603    0.003
 5640.00    4.94655   4.87298    0.003
 5641.00    4.66762   4.89346    0.003
 5642.00    3.47322   4.89916    0.003
 5643.00    2.13387   4.90674    0.004
 5644.00    2.97966   4.93294    0.004
 5645.00    4.08272   4.97252    0.004
 5646.00    4.81523   4.99506    0.004
 5647.00    5.51814   4.97558    0.004
 5648.00    5.74440   4.92329    0.003
 5649.00    5.94944   4.85640    0.003
 5650.00    5.99057   4.77018    0.003
 5651.00    6.03087   4.66442    0.003
 5652.00    6.12136   4.57625    0.003
 5653.00    6.19208   4.54972    0.003
 5654.00    5.89851   4.58520    0.003
 5655.00    5.60756   4.64294    0.003
 5656.00    5.34577   4.69900    0.003
 5657.00    5.11179   4.76618    0.003
 5658.00    5.09359   4.84778    0.003
 5659.00    5.11296   4.91028    0.003
 5660.00    5.35284   4.92220    0.003
 5661.00    5.48440   4.89480    0.003
 5662.00    5.11197   4.86611    0.003
 5663.00    4.88609   4.86692    0.003
 5664.00    5.21737   4.90790    0.003
 5665.00    5.50533   4.98423    0.003
 5666.00    5.65590   5.07601    0.003
 5667.00    5.83418   5.15314    0.003
 5668.00    6.08703   5.19700    0.003
 5669.00    6.17617   5.21339    0.003
 5670.00    5.88759   5.21526    0.003
 5671.00    5.68294   5.20404    0.003
 5672.00    5.64587   5.17405    0.003
 5673.00    5.51797   5.12455    0.003
 5674.00    5.23210   5.05952    0.003
 5675.00    5.26052   4.98807    0.003
 5676.00    5.76746   4.93229    0.003
 5677.00    6.23090   4.91202    0.003
 5678.00    6.63617   4.91783    0.003
 5679.00    6.68409   4.91468    0.003
 5680.00    6.31108   4.88404    0.003
 5681.00    6.01764   4.85170    0.003
 5682.00    5.80687   4.86174    0.003
 5683.00    5.67123   4.93093    0.003
 5684.00    5.60442   5.03648    0.003
 5685.00    5.49493   5.14015    0.003
 5686.00    5.35098   5.20933    0.003
 5687.00    5.13222   5.23191    0.003
 5688.00    4.86031   5.21768    0.003
 5689.00    4.72024   5.18320    0.003
 5690.00    4.66236   5.13398    0.003
 5691.00    4.82729   5.06672    0.003
 5692.00    5.11361   4.98667    0.003
 5693.00    5.37194   4.90407    0.003
 5694.00    5.61702   4.83125    0.003
 5695.00    5.83515   4.78721    0.003
 5696.00    6.04228   4.78621    0.003
 5697.00    6.14892   4.81817    0.003
 5698.00    6.22052   4.84121    0.003
 5699.00    5.97599   4.81330    0.003
 5700.00    5.63850   4.73100    0.003
 5701.00    5.34740   4.62660    0.003
 5702.00    5.06760   4.54414    0.003
 5703.00    5.22627   4.51354    0.003
 5704.00    5.47128   4.53494    0.003
 5705.00    5.80583   4.60312    0.003
 5706.00    6.15414   4.71655    0.003
 5707.00    6.01714   4.85547    0.003
 5708.00    5.82514   4.98935    0.003
 5709.00    5.66602   5.09265    0.003
 5710.00    5.50940   5.15547    0.003
 5711.00    5.45960   5.19205    0.003
 5712.00    5.41415   5.22385    0.003
 5713.00    5.79739   5.26197    0.003
 5714.00    6.16703   5.31031    0.003
 5715.00    5.83719   5.36400    0.003
 5716.00    5.53219   5.40774    0.003
 5717.00    5.65397   5.42315    0.003
 5718.00    5.76654   5.39798    0.003
 5719.00    5.78153   5.33252    0.003
 5720.00    5.76653   5.25330    0.003
 5721.00    5.52674   5.20401    0.003
 5722.00    5.35320   5.19935    0.003
 5723.00    5.55778   5.20790    0.003
 5724.00    5.73792   5.19836    0.003
 5725.00    5.80706   5.18507    0.003
 5726.00    5.79088   5.20274    0.003
 5727.00    5.45721   5.25441    0.003
 5728.00    5.25531   5.30848    0.003
 5729.00    5.46354   5.33143    0.003
 5730.00    5.68379   5.31982    0.003
 5731.00    5.93581   5.29607    0.003
 5732.00    6.02921   5.27898    0.003
 5733.00    5.76267   5.27181    0.003
 5734.00    5.65410   5.26739    0.003
 5735.00    5.85597   5.25988    0.003
 5736.00    6.05677   5.25871    0.003
 5737.00    6.25574   5.28045    0.003
 5738.00    6.30628   5.32141    0.003
 5739.00    6.13416   5.34819    0.003
 5740.00    5.88785   5.32844    0.000
 5741.00    5.54374   5.27370    0.000
 5742.00    5.39106   5.23590    0.000
 5743.00    5.46066   5.24056    0.000
 5744.00    5.59505   5.25228    0.000
 5745.00    5.79577   5.21882    0.000
 5746.00    5.91405   5.13498    0.000
 5747.00    5.95787   5.05902    0.000
 5748.00    6.17541   5.06141    0.000
 5749.00    6.53125   5.15326    0.000
 5750.00    6.48778   5.27749    0.000
 5751.00    6.16468   5.36012    0.000
 5752.00    5.90339   5.35530    0.000
 5753.00    5.68008   5.26633    0.000
 5754.00    5.45081   5.13801    0.000
 5755.00    5.21836   5.03350    0.000
 5756.00    5.33687   5.01045    0.000
 5757.00    5.61885   5.08942    0.000
 5758.00    5.98768   5.22956    0.000
 5759.00    6.39138   5.36482    0.000
 5760.00    6.44961   5.45392    0.000
 5761.00    6.38956   5.48847    0.000
 5762.00    6.29289   5.48043    0.000
 5763.00    6.18566   5.44832    0.000
 5764.00    6.22013   5.40517    0.000
 5765.00    6.28834   5.36084    0.000
 5766.00    6.32039   5.32766    0.000
 5767.00    6.34551   5.31084    0.000
 5768.00    6.28936   5.31291    0.000
 5769.00    6.22111   5.33364    0.000
 5770.00    6.21786   5.35447    0.000
 5771.00    6.22170   5.34426    0.000
 5772.00    6.28245   5.27426    0.000
 5773.00    6.34728   5.13412    0.000
 5774.00    6.06681   4.95793    0.000
 5775.00    5.77361   4.81083    0.000
 5776.00    5.88196   4.73052    0.000
 5777.00    5.99342   4.70464    0.000
 5778.00    6.15580   4.71276    0.000
 5779.00    6.30083   4.76632    0.000
 5780.00    6.16687   4.87574    0.000
 5781.00    6.07850   5.01092    0.000
 5782.00    6.45161   5.12342    0.000
 5783.00    6.72567   5.17947    0.000
 5784.00    6.28192   5.19276    0.000
 5785.00    5.88184   5.21451    0.000
 5786.00    5.72422   5.27166    0.000
 5787.00    5.60605   5.34957    0.000
 5788.00    5.66288   5.41162    0.000
 5789.00    5.67032   5.42169    0.000
 5790.00    5.49774   5.38214    0.000
 5791.00    5.29075   5.34342   -2.000
 5792.00    4.97870   5.36474   -2.000
 5793.00    4.76539   5.45224   -2.000
 5794.00    4.80847   5.55611   -2.000
 5795.00    4.99707   5.61772   -2.000
 5796.00    5.51043   5.60536   -2.000
 5797.00    5.88291   5.53003   -2.000
 5798.00    5.98289   5.44044   -2.000
 5799.00    6.00613   5.38134   -2.000
 5800.00    5.89990   5.36738   -2.000
 5801.00    5.95964   5.38798   -2.000
 5802.00    6.26474   5.42380   -2.000
 5803.00    6.58319   5.46231   -2.000
 5804.00    6.91900   5.49450   -2.000
 5805.00    7.09957   5.50879   -2.000
 5806.00    7.10240   5.49590   -2.000
 5807.00    6.86658   5.45140   -2.000
 5808.00    6.38979   5.38515   -2.000
 5809.00    5.97422   5.33030   -2.000
 5810.00    5.61317   5.32754   -2.000
 5811.00    5.39034   5.39091    0.000
 5812.00    5.27598   5.49040    0.000
 5813.00    5.52911   5.57763    0.000
 5814.00    6.03589   5.62174    0.000
 5815.00    6.27070   5.62174    0.000
 5816.00    6.34095   5.60036    0.000
 5817.00    6.13478   5.58285    0.000
 5818.00    5.78261   5.58065    0.000
 5819.00    5.86183   5.58930    0.000
 5820.00    6.13874   5.60067    0.000
 5821.00    6.00165   5.61249    0.000
 5822.00    5.70123   5.62552    0.000
 5823.00    5.71328   5.63563    0.000
 5824.00    5.83032   5.63398    0.000
 5825.00    5.76120   5.61703    0.000
 5826.00    5.63951   5.58717    0.000
 5827.00    5.76017   5.55055    0.000
 5828.00    5.93725   5.52046    0.000
 5829.00    5.69104   5.50881    0.000
 5830.00    5.36574   5.51058    0.000
 5831.00    5.43050   5.51518    0.000
 5832.00    5.55155   5.53012    0.000
 5833.00    5.65278   5.56910    0.000
 5834.00    5.75193   5.62715    0.000
 5835.00    5.61435   5.68128    0.000
 5836.00    5.46074   5.70677    0.000
 5837.00    5.66126   5.69083    0.000
 5838.00    5.87349   5.63648    0.000
 5839.00    5.90857   5.56086    0.000
 5840.00    5.94198   5.48704    0.000
 5841.00    5.92647   5.43664    0.000
 5842.00    5.92982   5.41598    0.000
 5843.00    6.21825   5.40739    0.000
 5844.00    6.43931   5.38377    0.000
 5845.00    6.00665   5.33237    0.000
 5846.00    5.61073   5.26783    0.000
 5847.00    5.47246   5.21718    0.000
 5848.00    5.36820   5.18450    0.000
 5849.00    5.44775   5.14487    0.000
 5850.00    5.49294   5.08536    0.000
 5851.00    5.38921   5.03541    0.000
 5852.00    5.29783   5.03997    0.000
 5853.00    5.25052   5.10391    0.000
 5854.00    5.25870   5.18932    0.000
 5855.00    5.43317   5.25404    0.000
 5856.00    5.69424   5.28476    0.000
 5857.00    6.17626   5.29558    0.000
 5858.00    6.37942   5.29715    0.000
 5859.00    5.97040   5.29210    0.000
 5860.00    5.60614   5.29369    0.000
 5861.00    5.32709   5.32466    0.000
 5862.00    5.14816   5.38646    0.000
 5863.00    5.13558   5.45032    0.000
 5864.00    5.21349   5.48452    0.000
 5865.00    5.42321   5.48167    0.000
 5866.00    5.66771   5.46121    0.000
 5867.00    5.95675   5.44763    0.000
 5868.00    6.03150   5.44633    0.000
 5869.00    5.86437   5.43813    0.000
 5870.00    5.54918   5.40325    0.000
 5871.00    5.08661   5.34017    0.000
 5872.00    4.97950   5.26394    0.000
 5873.00    5.18450   5.19752    0.000
 5874.00    5.42911   5.16085    0.000
 5875.00    5.70435   5.15735    0.000
 5876.00    5.87603   5.16604    0.000
 5877.00    5.97729   5.16013    0.000
 5878.00    6.05563   5.12162    0.000
 5879.00    6.12033   5.01885    0.000
 5880.00    6.15251   4.79395    0.000
 5881.00    6.16779   4.41463    0.000
 5882.00    6.22551   3.94689    0.000
 5883.00    6.30238   3.55946    0.000
 5884.00    6.17226   3.41835    0.000
 5885.00    5.96190   3.53609    0.000
 5886.00    5.76264   3.74532    0.000
 5887.00    5.56705   3.85771    0.000
 5888.00    5.54076   3.82281    0.000
 5889.00    5.56129   3.74820    0.000
 5890.00    5.32847   3.79994    0.000
 5891.00    5.03803   4.04075    0.000
 5892.00    4.92568   4.38192    0.000
 5893.00    4.84572   4.70193    0.000
 5894.00    4.86263   4.94121    0.000
 5895.00    4.89308   5.09473    0.000
 5896.00    5.11491   5.18012    0.000
 5897.00    5.35594   5.21881    0.000
 5898.00    5.65172   5.22967    0.000
 5899.00    5.95099   5.23314    0.000
 5900.00    5.90760   5.24852    0.000
 5901.00    5.85422   5.28095   -1.000
 5902.00    5.81626   5.32029   -1.000
 5903.00    5.77413   5.35339   -1.000
 5904.00    5.61430   5.36902   -1.000
 5905.00    5.45033   5.35536   -1.000
 5906.00    5.22737   5.30382   -1.000
 5907.00    5.01001   5.22534   -1.000
 5908.00    4.84485   5.15543   -1.000
 5909.00    4.69910   5.13050   -1.000
 5910.00    4.68524   5.15928   -1.000
 5911.00    4.71778   5.22439   -1.000
 5912.00    4.99445   5.29414   -1.000
 5913.00    5.20835   5.34278    0.027
 5914.00    5.15643   5.36281    0.004
 5915.00    5.14462   5.36165    0.003
 5916.00    5.27307   5.35972    0.003
 5917.00    5.34168   5.37450    0.003
 5918.00    5.23438   5.40282    0.003
 5919.00    5.15310   5.42573    0.003
 5920.00    5.13707   5.42412    0.003
 5921.00    5.15208   5.39038    0.003
 5922.00    5.23411   5.34204    0.003
 5923.00    5.27540   5.31173    0.003
 5924.00    5.24032   5.31961    0.003
 5925.00    5.30054   5.35349    0.003
 5926.00    5.51674   5.37411    0.003
 5927.00    5.71469   5.36088    0.003
 5928.00    5.88643   5.33613    0.003
 5929.00    6.07461   5.33709    0.003
 5930.00    6.28354   5.37542    0.003
 5931.00    6.44462   5.42464    0.003
 5932.00    6.55243   5.45118    0.003
 5933.00    6.50225   5.43937    0.003
 5934.00    6.29698   5.39763    0.003
 5935.00    6.21237   5.36027    0.003
 5936.00    6.23221   5.36340    0.003
 5937.00    6.22490   5.41125    0.003
 5938.00    6.19687   5.47602    0.002
 5939.00    5.98278   5.51949    0.002
 5940.00    5.64397   5.51561    0.003
 5941.00    5.57477   5.46912    0.003
 5942.00    5.66384   5.41248    0.003
 5943.00    5.62281   5.37751    0.003
 5944.00    5.51519   5.36734    0.003
 5945.00    5.03718   5.36131    0.003
 5946.00    4.39494   5.34845    0.003
 5947.00    4.10844   5.33994    0.003
 5948.00    3.95743   5.34199    0.003
 5949.00    4.28288   5.33986    0.003
 5950.00    4.76249   5.32921    0.003
 5951.00    4.58133   5.33335    0.003
 5952.00    4.22121   5.37493    0.003
 5953.00    4.28586   5.44871    0.003
 5954.00    4.44487   5.52736    0.003
 5955.00    4.86033   5.58290    0.003
 5956.00    5.32119   5.60160    0.003
 5957.00    5.70654   5.58696    0.003
 5958.00    6.08170   5.55809    0.003
 5959.00    6.06716   5.53810    0.003
 5960.00    6.01518   5.54502    0.003
 5961.00    5.63220   5.58272    0.003
 5962.00    5.22947   5.63294    0.002
 5963.00    5.17846   5.67715    0.003
 5964.00    5.13678   5.70562    0.003
 5965.00    5.14836   5.71224    0.003
 5966.00    5.16105   5.69066    0.003
 5967.00    5.20201   5.63824    0.003
 5968.00    5.25768   5.55868    0.002
 5969.00    5.51137   5.46988    0.002
 5970.00    5.74532   5.40229    0.002
 5971.00    5.80260   5.38261    0.002
 5972.00    5.83474   5.41262    0.003
 5973.00    5.70138   5.46443    0.003
 5974.00    5.58648   5.49686    0.003
 5975.00    5.56622   5.47540    0.003
 5976.00    5.56765   5.40302    0.003
 5977.00    5.65879   5.32331    0.003
 5978.00    5.78249   5.28634    0.003
 5979.00    6.01772   5.31502    0.003
 5980.00    6.15523   5.38745    0.003
 5981.00    6.01066   5.46254    0.003
 5982.00    5.87061   5.51807    0.003
 5983.00    5.74170   5.54794    0.003
 5984.00    5.62115   5.55847    0.003
 5985.00    5.51833   5.56805    0.003
 5986.00    5.43369   5.59259    0.003
 5987.00    5.38257   5.62501    0.003
 5988.00    5.40227   5.63275    0.003
 5989.00    5.53615   5.59590    0.003
 5990.00    5.68743   5.53025    0.003
 5991.00    5.86330   5.47253    0.003
 5992.00    5.97472   5.45176    0.003
 5993.00    6.00592   5.46527    0.003
 5994.00    5.85763   5.48422    0.003
 5995.00    5.51241   5.48723    0.002
 5996.00    5.34614   5.47619    0.002
 5997.00    5.35307   5.46161    0.002
 5998.00    5.47974   5.44296    0.002
 5999.00    5.70861   5.40306    0.002
 6000.00    5.71440   5.34527    0.002
 6001.00    5.55252   5.31018    0.002
 6002.00    5.37352   5.33146    0.002
 6003.00    5.18319   5.40101    0.002
 6004.00    4.97204   5.46588    0.002
 6005.00    4.74885   5.47787    0.002
 6006.00    4.82735   5.44397    0.003
 6007.00    5.05784   5.40378    0.003
 6008.00    5.32548   5.38314    0.003
 6009.00    5.60931   5.37903    0.003
 6010.00    5.32715   5.37647    0.003
 6011.00    4.83320   5.36948    0.003
 6012.00    4.85088   5.35939    0.003
 6013.00    5.03097   5.34806    0.003
 6014.00    5.37946   5.34484    0.003
 6015.00    5.77260   5.36260    0.003
 6016.00    5.91489   5.40194    0.003
 6017.00    6.00279   5.45599    0.003
 6018.00    5.98205   5.51294    0.003
 6019.00    5.94262   5.56587    0.003
 6020.00    5.84219   5.61363    0.003
 6021.00    5.73378   5.65647    0.003
 6022.00    5.60583   5.69612    0.003
 6023.00    5.47608   5.72780    0.002
 6024.00    5.35263   5.75052    0.002
 6025.00    5.22955   5.77048    0.002
 6026.00    5.14302   5.79233    0.002
 6027.00    5.05930   5.81209    0.002
 6028.00    5.17444   5.82442    0.002
 6029.00    5.29153   5.82886    0.002
 6030.00    5.45373   5.82656    0.002
 6031.00    5.61460   5.81514    0.002
 6032.00    5.75838   5.79417    0.002
 6033.00    5.88466   5.77133    0.002
 6034.00    5.86015   5.75870    0.002
 6035.00    5.82294   5.76997    0.002
 6036.00    5.70464   5.80476    0.003
 6037.00    5.62834   5.85221    0.003
 6038.00    5.76188   5.89744    0.003
 6039.00    5.87560   5.92690    0.003
 6040.00    5.90910   5.93759    0.003
 6041.00    5.94332   5.93345    0.003
 6042.00    5.97994   5.92682    0.003
 6043.00    5.97410   5.92131    0.003
 6044.00    5.84793   5.91207    0.003
 6045.00    5.69976   5.88579    0.003
 6046.00    5.49831   5.84029    0.003
 6047.00    5.36611   5.78470    0.003
 6048.00    5.37869   5.73218    0.003
 6049.00    5.41486   5.69501    0.003
 6050.00    5.49392   5.68386    0.003
 6051.00    5.49027   5.70526    0.003
 6052.00    5.35521   5.74938    0.003
 6053.00    5.26998   5.79048    0.003
 6054.00    5.25425   5.79975    0.002
 6055.00    5.17240   5.76261    0.002
 6056.00    5.00941   5.68738    0.002
 6057.00    4.94883   5.60322    0.002
 6058.00    4.99901   5.55934    0.002
 6059.00    5.25576   5.59269    0.002
 6060.00    5.70960   5.69828    0.002
 6061.00    5.89101   5.83206    0.002
 6062.00    5.84320   5.94106    0.002
 6063.00    5.64333   6.00465    0.002
 6064.00    5.33079   6.03512    0.002
 6065.00    5.26798   6.04988    0.003
 6066.00    5.36765   6.05578    0.003
 6067.00    5.32202   6.04787    0.003
 6068.00    5.19364   6.01795    0.003
 6069.00    5.21516   5.96348    0.003
 6070.00    5.31101   5.88793    0.003
 6071.00    5.37947   5.80674    0.003
 6072.00    5.43618   5.73798    0.003
 6073.00    5.47864   5.68617    0.003
 6074.00    5.51586   5.64884    0.003
 6075.00    5.79944   5.62632    0.003
 6076.00    6.15971   5.62243    0.003
 6077.00    6.17503   5.63659    0.003
 6078.00    6.10083   5.65996    0.003
 6079.00    5.72719   5.68295    0.003
 6080.00    5.29017   5.70113    0.003
 6081.00    5.15384   5.70489    0.002
 6082.00    5.06781   5.68239    0.002
 6083.00    4.71985   5.64095    0.002
 6084.00    4.33886   5.60519    0.002
 6085.00    4.49982   5.59959    0.002
 6086.00    4.70828   5.63243    0.002
 6087.00    5.28827   5.69161    0.002
 6088.00    5.88750   5.75215    0.002
 6089.00    5.82295   5.79385    0.002
 6090.00    5.74502   5.81207    0.002
 6091.00    5.57204   5.81767    0.002
 6092.00    5.39985   5.81101    0.002
 6093.00    5.24452   5.76674    0.002
 6094.00    5.12355   5.66079    0.002
 6095.00    5.41911   5.52166    0.002
 6096.00    5.70613   5.42984    0.002
 6097.00    5.92221   5.44338    0.002
 6098.00    6.11497   5.54667    0.003
 6099.00    6.16315   5.66658    0.003
 6100.00    6.17940   5.74791    0.003
 6101.00    6.04003   5.79092    0.003
 6102.00    5.90221   5.81584    0.003
 6103.00    5.77054   5.83122    0.003
 6104.00    5.65341   5.84083    0.003
 6105.00    5.58417   5.85583    0.003
 6106.00    5.52864   5.88580    0.003
 6107.00    5.51125   5.91834    0.003
 6108.00    5.51326   5.92701    0.003
 6109.00    5.56143   5.90295    0.002
 6110.00    5.62637   5.85813    0.002
 6111.00    5.72581   5.79754    0.002
 6112.00    5.71990   5.71093    0.003
 6113.00    5.52542   5.59396    0.002
 6114.00    5.41041   5.47503    0.002
 6115.00    5.41980   5.41249    0.002
 6116.00    5.50320   5.44349    0.002
 6117.00    5.68830   5.54407    0.002
 6118.00    5.83713   5.64811    0.002
 6119.00    5.94206   5.70178    0.002
 6120.00    5.85625   5.70549    0.002
 6121.00    5.56698   5.69978    0.002
 6122.00    5.33752   5.72210    0.002
 6123.00    5.16432   5.77952    0.002
 6124.00    5.19876   5.84672    0.002
 6125.00    5.40543   5.88253    0.002
 6126.00    5.61557   5.84642    0.003
 6127.00    5.82825   5.71631    0.003
 6128.00    5.89825   5.50636    0.003
 6129.00    5.87678   5.28345    0.002
 6130.00    5.81734   5.15130    0.002
 6131.00    5.73660   5.18006    0.003
 6132.00    5.69688   5.34253    0.003
 6133.00    5.67716   5.53478    0.003
 6134.00    5.69389   5.67124    0.003
 6135.00    5.72599   5.75017    0.003
 6136.00    5.68398   5.81712    0.003
 6137.00    5.61523   5.89171    0.003
 6138.00    5.51914   5.95040    0.003
 6139.00    5.41470   5.96246    0.003
 6140.00    5.46445   5.92249    0.003
 6141.00    5.55335   5.84888    0.002
 6142.00    5.53211   5.77138    0.002
 6143.00    5.48812   5.71972    0.002
 6144.00    5.26724   5.70860    0.002
 6145.00    5.01761   5.72600    0.002
 6146.00    4.97936   5.74090    0.002
 6147.00    4.96681   5.73210    0.002
 6148.00    5.09283   5.70507    0.002
 6149.00    5.23042   5.67596    0.002
 6150.00    5.34750   5.64426    0.002
 6151.00    5.46359   5.58341    0.002
 6152.00    5.63647   5.45719    0.002
 6153.00    5.80879   5.25306    0.002
 6154.00    5.90086   5.01375    0.002
 6155.00    5.98646   4.83019    0.003
 6156.00    5.94487   4.78304    0.003
 6157.00    5.89634   4.88010    0.003
 6158.00    5.76762   5.05249    0.003
 6159.00    5.63576   5.20883    0.003
 6160.00    5.47867   5.28611    0.003
 6161.00    5.33146   5.27178    0.003
 6162.00    5.24368   5.20908    0.003
 6163.00    5.20946   5.17356    0.003
 6164.00    5.42975   5.21457    0.003
 6165.00    5.59535   5.31511    0.003
 6166.00    5.54909   5.41938    0.003
 6167.00    5.52660   5.48795    0.002
 6168.00    5.58085   5.51921    0.002
 6169.00    5.61434   5.53218    0.002
 6170.00    5.59110   5.54670    0.002
 6171.00    5.57884   5.57230    0.002
 6172.00    5.59230   5.60543    0.002
 6173.00    5.68977   5.63902    0.002
 6174.00    5.95734   5.67097    0.002
 6175.00    6.08618   5.69835    0.002
 6176.00    5.97048   5.71086    0.002
 6177.00    5.83487   5.69503    0.002
 6178.00    5.66854   5.64364    0.002
 6179.00    5.66276   5.56339    0.002
 6180.00    5.87444   5.47270    0.002
 6181.00    5.92570   5.38557    0.002
 6182.00    5.78562   5.30128    0.002
 6183.00    5.55468   5.21762    0.002
 6184.00    5.22819   5.15743    0.002
 6185.00    5.09929   5.16507    0.003
 6186.00    5.15366   5.25905    0.003
 6187.00    5.35707   5.40415    0.003
 6188.00    5.68236   5.54133    0.003
 6189.00    5.89885   5.62670    0.003
 6190.00    6.03704   5.64357    0.003
 6191.00    5.83162   5.59855    0.003
 6192.00    5.40914   5.52512    0.003
 6193.00    4.96104   5.47793    0.002
 6194.00    4.49879   5.49561    0.002
 6195.00    4.21174   5.56815    0.003
 6196.00    4.00881   5.65074   -2.000
 6197.00    4.38312   5.70653   -2.000
 6198.00    4.99671   5.73032   -2.000
 6199.00    6.19086   5.73638   -2.000
 6200.00    7.59078   5.73487   -2.000
 6201.00    7.57612   5.72432   -2.000
 6202.00    7.13813   5.69701   -2.000
 6203.00    6.59174   5.64376   -2.000
 6204.00    6.01842   5.55749   -2.000
 6205.00    5.59975   5.43732   -2.000
 6206.00    5.21222   5.29678   -2.000
 6207.00    5.41812   5.17117   -2.000
 6208.00    5.71764   5.10058    0.003
 6209.00    5.83963   5.09877    0.003
 6210.00    5.94082   5.14147    0.003
 6211.00    5.91080   5.18334    0.003
 6212.00    5.87038   5.19791    0.003
 6213.00    5.66689   5.19827    0.003
 6214.00    5.45622   5.21315    0.003
 6215.00    5.18308   5.25254    0.002
 6216.00    4.91591   5.30194    0.002
 6217.00    4.96607   5.34392    0.002
 6218.00    5.01231   5.37603    0.002
 6219.00    4.98702   5.39620    0.002
 6220.00    4.95693   5.38749    0.002
 6221.00    4.87419   5.32784    0.002
 6222.00    4.82492   5.21599    0.002
 6223.00    5.03415   5.09109    0.002
 6224.00    5.26656   5.01988    0.002
 6225.00    5.63452   5.05056    0.002
 6226.00    5.92483   5.17553    0.002
 6227.00    5.85493   5.34384    0.002
 6228.00    5.72970   5.48728    0.002
 6229.00    5.39476   5.55578    0.002
 6230.00    5.09544   5.53705    0.002
 6231.00    4.90891   5.45245    0.002
 6232.00    4.79143   5.34345    0.002
 6233.00    4.85928   5.24536    0.002
 6234.00    4.99620   5.17457    0.002
 6235.00    5.29218   5.12531    0.002
 6236.00    5.53378   5.09127    0.002
 6237.00    5.66703   5.08632    0.002
 6238.00    5.67397   5.12481    0.002
 6239.00    5.46167   5.20646    0.002
 6240.00    5.24492   5.31496    0.002
 6241.00    5.02143   5.41421    0.002
 6242.00    4.86859   5.46279    0.002
 6243.00    4.81007   5.43885    0.002
 6244.00    4.78374   5.35193    0.002
 6245.00    4.79527   5.23815    0.002
 6246.00    4.82618   5.14084    0.002
 6247.00    4.87719   5.07610    0.002
 6248.00    4.94977   5.02867    0.002
 6249.00    5.04208   4.97629    0.002
 6250.00    5.14339   4.92446    0.002
 6251.00    5.25198   4.90914    0.002
 6252.00    5.39776   4.96413    0.002
 6253.00    5.56993   5.09154    0.002
 6254.00    5.57608   5.25205    0.002
 6255.00    5.47890   5.39776    0.002
 6256.00    5.28205   5.49084    0.002
 6257.00    5.03101   5.51796    0.002
 6258.00    4.89005   5.50112    0.002
 6259.00    4.80111   5.47995    0.003
 6260.00    4.83090   5.47632    0.003
 6261.00    4.90908   5.48372    0.003
 6262.00    5.30959   5.49173    0.003
 6263.00    5.82227   5.50429    0.003
 6264.00    5.95960   5.52870    0.003
 6265.00    5.98683   5.56206    0.003
 6266.00    5.86714   5.59167    0.003
 6267.00    5.71177   5.60774    0.003
 6268.00    5.79873   5.61356    0.003
 6269.00    5.93326   5.61565    0.003
 6270.00    5.62216   5.61026    0.002
 6271.00    5.24287   5.58810    0.002
 6272.00    5.13156   5.54740    0.002
 6273.00    5.05048   5.50264    0.002
 6274.00    5.13807   5.48444    0.002
 6275.00    5.23836   5.50945    0.002
 6276.00    5.23264   5.56642    0.002
 6277.00    5.22266   5.63247    0.002
 6278.00    5.15764   5.68905    0.002
 6279.00    5.09799   5.74045    0.002
 6280.00    5.27223   5.79251    0.000
 6281.00    5.45430   5.83390    0.000
 6282.00    5.76970   5.84648    0.000
 6283.00    6.05873   5.81804    0.000
 6284.00    6.07033   5.76093    0.000
 6285.00    6.06538   5.70409    0.000
 6286.00    5.93693   5.66312    0.000
 6287.00    5.80808   5.63373    0.000
 6288.00    5.67694   5.59610    0.000
 6289.00    5.52227   5.54270    0.000
 6290.00    5.26104   5.49484    0.000
 6291.00    5.05222   5.47425    0.000
 6292.00    5.03794   5.47658    0.000
 6293.00    5.04392   5.47846    0.000
 6294.00    5.11276   5.46858    0.000
 6295.00    5.21010   5.46391    0.000
 6296.00    5.38254   5.48650    0.000
 6297.00    5.49991   5.53878    0.000
 6298.00    5.49257   5.61025    0.000
 6299.00    5.43161   5.69178    0.000
 6300.00    5.26549   5.77290    0.000
 6301.00    5.13794   5.82831    0.000
 6302.00    5.07635   5.83424    0.000
 6303.00    5.08520   5.79042    0.000
 6304.00    5.19954   5.72304    0.000
 6305.00    5.24783   5.65997    0.000
 6306.00    5.20918   5.61032    0.000
 6307.00    5.10381   5.56559    0.000
 6308.00    4.92109   5.51623    0.000
 6309.00    4.87851   5.46741    0.000
 6310.00    4.97918   5.42679    0.000
 6311.00    5.07852   5.40608    0.000
 6312.00    5.17665   5.42702    0.000
 6313.00    5.21764   5.48997    0.000
 6314.00    5.21324   5.57209    0.000
 6315.00    5.22575   5.65173    0.000
 6316.00    5.25010   5.71953    0.000
 6317.00    5.20325   5.77749    0.000
 6318.00    5.11276   5.82015    0.000
 6319.00    5.16563   5.84794    0.000
 6320.00    5.29526   5.86344    0.000
 6321.00    5.44223   5.87302    0.002
 6322.00    5.59727   5.88095    0.002
 6323.00    5.67237   5.88319    0.002
 6324.00    5.71545   5.88457    0.002
 6325.00    5.59257   5.87692    0.002
 6326.00    5.41300   5.83730    0.002
 6327.00    5.22702   5.75359    0.002
 6328.00    5.03919   5.64551    0.002
 6329.00    5.11760   5.56652    0.002
 6330.00    5.25922   5.55576    0.002
 6331.00    5.36736   5.60763    0.002
 6332.00    5.46909   5.68382    0.002
 6333.00    5.28019   5.74627    0.002
 6334.00    5.04817   5.76682    0.002
 6335.00    5.05662   5.73874    0.002
 6336.00    5.09115   5.68732    0.002
 6337.00    5.32813   5.65306    0.002
 6338.00    5.57953   5.66790    0.002
 6339.00    5.56687   5.72681    0.002
 6340.00    5.54460   5.80011    0.002
 6341.00    5.41748   5.86338    0.002
 6342.00    5.29043   5.90542    0.002
 6343.00    5.17936   5.92566    0.002
 6344.00    5.07626   5.92448    0.002
 6345.00    5.10030   5.89614    0.002
 6346.00    5.10967   5.83860    0.002
 6347.00    4.97134   5.76321    0.002
 6348.00    4.82890   5.68894    0.002
 6349.00    4.65683   5.62360    0.002
 6350.00    4.55601   5.55516    0.002
 6351.00    4.84947   5.47279    0.002
 6352.00    5.10157   5.38664    0.002
 6353.00    5.17078   5.31655    0.002
 6354.00    5.24195   5.27555    0.002
 6355.00    5.32029   5.27241    0.002
 6356.00    5.38590   5.31387    0.002
 6357.00    5.41270   5.39808    0.002
 6358.00    5.34388   5.51204    0.002
 6359.00    5.02736   5.63637    0.002
 6360.00    4.81850   5.75156    0.002
 6361.00    4.84944   5.84341    0.002
 6362.00    4.88229   5.90531    0.002
 6363.00    4.91881   5.94683    0.002
 6364.00    4.90446   5.98589    0.002
 6365.00    4.80442   6.02915    0.002
 6366.00    4.85855   6.06673    0.002
 6367.00    5.14017   6.08569    0.002
 6368.00    5.35945   6.08277    0.003
 6369.00    5.49786   6.06188    0.003
 6370.00    5.46242   6.02530    0.003
 6371.00    5.22828   5.97850    0.002
 6372.00    5.10553   5.93676    0.002
 6373.00    5.09505   5.91584    0.002
 6374.00    5.02187   5.91803    0.002
 6375.00    4.89294   5.93461    0.002
 6376.00    4.82140   5.95237    0.002
 6377.00    4.79482   5.96785    0.002
 6378.00    4.75711   5.98879    0.002
 6379.00    4.71174   6.01837    0.002
 6380.00    4.71421   6.04962    0.002
 6381.00    4.74557   6.07081    0.002
 6382.00    4.69138   6.07005    0.002
 6383.00    4.59209   6.03329    0.002
 6384.00    4.58736   5.95325    0.002
 6385.00    4.62586   5.84933    0.002
 6386.00    4.69738   5.77083    0.002
 6387.00    4.78189   5.76689    0.002
 6388.00    4.82802   5.83735    0.002
 6389.00    4.86128   5.92543    0.002
 6390.00    4.84007   5.96220    0.002
 6391.00    4.80353   5.91855    0.002
 6392.00    4.73953   5.83120    0.002
 6393.00    4.66915   5.77809    0.002
 6394.00    4.90945   5.81696    0.002
 6395.00    5.20763   5.92951    0.003
 6396.00    5.41179   6.04889    0.003
 6397.00    5.60243   6.11723    0.003
 6398.00    5.36085   6.11433    0.002
 6399.00    5.07427   6.06124    0.002
 6400.00    5.04542   5.99536    0.002
 6401.00    5.03388   5.94908    0.002
 6402.00    5.14189   5.93246    0.002
 6403.00    5.25380   5.92726    0.002
 6404.00    5.33769   5.91837    0.002
 6405.00    5.41625   5.91413    0.002
 6406.00    5.32922   5.92781    0.002
 6407.00    5.24372   5.96219    0.002
 6408.00    5.18120   6.00492    0.002
 6409.00    5.12984   6.03174    0.002
 6410.00    5.18616   6.01925    0.002
 6411.00    5.23514   5.96161    0.002
 6412.00    5.23282   5.88009    0.002
 6413.00    5.17322   5.82035    0.002
 6414.00    4.80506   5.82532    0.002
 6415.00    4.49206   5.90107    0.002
 6416.00    4.41735   6.01057    0.002
 6417.00    4.37949   6.10703    0.002
 6418.00    4.47284   6.17095    0.002
 6419.00    4.60223   6.20441    0.002
 6420.00    4.83937   6.20374    0.002
 6421.00    5.01296   6.15458    0.002
 6422.00    5.02475   6.05662    0.002
 6423.00    5.00250   5.94697    0.002
 6424.00    4.90565   5.88468    0.002
 6425.00    4.89140   5.90344    0.002
 6426.00    5.03414   5.98284    0.002
 6427.00    5.18132   6.07131    0.002
 6428.00    5.33586   6.11965    0.002
 6429.00    5.43331   6.10622    0.002
 6430.00    5.44773   6.04442    0.002
 6431.00    5.34649   5.97763    0.002
 6432.00    5.09735   5.96167    0.002
 6433.00    4.95972   6.02265    0.002
 6434.00    4.94773   6.13351    0.002
 6435.00    5.05003   6.24376    0.002
 6436.00    5.26589   6.31963    0.002
 6437.00    5.45188   6.35711    0.002
 6438.00    5.61168   6.35942    0.002
 6439.00    5.59784   6.31091    0.002
 6440.00    5.44991   6.18790    0.002
 6441.00    5.34063   5.99787    0.002
 6442.00    5.25758   5.80412    0.002
 6443.00    5.20524   5.69943    0.002
 6444.00    5.17117   5.72918    0.002
 6445.00    5.26693   5.85375    0.002
 6446.00    5.43006   5.98933    0.002
 6447.00    5.57753   6.07393    0.002
 6448.00    5.71795   6.10920    0.002
 6449.00    5.66546   6.13977    0.002
 6450.00    5.53835   6.19613    0.002
 6451.00    5.31982   6.26445    0.002
 6452.00    5.07120   6.29879    0.002
 6453.00    4.97061   6.26048    0.002
 6454.00    4.91084   6.15401    0.002
 6455.00    4.85577   6.03496    0.002
 6456.00    4.80176   5.97590    0.002
 6457.00    4.61248   6.00768    0.002
 6458.00    4.39867   6.10300    0.002
 6459.00    4.05816   6.20779    0.002
 6460.00    3.70002   6.27641    0.002
 6461.00    3.60364   6.29193    0.002
 6462.00    3.53339   6.26527    0.002
 6463.00    3.75617   6.22411    0.002
 6464.00    3.99744   6.19638    0.002
 6465.00    4.34488   6.19575    0.002
 6466.00    4.69515   6.21183    0.002
 6467.00    4.97819   6.22681    0.002
 6468.00    5.25311   6.23729    0.002
 6469.00    5.30219   6.24834    0.002
 6470.00    5.34286   6.25752    0.002
 6471.00    5.26447   6.25044    0.002
 6472.00    5.17149   6.21180    0.002
 6473.00    4.94340   6.13691    0.002
 6474.00    4.72983   6.04447    0.002
 6475.00    4.61452   5.97338    0.002
 6476.00    4.55002   5.95766    0.002
 6477.00    4.75199   6.00082    0.002
 6478.00    4.92698   6.07642    0.002
 6479.00    4.98803   6.14822    0.002
 6480.00    5.05586   6.19058    0.002
 6481.00    5.14734   6.19107    0.002
 6482.00    5.16563   6.14719    0.002
 6483.00    4.96921   6.05980    0.002
 6484.00    4.83652   5.92553    0.002
 6485.00    4.86325   5.74014    0.002
 6486.00    4.85585   5.51751    0.002
 6487.00    4.77490   5.30940    0.002
 6488.00    4.74466   5.18281    0.002
 6489.00    4.80932   5.16888    0.002
 6490.00    4.88850   5.25183    0.002
 6491.00    4.99142   5.38628    0.002
 6492.00    4.98784   5.53653    0.002
 6493.00    4.83163   5.68738    0.002
 6494.00    4.75155   5.82734    0.002
 6495.00    4.76744   5.94900    0.002
 6496.00    4.75038   6.04771    0.002
 6497.00    4.69670   6.12167    0.002
 6498.00    4.69378   6.16979    0.002
 6499.00    4.74060   6.18848    0.002
 6500.00    4.80081   6.18115    0.002
 6501.00    4.87259   6.16532    0.002
 6502.00    4.91722   6.16238    0.002
 6503.00    4.94119   6.18039    0.002
 6504.00    4.96022   6.20827    0.002
 6505.00    4.97595   6.22836    0.002
 6506.00    4.94925   6.22809    0.002
 6507.00    4.89770   6.20332    0.002
 6508.00    4.89348   6.15966    0.002
 6509.00    4.91344   6.11036    0.002
 6510.00    5.00756   6.07162    0.002
 6511.00    5.13449   6.06089    0.002
 6512.00    5.10832   6.08967    0.002
 6513.00    5.02396   6.14872    0.002
 6514.00    5.05420   6.21614    0.002
 6515.00    5.12143   6.27011    0.002
 6516.00    5.25280   6.29914    0.002
 6517.00    5.40148   6.30191    0.002
 6518.00    5.48554   6.27961    0.002
 6519.00    5.55528   6.24389    0.002
 6520.00    5.53589   6.21660    0.002
 6521.00    5.50078   6.21110    0.002
 6522.00    5.40594   6.21973    0.002
 6523.00    5.30306   6.22170    0.002
 6524.00    5.06556   6.20530    0.002
 6525.00    4.81520   6.18558    0.002
 6526.00    4.64524   6.18774    0.002
 6527.00    4.48003   6.22109    0.002
 6528.00    4.65929   6.26950    0.000
 6529.00    4.84662   6.31165    0.000
 6530.00    4.94924   6.34179    0.000
 6531.00    5.05111   6.36813    0.000
 6532.00    5.13415   6.39010    0.000
 6533.00    5.20623   6.39359    0.000
 6534.00    5.13173   6.36556    0.000
 6535.00    5.06112   6.30569    0.000
 6536.00    5.02522   6.22523    0.000
 6537.00    4.99496   6.13925    0.000
 6538.00    5.00179   6.06381    0.000
 6539.00    5.03389   6.02367    0.000
 6540.00    5.19515   6.03104    0.000
 6541.00    5.36522   6.07088    0.000
 6542.00    5.57162   6.11008    0.000
 6543.00    5.66224   6.11786    0.000
 6544.00    5.35719   6.08803    0.000
 6545.00    5.09876   6.03129    0.000
 6546.00    4.97457   5.96296    0.000
 6547.00    4.83627   5.90215    0.000
 6548.00    4.66329   5.86766    0.000
 6549.00    4.55779   5.86752    0.000
 6550.00    4.59539   5.88460    0.000
 6551.00    4.68088   5.87530    0.000
 6552.00    4.85458   5.78593    0.000
 6553.00    4.97064   5.58548    0.000
 6554.00    4.99391   5.30304    0.000
 6555.00    4.95200   5.05564    0.000
 6556.00    4.81802   4.99045    0.000
 6557.00    4.73545   5.14755    0.000
 6558.00    4.71676   5.44285    0.000
 6559.00    4.73202   5.74079    0.000
 6560.00    4.78447   5.93599    0.000
 6561.00    4.89908   6.00859    0.000
 6562.00    5.07374   6.00241    0.000
 6563.00    5.10320   5.96372    0.000
 6564.00    5.00895   5.91381    0.000
 6565.00    4.92065   5.86250    0.000
 6566.00    4.83681   5.82474    0.000
 6567.00    4.77608   5.82378    0.000
 6568.00    4.73056   5.87980    0.000
 6569.00    4.71566   5.97910    0.000
 6570.00    4.71843   6.07997    0.000
 6571.00    4.77083   6.14149    0.000
 6572.00    4.84819   6.14772    0.000
 6573.00    4.75362   6.11955    0.000
 6574.00    4.58424   6.09702    0.000
 6575.00    4.53693   6.10166    0.000
 6576.00    4.53519   6.12941    0.000
 6577.00    4.62957   6.16379    0.000
 6578.00    4.75439   6.19279    0.000
 6579.00    4.66087   6.22290    0.000
 6580.00    4.50961   6.25612    0.000
 6581.00    4.50849   6.27609    0.000
 6582.00    4.53983   6.26038    0.000
 6583.00    4.77200   6.18554    0.000
 6584.00    5.03862   6.05509    0.000
 6585.00    5.17786   5.91317    0.000
 6586.00    5.30054   5.82606    0.000
 6587.00    5.22835   5.82660    0.000
 6588.00    5.13836   5.89146    0.000
 6589.00    5.03148   5.97285    0.000
 6590.00    4.92367   6.03545    0.000
 6591.00    4.85553   6.08192    0.000
 6592.00    4.79075   6.13326    0.000
 6593.00    4.96526   6.19207    0.000
 6594.00    5.13788   6.23963    0.000
 6595.00    5.26701   6.25520    0.000
 6596.00    5.37942   6.23042    0.000
 6597.00    5.27969   6.17400    0.000
 6598.00    5.18550   6.10285    0.000
 6599.00    5.13878   6.02990    0.000
 6600.00    5.10984   5.96755    0.000
 6601.00    5.19406   5.93378    0.000
 6602.00    5.23181   5.95062    0.000
 6603.00    5.03809   6.01761    0.000
 6604.00    4.89565   6.10522    0.000
 6605.00    4.96026   6.17960    0.000
 6606.00    5.00984   6.22778    0.000
 6607.00    5.00907   6.25990    0.000
 6608.00    4.97338   6.28344    0.000
 6609.00    4.83897   6.29969    0.002
 6610.00    4.77555   6.30998    0.002
 6611.00    4.88373   6.31879    0.002
 6612.00    4.89231   6.32874    0.002
 6613.00    4.69309   6.32975    0.002
 6614.00    4.61040   6.30346    0.002
 6615.00    4.73909   6.24183    0.002
 6616.00    4.92423   6.15863    0.002
 6617.00    5.19891   6.08823    0.002
 6618.00    5.28807   6.06068    0.002
 6619.00    5.11902   6.07284    0.002
 6620.00    4.97311   6.10082    0.002
 6621.00    4.85557   6.11526    0.002
 6622.00    4.80052   6.09986    0.002
 6623.00    4.81296   6.05708    0.002
 6624.00    4.85388   5.99600    0.002
 6625.00    4.92191   5.93418    0.002
 6626.00    4.85292   5.89859    0.002
 6627.00    4.66884   5.91064    0.002
 6628.00    4.67983   5.96722    0.002
 6629.00    4.83508   6.04220    0.002
 6630.00    4.94885   6.10229    0.002
 6631.00    5.03568   6.12966    0.002
 6632.00    4.95883   6.13165    0.002
 6633.00    4.78895   6.12210    0.002
 6634.00    4.72767   6.10351    0.002
 6635.00    4.72013   6.07706    0.002
 6636.00    4.78105   6.05508    0.002
 6637.00    4.87126   6.05034    0.002
 6638.00    4.92388   6.06500    0.002
 6639.00    4.96270   6.08923    0.002
 6640.00    4.83832   6.10987    0.002
 6641.00    4.66325   6.12288    0.002
 6642.00    4.59748   6.12806    0.002
 6643.00    4.55999   6.12490    0.002
 6644.00    4.69162   6.11519    0.002
 6645.00    4.85893   6.10463    0.002
 6646.00    4.87966   6.10065    0.002
 6647.00    4.87596   6.10418    0.002
 6648.00    4.98749   6.10821    0.002
 6649.00    5.11347   6.10971    0.002
 6650.00    5.19644   6.10614    0.002
 6651.00    5.27566   6.09241    0.002
 6652.00    5.12610   6.06421    0.002
 6653.00    4.96480   6.01847    0.002
 6654.00    5.03642   5.95804    0.002
 6655.00    5.11227   5.89716    0.002
 6656.00    5.19484   5.85747    0.002
 6657.00    5.26326   5.84778    0.002
 6658.00    5.03343   5.86541    0.002
 6659.00    4.82128   5.90211    0.002
 6660.00    4.82194   5.94918    0.002
 6661.00    4.84020   6.00725    0.002
 6662.00    5.00374   6.07225    0.002
 6663.00    5.15124   6.13163    0.002
 6664.00    5.19966   6.17285    0.002
 6665.00    5.23096   6.19108    0.002
 6666.00    5.17912   6.18607    0.002
 6667.00    5.15567   6.15357    0.002
 6668.00    5.24433   6.08580    0.002
 6669.00    5.30765   5.98763    0.002
 6670.00    5.28776   5.89282    0.002
 6671.00    5.25901   5.84503    0.002
 6672.00    5.20565   5.85925    0.002
 6673.00    5.08141   5.92005    0.002
 6674.00    4.78873   5.99343    0.002
 6675.00    4.57113   6.05220    0.002
 6676.00    4.50769   6.09465    0.002
 6677.00    4.55944   6.12323    0.002
 6678.00    4.81697   6.13643    0.002
 6679.00    4.91686   6.13594    0.002
 6680.00    4.77045   6.13003    0.002
 6681.00    4.77029   6.12858    0.002
 6682.00    4.97075   6.13417    0.002
 6683.00    5.10501   6.14335    0.002
 6684.00    5.15931   6.14688    0.002
 6685.00    4.99360   6.13461    0.002
 6686.00    4.59364   6.10097    0.002
 6687.00    4.42155   6.04571    0.002
 6688.00    4.46346   5.98300    0.002
 6689.00    4.63340   5.93730    0.002
 6690.00    4.90935   5.92910    0.002
 6691.00    5.03143   5.96555    0.002
 6692.00    5.04138   6.02625    0.002
 6693.00    4.96744   6.07768    0.002
 6694.00    4.83980   6.09787    0.002
 6695.00    4.70500   6.08363    0.002
 6696.00    4.56619   6.05502    0.000
 6697.00    4.53407   6.03859    0.000
 6698.00    4.55391   6.04486    0.000
 6699.00    4.58446   6.06661    0.000
 6700.00    4.61951   6.08689    0.000
 6701.00    4.55954   6.09015    0.000
 6702.00    4.46534   6.07524    0.000
 6703.00    4.53705   6.05004    0.000
 6704.00    4.65929   6.01541    0.000
 6705.00    4.71400   5.96940    0.000
 6706.00    4.75162   5.90790    0.000
 6707.00    4.90979   5.83173    0.000
 6708.00    5.09278   5.75824    0.000
 6709.00    5.31682   5.71306    0.000
 6710.00    5.54752   5.71793    0.000
 6711.00    5.46217   5.77197    0.000
 6712.00    5.33856   5.85168    0.000
 6713.00    5.26105   5.92877    0.000
 6714.00    5.18737   5.98500    0.000
 6715.00    5.01062   6.02045    0.000
 6716.00    4.82898   6.03896    0.000
 6717.00    4.78007   6.04186    0.000
 6718.00    4.73287   6.03398    0.000
 6719.00    4.67725   6.02725    0.000
 6720.00    4.61874   6.03475    0.000
 6721.00    4.50396   6.06032    0.000
 6722.00    4.42451   6.09195    0.000
 6723.00    4.75051   6.11341    0.000
 6724.00    5.05731   6.11778    0.000
 6725.00    5.21123   6.10815    0.000
 6726.00    5.29655   6.09496    0.000
 6727.00    4.97042   6.08533    0.000
 6728.00    4.67925   6.07563    0.000
 6729.00    4.55370   6.05593    0.000
 6730.00    4.48158   6.02518    0.000
 6731.00    4.61587   5.99375    0.000
 6732.00    4.73084   5.97458    0.000
 6733.00    4.78362   5.96958    0.000
 6734.00    4.80919   5.97017    0.000
 6735.00    4.76053   5.97116    0.000
 6736.00    4.67772   5.97193    0.000
 6737.00    4.51515   5.97215    0.000
 6738.00    4.50571   5.96939    0.000
 6739.00    4.80569   5.95831    0.000
 6740.00    4.99948   5.93973    0.000
 6741.00    5.00649   5.92148    0.000
 6742.00    5.01307   5.91139    0.000
 6743.00    5.01899   5.90979    0.000
 6744.00    5.13174   5.91227    0.000
 6745.00    5.38893   5.92429    0.000
 6746.00    5.52787   5.94933    0.000
 6747.00    5.52604   5.99045    0.000
 6748.00    5.40374   6.05108    0.000
 6749.00    5.15497   6.11957    0.000
 6750.00    5.01427   6.18185    0.000
 6751.00    4.97361   6.22837    0.000
 6752.00    5.10795   6.25141    0.000
 6753.00    5.38513   6.25184    0.003
 6754.00    5.47823   6.23963    0.003
 6755.00    5.43908   6.22155    0.003
 6756.00    5.08191   6.19759    0.003
 6757.00    4.52422   6.16330    0.003
 6758.00    3.99153   6.11594    0.003
 6759.00    3.47263   6.06595    0.003
 6760.00    3.98388   6.02930    0.003
 6761.00    4.98881   6.01267    0.003
 6762.00    5.41624   6.01405    0.003
 6763.00    5.60479   6.03125    0.003
 6764.00    5.43120   6.06536    0.003
 6765.00    5.12955   6.11898    0.003
 6766.00    5.24292   6.18643    0.003
 6767.00    5.48017   6.25133    0.003
 6768.00    5.62982   6.29850    0.003
 6769.00    5.75776   6.32642    0.003
 6770.00    5.64006   6.34135    0.003
 6771.00    5.47305   6.34270    0.003
 6772.00    5.31558   6.32303    0.003
 6773.00    5.15962   6.27018    0.002
 6774.00    5.04607   6.18025    0.002
 6775.00    4.93746   6.07076    0.002
 6776.00    4.48020   5.97431    0.002
 6777.00    3.99545   5.92134    0.002
 6778.00    3.99630   5.92591    0.003
 6779.00    4.01830   5.97748    0.003
 6780.00    4.34167   6.04524    0.003
 6781.00    4.66186   6.10365    0.003
 6782.00    4.68650   6.14074    0.003
 6783.00    4.71037   6.15244    0.003
 6784.00    4.72026   6.14309    0.002
 6785.00    4.72655   6.12179    0.002
 6786.00    4.69355   6.09778    0.002
 6787.00    4.64460   6.08128    0.002
 6788.00    4.47298   6.08315    0.002
 6789.00    4.33641   6.10148    0.002
 6790.00    4.40410   6.12745    0.002
 6791.00    4.45813   6.15659    0.002
 6792.00    4.44902   6.18353    0.002
 6793.00    4.42826   6.20499    0.002
 6794.00    4.36348   6.21709    0.002
 6795.00    4.27074   6.21797    0.002
 6796.00    4.08972   6.21210    0.002
 6797.00    4.03196   6.20176    0.002
 6798.00    4.30430   6.19062    0.002
 6799.00    4.59874   6.18362    0.002
 6800.00    4.94395   6.17717    0.003
 6801.00    5.18828   6.17136    0.003
 6802.00    5.23201   6.17140    0.003
 6803.00    5.34976   6.17403    0.003
 6804.00    5.59575   6.17453    0.003
 6805.00    5.61265   6.16946    0.002
 6806.00    5.28204   6.15976    0.002
 6807.00    4.98382   6.15934    0.002
 6808.00    4.72874   6.17677    0.002
 6809.00    4.57547   6.20605    0.002
 6810.00    4.54168   6.23180    0.002
 6811.00    4.64966   6.24078    0.002
 6812.00    4.90439   6.23975    0.002
 6813.00    5.01906   6.24710    0.003
 6814.00    5.00586   6.27313    0.003
 6815.00    4.94201   6.31169    0.003
 6816.00    4.83740   6.34519    0.003
 6817.00    4.76523   6.35736    0.003
 6818.00    4.71602   6.34117    0.002
 6819.00    4.68960   6.30316    0.002
 6820.00    4.67732   6.26229    0.002
 6821.00    4.67187   6.23835    0.002
 6822.00    4.67013   6.24095    0.002
 6823.00    4.65943   6.26429    0.002
 6824.00    4.64449   6.29375    0.002
 6825.00    4.72777   6.31973    0.002
 6826.00    4.85098   6.33880    0.002
 6827.00    4.88708   6.34709    0.002
 6828.00    4.89294   6.33803    0.002
 6829.00    4.70765   6.30280    0.002
 6830.00    4.46642   6.23732    0.002
 6831.00    4.45574   6.15144    0.002
 6832.00    4.50091   6.06398    0.002
 6833.00    4.71952   5.99879    0.002
 6834.00    4.97207   5.97986    0.002
 6835.00    5.31580   6.01490    0.002
 6836.00    5.67344   6.09042    0.003
 6837.00    5.33638   6.17888    0.003
 6838.00    4.92136   6.25458    0.003
 6839.00    4.92631   6.30451    0.003
 6840.00    4.96266   6.32841    0.003
 6841.00    5.02463   6.33439    0.003
 6842.00    5.08763   6.32931    0.003
 6843.00    4.83519   6.31632    0.002
 6844.00    4.59431   6.29448    0.002
 6845.00    4.89952   6.25566    0.002
 6846.00    5.17661   6.19860    0.002
 6847.00    4.97879   6.13922    0.002
 6848.00    4.79410   6.09536    0.002
 6849.00    4.74674   6.07961    0.002
 6850.00    4.69616   6.08751    0.002
 6851.00    4.62172   6.09481    0.002
 6852.00    4.51890   6.08984    0.002
 6853.00    4.25532   6.08498    0.002
 6854.00    4.04197   6.10044    0.002
 6855.00    4.05540   6.14498    0.002
 6856.00    4.11072   6.20263    0.002
 6857.00    4.32115   6.23964    0.002
 6858.00    4.49148   6.23112    0.002
 6859.00    4.53756   6.18752    0.002
 6860.00    4.60822   6.14355    0.002
 6861.00    4.74356   6.12364    0.003
 6862.00    4.86153   6.12911    0.003
 6863.00    4.94029   6.14426    0.002
 6864.00    5.05473   6.15287    0.003
 6865.00    5.23902   6.15646    0.007
 6866.00    5.22299   6.16721   -1.000
 6867.00    4.86511   6.19267   -1.000
 6868.00    4.39746   6.23077   -1.000
 6869.00    3.76573   6.27334   -1.000
 6870.00    3.58555   6.30942   -1.000
 6871.00    3.99855   6.32571   -1.000
 6872.00    4.33031   6.31159   -1.000
 6873.00    4.56806   6.27344   -1.000
 6874.00    4.70082   6.23341   -1.000
 6875.00    4.72646   6.21456   -1.000
 6876.00    4.59428   6.22695    0.009
 6877.00    4.32005   6.26567    0.003
 6878.00    3.99157   6.31836    0.002
 6879.00    3.62007   6.37226    0.002
 6880.00    3.69606   6.42410    0.002
 6881.00    4.08430   6.47276    0.002
 6882.00    4.34625   6.50927    0.002
 6883.00    4.53092   6.52682    0.002
 6884.00    4.79305   6.52727    0.002
 6885.00    5.09657   6.51319    0.002
 6886.00    5.17561   6.49131    0.002
 6887.00    5.15051   6.47366    0.002
 6888.00    4.93719   6.46536    0.002
 6889.00    4.64866   6.46663    0.002
 6890.00    4.64869   6.47430    0.002
 6891.00    4.74705   6.48248    0.002
 6892.00    4.77995   6.49015    0.002
 6893.00    4.79407   6.50105    0.002
 6894.00    4.72010   6.51794    0.002
 6895.00    4.62527   6.53638    0.002
 6896.00    4.65987   6.54836    0.002
 6897.00    4.71915   6.55585    0.002
 6898.00    4.72938   6.56698    0.002
 6899.00    4.73236   6.58427    0.002
 6900.00    4.98073   6.60325    0.002
 6901.00    5.25558   6.61310    0.002
 6902.00    5.14695   6.60581    0.002
 6903.00    5.01122   6.57892    0.002
 6904.00    4.45721   6.53396    0.002
 6905.00    3.88818   6.48321    0.002
 6906.00    4.18541   6.44362    0.002
 6907.00    4.47969   6.42377    0.002
 6908.00    4.57265   6.42842    0.002
 6909.00    4.65097   6.45384    0.002
 6910.00    4.49734   6.49008    0.002
 6911.00    4.35098   6.53350    0.002
 6912.00    4.27733   6.57451    0.002
 6913.00    4.23057   6.59583    0.002
 6914.00    4.37708   6.58279    0.002
 6915.00    4.51694   6.53212    0.002
 6916.00    4.62018   6.45880    0.002
 6917.00    4.69003   6.39087    0.002
 6918.00    4.61268   6.35752    0.002
 6919.00    4.53586   6.36907    0.002
 6920.00    4.46097   6.41183    0.002
 6921.00    4.39054   6.45918    0.002
 6922.00    4.33367   6.48883    0.002
 6923.00    4.31115   6.49372    0.002
 6924.00    4.37742   6.48213    0.002
 6925.00    4.36887   6.47108    0.002
 6926.00    4.19402   6.47318    0.002
 6927.00    4.04708   6.49303    0.002
 6928.00    3.95393   6.52194    0.002
 6929.00    3.96853   6.54751    0.002
 6930.00    4.16423   6.57037    0.002
 6931.00    4.40911   6.59568    0.002
 6932.00    4.72639   6.61739    0.002
 6933.00    4.84422   6.61973    0.002
 6934.00    4.70377   6.58954    0.002
 6935.00    4.55610   6.52784    0.002
 6936.00    4.40021   6.45992    0.002
 6937.00    4.33058   6.41903    0.002
 6938.00    4.34775   6.42271    0.002
 6939.00    4.35050   6.46848    0.002
 6940.00    4.34046   6.52979    0.002
 6941.00    4.21249   6.56884    0.002
 6942.00    3.99230   6.56972    0.002
 6943.00    4.14925   6.53821    0.002
 6944.00    4.56555   6.49111    0.003
 6945.00    4.84858   6.45685    0.002
 6946.00    5.05128   6.45318    0.002
 6947.00    5.15158   6.47882    0.002
 6948.00    5.19801   6.52556    0.002
 6949.00    4.97738   6.57792    0.002
 6950.00    4.63487   6.62018    0.002
 6951.00    4.55829   6.64894    0.002
 6952.00    4.58616   6.67052    0.002
 6953.00    4.39662   6.69000    0.002
 6954.00    4.13435   6.70823    0.002
 6955.00    3.99633   6.71983    0.002
 6956.00    3.89321   6.72142    0.002
 6957.00    3.93449   6.71945    0.002
 6958.00    4.00919   6.72209    0.002
 6959.00    4.27721   6.73507    0.002
 6960.00    4.58111   6.75819    0.002
 6961.00    4.43824   6.77602    0.002
 6962.00    4.23142   6.77643    0.002
 6963.00    4.10618   6.76620    0.002
 6964.00    3.98938   6.75490    0.002
 6965.00    4.24542   6.74308    0.002
 6966.00    4.52630   6.71605    0.003
 6967.00    4.44532   6.64903    0.002
 6968.00    4.35275   6.53829    0.002
 6969.00    4.38921   6.41308    0.002
 6970.00    4.41721   6.31316    0.002
 6971.00    4.18568   6.27280    0.002
 6972.00    3.98069   6.31894    0.002
 6973.00    4.17062   6.44313    0.002
 6974.00    4.35749   6.59283    0.002
 6975.00    4.51493   6.72151    0.002
 6976.00    4.61288   6.80948    0.002
 6977.00    4.29699   6.85209    0.002
 6978.00    4.04876   6.85671    0.002
 6979.00    4.16380   6.83471    0.002
 6980.00    4.32930   6.79974    0.002
 6981.00    4.71217   6.76773    0.002
 6982.00    5.08395   6.75175    0.003
 6983.00    5.41630   6.76089    0.003
 6984.00    5.53189   6.78780    0.003
 6985.00    5.00103   6.81238    0.003
 6986.00    4.55526   6.82274    0.003
 6987.00    4.32561   6.81884    0.002
 6988.00    4.17570   6.80598    0.002
 6989.00    4.20011   6.78329    0.002
 6990.00    4.12930   6.74610    0.002
 6991.00    3.87788   6.70147    0.002
 6992.00    3.73738   6.66495    0.002
 6993.00    3.78053   6.65144    0.002
 6994.00    3.92131   6.66128    0.002
 6995.00    4.20380   6.67502    0.002
 6996.00    4.33803   6.67381    0.002
 6997.00    4.28301   6.66055    0.002
 6998.00    4.26513   6.65536    0.002
 6999.00    4.28904   6.67087    0.002
 7000.00    4.41998   6.70161    0.003
 7001.00    4.65709   6.73432    0.003
 7002.00    4.66923   6.75958    0.003
 7003.00    4.48455   6.77033    0.003
 7004.00    4.18509   6.76146    0.003
 7005.00    3.79718   6.72895    0.002
 7006.00    3.93184   6.66671    0.002
 7007.00    4.42059   6.58658    0.002
 7008.00    4.60533   6.52329    0.002
 7009.00    4.60957   6.51521    0.002
 7010.00    4.66291   6.58234    0.002
 7011.00    4.74168   6.69567    0.002
 7012.00    4.63844   6.79120    0.002
 7013.00    4.45349   6.82671    0.002
 7014.00    4.56371   6.79928    0.002
 7015.00    4.78786   6.73345    0.002
 7016.00    4.67529   6.66880    0.003
 7017.00    4.45221   6.64104    0.003
 7018.00    4.41843   6.66276    0.003
 7019.00    4.43673   6.71779    0.003
 7020.00    4.54909   6.77851    0.003
 7021.00    4.68271   6.82811    0.003
 7022.00    4.58463   6.86048    0.003
 7023.00    4.44468   6.87518    0.003
 7024.00    4.15667   6.87827    0.003
 7025.00    3.84814   6.87914    0.002
 7026.00    4.30772   6.88410    0.003
 7027.00    4.84354   6.88439    0.003
 7028.00    4.84491   6.86550    0.003
 7029.00    4.81279   6.83255    0.003
 7030.00    4.57812   6.80725    0.003
 7031.00    4.33921   6.82201    0.003
 7032.00    4.50006   6.90257    0.003
 7033.00    4.63887   7.02540    0.003
 7034.00    4.17246   7.12907    0.002
 7035.00    3.74729   7.17500    0.002
 7036.00    3.90098   7.16903    0.002
 7037.00    4.00591   7.14373    0.003
 7038.00    3.66126   7.13751    0.003
 7039.00    3.41887   7.16788    0.003
 7040.00    3.86561   7.21318    0.003
 7041.00    4.29698   7.23278    0.003
 7042.00    4.64797   7.19118    0.003
 7043.00    4.91243   7.07697    0.003
 7044.00    4.81262   6.90835    0.003
 7045.00    4.64337   6.72362    0.003
 7046.00    4.23258   6.57259    0.003
 7047.00    3.95413   6.48715    0.003
 7048.00    4.06304   6.45951    0.003
 7049.00    4.15746   6.45571    0.003
 7050.00    4.21570   6.43937   -2.000
 7051.00    4.31283   6.39678   -2.000
 7052.00    4.49359   6.34272   -2.000
 7053.00    4.59016   6.30769   -2.000
 7054.00    4.52949   6.31115   -2.000
 7055.00    4.56515   6.33951   -2.000
 7056.00    4.75794   6.36319   -2.000
 7057.00    4.84219   6.35889   -2.000
 7058.00    4.77118   6.31692   -2.000
 7059.00    4.62547   6.25705   -2.000
 7060.00    4.38576   6.22006   -2.000
 7061.00    4.41931   6.23669   -2.000
 7062.00    4.75590   6.31062   -2.000
 7063.00    4.87406   6.41384   -2.000
 7064.00    4.77857   6.50392   -2.000
 7065.00    4.77102   6.55780   -2.000
 7066.00    4.83933   6.58021   -2.000
 7067.00    4.73742   6.58654   -2.000
 7068.00    4.50619   6.59166   -2.000
 7069.00    4.64214   6.60618   -2.000
 7070.00    5.02328   6.63272   -2.000
 7071.00    5.17995   6.66097   -2.000
 7072.00    5.20532   6.67139   -2.000
 7073.00    5.13378   6.64369   -2.000
 7074.00    5.01283   6.56352   -2.000
 7075.00    5.12200   6.43989   -2.000
 7076.00    5.33277   6.30601   -2.000
 7077.00    5.41183   6.19659   -2.000
 7078.00    5.44094   6.13048   -2.000
 7079.00    4.83157   6.09577   -2.000
 7080.00    4.01659   6.06624   -2.000
 7081.00    4.09878   6.03541   -2.000
 7082.00    4.42266   6.00967   -2.000
 7083.00    5.20162   5.99537   -2.000
 7084.00    6.08106   5.99695   -2.000
 7085.00    5.57119   6.00840   -2.000
 7086.00    4.81711   6.02500   -2.000
 7087.00    5.08976   6.04850   -2.000
 7088.00    5.49996   6.07875   -2.000
 7089.00    5.35274   6.11606   -2.000
 7090.00    5.15254   6.15634   -2.000
 7091.00    5.19355   6.18978   -2.000
 7092.00    5.24871   6.20690   -2.000
 7093.00    5.27107   6.20555   -2.000
 7094.00    5.29101   6.19520   -2.000
 7095.00    5.09059   6.18993   -2.000
 7096.00    4.88236   6.19645   -2.000
 7097.00    4.48023   6.20774   -2.000
 7098.00    4.13340   6.20858   -2.000
 7099.00    4.52114   6.19155   -2.000
 7100.00    4.79010   6.16410   -2.000
 7101.00    4.00632   6.13595   -2.000
 7102.00    3.36370   6.11054   -2.000
 7103.00    3.64336   6.09363   -2.000
 7104.00    4.01458   6.09748   -2.000
 7105.00    4.85218   6.12759   -2.000
 7106.00    5.31570   6.17284   -2.000
 7107.00    4.23952   6.21483   -2.000
 7108.00    3.48710   6.24232   -2.000
 7109.00    3.83827   6.25160   -2.000
 7110.00    4.22351   6.24403   -2.000
 7111.00    4.70663   6.22596   -2.000
 7112.00    5.01141   6.20429   -2.000
 7113.00    4.87859   6.18411   -2.000
 7114.00    4.86607   6.16502   -2.000
 7115.00    5.10812   6.14465   -2.000
 7116.00    5.03195   6.11946   -2.000
 7117.00    4.37067   6.08122   -2.000
 7118.00    3.85454   6.03048   -2.000
 7119.00    3.57163   5.97871   -2.000
 7120.00    3.52277   5.93326   -2.000
 7121.00    3.80385   5.89249   -2.000
 7122.00    3.67272   5.85783   -2.000
 7123.00    3.03029   5.84624   -2.000
 7124.00    3.13794   5.87477   -2.000
 7125.00    4.06569   5.93826   -2.000
 7126.00    4.92875   6.01711   -2.000
 7127.00    5.72943   6.08805   -2.000
 7128.00    5.77532   6.13319   -2.000
 7129.00    5.17936   6.15228   -2.000
 7130.00    4.63396   6.15121   -2.000
 7131.00    4.12643   6.13821   -2.000
 7132.00    4.34957   6.13320   -2.000
 7133.00    5.05348   6.14837   -2.000
 7134.00    5.16664   6.16969   -2.000
 7135.00    4.93951   6.18032   -2.000
 7136.00    4.56533   6.17512   -2.000
 7137.00    4.11734   6.15015   -2.000
 7138.00    4.13300   6.10787   -2.000
 7139.00    4.35000   6.05691   -2.000
 7140.00    4.47088   6.01186   -2.000
 7141.00    4.55596   6.00027   -2.000
 7142.00    4.26662   6.03614   -2.000
 7143.00    3.85901   6.10511   -2.000
 7144.00    4.40548   6.18457   -2.000
 7145.00    5.20356   6.25292   -2.000
 7146.00    4.93092   6.29442   -2.000
 7147.00    4.42748   6.30912   -2.000
 7148.00    4.21672   6.31407   -2.000
 7149.00    4.05598   6.32039   -2.000
 7150.00    3.79343   6.31617   -2.000
 7151.00    3.51770   6.29558   -2.000
 7152.00    3.92260   6.26860   -2.000
 7153.00    4.38931   6.24093   -2.000
 7154.00    4.29656   6.20930   -2.000
 7155.00    4.17318   6.16607   -2.000
 7156.00    4.14768   6.11733   -2.000
 7157.00    4.11958   6.09378   -2.000
 7158.00    3.66791   6.12422   -2.000
 7159.00    3.27950   6.20266   -2.000
 7160.00    4.32722   6.29565   -2.000
 7161.00    5.37414   6.37167   -2.000
 7162.00    6.41099   6.42193   -2.000
 7163.00    7.31104   6.45782   -2.000
 7164.00    7.04401   6.48495   -2.000
 7165.00    6.58250   6.49393   -2.000
 7166.00    4.88838   6.47942   -2.000
 7167.00    3.63138   6.44941   -2.000
 7168.00    4.54482   6.41621   -2.000
 7169.00    5.42301   6.39122   -2.000
 7170.00    6.15935   6.37063   -2.000
 7171.00    6.62965   6.33564   -2.000
 7172.00    6.21109   6.28920   -2.000
 7173.00    5.73028   6.26233   -2.000
 7174.00    5.07386   6.28353   -2.000
 7175.00    4.71868   6.34356   -2.000
 7176.00    5.09011   6.39301   -2.000
 7177.00    5.10521   6.39252   -2.000
 7178.00    4.37835   6.33842   -2.000
 7179.00    4.14518   6.25312   -2.000
 7180.00    4.80584   6.18134   -2.000
 7181.00    5.05266   6.15579   -2.000
 7182.00    4.64440   6.17449   -2.000
 7183.00    4.44398   6.21696   -2.000
 7184.00    4.53234   6.25846   -2.000
 7185.00    4.27585   6.28918   -2.000
 7186.00    3.59767   6.31683   -2.000
 7187.00    3.59636   6.34448   -2.000
 7188.00    4.32469   6.36219   -2.000
 7189.00    4.61545   6.36616   -2.000
 7190.00    4.49016   6.36891   -2.000
 7191.00    4.52404   6.37727   -2.000
 7192.00    4.69138   6.38934   -2.000
 7193.00    4.76630   6.40583   -2.000
 7194.00    4.77300   6.42803   -2.000
 7195.00    4.78053   6.45099   -2.000
 7196.00    4.78861   6.45463   -2.000
 7197.00    4.16779   6.41761   -2.000
 7198.00    3.19022   6.33797   -2.000
 7199.00    3.32105   6.24887   -2.000
 7200.00    3.99928   6.20738   -2.000
 7201.00    4.80593   6.23670   -2.000
 7202.00    5.66742   6.31548   -2.000
 7203.00    6.19967   6.40259   -2.000
 7204.00    6.61146   6.45281   -2.000
 7205.00    5.38724   6.45635   -2.000
 7206.00    3.65621   6.44301   -2.000
 7207.00    3.67686   6.44416   -2.000
 7208.00    4.14962   6.47253   -2.000
 7209.00    3.85702   6.52260   -2.000
 7210.00    3.40344   6.57062   -2.000
 7211.00    3.19789   6.59013   -2.000
 7212.00    3.03353   6.57928   -2.000
 7213.00    3.72866   6.55698   -2.000
 7214.00    4.53117   6.54377   -2.000
 7215.00    4.96887   6.55280   -2.000
 7216.00    5.37498   6.59031   -2.000
 7217.00    5.07025   6.64639   -2.000
 7218.00    4.72940   6.69478   -2.000
