###################################################################
## OUTPUT of StarlightChains_v04.for    [Cid@UFSC - 01/Apr/2007] ##
###################################################################

## Some input info
KUG0210-078._30_40.txt                   [arq_obs]
Base.CB07.vall.4m                        [arq_base]
Masks.EmLines.NEW.gm                     [arq_masks]
StCv04.C11.config                        [arq_config]
   66                                    [N_base]
    0                                    [N_YAV_components = # of components with extra extinction!]
    0                                    [i_FitPowerLaw (1/0 = Yes/No)]
-9.99                                    [alpha_PowerLaw]
CCM                                      [red_law_option]
 1.458241                                [q_norm = A(l_norm)/A(V)]

## (Re)Sampling Parameters
 3741.00                                 [l_ini (A)]
 7218.00                                 [l_fin (A)]
    1.00                                 [dl    (A)]     (OBS: dl_cushion =    50.00 A)

## Normalization info
 4020.00                                 [l_norm (A) - for base]
 4010.00                                 [llow_norm (A) - window for f_obs]
 4060.00                                 [lupp_norm (A) - window for f_obs]
1.156506E-17                             [fobs_norm (in input units)]

## S/N
 3691.00                                 [llow_SN (A) - window for S/N]
 7268.00                                 [lupp_SN (A) - window for S/N]
   5.225                                 [S/N in S/N window]
   4.143                                 [S/N in norm. window]
   0.019                                 [S/N_err in S/N window]
   0.015                                 [S/N_err in norm. window]
  1.0000                                 [fscale_chi2]

## etc...
    -2007441                             [idum_orig]
  2431                                   [NOl_eff]
  2419                                   [Nl_eff]
    12    NSIGMA                         [Ntot_cliped & clip_method]
  1333500                                [Nglobal_steps]
   7                                     [N_chains]
  42                                     [NEX0s_base = N_base in EX0s-fits]
 0   0   1       12   2.0   1.652E+03    [Clip-Bug, RC-Crash & Burn-In warning-flags, n_censored_weights, wei_nsig_threshold & wei_limit]
    52     52.385     51.809      0.576  [idt_all, wdt_TotTime, wdt_UsrTime & wdt_SysTime (sec)]

## Synthesis Results - Best model ##

 1.20401E-05                             [chi2/Nl_eff]
    17.26031                             [adev (%)]

   124.81316                             [sum-of-x (%)]
 1.48331E-17                             [Flux_tot (units of input spectrum!)]
 2.75657E-13                             [Mini_tot (???)]
 1.52491E-13                             [Mcor_tot (???)]

   2.87                                  [v0_min  (km/s)]
 307.55                                  [vd_min  (km/s)]
 0.0203                                  [AV_min  (mag)]
 0.0000                                  [YAV_min (mag)]

# j     x_j(%)      Mini_j(%)     Mcor_j(%)     age_j(yr)     Z_j      (L/M)_j    YAV?  Mstars   component_j        a/Fe...       SSP_chi2r SSP_adev(%)   SSP_AV   SSP_x(%)
  1      0.0000     0.0000E+00    0.0000E+00    1.000000E+06  0.00400  1.094E-02    0   1.0000   age020_m42            0.0000     1.7598E-05    22.3537   3.3806   105.0073
  2      0.0000     0.0000E+00    0.0000E+00    3.160000E+06  0.00400  4.007E-02    0   0.9999   age045_m42            0.0000     1.6441E-05    21.2223   2.6269   113.5158
  3      0.0000     0.0000E+00    0.0000E+00    5.010000E+06  0.00400  2.539E-02    0   0.9488   age055_m42            0.0000     1.6814E-05    21.8341   2.9631   110.0479
  4      5.5337     9.1058E-03    1.5177E-02    6.610000E+06  0.00400  2.620E-02    0   0.9220   age061_m42            0.0000     1.6502E-05    21.3415   2.5557   113.6669
  5      0.0000     0.0000E+00    0.0000E+00    1.000000E+07  0.00400  1.322E-02    0   0.8862   age070_m42            0.0000     1.7534E-05    22.7008   2.3067   114.6930
  6      0.0000     0.0000E+00    0.0000E+00    1.445000E+07  0.00400  7.883E-03    0   0.8571   age078_m42            0.0000     1.7603E-05    22.8502   2.6365   111.6346
  7      0.0000     0.0000E+00    0.0000E+00    2.512000E+07  0.00400  5.251E-03    0   0.8174   age090_m42            0.0000     1.7683E-05    22.8899   2.1811   115.1889
  8      0.0000     0.0000E+00    0.0000E+00    4.000000E+07  0.00400  3.649E-03    0   0.7851   age104_m42            0.0000     1.7278E-05    22.4774   1.9454   116.5591
  9      0.0000     0.0000E+00    0.0000E+00    5.500000E+07  0.00400  3.098E-03    0   0.7629   age110_m42            0.0000     1.6888E-05    21.6384   2.0792   117.4373
 10      0.0000     0.0000E+00    0.0000E+00    1.015200E+08  0.00400  2.228E-03    0   0.7207   age116_m42            0.0000     1.6820E-05    21.0907   2.0856   118.2461
 11      0.0000     0.0000E+00    0.0000E+00    2.861200E+08  0.00400  1.093E-03    0   0.6648   age125_m42            0.0000     1.7142E-05    21.2597   1.5182   121.5804
 12      0.0000     0.0000E+00    0.0000E+00    5.088000E+08  0.00400  6.597E-04    0   0.6365   age130_m42            0.0000     1.6755E-05    20.1416   1.4886   123.5656
 13      0.0000     0.0000E+00    0.0000E+00    1.434000E+09  0.00400  2.132E-04    0   0.5798   age139_m42            0.0000     1.4895E-05    18.7653   0.5073   126.6565
 14      0.0000     0.0000E+00    0.0000E+00    4.250000E+09  0.00400  5.895E-05    0   0.5377   age158_m42            0.0000     1.2828E-05    17.9144   0.0556   122.2279
 15      5.8929     7.2381E+00    6.8195E+00    7.500000E+09  0.00400  3.510E-05    0   0.5212   age171_m42            0.0000     1.2363E-05    17.3546  -0.1427   121.8502
 16      0.0000     0.0000E+00    0.0000E+00    1.300000E+10  0.00400  2.005E-05    0   0.5034   age193_m42            0.0000     1.2053E-05    16.9012  -0.3166   121.5443
 17      0.0000     0.0000E+00    0.0000E+00    1.800000E+10  0.00400  1.525E-05    0   0.4967   age213_m42            0.0000     1.2148E-05    17.1031  -0.3351   120.8194
 18      0.0000     0.0000E+00    0.0000E+00    1.000000E+06  0.00800  1.238E-02    0   1.0000   age020_m52            0.0000     1.7643E-05    22.3822   3.3769   105.2241
 19      0.0000     0.0000E+00    0.0000E+00    3.160000E+06  0.00800  3.074E-02    0   0.9966   age045_m52            0.0000     1.7449E-05    22.3124   3.2979   106.2888
 20      0.0000     0.0000E+00    0.0000E+00    5.010000E+06  0.00800  2.668E-02    0   0.9443   age055_m52            0.0000     1.6968E-05    22.0547   3.0492   108.9057
 21      0.0000     0.0000E+00    0.0000E+00    6.610000E+06  0.00800  2.136E-02    0   0.9177   age061_m52            0.0000     1.6416E-05    22.2474   1.8087   115.9812
 22      0.3339     1.1847E-03    1.8904E-03    1.000000E+07  0.00800  1.215E-02    0   0.8827   age070_m52            0.0000     1.8050E-05    23.3490   2.4967   113.9235
 23      0.0000     0.0000E+00    0.0000E+00    1.445000E+07  0.00800  8.717E-03    0   0.8552   age078_m52            0.0000     1.7533E-05    22.8248   2.5995   113.3037
 24      0.0000     0.0000E+00    0.0000E+00    2.512000E+07  0.00800  5.592E-03    0   0.8162   age090_m52            0.0000     1.7729E-05    22.9602   2.2423   116.6504
 25      0.0000     0.0000E+00    0.0000E+00    4.000000E+07  0.00800  3.896E-03    0   0.7841   age104_m52            0.0000     1.7251E-05    22.3846   2.1427   118.1009
 26      0.0000     0.0000E+00    0.0000E+00    1.015200E+08  0.00800  2.148E-03    0   0.7226   age116_m52            0.0000     1.6691E-05    21.4714   2.0614   118.7900
 27      0.0000     0.0000E+00    0.0000E+00    2.861200E+08  0.00800  9.925E-04    0   0.6683   age125_m52            0.0000     1.6822E-05    20.1495   1.5535   124.7292
 28      0.0000     0.0000E+00    0.0000E+00    9.047900E+08  0.00800  3.141E-04    0   0.6138   age135_m52            0.0000     1.4826E-05    18.0361   0.7202   131.6958
 29      0.0000     0.0000E+00    0.0000E+00    1.434000E+09  0.00800  1.719E-04    0   0.5853   age139_m52            0.0000     1.3349E-05    18.0161   0.1456   128.6707
 30      3.9534     2.1652E+00    2.1918E+00    2.500000E+09  0.00800  7.872E-05    0   0.5600   age150_m52            0.0000     1.2279E-05    16.9186  -0.1404   126.1001
 31      5.9331     5.8993E+00    5.7863E+00    4.250000E+09  0.00800  4.336E-05    0   0.5426   age158_m52            0.0000     1.2099E-05    16.8980  -0.1539   124.8401
 32      0.0000     0.0000E+00    0.0000E+00    6.250000E+09  0.00800  3.159E-05    0   0.5319   age166_m52            0.0000     1.1900E-05    16.1841  -0.3750   125.6715
 33      0.0000     0.0000E+00    0.0000E+00    1.300000E+10  0.00800  1.361E-05    0   0.5073   age193_m52            0.0000     1.1915E-05    15.3325  -0.8646   125.8391
 34      0.0000     0.0000E+00    0.0000E+00    1.800000E+10  0.00800  9.886E-06    0   0.4990   age213_m52            0.0000     1.2164E-05    14.8418  -0.9938   126.1606
 35      0.0000     0.0000E+00    0.0000E+00    1.000000E+06  0.02000  1.544E-02    0   1.0000   age020_m62            0.0000     1.7732E-05    22.4482   3.3733   105.4544
 36      9.0153     1.0331E-02    1.8411E-02    3.160000E+06  0.02000  3.762E-02    0   0.9858   age045_m62            0.0000     1.7615E-05    22.4339   3.3112   106.4501
 37      1.4529     1.9005E-03    3.2094E-03    5.010000E+06  0.02000  3.296E-02    0   0.9342   age055_m62            0.0000     1.6651E-05    21.5513   2.9106   111.9355
 38      3.7430     1.3984E-02    2.2399E-02    8.710000E+06  0.02000  1.154E-02    0   0.8861   age067_m62            0.0000     2.2412E-05    27.0150   2.0075   114.2892
 39      0.0000     0.0000E+00    0.0000E+00    1.445000E+07  0.02000  7.663E-03    0   0.8472   age078_m62            0.0000     1.8765E-05    24.2022   2.1568   115.8319
 40      1.2887     1.2259E-02    1.7948E-02    2.512000E+07  0.02000  4.532E-03    0   0.8099   age090_m62            0.0000     1.9017E-05    24.3653   2.1486   115.4924
 41      0.0000     0.0000E+00    0.0000E+00    5.500000E+07  0.02000  2.733E-03    0   0.7595   age110_m62            0.0000     1.7216E-05    22.4809   2.1294   117.0606
 42      0.0000     0.0000E+00    0.0000E+00    1.609000E+08  0.02000  1.369E-03    0   0.6985   age120_m62            0.0000     1.7160E-05    21.0596   1.9349   121.8487
 43      0.0000     0.0000E+00    0.0000E+00    2.861200E+08  0.02000  9.013E-04    0   0.6714   age125_m62            0.0000     1.7442E-05    20.0159   1.6639   126.4006
 44      0.1126     9.6574E-03    1.1258E-02    5.088000E+08  0.02000  5.028E-04    0   0.6449   age130_m62            0.0000     1.6440E-05    18.1918   1.2511   131.5115
 45      0.0000     0.0000E+00    0.0000E+00    9.047900E+08  0.02000  2.428E-04    0   0.6179   age135_m62            0.0000     1.3859E-05    17.4712   0.6540   131.2408
 46     12.7065     4.3374E+00    4.6322E+00    1.434000E+09  0.02000  1.263E-04    0   0.5908   age139_m62            0.0000     1.2725E-05    17.2566   0.2097   129.3130
 47     16.4009     1.1814E+01    1.2116E+01    2.500000E+09  0.02000  5.985E-05    0   0.5673   age150_m62            0.0000     1.1987E-05    16.4100  -0.1738   128.3516
 48     25.5001     3.3610E+01    3.3221E+01    4.250000E+09  0.02000  3.271E-05    0   0.5468   age158_m62            0.0000     1.1864E-05    15.4570  -0.5066   128.5114
 49      0.6147     1.9485E+00    1.8200E+00    1.000000E+10  0.02000  1.360E-05    0   0.5167   age181_m62            0.0000     1.2417E-05    14.6440  -0.8893   129.5517
 50      0.0000     0.0000E+00    0.0000E+00    1.800000E+10  0.02000  7.124E-06    0   0.5013   age213_m62            0.0000     1.3557E-05    13.8862  -1.0000   125.2224
 51      0.0000     0.0000E+00    0.0000E+00    1.000000E+06  0.05000  2.592E-02    0   0.9998   age020_m72            0.0000     1.8018E-05    22.6623   3.3687   105.3371
 52      0.0000     0.0000E+00    0.0000E+00    3.160000E+06  0.05000  4.845E-02    0   0.9577   age045_m72            0.0000     1.7067E-05    22.0645   3.1829   108.3492
 53      0.0000     0.0000E+00    0.0000E+00    5.010000E+06  0.05000  3.072E-02    0   0.9147   age055_m72            0.0000     1.8204E-05    23.5638   2.7279   111.8897
 54      0.0000     0.0000E+00    0.0000E+00    6.610000E+06  0.05000  1.455E-02    0   0.8877   age061_m72            0.0000     2.6010E-05    29.1917   2.0532   114.4515
 55      0.0000     0.0000E+00    0.0000E+00    1.000000E+07  0.05000  9.074E-03    0   0.8524   age070_m72            0.0000     1.8754E-05    23.7602   2.8950   111.7849
 56      0.0000     0.0000E+00    0.0000E+00    2.512000E+07  0.05000  4.250E-03    0   0.7902   age090_m72            0.0000     1.8145E-05    23.3159   2.5949   114.2783
 57      0.0000     0.0000E+00    0.0000E+00    4.000000E+07  0.05000  3.087E-03    0   0.7618   age104_m72            0.0000     1.8448E-05    23.4476   2.3665   116.2527
 58      0.0000     0.0000E+00    0.0000E+00    1.015200E+08  0.05000  1.700E-03    0   0.7096   age116_m72            0.0000     1.7686E-05    21.7522   2.0865   120.8458
 59      0.0000     0.0000E+00    0.0000E+00    2.861200E+08  0.05000  7.384E-04    0   0.6633   age125_m72            0.0000     1.7006E-05    19.0852   1.5128   129.0891
 60      0.0000     0.0000E+00    0.0000E+00    5.088000E+08  0.05000  3.819E-04    0   0.6372   age130_m72            0.0000     1.4911E-05    17.7876   0.9953   132.5165
 61      0.0000     0.0000E+00    0.0000E+00    9.047900E+08  0.05000  1.676E-04    0   0.6110   age135_m72            0.0000     1.2730E-05    16.8818   0.2766   131.2363
 62      0.0000     0.0000E+00    0.0000E+00    1.434000E+09  0.05000  8.837E-05    0   0.5874   age139_m72            0.0000     1.2242E-05    16.4027  -0.1846   130.7304
 63     32.3315     3.2929E+01    3.3323E+01    2.500000E+09  0.05000  4.233E-05    0   0.5598   age150_m72            0.0000     1.1834E-05    15.2836  -0.5206   130.2780
 64      0.0000     0.0000E+00    0.0000E+00    6.250000E+09  0.05000  1.435E-05    0   0.5249   age166_m72            0.0000     1.2444E-05    14.6247  -0.9981   129.5793
 65      0.0000     0.0000E+00    0.0000E+00    1.300000E+10  0.05000  6.513E-06    0   0.5036   age193_m72            0.0000     1.5427E-05    14.2600  -1.0000   120.7836
 66      0.0000     0.0000E+00    0.0000E+00    1.800000E+10  0.05000  4.527E-06    0   0.4945   age213_m72            0.0000     1.8846E-05    15.4468  -1.0000   114.4762


## Synthesis Results - Average & Chains ##

# j      x_j: min, <> & last-chain-values for 1 ...  7 chains
  1      0.0000      2.1874      3.2670      3.2829      3.9276      2.9172      0.0000      2.4340      0.5897
  2      0.0000      1.5535      1.2960      0.0825      0.0000      0.0000      2.1930      2.0236      3.0531
  3      0.0000      1.5057      0.0000      5.5406      0.0000      1.9360     11.3745      6.7727      3.7593
  4      5.5337      1.4395      0.0201      2.7316      0.2063      3.2947      0.0000      0.6272      2.0800
  5      0.0000      2.1994      2.7164      1.4529      5.1580      5.0565      2.7293      3.6165      2.6466
  6      0.0000      1.6723      3.6572      1.7213      0.0000      0.0000      0.6960      0.0000      3.9807
  7      0.0000      1.4195      0.0000      8.7853      3.2672      1.8979      0.0000      0.0816      0.0000
  8      0.0000      1.6692      2.3890      0.6616      5.3357      5.8359      0.0000      0.0000      0.0000
  9      0.0000      1.4181      0.0000      1.6829      0.0000      1.6820      0.0000      3.8632      4.5518
 10      0.0000      1.5697      1.7557      1.5076      5.8318      1.5207      5.6125      0.0000      2.0262
 11      0.0000      1.9149      3.2449      1.1126      2.1649      0.0000      1.6092      9.4686      1.7962
 12      0.0000      3.0400      0.0000      1.6228      6.1005      0.1030      0.5207      3.1820      1.7456
 13      0.0000      6.3297      0.0000      3.6010     11.1204      2.1563      6.5413      1.7730      0.0000
 14      0.0000      2.0497      3.4207      7.2168      1.9840      2.6669      0.0000      1.7282      0.0000
 15      5.8929      1.4710      1.7148      0.2750      0.0000      3.0053      3.5171      0.0000      2.1925
 16      0.0000      1.2909      0.2269      1.9246      0.0000      0.0000      0.2770      0.0000      0.0000
 17      0.0000      1.2708      2.3114      0.1309      0.4511      2.5649      4.1225      0.0000      0.5271
 18      0.0000      1.7561      1.8516      2.5830      2.9235      3.4415      3.3231      0.7998      2.2962
 19      0.0000      2.0459      3.7696      4.0180      0.6605      4.6842      4.2668      0.5740      2.8537
 20      0.0000      1.5026      1.8523      0.2153      0.0000      2.6680      0.0000      5.4486      1.3313
 21      0.0000      0.9519      1.3887      1.6627      0.5459      0.5706      0.0000      2.3779      4.1627
 22      0.3339      2.3424      2.1748      6.8747      0.5558      6.9042     10.0113      2.6703      7.0962
 23      0.0000      1.8136      2.7013      5.5554      1.2292      2.8923      0.0000      2.5250      0.0000
 24      0.0000      1.8352      0.0000      0.3595      0.0905      1.8496      0.0558      2.8671      0.0000
 25      0.0000      1.3204      3.8469      0.0000      0.0000      1.0661      1.1927      0.0000      2.1898
 26      0.0000      2.1980      3.8043      0.0000      0.3308      3.3974      2.2229      2.9424      0.0000
 27      0.0000      1.7661      0.0000      0.0000      0.0000      0.2672      2.6184      3.8218      0.0000
 28      0.0000      1.1746      0.0000      0.5009      0.0000      2.8422      0.2029      0.0000      5.7650
 29      0.0000      1.7282      0.0000      0.0000      0.0000      0.0000      1.0607      2.5400      0.4910
 30      3.9534      1.5050      2.9610      0.4136      0.1725      2.3956      1.3193      3.1148      1.0421
 31      5.9331      1.2087      2.0350      1.9418      0.6818      1.4388      0.5959      1.2025      4.3390
 32      0.0000      2.0717      1.3827      0.5353      0.5024      1.0582      5.5453      0.0000      2.0044
 33      0.0000      2.0239      0.0000      5.0013      3.4352      0.8375      0.0000      0.2382      0.6144
 34      0.0000      2.1952      2.3136      1.6443      2.8137      4.4227      3.2635      6.7757      0.0000
 35      0.0000      1.6389      2.3660      0.0414      1.6356      2.2294      0.0000      0.0000      5.6642
 36      9.0153      2.0002      8.6508      5.3718      2.9779      0.0000      0.6246      3.9939      4.6380
 37      1.4529      1.5634      1.7961      0.1397      3.4855      6.0239      1.1639      0.0000      5.7044
 38      3.7430      1.6367      1.6451      3.5504      2.4730      2.7257      0.0000      0.0000      0.8596
 39      0.0000      1.7175      0.0000      6.3978      0.0000      0.0000      0.0000      0.0000      0.2492
 40      1.2887      1.8591      5.7624      2.1191      1.9373      5.1054      0.0000      0.4038      0.9174
 41      0.0000      1.6483      2.5217      7.1722      0.6590      2.1404      0.8025      1.6606      0.0000
 42      0.0000      1.4129      1.9504      1.5615      2.4272      6.1827      0.0000      0.0000      1.1052
 43      0.0000      1.8372      2.2042      0.0000      6.3813      0.0000      0.0000      0.0000      0.9702
 44      0.1126      7.3808      5.2882      5.5217     12.2702      1.4244      0.0000      6.9766      0.6857
 45      0.0000      1.5832      4.9950      0.4764      0.6553      0.6425      0.0000      3.9744      0.0000
 46     12.7065      1.7346      0.1995      0.8894      0.0147      0.8906      5.9739      1.3772      3.3062
 47     16.4009      1.8816      2.4061      0.0000      0.4085      1.5383      3.3737      1.2581      1.8924
 48     25.5001      1.6931      1.4246      0.0000      1.7734      2.6822      7.7113      0.5476      1.7683
 49      0.6147      1.5223      1.6457      1.1236      2.7888      0.1721      0.0000      0.0000      1.2973
 50      0.0000      2.1187      2.7091      0.5391      0.0000      2.9047      0.0000      2.9931      0.0000
 51      0.0000      1.4742      3.4117      0.0000      2.6325      0.0000      0.0000      3.4023      3.1106
 52      0.0000      2.1729      2.7090      6.3604      3.5110      2.0769      0.6953      0.1807      2.2290
 53      0.0000      1.2732      1.2095      0.0000      0.0000      0.9569      0.6185      3.9564      6.6217
 54      0.0000      1.8951      0.5370      0.5334      0.0000      1.6420      2.2883      4.0085      0.0000
 55      0.0000      1.9054      2.2799      0.0000      0.6596      0.0000      3.7068      4.9483      1.9877
 56      0.0000      2.0284      0.0000      0.0000      2.0745      0.0000     10.9319      5.6410      3.5803
 57      0.0000      1.3264      0.0000      0.6169      2.7973      0.2254      3.2115      0.0000      0.6842
 58      0.0000      1.3820      1.6478      0.0000      0.2731      0.0000      2.7078      0.2700      0.0000
 59      0.0000      2.5569      0.0215      2.2082      3.5675      3.7663      2.0018      3.3388      0.0000
 60      0.0000      1.7067      4.0868      2.8619      7.9509      1.5633      2.4368      0.0000      3.3169
 61      0.0000      1.6826      1.5775      0.0000      0.8066      0.0000      0.5867      1.6242      1.4148
 62      0.0000      1.9450      0.3487      0.4642      1.2881      3.2375      2.7364      0.3668      7.9993
 63     32.3315      1.5791      1.2362      1.9575      0.0000      0.4812      0.7215      3.8882      5.4643
 64      0.0000      1.6108      1.5996      1.3894      0.9224      1.6074      0.0000      0.0000      0.0000
 65      0.0000      2.1563      0.8348      2.0545      0.6982      0.0000      0.0000      1.1684      0.0000
 66      0.0000      5.2347      0.0000      0.0000      2.3163      1.2812      2.2130      0.0000      0.0000

# j      m_j: min, <> & last-chain-values for 1 ...  7 chains
  1  0.0000E+00  1.3168E-02  3.6792E-02  3.8029E-02  4.0005E-02  2.6834E-02  0.0000E+00  2.6305E-02  1.2227E-02
  2  0.0000E+00  2.5532E-03  3.9845E-03  2.6078E-04  0.0000E+00  0.0000E+00  5.6464E-03  5.9704E-03  1.7283E-02
  3  0.0000E+00  3.7058E-03  0.0000E+00  2.6239E-02  0.0000E+00  7.2801E-03  4.3858E-02  2.9923E-02  3.1868E-02
  4  1.5177E-02  3.3364E-03  8.7235E-05  1.2182E-02  8.0887E-04  1.1667E-02  0.0000E+00  2.6094E-03  1.6605E-02
  5  0.0000E+00  9.7102E-03  2.2434E-02  1.2342E-02  3.8529E-02  3.4110E-02  1.8878E-02  2.8663E-02  4.0246E-02
  6  0.0000E+00  1.1975E-02  4.8990E-02  2.3717E-02  0.0000E+00  0.0000E+00  7.8083E-03  0.0000E+00  9.8183E-02
  7  0.0000E+00  1.4553E-02  0.0000E+00  1.7331E-01  5.6672E-02  2.9730E-02  0.0000E+00  1.5018E-03  0.0000E+00
  8  0.0000E+00  2.3652E-02  6.3327E-02  1.8039E-02  1.2792E-01  1.2635E-01  0.0000E+00  0.0000E+00  0.0000E+00
  9  0.0000E+00  2.2999E-02  0.0000E+00  5.2519E-02  0.0000E+00  4.1682E-02  0.0000E+00  1.1248E-01  2.5427E-01
 10  0.0000E+00  3.3441E-02  6.9967E-02  6.1802E-02  2.1021E-01  4.9501E-02  1.8733E-01  0.0000E+00  1.4868E-01
 11  0.0000E+00  7.6710E-02  2.4315E-01  8.5761E-02  1.4673E-01  0.0000E+00  1.0099E-01  6.8091E-01  2.4783E-01
 12  0.0000E+00  1.9318E-01  0.0000E+00  1.9842E-01  6.5588E-01  9.9975E-03  5.1843E-02  3.6298E-01  3.8205E-01
 13  0.0000E+00  1.1337E+00  0.0000E+00  1.2410E+00  3.3699E+00  5.9011E-01  1.8355E+00  5.7007E-01  0.0000E+00
 14  0.0000E+00  1.2313E+00  3.8441E+00  8.3420E+00  2.0166E+00  2.4479E+00  0.0000E+00  1.8638E+00  0.0000E+00
 15  6.8195E+00  1.4386E+00  3.1371E+00  5.1755E-01  0.0000E+00  4.4907E+00  5.3887E+00  0.0000E+00  7.3853E+00
 16  0.0000E+00  2.1346E+00  7.0175E-01  6.1238E+00  0.0000E+00  0.0000E+00  7.1767E-01  0.0000E+00  0.0000E+00
 17  0.0000E+00  2.7260E+00  9.2752E+00  5.4051E-01  1.6371E+00  8.4067E+00  1.3855E+01  0.0000E+00  3.8946E+00
 18  0.0000E+00  9.3425E-03  1.8427E-02  2.6441E-02  2.6314E-02  2.7974E-02  2.7697E-02  7.6379E-03  4.2075E-02
 19  0.0000E+00  4.3686E-03  1.5056E-02  1.6508E-02  2.3863E-03  1.5282E-02  1.4273E-02  2.2001E-03  2.0988E-02
 20  0.0000E+00  3.5028E-03  8.0771E-03  9.6589E-04  0.0000E+00  9.5025E-03  0.0000E+00  2.2800E-02  1.0689E-02
 21  0.0000E+00  2.6936E-03  7.3504E-03  9.0530E-03  2.6136E-03  2.4669E-03  0.0000E+00  1.2079E-02  4.0570E-02
 22  1.8904E-03  1.1208E-02  1.9466E-02  6.3294E-02  4.4994E-03  5.0475E-02  7.5047E-02  2.2936E-02  1.1695E-01
 23  0.0000E+00  1.1718E-02  3.2650E-02  6.9069E-02  1.3438E-02  2.8554E-02  0.0000E+00  2.9288E-02  0.0000E+00
 24  0.0000E+00  1.7641E-02  0.0000E+00  6.6499E-03  1.4722E-03  2.7166E-02  8.4108E-04  4.9478E-02  0.0000E+00
 25  0.0000E+00  1.7502E-02  9.5384E-02  0.0000E+00  0.0000E+00  2.1592E-02  2.4769E-02  0.0000E+00  9.9973E-02
 26  0.0000E+00  4.8699E-02  1.5767E-01  0.0000E+00  1.2401E-02  1.1501E-01  7.7160E-02  1.1703E-01  0.0000E+00
 27  0.0000E+00  7.8324E-02  0.0000E+00  0.0000E+00  0.0000E+00  1.8108E-02  1.8192E-01  3.0426E-01  0.0000E+00
 28  0.0000E+00  1.5118E-01  0.0000E+00  1.2404E-01  0.0000E+00  5.5890E-01  4.0920E-02  0.0000E+00  2.5556E+00
 29  0.0000E+00  3.8754E-01  0.0000E+00  0.0000E+00  0.0000E+00  0.0000E+00  3.7264E-01  1.0225E+00  3.7923E-01
 30  2.1918E+00  7.0514E-01  2.5951E+00  3.7286E-01  1.3676E-01  1.7149E+00  9.6843E-01  2.6198E+00  1.6816E+00
 31  5.7863E+00  9.9614E-01  3.1374E+00  3.0793E+00  9.5067E-01  1.8119E+00  7.6937E-01  1.7791E+00  1.2317E+01
 32  0.0000E+00  2.2974E+00  2.8683E+00  1.1423E+00  9.4254E-01  1.7931E+00  9.6341E+00  0.0000E+00  7.6557E+00
 33  0.0000E+00  4.9684E+00  0.0000E+00  2.3624E+01  1.4268E+01  3.1415E+00  0.0000E+00  1.0498E+00  5.1953E+00
 34  0.0000E+00  7.2978E+00  1.4388E+01  1.0518E+01  1.5826E+01  2.2464E+01  1.6997E+01  4.0436E+01  0.0000E+00
 35  0.0000E+00  6.9908E-03  1.8879E-02  3.3985E-04  1.1804E-02  1.4530E-02  0.0000E+00  0.0000E+00  8.3219E-02
 36  1.8411E-02  3.4521E-03  2.7928E-02  1.7839E-02  8.6954E-03  0.0000E+00  1.6887E-03  1.2374E-02  2.7570E-02
 37  3.2094E-03  2.9185E-03  6.2718E-03  5.0193E-04  1.1008E-02  1.7181E-02  3.4039E-03  0.0000E+00  3.6677E-02
 38  2.2399E-02  8.2770E-03  1.5563E-02  3.4548E-02  2.1160E-02  2.1061E-02  0.0000E+00  0.0000E+00  1.4972E-02
 39  0.0000E+00  1.2506E-02  0.0000E+00  8.9637E-02  0.0000E+00  0.0000E+00  0.0000E+00  0.0000E+00  6.2510E-03
 40  1.7948E-02  2.1881E-02  1.2687E-01  4.7990E-02  3.8578E-02  9.1811E-02  0.0000E+00  8.5315E-03  3.7191E-02
 41  0.0000E+00  3.0168E-02  8.6335E-02  2.5259E-01  2.0407E-02  5.9856E-02  2.3012E-02  5.4560E-02  0.0000E+00
 42  0.0000E+00  4.7478E-02  1.2260E-01  1.0096E-01  1.3800E-01  3.1745E-01  0.0000E+00  0.0000E+00  1.2792E-01
 43  0.0000E+00  9.0134E-02  2.0229E-01  0.0000E+00  5.2970E-01  0.0000E+00  0.0000E+00  0.0000E+00  1.6395E-01
 44  1.1258E-02  6.2349E-01  8.3564E-01  8.9751E-01  1.7537E+00  1.8385E-01  0.0000E+00  1.0580E+00  1.9951E-01
 45  0.0000E+00  2.6535E-01  1.5661E+00  1.5364E-01  1.8582E-01  1.6454E-01  0.0000E+00  1.1959E+00  0.0000E+00
 46  4.6322E+00  5.3439E-01  1.1496E-01  5.2723E-01  7.6721E-03  4.1921E-01  2.8834E+00  7.6168E-01  3.5083E+00
 47  1.2116E+01  1.1746E+00  2.8098E+00  0.0000E+00  4.3142E-01  1.4673E+00  3.2996E+00  1.4099E+00  4.0691E+00
 48  3.3221E+01  1.8640E+00  2.9341E+00  0.0000E+00  3.3035E+00  4.5120E+00  1.3301E+01  1.0823E+00  6.7055E+00
 49  1.8200E+00  3.8091E+00  7.7030E+00  5.4099E+00  1.1807E+01  6.5789E-01  0.0000E+00  0.0000E+00  1.1181E+01
 50  0.0000E+00  9.8192E+00  2.3486E+01  4.8072E+00  0.0000E+00  2.0569E+01  0.0000E+00  2.4902E+01  0.0000E+00
 51  0.0000E+00  3.7452E-03  1.6213E-02  0.0000E+00  1.1315E-02  0.0000E+00  0.0000E+00  1.5516E-02  2.7218E-02
 52  0.0000E+00  2.8288E-03  6.5971E-03  1.5933E-02  7.7334E-03  4.1313E-03  1.4180E-03  4.2241E-04  9.9949E-03
 53  0.0000E+00  2.4968E-03  4.4368E-03  0.0000E+00  0.0000E+00  2.8672E-03  1.9002E-03  1.3928E-02  4.4726E-02
 54  0.0000E+00  7.6148E-03  4.0361E-03  4.1244E-03  0.0000E+00  1.0081E-02  1.4405E-02  2.8915E-02  0.0000E+00
 55  0.0000E+00  1.1788E-02  2.6386E-02  0.0000E+00  6.9042E-03  0.0000E+00  3.5930E-02  5.4959E-02  4.2357E-02
 56  0.0000E+00  2.4839E-02  0.0000E+00  0.0000E+00  4.2980E-02  0.0000E+00  2.0972E-01  1.2400E-01  1.5101E-01
 57  0.0000E+00  2.1558E-02  0.0000E+00  1.9292E-02  7.6921E-02  5.5977E-03  8.1774E-02  0.0000E+00  3.8303E-02
 58  0.0000E+00  3.7993E-02  8.4737E-02  0.0000E+00  1.2702E-02  0.0000E+00  1.1663E-01  1.3325E-02  0.0000E+00
 59  0.0000E+00  1.5127E-01  2.3845E-03  2.5137E-01  3.5710E-01  3.4046E-01  1.8555E-01  3.5461E-01  0.0000E+00
 60  0.0000E+00  1.8754E-01  8.4008E-01  6.0513E-01  1.4783E+00  2.6249E-01  4.1952E-01  0.0000E+00  1.2554E+00
 61  0.0000E+00  4.0399E-01  7.0851E-01  0.0000E+00  3.2768E-01  0.0000E+00  2.2070E-01  7.0008E-01  1.1700E+00
 62  0.0000E+00  8.5148E-01  2.8558E-01  3.9100E-01  9.5409E-01  2.1656E+00  1.8768E+00  2.8824E-01  1.2062E+01
 63  3.3323E+01  1.3754E+00  2.0141E+00  3.2806E+00  0.0000E+00  6.4037E-01  9.8449E-01  6.0795E+00  1.6393E+01
 64  0.0000E+00  3.8806E+00  7.2086E+00  6.4405E+00  3.7596E+00  5.9168E+00  0.0000E+00  0.0000E+00  0.0000E+00
 65  0.0000E+00  1.0981E+01  7.9521E+00  2.0132E+01  6.0155E+00  0.0000E+00  0.0000E+00  1.0681E+01  0.0000E+00
 66  0.0000E+00  3.7660E+01  0.0000E+00  0.0000E+00  2.8194E+01  1.4083E+01  2.4942E+01  0.0000E+00  0.0000E+00

# AV, chi2 & Mass for <> & i_chain = 1 ...  7 solutions
AV       0.0203      2.0702      1.8765      1.7959      1.8440      1.7478      1.7662      1.8451      1.7831
chi2 1.2040E-05  2.3567E-04  5.9940E-05  5.4241E-05  7.7635E-05  6.3245E-05  9.1929E-05  7.0916E-05  4.5476E-05
Mass 1.5249E-13  2.8319E-12  1.1671E-12  1.0182E-12  1.2352E-12  1.2020E-12  1.2015E-12  1.1658E-12  5.5912E-13
   2.87                                  [v0_min (km/s) before EX0s...]
 307.55                                  [vd_min (km/s) before EX0s...]


## Synthetic spectrum (Best Model) ##l_obs f_obs f_syn wei
 3478    [Nl_obs]
 3741.00    0.43891   0.70779    0.000
 3742.00    0.25215   0.70733    0.000
 3743.00   -0.11309   0.69927    0.000
 3744.00   -0.17106   0.68961    0.000
 3745.00   -0.05000   0.67499    0.000
 3746.00    0.23538   0.65916    0.031
 3747.00    0.60421   0.65106    0.031
 3748.00    0.54760   0.64737    0.031
 3749.00    0.30390   0.64903    0.029
 3750.00    0.32447   0.66094    0.030
 3751.00    0.44481   0.67934    0.030
 3752.00    0.54941   0.70001    0.030
 3753.00    0.64896   0.72187    0.029
 3754.00    0.92245   0.74163    0.029
 3755.00    1.24255   0.75660    0.029
 3756.00    1.47951   0.76764    0.029
 3757.00    1.69823   0.77253    0.030
 3758.00    1.60179   0.77252    0.033
 3759.00    1.45033   0.77294    0.037
 3760.00    1.25592   0.77085    0.054
 3761.00    1.05580   0.76699    0.104
 3762.00    1.12998   0.76617    0.051
 3763.00    1.22994   0.76267    0.032
 3764.00    1.17932   0.75755    0.030
 3765.00    1.12001   0.75642    0.028
 3766.00    0.79855   0.75288    0.028
 3767.00    0.47565   0.74779    0.028
 3768.00    0.73153   0.74925    0.029
 3769.00    0.98026   0.75346    0.031
 3770.00    1.05498   0.75803    0.030
 3771.00    1.11556   0.76896    0.030
 3772.00    0.99069   0.78488    0.029
 3773.00    0.86151   0.80188    0.028
 3774.00    0.69437   0.82129    0.026
 3775.00    0.54543   0.84169    0.025
 3776.00    0.51443   0.86207    0.026
 3777.00    0.49245   0.88210    0.027
 3778.00    0.51610   0.89867    0.027
 3779.00    0.52633   0.91269    0.027
 3780.00    0.48159   0.92396    0.027
 3781.00    0.47008   0.92982    0.027
 3782.00    0.57124   0.92976    0.028
 3783.00    0.64726   0.92395    0.028
 3784.00    0.65136   0.91502    0.028
 3785.00    0.63253   0.90079    0.028
 3786.00    0.55770   0.88079    0.028
 3787.00    0.45869   0.86180    0.027
 3788.00    0.30872   0.84247    0.027
 3789.00    0.32985   0.82051    0.027
 3790.00    0.66434   0.79987    0.027
 3791.00    0.85394   0.78090    0.027
 3792.00    0.81158   0.76130    0.027
 3793.00    0.79934   0.74277    0.027
 3794.00    0.82942   0.72619    0.027
 3795.00    0.85187   0.71249    0.027
 3796.00    0.86491   0.70501    0.026
 3797.00    0.73114   0.70320    0.025
 3798.00    0.43744   0.70723    0.025
 3799.00    0.32854   0.71997    0.025
 3800.00    0.39724   0.73991    0.025
 3801.00    0.46597   0.76231    0.026
 3802.00    0.53473   0.78694    0.027
 3803.00    0.54152   0.81261    0.027
 3804.00    0.50207   0.83486    0.026
 3805.00    0.51175   0.85443    0.026
 3806.00    0.55363   0.86997    0.025
 3807.00    0.58304   0.87966    0.026
 3808.00    0.60531   0.88669    0.026
 3809.00    0.66990   0.88916    0.027
 3810.00    0.75564   0.88534    0.027
 3811.00    0.52805   0.87903    0.027
 3812.00    0.16496   0.86870    0.025
 3813.00    0.04565   0.85397    0.025
 3814.00    0.01674   0.84002    0.025
 3815.00    0.27128   0.82470    0.025
 3816.00    0.61493   0.80798    0.026
 3817.00    0.76220   0.79438    0.031
 3818.00    0.85797   0.78196    0.040
 3819.00    0.72125   0.76914    0.033
 3820.00    0.53473   0.75657    0.026
 3821.00    0.58215   0.74524    0.026
 3822.00    0.66927   0.73535    0.027
 3823.00    0.66428   0.72375    0.027
 3824.00    0.64747   0.71037    0.026
 3825.00    0.47842   0.69765    0.025
 3826.00    0.29570   0.68428    0.024
 3827.00    0.15179   0.67027    0.025
 3828.00    0.00996   0.65559    0.027
 3829.00    0.06495   0.63937    0.026
 3830.00    0.12398   0.62470    0.025
 3831.00    0.19180   0.61033    0.025
 3832.00    0.26277   0.59539    0.026
 3833.00    0.40367   0.58536    0.026
 3834.00    0.54690   0.57911    0.026
 3835.00    0.71908   0.57636    0.026
 3836.00    0.85627   0.58192    0.026
 3837.00    0.69760   0.59268    0.028
 3838.00    0.56913   0.60793    0.028
 3839.00    0.63066   0.63107    0.027
 3840.00    0.66354   0.65649    0.025
 3841.00    0.55513   0.68386    0.025
 3842.00    0.43353   0.71435    0.024
 3843.00    0.25916   0.74160    0.025
 3844.00    0.11984   0.76700    0.025
 3845.00    0.09704   0.78988    0.025
 3846.00    0.09854   0.80679    0.025
 3847.00    0.16826   0.82101    0.000
 3848.00    0.33250   0.83217    0.000
 3849.00    0.72373   0.83792    0.000
 3850.00    0.94020   0.84012    0.000
 3851.00    0.79422   0.84172    0.000
 3852.00    0.68413   0.84085    0.000
 3853.00    0.63877   0.83598    0.000
 3854.00    0.69837   0.83154    0.000
 3855.00    0.92350   0.82611    0.000
 3856.00    1.06010   0.81941    0.000
 3857.00    1.07412   0.81656    0.000
 3858.00    1.11766   0.81471    0.000
 3859.00    1.19714   0.81398    0.000
 3860.00    1.13246   0.81759    0.000
 3861.00    0.91292   0.82340    0.000
 3862.00    0.77225   0.83029    0.000
 3863.00    0.70630   0.83692    0.000
 3864.00    0.82860   0.84160    0.000
 3865.00    1.10816   0.84429    0.000
 3866.00    1.22217   0.84492    0.000
 3867.00    1.21441   0.84230    0.000
 3868.00    1.16550   0.83772    0.000
 3869.00    1.08999   0.83243    0.000
 3870.00    1.00537   0.82607    0.000
 3871.00    0.91558   0.82111    0.000
 3872.00    0.81287   0.81660    0.000
 3873.00    0.70379   0.81285    0.000
 3874.00    0.60827   0.81152    0.000
 3875.00    0.51851   0.80893    0.000
 3876.00    0.39614   0.80581    0.000
 3877.00    0.26190   0.80202    0.000
 3878.00    0.34716   0.79407    0.000
 3879.00    0.50010   0.78675    0.000
 3880.00    0.61737   0.77912    0.000
 3881.00    0.72549   0.76709    0.025
 3882.00    0.90815   0.75363    0.025
 3883.00    1.10639   0.74064    0.025
 3884.00    0.99606   0.72940    0.026
 3885.00    0.83483   0.71775    0.026
 3886.00    0.78702   0.70727    0.026
 3887.00    0.75325   0.70426    0.025
 3888.00    0.82160   0.70635    0.025
 3889.00    0.89869   0.71269    0.025
 3890.00    0.87709   0.72611    0.025
 3891.00    0.85058   0.74414    0.026
 3892.00    0.80706   0.76489    0.026
 3893.00    0.76558   0.78681    0.026
 3894.00    0.87390   0.80811    0.025
 3895.00    0.97146   0.82702    0.025
 3896.00    0.84898   0.84483    0.024
 3897.00    0.73755   0.86017    0.024
 3898.00    0.75684   0.87132    0.024
 3899.00    0.79040   0.88033    0.023
 3900.00    0.94018   0.88661    0.024
 3901.00    1.07894   0.89359    0.025
 3902.00    1.15037   0.89827    0.024
 3903.00    1.20334   0.90091    0.024
 3904.00    1.16749   0.90827    0.022
 3905.00    1.10003   0.91458    0.021
 3906.00    0.90878   0.92190    0.021
 3907.00    0.76144   0.93334    0.021
 3908.00    0.75723   0.94379    0.021
 3909.00    0.75529   0.95484    0.022
 3910.00    0.75965   0.96389    0.022
 3911.00    0.79661   0.96984    0.023
 3912.00    0.91056   0.97458    0.024
 3913.00    0.91143   0.97367    0.024
 3914.00    0.68149   0.96901    0.024
 3915.00    0.61060   0.96219    0.024
 3916.00    0.82223   0.95053    0.025
 3917.00    1.02607   0.93743    0.026
 3918.00    1.21780   0.92261    0.026
 3919.00    1.19106   0.90608    0.025
 3920.00    0.86621   0.88846    0.025
 3921.00    0.62900   0.86960    0.024
 3922.00    0.49708   0.84975    0.024
 3923.00    0.46989   0.82677    0.024
 3924.00    0.55361   0.80150    0.024
 3925.00    0.65055   0.77144    0.024
 3926.00    0.75986   0.73766    0.025
 3927.00    0.75716   0.70230    0.025
 3928.00    0.66222   0.66408    0.025
 3929.00    0.60821   0.62729    0.024
 3930.00    0.58386   0.59367    0.024
 3931.00    0.58932   0.56532    0.024
 3932.00    0.61374   0.54547    0.025
 3933.00    0.62262   0.53460    0.025
 3934.00    0.62285   0.53463    0.025
 3935.00    0.63433   0.54524    0.025
 3936.00    0.65126   0.56480    0.024
 3937.00    0.72293   0.59197    0.024
 3938.00    0.81748   0.62356    0.025
 3939.00    0.68375   0.65789    0.024
 3940.00    0.46835   0.69307    0.024
 3941.00    0.55269   0.72646    0.024
 3942.00    0.72763   0.75854    0.024
 3943.00    0.67671   0.78805    0.025
 3944.00    0.56907   0.81360    0.025
 3945.00    0.72017   0.83872    0.025
 3946.00    0.92404   0.86288    0.025
 3947.00    1.14877   0.88200    0.025
 3948.00    1.37684   0.89833    0.026
 3949.00    1.09121   0.91344    0.026
 3950.00    0.74423   0.92586    0.026
 3951.00    0.78009   0.93560    0.026
 3952.00    0.84711   0.93933    0.026
 3953.00    0.76819   0.93881    0.026
 3954.00    0.68257   0.93800    0.026
 3955.00    0.79345   0.93093    0.026
 3956.00    0.90787   0.91644    0.026
 3957.00    1.07645   0.89803    0.026
 3958.00    1.23069   0.87436    0.027
 3959.00    1.11328   0.84570    0.027
 3960.00    0.97431   0.81092    0.000
 3961.00    0.59235   0.76859    0.000
 3962.00    0.26378   0.72447    0.000
 3963.00    0.35485   0.68061    0.000
 3964.00    0.45748   0.63616    0.000
 3965.00    0.62872   0.59495    0.000
 3966.00    0.77409   0.55949    0.000
 3967.00    0.79798   0.53301    0.000
 3968.00    0.80980   0.51827    0.000
 3969.00    0.77538   0.51577    0.000
 3970.00    0.82325   0.52650    0.000
 3971.00    1.13416   0.54980    0.000
 3972.00    1.28450   0.58387    0.000
 3973.00    0.99995   0.62575    0.000
 3974.00    0.81616   0.67309    0.000
 3975.00    0.86632   0.72423    0.000
 3976.00    0.89648   0.77415    0.000
 3977.00    0.88651   0.82147    0.000
 3978.00    0.92295   0.86530    0.000
 3979.00    1.04055   0.90340    0.000
 3980.00    1.24036   0.93732    0.000
 3981.00    1.56601   0.96434    0.026
 3982.00    1.64117   0.98606    0.026
 3983.00    1.37943   1.00607    0.025
 3984.00    1.28055   1.02174    0.025
 3985.00    1.37452   1.03652    0.025
 3986.00    1.41896   1.04898    0.025
 3987.00    1.41167   1.05892    0.025
 3988.00    1.34502   1.07090    0.025
 3989.00    1.22370   1.07907    0.024
 3990.00    1.27093   1.08540    0.024
 3991.00    1.45498   1.09203    0.024
 3992.00    1.48682   1.09575    0.024
 3993.00    1.40989   1.09967    0.025
 3994.00    1.30159   1.10213    0.025
 3995.00    1.17361   1.10360    0.025
 3996.00    1.21005   1.10643    0.025
 3997.00    1.33659   1.10892    0.025
 3998.00    1.32780   1.11218    0.025
 3999.00    1.25455   1.11677    0.025
 4000.00    1.06319   1.11967    0.025
 4001.00    0.82329   1.12103    0.024
 4002.00    1.02126   1.12212    0.024
 4003.00    1.37300   1.12336    0.025
 4004.00    1.13066   1.12371    0.025
 4005.00    0.71230   1.12213    0.024
 4006.00    0.66801   1.12314    0.024
 4007.00    0.71562   1.12766    0.024
 4008.00    0.73097   1.13419    0.024
 4009.00    0.73991   1.14075    0.024
 4010.00    0.81535   1.14822    0.024
 4011.00    0.90113   1.15763    0.025
 4012.00    1.10326   1.16649    0.025
 4013.00    1.31877   1.17559    0.025
 4014.00    1.09475   1.18247    0.025
 4015.00    0.83674   1.18844    0.024
 4016.00    0.80716   1.19388    0.025
 4017.00    0.78720   1.19559    0.025
 4018.00    0.80701   1.19741    0.024
 4019.00    0.82674   1.19892    0.024
 4020.00    0.82700   1.19786    0.024
 4021.00    0.82767   1.19597    0.024
 4022.00    0.83570   1.19250    0.024
 4023.00    0.84907   1.18922    0.024
 4024.00    0.91991   1.18493    0.024
 4025.00    0.98452   1.17781    0.024
 4026.00    1.00181   1.17112    0.024
 4027.00    1.00282   1.16352    0.024
 4028.00    0.90988   1.15502    0.024
 4029.00    0.88229   1.14680    0.024
 4030.00    1.15412   1.13662    0.024
 4031.00    1.35416   1.13059    0.024
 4032.00    1.28488   1.12976    0.024
 4033.00    1.16479   1.13071    0.023
 4034.00    0.88543   1.13651    0.023
 4035.00    0.70750   1.14340    0.023
 4036.00    0.79942   1.15236    0.023
 4037.00    0.90708   1.16365    0.023
 4038.00    1.05070   1.17048    0.023
 4039.00    1.15082   1.17302    0.023
 4040.00    1.16494   1.17036    0.023
 4041.00    1.13743   1.16405    0.023
 4042.00    1.03819   1.15893    0.023
 4043.00    0.98454   1.15100    0.023
 4044.00    0.99967   1.14128    0.024
 4045.00    1.00603   1.13365    0.024
 4046.00    1.00076   1.13005    0.024
 4047.00    1.13584   1.13417    0.024
 4048.00    1.43478   1.13957    0.024
 4049.00    1.52959   1.14309    0.024
 4050.00    1.41425   1.14741    0.025
 4051.00    1.29290   1.15114    0.024
 4052.00    1.16609   1.15258    0.024
 4053.00    1.19495   1.15118    0.024
 4054.00    1.34841   1.14670    0.024
 4055.00    1.20398   1.14090    0.024
 4056.00    0.84979   1.13566    0.024
 4057.00    0.82022   1.12784    0.024
 4058.00    0.99117   1.11899    0.024
 4059.00    1.00000   1.11328    0.024
 4060.00    0.92135   1.10955    0.024
 4061.00    1.09201   1.10569    0.024
 4062.00    1.37951   1.10114    0.024
 4063.00    1.05830   1.09700    0.024
 4064.00    0.49115   1.09716    0.024
 4065.00    0.49729   1.10156    0.024
 4066.00    0.70111   1.10331    0.023
 4067.00    0.80787   1.10450    0.023
 4068.00    0.88645   1.10846    0.024
 4069.00    0.93442   1.11227    0.024
 4070.00    0.97504   1.11486    0.023
 4071.00    0.95118   1.11218    0.023
 4072.00    0.91483   1.10786    0.024
 4073.00    0.98982   1.10774    0.023
 4074.00    1.08160   1.10676    0.023
 4075.00    1.12182   1.10526    0.024
 4076.00    1.15634   1.10431    0.024
 4077.00    1.18951   1.10466    0.024
 4078.00    1.22257   1.11069    0.024
 4079.00    1.31172   1.11966    0.024
 4080.00    1.40302   1.12954    0.023
 4081.00    1.32087   1.14119    0.024
 4082.00    1.24211   1.15201    0.024
 4083.00    1.32738   1.16266    0.024
 4084.00    1.39952   1.17324    0.024
 4085.00    1.25519   1.18199    0.023
 4086.00    1.11568   1.18972    0.023
 4087.00    1.02568   1.19490    0.023
 4088.00    0.96859   1.19747    0.023
 4089.00    1.15295   1.19667    0.023
 4090.00    1.28739   1.19020    0.023
 4091.00    1.14177   1.17989    0.023
 4092.00    1.04606   1.16488    0.000
 4093.00    1.17366   1.14612    0.000
 4094.00    1.26514   1.12411    0.000
 4095.00    1.22393   1.09621    0.000
 4096.00    1.19283   1.06627    0.000
 4097.00    1.19281   1.03814    0.000
 4098.00    1.19325   1.01318    0.000
 4099.00    1.19492   0.99239    0.000
 4100.00    1.14865   0.97591    0.000
 4101.00    0.99475   0.96526    0.000
 4102.00    0.86273   0.96396    0.000
 4103.00    0.77330   0.97234    0.000
 4104.00    0.84404   0.98614    0.000
 4105.00    1.18654   1.00431    0.000
 4106.00    1.35822   1.02548    0.000
 4107.00    1.27598   1.04706    0.000
 4108.00    1.19887   1.06947    0.000
 4109.00    1.12848   1.08968    0.000
 4110.00    1.16369   1.10719    0.000
 4111.00    1.32045   1.12325    0.000
 4112.00    1.29289   1.13625    0.000
 4113.00    1.07821   1.14686    0.022
 4114.00    0.94381   1.15500    0.022
 4115.00    0.88130   1.16102    0.022
 4116.00    1.07008   1.16519    0.023
 4117.00    1.45711   1.16712    0.023
 4118.00    1.53747   1.16654    0.023
 4119.00    1.40501   1.16520    0.023
 4120.00    1.26573   1.16520    0.033
 4121.00    1.12230   1.16380    0.130
 4122.00    1.11298   1.16196   -1.000
 4123.00    1.17491   1.15950   -1.000
 4124.00    1.24126   1.15737   -1.000
 4125.00    1.30965   1.15548   -1.000
 4126.00    1.29397   1.15127   -1.000
 4127.00    1.24490   1.14573   -1.000
 4128.00    1.05634   1.14031    0.059
 4129.00    0.82057   1.13608    0.025
 4130.00    0.90229   1.13296    0.022
 4131.00    1.07435   1.13188    0.023
 4132.00    1.17082   1.13046    0.022
 4133.00    1.24955   1.13354    0.022
 4134.00    1.32608   1.13888    0.022
 4135.00    1.40219   1.14530    0.022
 4136.00    1.24962   1.15332    0.022
 4137.00    1.06365   1.15649    0.022
 4138.00    1.06317   1.15896    0.022
 4139.00    1.08241   1.15960    0.022
 4140.00    1.10527   1.15797    0.022
 4141.00    1.12838   1.15480    0.022
 4142.00    1.09455   1.14811    0.022
 4143.00    1.05876   1.14098    0.023
 4144.00    1.24254   1.13590    0.023
 4145.00    1.41261   1.13417    0.023
 4146.00    1.11561   1.13341    0.022
 4147.00    0.84479   1.13239    0.022
 4148.00    0.97901   1.13219    0.022
 4149.00    1.08085   1.13113    0.022
 4150.00    0.86362   1.13097    0.022
 4151.00    0.68716   1.13166    0.022
 4152.00    0.80012   1.13122    0.022
 4153.00    0.92270   1.13267    0.022
 4154.00    1.09775   1.13341    0.023
 4155.00    1.23295   1.13684    0.023
 4156.00    1.19393   1.14191    0.022
 4157.00    1.15411   1.14812    0.022
 4158.00    1.11140   1.15743    0.022
 4159.00    1.02204   1.16543    0.021
 4160.00    0.79190   1.17365    0.021
 4161.00    0.66492   1.17977    0.021
 4162.00    0.80285   1.18451    0.021
 4163.00    1.02269   1.18774    0.021
 4164.00    1.42347   1.18681    0.022
 4165.00    1.63173   1.18338    0.022
 4166.00    1.47118   1.17693    0.022
 4167.00    1.30389   1.16699    0.022
 4168.00    1.12535   1.15666    0.022
 4169.00    0.98090   1.14654    0.022
 4170.00    0.88640   1.13538    0.022
 4171.00    0.90800   1.12432    0.022
 4172.00    1.07913   1.11300    0.022
 4173.00    1.03159   1.10487    0.021
 4174.00    0.73591   1.10090    0.021
 4175.00    0.73422   1.09927    0.021
 4176.00    1.02678   1.09998    0.021
 4177.00    1.23837   1.10153    0.022
 4178.00    1.37849   1.10524    0.022
 4179.00    1.36960   1.11093    0.022
 4180.00    1.24483   1.11750    0.022
 4181.00    1.09141   1.12349    0.021
 4182.00    0.91841   1.12770    0.021
 4183.00    0.87295   1.13316    0.021
 4184.00    0.90395   1.13799    0.021
 4185.00    1.04146   1.14322    0.021
 4186.00    1.23467   1.14736    0.021
 4187.00    1.32590   1.14911    0.021
 4188.00    1.37087   1.15293    0.021
 4189.00    1.36642   1.15625    0.021
 4190.00    1.34269   1.15835    0.021
 4191.00    1.25141   1.15796    0.021
 4192.00    1.13769   1.15617    0.022
 4193.00    1.08672   1.15372    0.021
 4194.00    1.05323   1.14771    0.021
 4195.00    1.00118   1.13992    0.021
 4196.00    0.94487   1.13113    0.022
 4197.00    1.09019   1.12332    0.022
 4198.00    1.27258   1.11631    0.022
 4199.00    1.17864   1.11198    0.021
 4200.00    1.04562   1.11189    0.021
 4201.00    0.97067   1.11383    0.021
 4202.00    0.90164   1.11826    0.021
 4203.00    0.95767   1.12683    0.021
 4204.00    1.02184   1.13726    0.021
 4205.00    1.11008   1.14825    0.021
 4206.00    1.19908   1.16021    0.021
 4207.00    1.29712   1.17084    0.021
 4208.00    1.38877   1.17995    0.021
 4209.00    1.29242   1.18641    0.021
 4210.00    1.20836   1.19054    0.021
 4211.00    1.30314   1.19393    0.021
 4212.00    1.38455   1.19650    0.021
 4213.00    1.33946   1.19736    0.021
 4214.00    1.30427   1.19770    0.021
 4215.00    1.33701   1.19638    0.021
 4216.00    1.40590   1.19543    0.021
 4217.00    1.66691   1.19566    0.021
 4218.00    1.81997   1.19294    0.021
 4219.00    1.51204   1.18725    0.021
 4220.00    1.21705   1.17752    0.021
 4221.00    0.96770   1.16560    0.021
 4222.00    0.80708   1.15013    0.021
 4223.00    0.90923   1.13401    0.021
 4224.00    1.00194   1.11921    0.020
 4225.00    1.07080   1.10563    0.020
 4226.00    1.12346   1.09585    0.020
 4227.00    1.14089   1.09133    0.020
 4228.00    1.11096   1.09558    0.020
 4229.00    0.99172   1.10363    0.020
 4230.00    0.92813   1.11325    0.020
 4231.00    0.95614   1.12427    0.020
 4232.00    1.02567   1.13399    0.020
 4233.00    1.15513   1.14158    0.019
 4234.00    1.24486   1.14966    0.019
 4235.00    1.28417   1.15718    0.020
 4236.00    1.37661   1.16247    0.020
 4237.00    1.52851   1.16938    0.020
 4238.00    1.55620   1.17584    0.020
 4239.00    1.46130   1.18295    0.019
 4240.00    1.42288   1.19004    0.019
 4241.00    1.43360   1.19780    0.020
 4242.00    1.44361   1.20432    0.020
 4243.00    1.45306   1.20693    0.020
 4244.00    1.32601   1.20963    0.020
 4245.00    1.10697   1.20878    0.020
 4246.00    1.08753   1.20407    0.020
 4247.00    1.18592   1.19746    0.021
 4248.00    1.34077   1.18975    0.021
 4249.00    1.52470   1.18293    0.021
 4250.00    1.62223   1.17526    0.021
 4251.00    1.68121   1.17002    0.021
 4252.00    1.43753   1.16776    0.021
 4253.00    1.07780   1.16462    0.020
 4254.00    0.96655   1.16248    0.020
 4255.00    0.93629   1.16273    0.020
 4256.00    1.04829   1.16521    0.020
 4257.00    1.19913   1.16939    0.020
 4258.00    1.19384   1.17271    0.020
 4259.00    1.15356   1.17756    0.020
 4260.00    1.27481   1.18247    0.020
 4261.00    1.42495   1.18800    0.021
 4262.00    1.28649   1.19574    0.021
 4263.00    1.10854   1.20186    0.020
 4264.00    1.06912   1.20457    0.020
 4265.00    1.04322   1.20298    0.020
 4266.00    1.18120   1.19819    0.020
 4267.00    1.32920   1.18800    0.020
 4268.00    1.21615   1.17534    0.020
 4269.00    1.09579   1.16207    0.020
 4270.00    0.92374   1.14852    0.020
 4271.00    0.75915   1.13604    0.020
 4272.00    0.79157   1.12720    0.020
 4273.00    0.82143   1.12501    0.020
 4274.00    0.81602   1.12594    0.020
 4275.00    0.82423   1.13073    0.020
 4276.00    0.95610   1.14009    0.020
 4277.00    1.06851   1.15029    0.021
 4278.00    1.05126   1.15922    0.021
 4279.00    1.06013   1.16660    0.021
 4280.00    1.20419   1.16995    0.021
 4281.00    1.30602   1.17144    0.020
 4282.00    1.23150   1.16886   -2.000
 4283.00    1.10533   1.16326   -2.000
 4284.00    0.80082   1.15685   -2.000
 4285.00    0.56333   1.14671   -2.000
 4286.00    0.52067   1.13696   -2.000
 4287.00    0.63654   1.12644   -2.000
 4288.00    1.14561   1.11713   -2.000
 4289.00    1.50476   1.10796   -2.000
 4290.00    1.54341   1.09948   -2.000
 4291.00    1.49625   1.09389   -2.000
 4292.00    1.28976   1.08735   -2.000
 4293.00    1.02972   1.08115   -2.000
 4294.00    0.68282   1.07161   -2.000
 4295.00    0.64055   1.06039   -2.000
 4296.00    1.03166   1.04724   -2.000
 4297.00    1.23119   1.03122   -2.000
 4298.00    1.19095   1.01485    0.021
 4299.00    1.10620   0.99683    0.021
 4300.00    0.97236   0.98012    0.021
 4301.00    0.86399   0.96621    0.021
 4302.00    0.78042   0.95443    0.021
 4303.00    0.76066   0.94556    0.021
 4304.00    0.79563   0.94126    0.021
 4305.00    0.79939   0.93946    0.021
 4306.00    0.77956   0.94207    0.021
 4307.00    0.68787   0.94920    0.021
 4308.00    0.54846   0.96069    0.021
 4309.00    0.69339   0.97972    0.020
 4310.00    1.00366   1.00341    0.020
 4311.00    1.15124   1.03277    0.020
 4312.00    1.21637   1.06495    0.020
 4313.00    1.28294   1.09944    0.020
 4314.00    1.35014   1.13358    0.020
 4315.00    1.40607   1.16565    0.020
 4316.00    1.45775   1.19512    0.020
 4317.00    1.55076   1.21669    0.020
 4318.00    1.65700   1.23055    0.020
 4319.00    1.53934   1.23604    0.020
 4320.00    1.36184   1.23559    0.020
 4321.00    1.20794   1.22819    0.020
 4322.00    1.05919   1.21934    0.020
 4323.00    1.10178   1.20763    0.020
 4324.00    1.17765   1.19709    0.021
 4325.00    1.30701   1.19005    0.021
 4326.00    1.44345   1.18708    0.021
 4327.00    1.50903   1.19137    0.021
 4328.00    1.56799   1.19775    0.021
 4329.00    1.50866   1.20547    0.020
 4330.00    1.44257   1.20990    0.000
 4331.00    1.46598   1.21112    0.000
 4332.00    1.49122   1.20855    0.000
 4333.00    1.48778   1.19916    0.000
 4334.00    1.47789   1.18504    0.000
 4335.00    1.31321   1.16608    0.000
 4336.00    1.14935   1.14376    0.000
 4337.00    0.99612   1.11887    0.000
 4338.00    0.88522   1.09660    0.000
 4339.00    1.14425   1.08020    0.000
 4340.00    1.35903   1.06950    0.000
 4341.00    1.28807   1.06859    0.000
 4342.00    1.21615   1.07697    0.000
 4343.00    1.13948   1.09104    0.000
 4344.00    1.09329   1.10863    0.000
 4345.00    1.17155   1.12981    0.000
 4346.00    1.20834   1.15082    0.000
 4347.00    1.10486   1.16966    0.000
 4348.00    1.07425   1.18666    0.000
 4349.00    1.25159   1.20073    0.000
 4350.00    1.40787   1.21123    0.000
 4351.00    1.51283   1.21796    0.020
 4352.00    1.57271   1.22414    0.020
 4353.00    1.53777   1.23222    0.020
 4354.00    1.49763   1.24117    0.025
 4355.00    1.44798   1.25096    0.065
 4356.00    1.40251   1.26219   -1.000
 4357.00    1.36373   1.27426   -1.000
 4358.00    1.42201   1.28597   -1.000
 4359.00    1.61637   1.29671   -1.000
 4360.00    1.67363   1.30769   -1.000
 4361.00    1.56177   1.31766   -1.000
 4362.00    1.42879   1.32588    0.081
 4363.00    1.27284   1.33076    0.026
 4364.00    1.21120   1.33316    0.020
 4365.00    1.24001   1.33269    0.020
 4366.00    1.21240   1.32848    0.020
 4367.00    1.13705   1.32129    0.020
 4368.00    1.17197   1.31225    0.020
 4369.00    1.28903   1.30334    0.020
 4370.00    1.34389   1.29347    0.020
 4371.00    1.35805   1.28398    0.020
 4372.00    1.21922   1.27500    0.020
 4373.00    0.99277   1.26619    0.020
 4374.00    1.06965   1.25729    0.020
 4375.00    1.29783   1.24885    0.020
 4376.00    1.51308   1.24108    0.020
 4377.00    1.72274   1.23340    0.020
 4378.00    1.50583   1.22395    0.020
 4379.00    1.13109   1.21251    0.020
 4380.00    1.06308   1.19902    0.020
 4381.00    1.09126   1.18520    0.020
 4382.00    1.14296   1.17170    0.020
 4383.00    1.20081   1.15856    0.020
 4384.00    1.18707   1.15020    0.019
 4385.00    1.15804   1.14751    0.019
 4386.00    1.29842   1.15053    0.019
 4387.00    1.46744   1.15709    0.020
 4388.00    1.45365   1.16642    0.020
 4389.00    1.41650   1.17851    0.020
 4390.00    1.39487   1.19149    0.020
 4391.00    1.37462   1.20502    0.019
 4392.00    1.22899   1.21875    0.019
 4393.00    1.07667   1.23123    0.020
 4394.00    1.20119   1.24172    0.020
 4395.00    1.33156   1.24951    0.020
 4396.00    1.49718   1.25544    0.020
 4397.00    1.64762   1.25954    0.020
 4398.00    1.46441   1.25933    0.020
 4399.00    1.30063   1.25671    0.020
 4400.00    1.37707   1.25108    0.019
 4401.00    1.42846   1.24486    0.019
 4402.00    1.26917   1.23973    0.019
 4403.00    1.13745   1.23449    0.020
 4404.00    1.17856   1.22978    0.020
 4405.00    1.22765   1.22790    0.020
 4406.00    1.31600   1.23063    0.020
 4407.00    1.36577   1.23572    0.019
 4408.00    1.26147   1.24259    0.019
 4409.00    1.17392   1.25166    0.019
 4410.00    1.14195   1.26191    0.019
 4411.00    1.15865   1.27142    0.019
 4412.00    1.31171   1.27993    0.019
 4413.00    1.44026   1.28668    0.019
 4414.00    1.51005   1.29144    0.020
 4415.00    1.50921   1.29456    0.020
 4416.00    1.36220   1.29897    0.020
 4417.00    1.31923   1.30300    0.020
 4418.00    1.46356   1.30700    0.020
 4419.00    1.52513   1.31165    0.020
 4420.00    1.45642   1.31499    0.020
 4421.00    1.39028   1.31722    0.020
 4422.00    1.32769   1.31814    0.020
 4423.00    1.37099   1.31836    0.020
 4424.00    1.54307   1.31865    0.020
 4425.00    1.64787   1.31751    0.020
 4426.00    1.68053   1.31583    0.020
 4427.00    1.58820   1.31350    0.020
 4428.00    1.37765   1.31070    0.020
 4429.00    1.25675   1.30817    0.020
 4430.00    1.21060   1.30408    0.020
 4431.00    1.25153   1.30145    0.020
 4432.00    1.35639   1.29988    0.020
 4433.00    1.42622   1.29854    0.020
 4434.00    1.47346   1.29862    0.020
 4435.00    1.53178   1.29956    0.020
 4436.00    1.59634   1.30258    0.020
 4437.00    1.54646   1.30738    0.020
 4438.00    1.44040   1.31213    0.020
 4439.00    1.41844   1.31748    0.020
 4440.00    1.43218   1.32168    0.020
 4441.00    1.26155   1.32536    0.020
 4442.00    1.02391   1.32883    0.020
 4443.00    1.15588   1.33239    0.021
 4444.00    1.40152   1.33665    0.021
 4445.00    1.43277   1.34088    0.020
 4446.00    1.40913   1.34426    0.020
 4447.00    1.42384   1.34498    0.020
 4448.00    1.44654   1.34409    0.020
 4449.00    1.44204   1.34070    0.020
 4450.00    1.43308   1.33338    0.020
 4451.00    1.27674   1.32438    0.020
 4452.00    1.10223   1.31314    0.020
 4453.00    1.19259   1.30000    0.020
 4454.00    1.30547   1.28666    0.019
 4455.00    1.31686   1.27292    0.019
 4456.00    1.32324   1.26236    0.019
 4457.00    1.22223   1.25369    0.019
 4458.00    1.12428   1.24807    0.019
 4459.00    1.32557   1.24528    0.019
 4460.00    1.51767   1.24581    0.020
 4461.00    1.52376   1.24900    0.000
 4462.00    1.52460   1.25390    0.000
 4463.00    1.46363   1.26252    0.000
 4464.00    1.39102   1.27135    0.000
 4465.00    1.22405   1.28084    0.000
 4466.00    1.09873   1.29120    0.000
 4467.00    1.22682   1.30130    0.000
 4468.00    1.34791   1.31256    0.000
 4469.00    1.43537   1.32299    0.000
 4470.00    1.50341   1.33489    0.000
 4471.00    1.49557   1.34644    0.000
 4472.00    1.47656   1.35817    0.000
 4473.00    1.42120   1.36890    0.000
 4474.00    1.42850   1.37804    0.000
 4475.00    1.60820   1.38459    0.000
 4476.00    1.69833   1.38862    0.000
 4477.00    1.57738   1.39079    0.000
 4478.00    1.53293   1.39044    0.000
 4479.00    1.64428   1.38853    0.000
 4480.00    1.65739   1.38531    0.000
 4481.00    1.49635   1.38268    0.000
 4482.00    1.41962   1.38068    0.020
 4483.00    1.47366   1.38047    0.019
 4484.00    1.46603   1.38090    0.019
 4485.00    1.37441   1.38130    0.019
 4486.00    1.43040   1.38148    0.019
 4487.00    1.66339   1.38047    0.020
 4488.00    1.75710   1.37847    0.020
 4489.00    1.70359   1.37573    0.020
 4490.00    1.58905   1.37302    0.020
 4491.00    1.41761   1.37144    0.019
 4492.00    1.40751   1.37068    0.020
 4493.00    1.53005   1.37168    0.020
 4494.00    1.57299   1.37326    0.020
 4495.00    1.55834   1.37756    0.020
 4496.00    1.52659   1.38412    0.020
 4497.00    1.48397   1.39272    0.020
 4498.00    1.53839   1.40397    0.020
 4499.00    1.64669   1.41553    0.020
 4500.00    1.70390   1.42840    0.020
 4501.00    1.73641   1.44015    0.019
 4502.00    1.71565   1.45202    0.019
 4503.00    1.67266   1.46329    0.020
 4504.00    1.71713   1.47230    0.020
 4505.00    1.79281   1.47913    0.020
 4506.00    1.77933   1.48308    0.020
 4507.00    1.73896   1.48432    0.019
 4508.00    1.70257   1.48324    0.020
 4509.00    1.66717   1.48020    0.020
 4510.00    1.60875   1.47561    0.020
 4511.00    1.54566   1.46972    0.019
 4512.00    1.53817   1.46267    0.019
 4513.00    1.53955   1.45545    0.020
 4514.00    1.64644   1.44822    0.020
 4515.00    1.76587   1.44153    0.020
 4516.00    1.64649   1.43543    0.020
 4517.00    1.50779   1.42958    0.020
 4518.00    1.68187   1.42279    0.020
 4519.00    1.87019   1.41651    0.020
 4520.00    1.67600   1.40815    0.020
 4521.00    1.47979   1.39901    0.020
 4522.00    1.41976   1.38752    0.019
 4523.00    1.35824   1.37394    0.019
 4524.00    1.26879   1.36045    0.019
 4525.00    1.19322   1.34524    0.019
 4526.00    1.27326   1.33156    0.019
 4527.00    1.34101   1.31843    0.019
 4528.00    1.31248   1.30849    0.019
 4529.00    1.29937   1.30081    0.019
 4530.00    1.37746   1.29793    0.019
 4531.00    1.43228   1.29749    0.020
 4532.00    1.37812   1.30164    0.019
 4533.00    1.35745   1.30786    0.019
 4534.00    1.46481   1.31613    0.019
 4535.00    1.51089   1.32661    0.020
 4536.00    1.36158   1.33721    0.019
 4537.00    1.28211   1.34954    0.019
 4538.00    1.39137   1.35950    0.019
 4539.00    1.44138   1.36829    0.019
 4540.00    1.35410   1.37437    0.019
 4541.00    1.36117   1.37807    0.019
 4542.00    1.55740   1.38012    0.019
 4543.00    1.67518   1.38004    0.019
 4544.00    1.65600   1.37838    0.020
 4545.00    1.57845   1.37488    0.020
 4546.00    1.41171   1.37156    0.020
 4547.00    1.33348   1.36743    0.020
 4548.00    1.37406   1.36430    0.020
 4549.00    1.45750   1.36146    0.020
 4550.00    1.59162   1.36015    0.000
 4551.00    1.63111   1.36149    0.000
 4552.00    1.57196   1.36346    0.000
 4553.00    1.51307   1.36838    0.000
 4554.00    1.45443   1.37403    0.000
 4555.00    1.50624   1.38167    0.000
 4556.00    1.64757   1.38997    0.000
 4557.00    1.63664   1.39924    0.000
 4558.00    1.51711   1.40752    0.000
 4559.00    1.41706   1.41498    0.000
 4560.00    1.32920   1.42078    0.000
 4561.00    1.33903   1.42490    0.000
 4562.00    1.40227   1.42792    0.000
 4563.00    1.42945   1.42921    0.000
 4564.00    1.43948   1.42992    0.000
 4565.00    1.43659   1.43043    0.000
 4566.00    1.42841   1.43113    0.000
 4567.00    1.38165   1.43262    0.000
 4568.00    1.32137   1.43405    0.000
 4569.00    1.43273   1.43536    0.000
 4570.00    1.59482   1.43649    0.000
 4571.00    1.41796   1.43653    0.000
 4572.00    1.15807   1.43595    0.000
 4573.00    1.16067   1.43530    0.000
 4574.00    1.21530   1.43274    0.000
 4575.00    1.35856   1.42921    0.000
 4576.00    1.51554   1.42434    0.000
 4577.00    1.65087   1.41819    0.000
 4578.00    1.78373   1.41164    0.000
 4579.00    1.68113   1.40453    0.000
 4580.00    1.56045   1.39813    0.000
 4581.00    1.58739   1.39273    0.000
 4582.00    1.62047   1.38919    0.000
 4583.00    1.54421   1.38739    0.000
 4584.00    1.46625   1.38696    0.000
 4585.00    1.35630   1.38848    0.000
 4586.00    1.25902   1.39009    0.000
 4587.00    1.38302   1.39304    0.000
 4588.00    1.49410   1.39521    0.000
 4589.00    1.46700   1.39719    0.000
 4590.00    1.43339   1.39772    0.000
 4591.00    1.35054   1.39719    0.000
 4592.00    1.28511   1.39553    0.000
 4593.00    1.31978   1.39358    0.000
 4594.00    1.35628   1.39137    0.000
 4595.00    1.40114   1.38948    0.000
 4596.00    1.44359   1.38805    0.000
 4597.00    1.47701   1.38785    0.000
 4598.00    1.48404   1.38817    0.000
 4599.00    1.40856   1.39049    0.000
 4600.00    1.36981   1.39326    0.000
 4601.00    1.42858   1.39760    0.000
 4602.00    1.44880   1.40359    0.000
 4603.00    1.38122   1.40994    0.000
 4604.00    1.34011   1.41831    0.000
 4605.00    1.35126   1.42617    0.000
 4606.00    1.34202   1.43532    0.000
 4607.00    1.29773   1.44368    0.000
 4608.00    1.32817   1.45212    0.000
 4609.00    1.47114   1.45929    0.000
 4610.00    1.56604   1.46523    0.000
 4611.00    1.59732   1.46960    0.000
 4612.00    1.56679   1.47276    0.000
 4613.00    1.46421   1.47493    0.000
 4614.00    1.46671   1.47623    0.000
 4615.00    1.57721   1.47776    0.000
 4616.00    1.59904   1.47805    0.000
 4617.00    1.54048   1.47917    0.000
 4618.00    1.46315   1.47953    0.000
 4619.00    1.37083   1.47998    0.000
 4620.00    1.28834   1.48040    0.000
 4621.00    1.21276   1.48086    0.000
 4622.00    1.37966   1.48073    0.000
 4623.00    1.69606   1.48049    0.000
 4624.00    1.61832   1.47970    0.000
 4625.00    1.32832   1.47814    0.000
 4626.00    1.27519   1.47620    0.000
 4627.00    1.33285   1.47365    0.000
 4628.00    1.48164   1.47052    0.000
 4629.00    1.66716   1.46654    0.000
 4630.00    1.73306   1.46211    0.000
 4631.00    1.75781   1.45699    0.000
 4632.00    1.64890   1.45126    0.000
 4633.00    1.50129   1.44475    0.000
 4634.00    1.45743   1.43808    0.000
 4635.00    1.43842   1.43095    0.000
 4636.00    1.50487   1.42393    0.000
 4637.00    1.58782   1.41711    0.000
 4638.00    1.49437   1.41013    0.000
 4639.00    1.37445   1.40390    0.000
 4640.00    1.31447   1.39716    0.000
 4641.00    1.26110   1.39162    0.000
 4642.00    1.48672   1.38569    0.000
 4643.00    1.73263   1.38058    0.000
 4644.00    1.77872   1.37567    0.000
 4645.00    1.81727   1.37203    0.000
 4646.00    1.68085   1.36904    0.000
 4647.00    1.54339   1.36830    0.000
 4648.00    1.40062   1.36899    0.000
 4649.00    1.25879   1.37204    0.000
 4650.00    1.13254   1.37657    0.000
 4651.00    1.04761   1.38281    0.000
 4652.00    1.38562   1.38950    0.000
 4653.00    1.67953   1.39710    0.000
 4654.00    1.65113   1.40408    0.000
 4655.00    1.60929   1.41083    0.000
 4656.00    1.49232   1.41666    0.000
 4657.00    1.42515   1.42072    0.000
 4658.00    1.58023   1.42361    0.000
 4659.00    1.67590   1.42347    0.000
 4660.00    1.55396   1.42116    0.000
 4661.00    1.46782   1.41547    0.000
 4662.00    1.49153   1.40754    0.000
 4663.00    1.49731   1.39759    0.000
 4664.00    1.45634   1.38705    0.000
 4665.00    1.41327   1.37704    0.000
 4666.00    1.36548   1.36827    0.000
 4667.00    1.34918   1.36199    0.000
 4668.00    1.39406   1.35858    0.000
 4669.00    1.42819   1.35858    0.000
 4670.00    1.44410   1.36146    0.000
 4671.00    1.44166   1.36684    0.000
 4672.00    1.41202   1.37336    0.000
 4673.00    1.47506   1.38003    0.000
 4674.00    1.65899   1.38649    0.000
 4675.00    1.63739   1.39158    0.000
 4676.00    1.37965   1.39584    0.000
 4677.00    1.24228   1.39838    0.000
 4678.00    1.22687   1.39986    0.000
 4679.00    1.27632   1.40026    0.000
 4680.00    1.38375   1.40017    0.000
 4681.00    1.47201   1.39994    0.000
 4682.00    1.54519   1.40007    0.000
 4683.00    1.57858   1.40049    0.000
 4684.00    1.58442   1.40135    0.000
 4685.00    1.62271   1.40228    0.000
 4686.00    1.68071   1.40358    0.000
 4687.00    1.72027   1.40449    0.000
 4688.00    1.75005   1.40560    0.000
 4689.00    1.61042   1.40637    0.000
 4690.00    1.39285   1.40699    0.000
 4691.00    1.34715   1.40711    0.000
 4692.00    1.36954   1.40682    0.000
 4693.00    1.45895   1.40569    0.000
 4694.00    1.57097   1.40374    0.000
 4695.00    1.55860   1.40086    0.000
 4696.00    1.51092   1.39691    0.000
 4697.00    1.54277   1.39188    0.000
 4698.00    1.59322   1.38629    0.000
 4699.00    1.51091   1.37998    0.000
 4700.00    1.40361   1.37430    0.000
 4701.00    1.38832   1.36859    0.000
 4702.00    1.38641   1.36470    0.000
 4703.00    1.34843   1.36125    0.000
 4704.00    1.30664   1.35982    0.000
 4705.00    1.44898   1.35937    0.000
 4706.00    1.60397   1.36072    0.000
 4707.00    1.67404   1.36334    0.000
 4708.00    1.74122   1.36695    0.000
 4709.00    1.59504   1.37206    0.000
 4710.00    1.45143   1.37783    0.000
 4711.00    1.40220   1.38547    0.000
 4712.00    1.36054   1.39328    0.000
 4713.00    1.43513   1.40272    0.000
 4714.00    1.49816   1.41198    0.000
 4715.00    1.44786   1.42202    0.000
 4716.00    1.41018   1.43182    0.000
 4717.00    1.46169   1.44135    0.000
 4718.00    1.50565   1.44995    0.000
 4719.00    1.50846   1.45691    0.000
 4720.00    1.50522   1.46166    0.000
 4721.00    1.47557   1.46384    0.000
 4722.00    1.48673   1.46349    0.000
 4723.00    1.64432   1.46014    0.000
 4724.00    1.76235   1.45481    0.000
 4725.00    1.76131   1.44728    0.000
 4726.00    1.71084   1.43912    0.000
 4727.00    1.53373   1.43022    0.000
 4728.00    1.45103   1.42207    0.000
 4729.00    1.57644   1.41501    0.000
 4730.00    1.64035   1.40987    0.000
 4731.00    1.58666   1.40728    0.000
 4732.00    1.57613   1.40675    0.000
 4733.00    1.63758   1.40853    0.000
 4734.00    1.65407   1.41169    0.000
 4735.00    1.60483   1.41651    0.000
 4736.00    1.55987   1.42167    0.000
 4737.00    1.52039   1.42763    0.000
 4738.00    1.43210   1.43352    0.000
 4739.00    1.28850   1.43923    0.000
 4740.00    1.23473   1.44504    0.000
 4741.00    1.27068   1.45033    0.000
 4742.00    1.40211   1.45499    0.000
 4743.00    1.61766   1.45910    0.000
 4744.00    1.68436   1.46261    0.000
 4745.00    1.63548   1.46536    0.000
 4746.00    1.62200   1.46700    0.000
 4747.00    1.63269   1.46765    0.000
 4748.00    1.66010   1.46696    0.000
 4749.00    1.69751   1.46565    0.000
 4750.00    1.60594   1.46250    0.000
 4751.00    1.44705   1.45919    0.000
 4752.00    1.39164   1.45442    0.000
 4753.00    1.38308   1.44996    0.000
 4754.00    1.44780   1.44423    0.000
 4755.00    1.54104   1.43920    0.000
 4756.00    1.50457   1.43334    0.000
 4757.00    1.42512   1.42802    0.000
 4758.00    1.33254   1.42212    0.000
 4759.00    1.23631   1.41656    0.000
 4760.00    1.28138   1.41075    0.000
 4761.00    1.35877   1.40552    0.018
 4762.00    1.40495   1.40065    0.018
 4763.00    1.44542   1.39703    0.018
 4764.00    1.40318   1.39445    0.018
 4765.00    1.34930   1.39415    0.018
 4766.00    1.39863   1.39572    0.018
 4767.00    1.45843   1.39937    0.018
 4768.00    1.47675   1.40489    0.018
 4769.00    1.49240   1.41198    0.018
 4770.00    1.57715   1.42031    0.018
 4771.00    1.66335   1.42885    0.018
 4772.00    1.42951   1.43759    0.018
 4773.00    1.20263   1.44533    0.018
 4774.00    1.17731   1.45214    0.018
 4775.00    1.16083   1.45762    0.018
 4776.00    1.27214   1.46136    0.018
 4777.00    1.39164   1.46333    0.018
 4778.00    1.58815   1.46307    0.018
 4779.00    1.75651   1.46143    0.018
 4780.00    1.73208   1.45808    0.018
 4781.00    1.70873   1.45385    0.018
 4782.00    1.69117   1.44888    0.017
 4783.00    1.62614   1.44422    0.017
 4784.00    1.35901   1.43987    0.017
 4785.00    1.18152   1.43678    0.018
 4786.00    1.31907   1.43502    0.018
 4787.00    1.47574   1.43526    0.018
 4788.00    1.68893   1.43696    0.018
 4789.00    1.80723   1.44049    0.018
 4790.00    1.68660   1.44536    0.018
 4791.00    1.63304   1.45101    0.018
 4792.00    1.72493   1.45701    0.018
 4793.00    1.70811   1.46285    0.018
 4794.00    1.48668   1.46779    0.018
 4795.00    1.38492   1.47180    0.018
 4796.00    1.47981   1.47437    0.019
 4797.00    1.53061   1.47561    0.019
 4798.00    1.51786   1.47557    0.019
 4799.00    1.54319   1.47437    0.019
 4800.00    1.61677   1.47264    0.019
 4801.00    1.53591   1.47003    0.019
 4802.00    1.28256   1.46775    0.019
 4803.00    1.27158   1.46485    0.019
 4804.00    1.49934   1.46289    0.019
 4805.00    1.65317   1.46050    0.019
 4806.00    1.74278   1.45944    0.019
 4807.00    1.73381   1.45830    0.019
 4808.00    1.64940   1.45872    0.019
 4809.00    1.54522   1.45952    0.019
 4810.00    1.42772   1.46176    0.019
 4811.00    1.48012   1.46458    0.019
 4812.00    1.63264   1.46823    0.018
 4813.00    1.54966   1.47215    0.018
 4814.00    1.34566   1.47608    0.018
 4815.00    1.43803   1.47959    0.018
 4816.00    1.66235   1.48220    0.019
 4817.00    1.57639   1.48379    0.019
 4818.00    1.37173   1.48393    0.019
 4819.00    1.46182   1.48280    0.019
 4820.00    1.64773   1.48023    0.019
 4821.00    1.67150   1.47663    0.019
 4822.00    1.65111   1.47220    0.019
 4823.00    1.60474   1.46734    0.019
 4824.00    1.55257   1.46246    0.018
 4825.00    1.58029   1.45775    0.019
 4826.00    1.62224   1.45358    0.019
 4827.00    1.52785   1.44991    0.019
 4828.00    1.41488   1.44685    0.019
 4829.00    1.34836   1.44456    0.018
 4830.00    1.28634   1.44248    0.018
 4831.00    1.36513   1.44099    0.018
 4832.00    1.45245   1.43930    0.018
 4833.00    1.53076   1.43806    0.018
 4834.00    1.60751   1.43628    0.018
 4835.00    1.44543   1.43482    0.018
 4836.00    1.29280   1.43267    0.019
 4837.00    1.38694   1.43080    0.018
 4838.00    1.46809   1.42846    0.018
 4839.00    1.37201   1.42636    0.018
 4840.00    1.29797   1.42420    0.018
 4841.00    1.42320   1.42219    0.018
 4842.00    1.52443   1.42029    0.018
 4843.00    1.46646   1.41826    0.018
 4844.00    1.44275   1.41613    0.018
 4845.00    1.59582   1.41323    0.018
 4846.00    1.68082   1.40958    0.018
 4847.00    1.48244   1.40442    0.018
 4848.00    1.34118   1.39764    0.000
 4849.00    1.39658   1.38860    0.000
 4850.00    1.45713   1.37725    0.000
 4851.00    1.53259   1.36327    0.000
 4852.00    1.54038   1.34669    0.000
 4853.00    1.38068   1.32781    0.000
 4854.00    1.25348   1.30686    0.000
 4855.00    1.19562   1.28487    0.000
 4856.00    1.23766   1.26234    0.000
 4857.00    1.46482   1.24102    0.000
 4858.00    1.60656   1.22138    0.000
 4859.00    1.61001   1.20554    0.000
 4860.00    1.55999   1.19340    0.000
 4861.00    1.43407   1.18699    0.000
 4862.00    1.35201   1.18490    0.000
 4863.00    1.32478   1.18874    0.000
 4864.00    1.35364   1.19588    0.000
 4865.00    1.44428   1.20735    0.000
 4866.00    1.49830   1.22010    0.000
 4867.00    1.51674   1.23491    0.000
 4868.00    1.49597   1.24919    0.000
 4869.00    1.44162   1.26388    0.000
 4870.00    1.43629   1.27734    0.000
 4871.00    1.46795   1.29076    0.000
 4872.00    1.53061   1.30302    0.000
 4873.00    1.61381   1.31548    0.000
 4874.00    1.57110   1.32684    0.000
 4875.00    1.45532   1.33840    0.017
 4876.00    1.35968   1.34841    0.017
 4877.00    1.27423   1.35802    0.017
 4878.00    1.26484   1.36535    0.017
 4879.00    1.28876   1.37138    0.017
 4880.00    1.34352   1.37479    0.017
 4881.00    1.40987   1.37639    0.017
 4882.00    1.49107   1.37594    0.018
 4883.00    1.57700   1.37398    0.018
 4884.00    1.58465   1.37150    0.018
 4885.00    1.57144   1.36851    0.017
 4886.00    1.66460   1.36701    0.017
 4887.00    1.78098   1.36623    0.018
 4888.00    1.70022   1.36862    0.018
 4889.00    1.58528   1.37251    0.018
 4890.00    1.53382   1.38013    0.018
 4891.00    1.49072   1.38917    0.018
 4892.00    1.58001   1.40097    0.018
 4893.00    1.68161   1.41324    0.018
 4894.00    1.60374   1.42622    0.018
 4895.00    1.51568   1.43828    0.018
 4896.00    1.48050   1.44896    0.018
 4897.00    1.44744   1.45772    0.018
 4898.00    1.51444   1.46397    0.018
 4899.00    1.58068   1.46805    0.018
 4900.00    1.62869   1.46970    0.018
 4901.00    1.66656   1.46962    0.018
 4902.00    1.57328   1.46782    0.018
 4903.00    1.49787   1.46500    0.018
 4904.00    1.57776   1.46123    0.018
 4905.00    1.64053   1.45702    0.018
 4906.00    1.59308   1.45234    0.018
 4907.00    1.55212   1.44759    0.018
 4908.00    1.54378   1.44241    0.018
 4909.00    1.56167   1.43743    0.018
 4910.00    1.68631   1.43181    0.018
 4911.00    1.74823   1.42625    0.018
 4912.00    1.59849   1.41965    0.018
 4913.00    1.48506   1.41279    0.018
 4914.00    1.47500   1.40476    0.018
 4915.00    1.50718   1.39637    0.018
 4916.00    1.64215   1.38751    0.018
 4917.00    1.69731   1.37888    0.018
 4918.00    1.58498   1.37138    0.018
 4919.00    1.47869   1.36524    0.018
 4920.00    1.38341   1.36201    0.018
 4921.00    1.34303   1.36125    0.018
 4922.00    1.39019   1.36440    0.018
 4923.00    1.44644   1.37001    0.019
 4924.00    1.51542   1.37872    0.018
 4925.00    1.54657   1.38884    0.018
 4926.00    1.53114   1.39991    0.018
 4927.00    1.57584   1.41046    0.018
 4928.00    1.68582   1.41970    0.018
 4929.00    1.71529   1.42677    0.018
 4930.00    1.66766   1.43113    0.018
 4931.00    1.60663   1.43328    0.018
 4932.00    1.53430   1.43265    0.018
 4933.00    1.50289   1.43058    0.018
 4934.00    1.50193   1.42705    0.018
 4935.00    1.51442   1.42387    0.018
 4936.00    1.53570   1.42109    0.018
 4937.00    1.51020   1.42028    0.018
 4938.00    1.45795   1.42096    0.018
 4939.00    1.51891   1.42436    0.018
 4940.00    1.63622   1.42933    0.000
 4941.00    1.54720   1.43652    0.000
 4942.00    1.36932   1.44441    0.000
 4943.00    1.54328   1.45344    0.000
 4944.00    1.84713   1.46176    0.000
 4945.00    1.72446   1.46986    0.000
 4946.00    1.46837   1.47602    0.000
 4947.00    1.53510   1.48079    0.000
 4948.00    1.68606   1.48294    0.000
 4949.00    1.57294   1.48296    0.000
 4950.00    1.40359   1.48057    0.000
 4951.00    1.49753   1.47585    0.000
 4952.00    1.63584   1.46975    0.000
 4953.00    1.62741   1.46185    0.000
 4954.00    1.60033   1.45404    0.000
 4955.00    1.59904   1.44578    0.000
 4956.00    1.60005   1.43885    0.000
 4957.00    1.57509   1.43328    0.000
 4958.00    1.54876   1.42915    0.000
 4959.00    1.42534   1.42676    0.000
 4960.00    1.30330   1.42530    0.000
 4961.00    1.43470   1.42549    0.000
 4962.00    1.56243   1.42571    0.000
 4963.00    1.61019   1.42686    0.000
 4964.00    1.65057   1.42748    0.000
 4965.00    1.60041   1.42886    0.000
 4966.00    1.55504   1.42963    0.000
 4967.00    1.54971   1.43098    0.000
 4968.00    1.53951   1.43209    0.000
 4969.00    1.49881   1.43338    0.000
 4970.00    1.47667   1.43460    0.000
 4971.00    1.54552   1.43513    0.000
 4972.00    1.58049   1.43496    0.000
 4973.00    1.48058   1.43328    0.000
 4974.00    1.40948   1.42989    0.000
 4975.00    1.43375   1.42465    0.000
 4976.00    1.51964   1.41726    0.000
 4977.00    1.77779   1.40847    0.000
 4978.00    1.89362   1.39833    0.000
 4979.00    1.66906   1.38802    0.000
 4980.00    1.50131   1.37762    0.000
 4981.00    1.45089   1.36880    0.000
 4982.00    1.45955   1.36189    0.000
 4983.00    1.57437   1.35769    0.000
 4984.00    1.57777   1.35594    0.000
 4985.00    1.40612   1.35704    0.000
 4986.00    1.30494   1.36018    0.000
 4987.00    1.30096   1.36479    0.000
 4988.00    1.41562   1.37058    0.000
 4989.00    1.67433   1.37628    0.000
 4990.00    1.74684   1.38208    0.000
 4991.00    1.62004   1.38667    0.000
 4992.00    1.51859   1.38978    0.000
 4993.00    1.44108   1.39151    0.000
 4994.00    1.43042   1.39123    0.000
 4995.00    1.47541   1.38913    0.000
 4996.00    1.47048   1.38517    0.000
 4997.00    1.42898   1.37960    0.000
 4998.00    1.42619   1.37263    0.000
 4999.00    1.44832   1.36507    0.000
 5000.00    1.41475   1.35681    0.000
 5001.00    1.34983   1.34889    0.000
 5002.00    1.38536   1.34097    0.000
 5003.00    1.47010   1.33390    0.000
 5004.00    1.47849   1.32722    0.000
 5005.00    1.45454   1.32213    0.000
 5006.00    1.47201   1.31757    0.000
 5007.00    1.50450   1.31409    0.000
 5008.00    1.43008   1.31024    0.000
 5009.00    1.32285   1.30735    0.000
 5010.00    1.37986   1.30353    0.000
 5011.00    1.47879   1.30070    0.000
 5012.00    1.43543   1.29736    0.000
 5013.00    1.36251   1.29524    0.000
 5014.00    1.45659   1.29351    0.000
 5015.00    1.57799   1.29289    0.000
 5016.00    1.34424   1.29318    0.000
 5017.00    1.06690   1.29510    0.000
 5018.00    1.02773   1.29834    0.000
 5019.00    1.00869   1.30277    0.000
 5020.00    0.95172   1.30834    0.000
 5021.00    0.89289   1.31467    0.000
 5022.00    1.13832   1.32224    0.000
 5023.00    1.38337   1.32957    0.000
 5024.00    1.31769   1.33787    0.000
 5025.00    1.25757   1.34527    0.000
 5026.00    1.30886   1.35299    0.000
 5027.00    1.35712   1.36012    0.000
 5028.00    1.37008   1.36633    0.000
 5029.00    1.38501   1.37148    0.018
 5030.00    1.41594   1.37490    0.018
 5031.00    1.44372   1.37672    0.018
 5032.00    1.45247   1.37607    0.018
 5033.00    1.45433   1.37346    0.018
 5034.00    1.42322   1.36851    0.018
 5035.00    1.40339   1.36277    0.018
 5036.00    1.42743   1.35592    0.018
 5037.00    1.43785   1.34907    0.018
 5038.00    1.40408   1.34306    0.018
 5039.00    1.39848   1.33809    0.018
 5040.00    1.47017   1.33586    0.018
 5041.00    1.49678   1.33595    0.018
 5042.00    1.41737   1.33818    0.018
 5043.00    1.36704   1.34255    0.018
 5044.00    1.37580   1.34775    0.017
 5045.00    1.40543   1.35391    0.017
 5046.00    1.47199   1.35966    0.017
 5047.00    1.50732   1.36566    0.018
 5048.00    1.49431   1.37112    0.018
 5049.00    1.50063   1.37672    0.017
 5050.00    1.53322   1.38203    0.017
 5051.00    1.52859   1.38791    0.017
 5052.00    1.47940   1.39380    0.017
 5053.00    1.49664   1.40028    0.017
 5054.00    1.58399   1.40665    0.017
 5055.00    1.59179   1.41300    0.017
 5056.00    1.52554   1.41871    0.017
 5057.00    1.52011   1.42351    0.017
 5058.00    1.56461   1.42680    0.017
 5059.00    1.61997   1.42863    0.017
 5060.00    1.68318   1.42825    0.017
 5061.00    1.64330   1.42615    0.017
 5062.00    1.53804   1.42200    0.017
 5063.00    1.50485   1.41636    0.017
 5064.00    1.51160   1.41032    0.017
 5065.00    1.51352   1.40340    0.017
 5066.00    1.51311   1.39698    0.017
 5067.00    1.50836   1.39053    0.017
 5068.00    1.50179   1.38490    0.017
 5069.00    1.52228   1.37956    0.017
 5070.00    1.55241   1.37455    0.017
 5071.00    1.44360   1.37002    0.017
 5072.00    1.29301   1.36541    0.017
 5073.00    1.26024   1.36069    0.017
 5074.00    1.25690   1.35602    0.017
 5075.00    1.21099   1.35083    0.017
 5076.00    1.15645   1.34607    0.017
 5077.00    1.24157   1.34069    0.016
 5078.00    1.34889   1.33682    0.016
 5079.00    1.36667   1.33341    0.016
 5080.00    1.37386   1.33231    0.017
 5081.00    1.32969   1.33258    0.016
 5082.00    1.28139   1.33524    0.016
 5083.00    1.35673   1.33946    0.016
 5084.00    1.43763   1.34536    0.016
 5085.00    1.46516   1.35243    0.016
 5086.00    1.49020   1.36004    0.016
 5087.00    1.42234   1.36782    0.016
 5088.00    1.35658   1.37492    0.016
 5089.00    1.32998   1.38110    0.016
 5090.00    1.31306   1.38577    0.016
 5091.00    1.40395   1.38868    0.016
 5092.00    1.47608   1.38970    0.017
 5093.00    1.40195   1.38870    0.017
 5094.00    1.33673   1.38614    0.017
 5095.00    1.32393   1.38181    0.017
 5096.00    1.30913   1.37710    0.017
 5097.00    1.28495   1.37130    0.017
 5098.00    1.23812   1.36663    0.017
 5099.00    1.10493   1.36175    0.017
 5100.00    1.02959   1.35841    0.017
 5101.00    1.13824   1.35523    0.017
 5102.00    1.20419   1.35316    0.017
 5103.00    1.15502   1.35134    0.017
 5104.00    1.11566   1.35050    0.017
 5105.00    1.09896   1.35014    0.017
 5106.00    1.10552   1.35056    0.017
 5107.00    1.15861   1.35202    0.017
 5108.00    1.20939   1.35382    0.017
 5109.00    1.25614   1.35733    0.017
 5110.00    1.30186   1.36117    0.017
 5111.00    1.34602   1.36587    0.017
 5112.00    1.37716   1.37101    0.018
 5113.00    1.39086   1.37569    0.018
 5114.00    1.42216   1.37993    0.018
 5115.00    1.47422   1.38297    0.018
 5116.00    1.50340   1.38447    0.018
 5117.00    1.50877   1.38393    0.018
 5118.00    1.52111   1.38146    0.018
 5119.00    1.53987   1.37654    0.018
 5120.00    1.48597   1.37035    0.018
 5121.00    1.37330   1.36229    0.018
 5122.00    1.35806   1.35415    0.017
 5123.00    1.41218   1.34570    0.017
 5124.00    1.37787   1.33818    0.017
 5125.00    1.28831   1.33181    0.017
 5126.00    1.23271   1.32700    0.017
 5127.00    1.19567   1.32381    0.017
 5128.00    1.24728   1.32210    0.017
 5129.00    1.34096   1.32226    0.017
 5130.00    1.26264   1.32299    0.017
 5131.00    1.11393   1.32504    0.017
 5132.00    1.12918   1.32653    0.017
 5133.00    1.20176   1.32843    0.017
 5134.00    1.29419   1.32915    0.017
 5135.00    1.39248   1.32917    0.017
 5136.00    1.40033   1.32841    0.017
 5137.00    1.38608   1.32593    0.017
 5138.00    1.47344   1.32377    0.017
 5139.00    1.58088   1.32070    0.017
 5140.00    1.50229   1.31739    0.017
 5141.00    1.39502   1.31453    0.017
 5142.00    1.36661   1.31146    0.017
 5143.00    1.34718   1.30890    0.016
 5144.00    1.40583   1.30713    0.016
 5145.00    1.47044   1.30587    0.016
 5146.00    1.55551   1.30493    0.016
 5147.00    1.64141   1.30530    0.016
 5148.00    1.57899   1.30606    0.016
 5149.00    1.51644   1.30795    0.017
 5150.00    1.49939   1.31030    0.016
 5151.00    1.48074   1.31335    0.016
 5152.00    1.43433   1.31679    0.016
 5153.00    1.39705   1.32085    0.016
 5154.00    1.45700   1.32442    0.016
 5155.00    1.50719   1.32761    0.017
 5156.00    1.48391   1.32928    0.017
 5157.00    1.45091   1.32878    0.017
 5158.00    1.36220   1.32558    0.017
 5159.00    1.30052   1.31905    0.017
 5160.00    1.36201   1.30884    0.017
 5161.00    1.40616   1.29546    0.017
 5162.00    1.38567   1.27866    0.017
 5163.00    1.34855   1.25922    0.017
 5164.00    1.25955   1.23873    0.016
 5165.00    1.20275   1.21688    0.016
 5166.00    1.23119   1.19691    0.016
 5167.00    1.26593   1.17874    0.016
 5168.00    1.31498   1.16506    0.016
 5169.00    1.34603   1.15514    0.016
 5170.00    1.34163   1.14960    0.017
 5171.00    1.38603   1.14811    0.017
 5172.00    1.51416   1.15056    0.017
 5173.00    1.52182   1.15691    0.017
 5174.00    1.34840   1.16609    0.017
 5175.00    1.29995   1.17625    0.017
 5176.00    1.41655   1.18575    0.017
 5177.00    1.43456   1.19407    0.017
 5178.00    1.33788   1.20103    0.018
 5179.00    1.32235   1.20590    0.018
 5180.00    1.39008   1.20908    0.017
 5181.00    1.36581   1.21080    0.017
 5182.00    1.25828   1.21212    0.017
 5183.00    1.15195   1.21451    0.017
 5184.00    1.04657   1.21765    0.017
 5185.00    1.13119   1.22399    0.017
 5186.00    1.34911   1.23048    0.017
 5187.00    1.36261   1.23818    0.017
 5188.00    1.25031   1.24641    0.017
 5189.00    1.27282   1.25443    0.017
 5190.00    1.36780   1.26312    0.000
 5191.00    1.37907   1.27069    0.000
 5192.00    1.35126   1.27814    0.000
 5193.00    1.31870   1.28495    0.000
 5194.00    1.28423   1.29192    0.000
 5195.00    1.34790   1.29724    0.000
 5196.00    1.44524   1.30173    0.000
 5197.00    1.31956   1.30555    0.000
 5198.00    1.12943   1.30739    0.000
 5199.00    1.10416   1.30831    0.000
 5200.00    1.11827   1.30690    0.000
 5201.00    1.23049   1.30467    0.000
 5202.00    1.36160   1.30040    0.000
 5203.00    1.30498   1.29602    0.000
 5204.00    1.22029   1.29107    0.000
 5205.00    1.16721   1.28712    0.000
 5206.00    1.11760   1.28408    0.000
 5207.00    1.16685   1.28376    0.000
 5208.00    1.22324   1.28507    0.000
 5209.00    1.25499   1.28849    0.000
 5210.00    1.28582   1.29503    0.000
 5211.00    1.27859   1.30206    0.016
 5212.00    1.27228   1.31110    0.016
 5213.00    1.30620   1.31930    0.016
 5214.00    1.34070   1.32791    0.016
 5215.00    1.38468   1.33502    0.016
 5216.00    1.43098   1.34135    0.016
 5217.00    1.50085   1.34646    0.016
 5218.00    1.55745   1.34945    0.016
 5219.00    1.51742   1.35091    0.016
 5220.00    1.47784   1.34972    0.016
 5221.00    1.44084   1.34709    0.016
 5222.00    1.41496   1.34287    0.017
 5223.00    1.43852   1.33763    0.016
 5224.00    1.44899   1.33233    0.016
 5225.00    1.41159   1.32721    0.016
 5226.00    1.37006   1.32421    0.017
 5227.00    1.31588   1.32259    0.016
 5228.00    1.27619   1.32380    0.016
 5229.00    1.27417   1.32728    0.016
 5230.00    1.26448   1.33144    0.016
 5231.00    1.23763   1.33743    0.017
 5232.00    1.26266   1.34468    0.017
 5233.00    1.38821   1.35216    0.017
 5234.00    1.45943   1.36139    0.017
 5235.00    1.43881   1.37029    0.017
 5236.00    1.44418   1.37929    0.017
 5237.00    1.48802   1.38744    0.017
 5238.00    1.50594   1.39407    0.017
 5239.00    1.49009   1.39964    0.017
 5240.00    1.45802   1.40308    0.017
 5241.00    1.40736   1.40539    0.017
 5242.00    1.40366   1.40565    0.017
 5243.00    1.44745   1.40442    0.017
 5244.00    1.44037   1.40176    0.017
 5245.00    1.38791   1.39801    0.017
 5246.00    1.29735   1.39333    0.017
 5247.00    1.17685   1.38830    0.017
 5248.00    1.24653   1.38387    0.017
 5249.00    1.44771   1.38052    0.017
 5250.00    1.54325   1.37731    0.017
 5251.00    1.57475   1.37507    0.017
 5252.00    1.59946   1.37417    0.018
 5253.00    1.62058   1.37260    0.018
 5254.00    1.59522   1.37167    0.018
 5255.00    1.54851   1.36909    0.018
 5256.00    1.53300   1.36618    0.017
 5257.00    1.52982   1.36139    0.017
 5258.00    1.40721   1.35380    0.017
 5259.00    1.24437   1.34395    0.017
 5260.00    1.22417   1.33096    0.017
 5261.00    1.24433   1.31684    0.017
 5262.00    1.20141   1.30081    0.017
 5263.00    1.14376   1.28555    0.017
 5264.00    1.12253   1.27061    0.017
 5265.00    1.10812   1.25863    0.017
 5266.00    1.09087   1.24876    0.017
 5267.00    1.07322   1.24257    0.017
 5268.00    1.07460   1.24020    0.017
 5269.00    1.07798   1.24065    0.017
 5270.00    1.22793   1.24546    0.017
 5271.00    1.38787   1.25453    0.017
 5272.00    1.33824   1.26676    0.017
 5273.00    1.28157   1.27940    0.017
 5274.00    1.22007   1.29386    0.017
 5275.00    1.16161   1.30888    0.017
 5276.00    1.20057   1.32364    0.017
 5277.00    1.23960   1.33903    0.017
 5278.00    1.27976   1.35251    0.016
 5279.00    1.32793   1.36496    0.016
 5280.00    1.45425   1.37573    0.016
 5281.00    1.54726   1.38609    0.016
 5282.00    1.40571   1.39542    0.016
 5283.00    1.28377   1.40501    0.016
 5284.00    1.26810   1.41359    0.016
 5285.00    1.26622   1.42253    0.016
 5286.00    1.32424   1.43040    0.016
 5287.00    1.36284   1.43657    0.016
 5288.00    1.33190   1.44121    0.016
 5289.00    1.29360   1.44394    0.017
 5290.00    1.23319   1.44533    0.017
 5291.00    1.22170   1.44421    0.017
 5292.00    1.33533   1.44150    0.017
 5293.00    1.39210   1.43694    0.017
 5294.00    1.32382   1.43170    0.017
 5295.00    1.32333   1.42610    0.016
 5296.00    1.45218   1.42040    0.017
 5297.00    1.51995   1.41618    0.017
 5298.00    1.48601   1.41349    0.017
 5299.00    1.50169   1.41375    0.017
 5300.00    1.58977   1.41607    0.017
 5301.00    1.60177   1.41969    0.017
 5302.00    1.51614   1.42538    0.017
 5303.00    1.42831   1.43234    0.017
 5304.00    1.33802   1.44030    0.017
 5305.00    1.35778   1.44778    0.017
 5306.00    1.48733   1.45478    0.017
 5307.00    1.54909   1.46070    0.017
 5308.00    1.55124   1.46561    0.017
 5309.00    1.53112   1.46931    0.017
 5310.00    1.49374   1.47121    0.016
 5311.00    1.51144   1.47116    0.017
 5312.00    1.56666   1.46951    0.017
 5313.00    1.51869   1.46619    0.017
 5314.00    1.40909   1.46158    0.017
 5315.00    1.38376   1.45568    0.016
 5316.00    1.40232   1.44868    0.016
 5317.00    1.30144   1.44025    0.016
 5318.00    1.14660   1.43192    0.016
 5319.00    1.18515   1.42219    0.016
 5320.00    1.29885   1.41196    0.016
 5321.00    1.37926   1.40127    0.016
 5322.00    1.44867   1.38994    0.016
 5323.00    1.51231   1.37970    0.016
 5324.00    1.57434   1.36909    0.016
 5325.00    1.60217   1.36117    0.016
 5326.00    1.62221   1.35392    0.016
 5327.00    1.45087   1.34950    0.016
 5328.00    1.24459   1.34621    0.016
 5329.00    1.22186   1.34733    0.016
 5330.00    1.22486   1.35171    0.015
 5331.00    1.24391   1.35683    0.015
 5332.00    1.26457   1.36332    0.015
 5333.00    1.45444   1.36953    0.016
 5334.00    1.65516   1.37693    0.016
 5335.00    1.64647   1.38323    0.016
 5336.00    1.63121   1.38880    0.016
 5337.00    1.48219   1.39295    0.016
 5338.00    1.33842   1.39609    0.016
 5339.00    1.34440   1.39827    0.016
 5340.00    1.35545   1.39982    0.016
 5341.00    1.43925   1.40151    0.016
 5342.00    1.51650   1.40427    0.016
 5343.00    1.53249   1.40647    0.016
 5344.00    1.54526   1.40894    0.015
 5345.00    1.53610   1.41246    0.016
 5346.00    1.51075   1.41613    0.016
 5347.00    1.39992   1.42179    0.016
 5348.00    1.33129   1.42777    0.016
 5349.00    1.44185   1.43473    0.016
 5350.00    1.51975   1.44281    0.016
 5351.00    1.48318   1.45134    0.016
 5352.00    1.43194   1.45988    0.016
 5353.00    1.33744   1.46749    0.016
 5354.00    1.28532   1.47432    0.016
 5355.00    1.33963   1.48005    0.016
 5356.00    1.38181   1.48349    0.017
 5357.00    1.39776   1.48516    0.016
 5358.00    1.38712   1.48442    0.016
 5359.00    1.32656   1.48157    0.016
 5360.00    1.35853   1.47627    0.016
 5361.00    1.54226   1.46931    0.016
 5362.00    1.63781   1.46103    0.016
 5363.00    1.60651   1.45163    0.016
 5364.00    1.53552   1.44269    0.016
 5365.00    1.41430   1.43261    0.016
 5366.00    1.41059   1.42463    0.016
 5367.00    1.53786   1.41705    0.016
 5368.00    1.59352   1.41116   -2.000
 5369.00    1.57875   1.40709   -2.000
 5370.00    1.54250   1.40442   -2.000
 5371.00    1.48762   1.40493   -2.000
 5372.00    1.39357   1.40711   -2.000
 5373.00    1.26961   1.41264   -2.000
 5374.00    1.29512   1.41752   -2.000
 5375.00    1.42099   1.42329   -2.000
 5376.00    1.44119   1.42866   -2.000
 5377.00    1.39925   1.43329   -2.000
 5378.00    1.29561   1.43779   -2.000
 5379.00    1.16033   1.44076   -2.000
 5380.00    1.17725   1.44282   -2.000
 5381.00    1.26181   1.44302   -2.000
 5382.00    1.34327   1.44298   -2.000
 5383.00    1.42355   1.44108    0.016
 5384.00    1.41893   1.43852    0.015
 5385.00    1.38677   1.43505    0.015
 5386.00    1.46018   1.42991    0.015
 5387.00    1.56226   1.42421    0.015
 5388.00    1.52955   1.41772    0.015
 5389.00    1.46681   1.41077    0.015
 5390.00    1.36516   1.40331    0.015
 5391.00    1.25660   1.39647    0.015
 5392.00    1.26788   1.38932    0.015
 5393.00    1.29541   1.38277    0.015
 5394.00    1.39992   1.37621    0.015
 5395.00    1.51187   1.36996    0.015
 5396.00    1.45302   1.36455    0.015
 5397.00    1.38391   1.35870    0.015
 5398.00    1.41938   1.35487    0.015
 5399.00    1.45687   1.35153    0.015
 5400.00    1.37574   1.34811    0.015
 5401.00    1.30111   1.34471    0.015
 5402.00    1.39413   1.34226    0.015
 5403.00    1.47525   1.33990    0.015
 5404.00    1.39506   1.33768    0.015
 5405.00    1.33322   1.33736    0.015
 5406.00    1.43639   1.33856    0.016
 5407.00    1.54050   1.34245    0.016
 5408.00    1.65088   1.34730    0.016
 5409.00    1.71692   1.35310    0.016
 5410.00    1.55490   1.35963    0.016
 5411.00    1.42267   1.36838    0.016
 5412.00    1.41414   1.37761    0.016
 5413.00    1.42766   1.38625    0.016
 5414.00    1.51692   1.39468    0.015
 5415.00    1.58716   1.40215    0.015
 5416.00    1.60235   1.40968    0.015
 5417.00    1.58956   1.41561    0.016
 5418.00    1.50769   1.41945    0.016
 5419.00    1.40880   1.42161    0.016
 5420.00    1.27366   1.42261    0.015
 5421.00    1.21399   1.42238    0.015
 5422.00    1.29393   1.42135    0.015
 5423.00    1.34982   1.41903    0.015
 5424.00    1.36684   1.41511    0.015
 5425.00    1.37343   1.41184    0.015
 5426.00    1.36525   1.40874    0.015
 5427.00    1.37254   1.40463    0.015
 5428.00    1.39914   1.40047    0.015
 5429.00    1.41301   1.39632    0.015
 5430.00    1.41289   1.39313    0.015
 5431.00    1.40334   1.39357    0.015
 5432.00    1.38465   1.39330    0.015
 5433.00    1.39338   1.39404    0.015
 5434.00    1.42555   1.39657    0.014
 5435.00    1.48205   1.40013    0.014
 5436.00    1.55688   1.40545    0.014
 5437.00    1.55041   1.41021    0.014
 5438.00    1.49015   1.41574    0.014
 5439.00    1.48152   1.42039    0.015
 5440.00    1.50279   1.42448    0.015
 5441.00    1.52100   1.42715    0.015
 5442.00    1.53766   1.42758    0.015
 5443.00    1.48283   1.42746    0.014
 5444.00    1.39675   1.42508    0.014
 5445.00    1.35867   1.42186    0.014
 5446.00    1.33858   1.41803    0.014
 5447.00    1.36035   1.41400    0.014
 5448.00    1.39543   1.41223    0.015
 5449.00    1.34497   1.40963    0.015
 5450.00    1.27176   1.40724    0.015
 5451.00    1.30570   1.40443    0.015
 5452.00    1.36294   1.40228    0.015
 5453.00    1.45384   1.40012    0.015
 5454.00    1.55056   1.39826    0.015
 5455.00    1.58081   1.39703    0.015
 5456.00    1.60234   1.39667    0.015
 5457.00    1.50268   1.39880    0.015
 5458.00    1.39182   1.39982    0.015
 5459.00    1.46041   1.40062    0.015
 5460.00    1.53908   1.40054    0.015
 5461.00    1.42286   1.40031    0.015
 5462.00    1.30429   1.40045    0.015
 5463.00    1.39431   1.39994    0.015
 5464.00    1.47809   1.39989    0.015
 5465.00    1.41518   1.40005    0.015
 5466.00    1.35199   1.39926    0.015
 5467.00    1.28536   1.39726    0.015
 5468.00    1.23867   1.39468    0.015
 5469.00    1.36453   1.39152    0.015
 5470.00    1.46773   1.38764    0.015
 5471.00    1.42568   1.38337    0.015
 5472.00    1.39179   1.37914    0.015
 5473.00    1.39883   1.37477    0.015
 5474.00    1.40591   1.37057    0.015
 5475.00    1.41321   1.36779    0.015
 5476.00    1.42451   1.36468    0.015
 5477.00    1.44931   1.36284    0.014
 5478.00    1.46382   1.36375   -2.000
 5479.00    1.44914   1.36493   -2.000
 5480.00    1.47935   1.36713   -2.000
 5481.00    1.61854   1.36877   -2.000
 5482.00    1.75359   1.37266   -2.000
 5483.00    1.87997   1.37711   -2.000
 5484.00    1.87104   1.38156   -2.000
 5485.00    1.61572   1.38602   -2.000
 5486.00    1.50596   1.38946   -2.000
 5487.00    1.62793   1.39278   -2.000
 5488.00    1.54662   1.39495   -2.000
 5489.00    1.18133   1.39818   -2.000
 5490.00    1.03972   1.40011   -2.000
 5491.00    1.17309   1.40171   -2.000
 5492.00    1.31654   1.40315   -2.000
 5493.00    1.47093   1.40308   -2.000
 5494.00    1.55677   1.40312   -2.000
 5495.00    1.57706   1.40275   -2.000
 5496.00    1.61309   1.40228   -2.000
 5497.00    1.66237   1.40022   -2.000
 5498.00    1.68656   1.39894   -2.000
 5499.00    1.69215   1.39817   -2.000
 5500.00    1.69241   1.39585   -2.000
 5501.00    1.68920   1.39298   -2.000
 5502.00    1.56068   1.39000    0.015
 5503.00    1.36066   1.38767    0.015
 5504.00    1.32849   1.38502    0.015
 5505.00    1.37971   1.38289    0.015
 5506.00    1.41258   1.38045    0.015
 5507.00    1.43757   1.37865    0.015
 5508.00    1.45060   1.37854    0.015
 5509.00    1.45924   1.37816    0.015
 5510.00    1.45492   1.37793    0.015
 5511.00    1.44655   1.37886    0.015
 5512.00    1.41220   1.37990    0.015
 5513.00    1.37109   1.38225    0.014
 5514.00    1.35155   1.38569    0.014
 5515.00    1.33657   1.38951    0.014
 5516.00    1.35695   1.39386    0.014
 5517.00    1.38326   1.39757    0.014
 5518.00    1.32739   1.40154    0.014
 5519.00    1.26110   1.40403    0.014
 5520.00    1.38256   1.40596    0.014
 5521.00    1.52058   1.40730    0.014
 5522.00    1.47615   1.40780    0.014
 5523.00    1.42218   1.40759    0.014
 5524.00    1.37683   1.40649    0.014
 5525.00    1.33253   1.40478    0.014
 5526.00    1.35525   1.40213    0.014
 5527.00    1.37516   1.40027    0.014
 5528.00    1.33459   1.39805    0.014
 5529.00    1.29943   1.39746    0.014
 5530.00    1.33014   1.39818    0.014
 5531.00    1.36331   1.39878    0.014
 5532.00    1.41699   1.39992    0.014
 5533.00    1.45110   1.40097    0.014
 5534.00    1.36348   1.40323    0.014
 5535.00    1.29652   1.40504    0.014
 5536.00    1.33048   1.40824    0.014
 5537.00    1.35569   1.41193    0.014
 5538.00    1.34615   1.41485    0.014
 5539.00    1.35201   1.41849    0.014
 5540.00    1.40872   1.42163    0.014
 5541.00    1.44763   1.42467    0.014
 5542.00    1.43690   1.42710    0.014
 5543.00    1.43321   1.42920    0.015
 5544.00    1.44632   1.43149    0.015
 5545.00    1.43702   1.43372    0.015
 5546.00    1.38153   1.43550    0.015
 5547.00    1.37371   1.43705    0.015
 5548.00    1.45137   1.43873    0.015
 5549.00    1.48624   1.43938    0.014
 5550.00    1.45399   1.43932    0.014
 5551.00    1.43838   1.43863    0.014
 5552.00    1.44567   1.43759    0.014
 5553.00    1.42019   1.43553    0.014
 5554.00    1.35498   1.43315    0.014
 5555.00    1.32721   1.43087    0.014
 5556.00    1.33944   1.42801    0.014
 5557.00    1.31440   1.42481    0.014
 5558.00    1.25425   1.42082    0.014
 5559.00    1.25736   1.41738    0.014
 5560.00    1.31306   1.41324    0.014
 5561.00    1.31517   1.40922    0.014
 5562.00    1.27808   1.40581    0.014
 5563.00    1.26452   1.40167    0.014
 5564.00    1.26608   1.39918    0.014
 5565.00    1.29257   1.39636    0.014
 5566.00    1.33307   1.39387    0.014
 5567.00    1.35510   1.39242    0.014
 5568.00    1.36809   1.39156    0.014
 5569.00    1.36129   1.39121    0.014
 5570.00    1.34611   1.39069    0.014
 5571.00    1.31165   1.39232    0.013
 5572.00    1.27022   1.39287    0.013
 5573.00    1.24007   1.39297    0.013
 5574.00    1.21338   1.39500    0.013
 5575.00    1.22343   1.39629    0.013
 5576.00    1.24284   1.39610    0.013
 5577.00    1.27870   1.39580    0.013
 5578.00    1.31796   1.39489    0.013
 5579.00    1.37406   1.39199    0.014
 5580.00    1.43291   1.38842    0.014
 5581.00    1.39759   1.38462    0.014
 5582.00    1.35077   1.37914    0.014
 5583.00    1.39158   1.37369    0.014
 5584.00    1.43976   1.36787    0.014
 5585.00    1.38462   1.36120    0.014
 5586.00    1.32448   1.35509    0.014
 5587.00    1.20911   1.34919    0.014
 5588.00    1.09596   1.34550    0.014
 5589.00    1.16376   1.34277    0.014
 5590.00    1.23026   1.34159    0.014
 5591.00    1.27105   1.34168    0.014
 5592.00    1.31170   1.34141    0.014
 5593.00    1.35090   1.34284    0.015
 5594.00    1.37263   1.34405    0.015
 5595.00    1.25411   1.34700    0.015
 5596.00    1.16795   1.35114    0.015
 5597.00    1.27733   1.35506    0.015
 5598.00    1.35522   1.35831    0.015
 5599.00    1.28297   1.36204    0.015
 5600.00    1.20645   1.36705    0.015
 5601.00    1.11330   1.37099    0.015
 5602.00    1.06872   1.37654    0.015
 5603.00    1.18130   1.38237    0.014
 5604.00    1.27640   1.38922    0.014
 5605.00    1.32365   1.39498    0.014
 5606.00    1.36287   1.39949    0.014
 5607.00    1.38324   1.40378    0.014
 5608.00    1.39730   1.40539    0.014
 5609.00    1.39857   1.40712    0.014
 5610.00    1.39007   1.40760    0.013
 5611.00    1.36432   1.40716    0.013
 5612.00    1.32540   1.40559    0.013
 5613.00    1.26615   1.40184    0.013
 5614.00    1.23443   1.39773    0.013
 5615.00    1.24005   1.39168    0.013
 5616.00    1.23024   1.38745    0.013
 5617.00    1.20201   1.38501    0.013
 5618.00    1.18310   1.38196    0.013
 5619.00    1.17401   1.37993    0.013
 5620.00    1.21285   1.37822    0.013
 5621.00    1.29622   1.37776    0.013
 5622.00    1.35577   1.37748    0.014
 5623.00    1.39581   1.37819    0.014
 5624.00    1.41915   1.37971    0.014
 5625.00    1.43046   1.38140    0.014
 5626.00    1.46904   1.38454    0.014
 5627.00    1.52489   1.38741    0.014
 5628.00    1.51960   1.38989    0.014
 5629.00    1.48048   1.39249    0.014
 5630.00    1.41765   1.39417    0.014
 5631.00    1.34342   1.39483    0.014
 5632.00    1.34599   1.39503    0.014
 5633.00    1.38046   1.39528    0.014
 5634.00    1.36947   1.39432    0.014
 5635.00    1.34234   1.39279    0.014
 5636.00    1.30338   1.39136    0.014
 5637.00    1.26088   1.38936    0.014
 5638.00    1.25264   1.38787    0.014
 5639.00    1.25292   1.38656    0.014
 5640.00    1.23573   1.38578    0.014
 5641.00    1.21501   1.38443    0.014
 5642.00    1.21752   1.38414    0.014
 5643.00    1.22370   1.38497    0.014
 5644.00    1.25217   1.38522    0.014
 5645.00    1.28328   1.38645    0.013
 5646.00    1.26946   1.38727    0.013
 5647.00    1.25205   1.38782    0.013
 5648.00    1.25014   1.38721    0.013
 5649.00    1.24892   1.38656    0.013
 5650.00    1.26229   1.38568    0.013
 5651.00    1.27553   1.38338    0.013
 5652.00    1.27432   1.38124    0.013
 5653.00    1.27211   1.37859    0.013
 5654.00    1.25153   1.37506    0.013
 5655.00    1.23198   1.37073    0.013
 5656.00    1.22389   1.36754    0.013
 5657.00    1.21413   1.36496    0.013
 5658.00    1.19144   1.36143    0.013
 5659.00    1.17692   1.35988    0.013
 5660.00    1.21032   1.36046    0.013
 5661.00    1.24380   1.36077    0.013
 5662.00    1.27761   1.36128    0.013
 5663.00    1.31579   1.36381    0.013
 5664.00    1.37056   1.36792    0.013
 5665.00    1.40025   1.37162    0.013
 5666.00    1.35033   1.37619    0.013
 5667.00    1.32067   1.38134    0.014
 5668.00    1.34549   1.38607    0.013
 5669.00    1.36420   1.39081    0.013
 5670.00    1.36884   1.39595    0.014
 5671.00    1.38536   1.40083    0.014
 5672.00    1.42557   1.40487    0.014
 5673.00    1.44392   1.40826    0.014
 5674.00    1.42426   1.41042    0.014
 5675.00    1.39274   1.41085    0.014
 5676.00    1.34318   1.41126    0.014
 5677.00    1.31015   1.41151    0.014
 5678.00    1.29925   1.41032    0.014
 5679.00    1.28667   1.40814    0.014
 5680.00    1.27210   1.40538    0.014
 5681.00    1.26841   1.40276    0.014
 5682.00    1.27602   1.39906    0.014
 5683.00    1.26977   1.39670    0.013
 5684.00    1.25083   1.39527    0.013
 5685.00    1.26012   1.39426    0.013
 5686.00    1.29221   1.39315    0.013
 5687.00    1.31478   1.39208    0.013
 5688.00    1.33058   1.39257    0.013
 5689.00    1.33956   1.39314    0.013
 5690.00    1.34429   1.39508    0.013
 5691.00    1.33307   1.39581    0.013
 5692.00    1.31317   1.39682    0.013
 5693.00    1.34700   1.39707    0.013
 5694.00    1.40625   1.39546    0.013
 5695.00    1.38549   1.39430    0.013
 5696.00    1.33205   1.39218    0.013
 5697.00    1.30401   1.39015    0.013
 5698.00    1.28483   1.38569    0.013
 5699.00    1.30984   1.38060    0.013
 5700.00    1.34784   1.37605    0.014
 5701.00    1.32752   1.36974    0.013
 5702.00    1.29299   1.36415    0.013
 5703.00    1.26973   1.35975    0.013
 5704.00    1.24869   1.35552    0.013
 5705.00    1.24641   1.35126    0.013
 5706.00    1.24702   1.34781    0.013
 5707.00    1.25563   1.34608    0.013
 5708.00    1.26515   1.34558    0.013
 5709.00    1.32064   1.34606    0.013
 5710.00    1.37962   1.34923    0.013
 5711.00    1.34160   1.35353    0.014
 5712.00    1.29964   1.35829    0.014
 5713.00    1.31391   1.36533    0.013
 5714.00    1.32773   1.37293    0.013
 5715.00    1.30448   1.38075    0.014
 5716.00    1.28534   1.38895    0.014
 5717.00    1.33674   1.39694    0.014
 5718.00    1.38364   1.40455    0.013
 5719.00    1.38304   1.41156    0.013
 5720.00    1.37675   1.41739    0.013
 5721.00    1.32780   1.42285    0.013
 5722.00    1.29435   1.42736    0.013
 5723.00    1.34932   1.43052    0.013
 5724.00    1.39020   1.43214    0.013
 5725.00    1.36712   1.43291    0.013
 5726.00    1.35898   1.43398    0.013
 5727.00    1.40647   1.43363    0.013
 5728.00    1.44191   1.43393    0.013
 5729.00    1.43982   1.43412    0.013
 5730.00    1.43655   1.43361    0.013
 5731.00    1.43015   1.43259    0.013
 5732.00    1.42555   1.43167    0.013
 5733.00    1.42504   1.43254    0.013
 5734.00    1.41747   1.43265    0.013
 5735.00    1.39605   1.43276    0.012
 5736.00    1.39491   1.43250    0.012
 5737.00    1.42853   1.43220    0.013
 5738.00    1.43965   1.43241    0.013
 5739.00    1.41700   1.43214    0.013
 5740.00    1.38173   1.43177    0.000
 5741.00    1.32983   1.43055    0.000
 5742.00    1.29199   1.42952    0.000
 5743.00    1.27049   1.42836    0.000
 5744.00    1.28584   1.42735    0.000
 5745.00    1.33893   1.42599    0.000
 5746.00    1.37203   1.42364    0.000
 5747.00    1.38708   1.42069    0.000
 5748.00    1.37130   1.41780    0.000
 5749.00    1.33100   1.41650    0.000
 5750.00    1.33665   1.41550    0.000
 5751.00    1.37449   1.41406    0.000
 5752.00    1.39637   1.41169    0.000
 5753.00    1.40844   1.40922    0.000
 5754.00    1.36493   1.40756    0.000
 5755.00    1.29160   1.40731    0.000
 5756.00    1.25231   1.40810    0.000
 5757.00    1.22888   1.40896    0.000
 5758.00    1.26849   1.40959    0.000
 5759.00    1.33341   1.40990    0.000
 5760.00    1.37626   1.41063    0.000
 5761.00    1.41156   1.41198    0.000
 5762.00    1.47761   1.41390    0.000
 5763.00    1.55252   1.41600    0.000
 5764.00    1.53863   1.41907    0.000
 5765.00    1.50358   1.42128    0.000
 5766.00    1.42220   1.42270    0.000
 5767.00    1.33194   1.42372    0.000
 5768.00    1.32194   1.42432    0.000
 5769.00    1.32389   1.42486    0.000
 5770.00    1.35828   1.42443    0.000
 5771.00    1.39619   1.42355    0.000
 5772.00    1.40157   1.42104    0.000
 5773.00    1.40461   1.41755    0.000
 5774.00    1.40501   1.41300    0.000
 5775.00    1.40533   1.40799    0.000
 5776.00    1.40762   1.40339    0.000
 5777.00    1.41014   1.39804    0.000
 5778.00    1.42001   1.39194    0.000
 5779.00    1.42844   1.38606    0.000
 5780.00    1.41371   1.38052    0.000
 5781.00    1.39319   1.37517    0.000
 5782.00    1.31413   1.37237    0.000
 5783.00    1.24374   1.37035    0.000
 5784.00    1.23614   1.36907    0.000
 5785.00    1.23254   1.36837    0.000
 5786.00    1.25107   1.36903    0.000
 5787.00    1.27976   1.37311    0.000
 5788.00    1.35357   1.37676    0.000
 5789.00    1.40788   1.38154    0.000
 5790.00    1.39114   1.38599    0.000
 5791.00    1.37491   1.38969   -2.000
 5792.00    1.36020   1.39600   -2.000
 5793.00    1.37064   1.40158   -2.000
 5794.00    1.44638   1.40729   -2.000
 5795.00    1.52140   1.41272   -2.000
 5796.00    1.59484   1.41620   -2.000
 5797.00    1.64507   1.41919   -2.000
 5798.00    1.65041   1.42158   -2.000
 5799.00    1.63562   1.42508   -2.000
 5800.00    1.58687   1.42856   -2.000
 5801.00    1.52141   1.43003   -2.000
 5802.00    1.43127   1.43099   -2.000
 5803.00    1.36249   1.43130   -2.000
 5804.00    1.32146   1.43099   -2.000
 5805.00    1.33555   1.43146   -2.000
 5806.00    1.41275   1.43198   -2.000
 5807.00    1.46291   1.43237   -2.000
 5808.00    1.48576   1.43235   -2.000
 5809.00    1.48388   1.43140   -2.000
 5810.00    1.45997   1.43145   -2.000
 5811.00    1.44216   1.43215    0.000
 5812.00    1.42913   1.43277    0.000
 5813.00    1.41099   1.43397    0.000
 5814.00    1.38931   1.43473    0.000
 5815.00    1.41566   1.43557    0.000
 5816.00    1.47107   1.43651    0.000
 5817.00    1.48850   1.43817    0.000
 5818.00    1.48588   1.44127    0.000
 5819.00    1.43252   1.44324    0.000
 5820.00    1.35590   1.44501    0.000
 5821.00    1.32060   1.44658    0.000
 5822.00    1.30160   1.44808    0.000
 5823.00    1.31559   1.45004    0.000
 5824.00    1.34067   1.45133    0.000
 5825.00    1.35866   1.45296    0.000
 5826.00    1.37464   1.45352    0.000
 5827.00    1.33069   1.45351    0.000
 5828.00    1.27278   1.45351    0.000
 5829.00    1.25464   1.45357    0.000
 5830.00    1.24393   1.45377    0.000
 5831.00    1.33580   1.45301    0.000
 5832.00    1.44248   1.45244    0.000
 5833.00    1.46619   1.45187    0.000
 5834.00    1.48122   1.45115    0.000
 5835.00    1.39139   1.45048    0.000
 5836.00    1.29445   1.45027    0.000
 5837.00    1.26621   1.45005    0.000
 5838.00    1.24024   1.44885    0.000
 5839.00    1.21051   1.44777    0.000
 5840.00    1.18319   1.44679    0.000
 5841.00    1.23212   1.44557    0.000
 5842.00    1.27944   1.44378    0.000
 5843.00    1.30243   1.44130    0.000
 5844.00    1.32975   1.43837    0.000
 5845.00    1.39916   1.43460    0.000
 5846.00    1.45802   1.43012    0.000
 5847.00    1.44287   1.42537    0.000
 5848.00    1.42624   1.42057    0.000
 5849.00    1.40163   1.41583    0.000
 5850.00    1.37413   1.41032    0.000
 5851.00    1.33411   1.40465    0.000
 5852.00    1.29335   1.39911    0.000
 5853.00    1.24994   1.39379    0.000
 5854.00    1.21836   1.39043    0.000
 5855.00    1.22227   1.38746    0.000
 5856.00    1.24294   1.38502    0.000
 5857.00    1.30641   1.38209    0.000
 5858.00    1.36904   1.38035    0.000
 5859.00    1.42984   1.38148    0.000
 5860.00    1.45711   1.38270    0.000
 5861.00    1.42054   1.38486    0.000
 5862.00    1.36563   1.38599    0.000
 5863.00    1.28023   1.38822    0.000
 5864.00    1.23000   1.39197    0.000
 5865.00    1.23100   1.39515    0.000
 5866.00    1.24353   1.39812    0.000
 5867.00    1.27081   1.40004    0.000
 5868.00    1.31357   1.40268    0.000
 5869.00    1.37381   1.40503    0.000
 5870.00    1.41773   1.40659    0.000
 5871.00    1.44542   1.40700    0.000
 5872.00    1.47748   1.40611    0.000
 5873.00    1.51340   1.40482    0.000
 5874.00    1.53786   1.40301    0.000
 5875.00    1.55346   1.40044    0.000
 5876.00    1.52988   1.39611    0.000
 5877.00    1.47964   1.39008    0.000
 5878.00    1.41731   1.38266    0.000
 5879.00    1.34778   1.37458    0.000
 5880.00    1.28698   1.36537    0.000
 5881.00    1.23072   1.35500    0.000
 5882.00    1.19385   1.34281    0.000
 5883.00    1.16571   1.32776    0.000
 5884.00    1.18702   1.31191    0.000
 5885.00    1.22750   1.29634    0.000
 5886.00    1.26013   1.28291    0.000
 5887.00    1.29017   1.26958    0.000
 5888.00    1.27632   1.25386    0.000
 5889.00    1.25033   1.23833    0.000
 5890.00    1.17740   1.22477    0.000
 5891.00    1.09379   1.21887    0.000
 5892.00    1.09705   1.21833    0.000
 5893.00    1.11611   1.21667    0.000
 5894.00    1.14730   1.21694    0.000
 5895.00    1.18018   1.21809    0.000
 5896.00    1.19609   1.22380    0.000
 5897.00    1.21030   1.23785    0.000
 5898.00    1.23580   1.25209    0.000
 5899.00    1.26203   1.26528    0.000
 5900.00    1.28083   1.27765    0.000
 5901.00    1.29940   1.28993    0.013
 5902.00    1.31442   1.30482    0.012
 5903.00    1.32918   1.31906    0.012
 5904.00    1.33663   1.33107    0.012
 5905.00    1.34666   1.34113    0.013
 5906.00    1.39345   1.34941    0.012
 5907.00    1.44237   1.35671    0.012
 5908.00    1.51105   1.36285    0.012
 5909.00    1.55948   1.36702    0.012
 5910.00    1.47031   1.37033    0.012
 5911.00    1.38442   1.37283    0.012
 5912.00    1.31580   1.37476    0.012
 5913.00    1.26846   1.37615    0.012
 5914.00    1.31123   1.37594    0.012
 5915.00    1.35147   1.37701    0.012
 5916.00    1.38289   1.37806    0.012
 5917.00    1.39391   1.37904    0.013
 5918.00    1.34491   1.38032    0.013
 5919.00    1.30436   1.38061    0.013
 5920.00    1.28499   1.38207    0.013
 5921.00    1.26740   1.38337    0.013
 5922.00    1.25362   1.38388    0.013
 5923.00    1.25491   1.38474    0.012
 5924.00    1.28444   1.38544    0.013
 5925.00    1.29403   1.38581    0.013
 5926.00    1.27096   1.38672    0.013
 5927.00    1.26184   1.38667    0.013
 5928.00    1.27272   1.38611    0.013
 5929.00    1.30725   1.38591    0.012
 5930.00    1.37164   1.38490    0.012
 5931.00    1.40372   1.38595    0.012
 5932.00    1.39986   1.38680    0.012
 5933.00    1.37754   1.38632    0.012
 5934.00    1.33710   1.38598    0.012
 5935.00    1.34211   1.38514    0.012
 5936.00    1.38645   1.38623    0.012
 5937.00    1.44422   1.38744    0.012
 5938.00    1.51221   1.38746    0.012
 5939.00    1.50322   1.38764    0.012
 5940.00    1.44264   1.38727    0.012
 5941.00    1.37013   1.38688    0.012
 5942.00    1.29062   1.38693    0.012
 5943.00    1.24979   1.38658    0.012
 5944.00    1.22877   1.38624    0.012
 5945.00    1.23909   1.38596    0.012
 5946.00    1.26330   1.38498    0.012
 5947.00    1.29852   1.38391    0.012
 5948.00    1.33792   1.38255    0.012
 5949.00    1.32120   1.38174    0.012
 5950.00    1.28631   1.38224    0.012
 5951.00    1.31485   1.38238    0.012
 5952.00    1.36058   1.38160    0.012
 5953.00    1.39459   1.38073    0.012
 5954.00    1.42600   1.38172    0.013
 5955.00    1.38164   1.38405    0.013
 5956.00    1.32386   1.38545    0.013
 5957.00    1.32438   1.38647    0.013
 5958.00    1.33277   1.38775    0.012
 5959.00    1.32802   1.39052    0.012
 5960.00    1.32200   1.39376    0.012
 5961.00    1.30280   1.39570    0.012
 5962.00    1.28280   1.39804    0.012
 5963.00    1.29909   1.39994    0.012
 5964.00    1.31630   1.40211    0.012
 5965.00    1.33303   1.40406    0.012
 5966.00    1.34972   1.40478    0.012
 5967.00    1.36545   1.40619    0.012
 5968.00    1.38016   1.40658    0.012
 5969.00    1.38122   1.40639    0.012
 5970.00    1.38436   1.40583    0.012
 5971.00    1.40603   1.40416    0.012
 5972.00    1.41547   1.40287    0.012
 5973.00    1.34442   1.40108    0.012
 5974.00    1.27028   1.39859    0.012
 5975.00    1.18036   1.39622    0.012
 5976.00    1.10708   1.39310    0.012
 5977.00    1.10264   1.39017    0.012
 5978.00    1.11888   1.38765    0.012
 5979.00    1.20593   1.38476    0.012
 5980.00    1.28505   1.38312    0.012
 5981.00    1.34127   1.38145    0.012
 5982.00    1.38345   1.37956    0.012
 5983.00    1.39104   1.37853    0.012
 5984.00    1.40745   1.37718    0.012
 5985.00    1.44260   1.37767    0.013
 5986.00    1.46685   1.37876    0.013
 5987.00    1.47095   1.37870    0.013
 5988.00    1.46735   1.37965    0.013
 5989.00    1.45132   1.38038    0.013
 5990.00    1.44742   1.38157    0.013
 5991.00    1.46068   1.38284    0.013
 5992.00    1.45566   1.38255    0.012
 5993.00    1.42789   1.38340    0.012
 5994.00    1.39925   1.38442    0.012
 5995.00    1.36964   1.38417    0.012
 5996.00    1.36369   1.38333    0.012
 5997.00    1.38063   1.38124    0.012
 5998.00    1.39581   1.37973    0.012
 5999.00    1.40948   1.37980    0.012
 6000.00    1.42380   1.37850    0.012
 6001.00    1.43861   1.37637    0.012
 6002.00    1.44645   1.37355    0.012
 6003.00    1.44968   1.37011    0.012
 6004.00    1.40873   1.36995    0.012
 6005.00    1.34223   1.36966    0.012
 6006.00    1.25396   1.36746    0.012
 6007.00    1.15472   1.36518    0.012
 6008.00    1.15418   1.36179    0.012
 6009.00    1.19667   1.36177    0.012
 6010.00    1.24264   1.36301    0.012
 6011.00    1.28990   1.36138    0.012
 6012.00    1.31672   1.35957    0.013
 6013.00    1.33705   1.35768    0.013
 6014.00    1.37332   1.35757    0.013
 6015.00    1.41382   1.35921    0.013
 6016.00    1.41874   1.35880    0.013
 6017.00    1.41594   1.35786    0.013
 6018.00    1.37751   1.35871    0.013
 6019.00    1.33294   1.35955    0.012
 6020.00    1.30585   1.36159    0.012
 6021.00    1.28104   1.36363    0.012
 6022.00    1.31654   1.36504    0.012
 6023.00    1.35758   1.36911    0.012
 6024.00    1.37385   1.37210    0.012
 6025.00    1.38874   1.37550    0.012
 6026.00    1.39449   1.37985    0.012
 6027.00    1.39975   1.38307    0.012
 6028.00    1.37739   1.38819    0.012
 6029.00    1.35673   1.39204    0.012
 6030.00    1.37576   1.39557    0.012
 6031.00    1.39358   1.39948    0.012
 6032.00    1.39592   1.40202    0.012
 6033.00    1.39662   1.40571    0.012
 6034.00    1.38313   1.40820    0.012
 6035.00    1.36499   1.40981    0.011
 6036.00    1.31715   1.41179    0.012
 6037.00    1.27572   1.41283    0.012
 6038.00    1.26632   1.41467    0.012
 6039.00    1.26694   1.41565    0.012
 6040.00    1.30811   1.41585    0.012
 6041.00    1.34131   1.41682    0.012
 6042.00    1.34775   1.41701    0.012
 6043.00    1.35466   1.41772    0.012
 6044.00    1.36287   1.41812    0.012
 6045.00    1.38364   1.41781    0.012
 6046.00    1.43484   1.41778    0.012
 6047.00    1.45082   1.41719    0.012
 6048.00    1.39314   1.41646    0.012
 6049.00    1.34568   1.41563    0.012
 6050.00    1.31680   1.41453    0.012
 6051.00    1.30255   1.41288    0.012
 6052.00    1.31156   1.41121    0.012
 6053.00    1.31950   1.40920    0.012
 6054.00    1.32595   1.40748    0.012
 6055.00    1.33263   1.40586    0.012
 6056.00    1.33958   1.40380    0.012
 6057.00    1.34428   1.40251    0.012
 6058.00    1.34655   1.40097    0.012
 6059.00    1.31822   1.40032    0.012
 6060.00    1.26071   1.39926    0.012
 6061.00    1.22367   1.39867    0.012
 6062.00    1.20386   1.39979    0.011
 6063.00    1.21851   1.40004    0.011
 6064.00    1.25871   1.40134    0.012
 6065.00    1.26493   1.40177    0.012
 6066.00    1.24904   1.40290    0.012
 6067.00    1.23690   1.40618    0.012
 6068.00    1.22691   1.40741    0.012
 6069.00    1.25840   1.40879    0.012
 6070.00    1.31047   1.40952    0.012
 6071.00    1.39503   1.40969    0.012
 6072.00    1.49353   1.41105    0.012
 6073.00    1.48262   1.41018    0.013
 6074.00    1.43151   1.40854    0.013
 6075.00    1.39358   1.40713    0.012
 6076.00    1.35976   1.40429    0.012
 6077.00    1.35574   1.40158    0.012
 6078.00    1.35946   1.39830    0.013
 6079.00    1.36315   1.39471    0.013
 6080.00    1.36684   1.39190    0.012
 6081.00    1.35593   1.38851    0.012
 6082.00    1.34259   1.38498    0.012
 6083.00    1.32001   1.38250    0.012
 6084.00    1.29627   1.38045    0.012
 6085.00    1.26796   1.37844    0.012
 6086.00    1.23925   1.37700    0.012
 6087.00    1.26504   1.37549    0.012
 6088.00    1.29366   1.37478    0.012
 6089.00    1.32640   1.37487    0.012
 6090.00    1.35841   1.37445    0.012
 6091.00    1.33153   1.37435    0.011
 6092.00    1.30506   1.37355    0.011
 6093.00    1.28730   1.37294    0.011
 6094.00    1.27080   1.37384    0.012
 6095.00    1.26968   1.37422    0.012
 6096.00    1.27682   1.37384    0.011
 6097.00    1.35245   1.37136    0.012
 6098.00    1.42521   1.36934    0.012
 6099.00    1.48021   1.37109    0.012
 6100.00    1.51890   1.37178    0.012
 6101.00    1.47816   1.37095    0.012
 6102.00    1.44130   1.36839    0.012
 6103.00    1.41988   1.36645    0.012
 6104.00    1.40588   1.37025    0.012
 6105.00    1.41633   1.37273    0.012
 6106.00    1.42055   1.37214    0.012
 6107.00    1.40743   1.37184    0.012
 6108.00    1.39556   1.37219    0.012
 6109.00    1.38664   1.37598    0.012
 6110.00    1.37366   1.37881    0.012
 6111.00    1.35234   1.37727    0.012
 6112.00    1.33818   1.37634    0.012
 6113.00    1.33683   1.37736    0.012
 6114.00    1.33801   1.37795    0.012
 6115.00    1.34313   1.37750    0.012
 6116.00    1.34530   1.37430    0.012
 6117.00    1.34343   1.37042    0.012
 6118.00    1.32798   1.37029    0.011
 6119.00    1.29610   1.36941    0.011
 6120.00    1.25668   1.36653    0.011
 6121.00    1.20924   1.36385    0.011
 6122.00    1.16842   1.35991    0.011
 6123.00    1.13383   1.35942    0.011
 6124.00    1.14986   1.36006    0.012
 6125.00    1.20788   1.35796    0.012
 6126.00    1.27390   1.35618    0.012
 6127.00    1.34577   1.35328    0.012
 6128.00    1.39204   1.35256    0.012
 6129.00    1.42189   1.35323    0.012
 6130.00    1.42575   1.35152    0.012
 6131.00    1.41503   1.34838    0.012
 6132.00    1.38947   1.34389    0.012
 6133.00    1.35667   1.34312    0.012
 6134.00    1.33688   1.34396    0.012
 6135.00    1.32256   1.34257    0.012
 6136.00    1.31115   1.33963    0.012
 6137.00    1.30079   1.33585    0.012
 6138.00    1.27682   1.33793    0.012
 6139.00    1.24870   1.34201    0.012
 6140.00    1.26390   1.34301    0.012
 6141.00    1.29011   1.34330    0.012
 6142.00    1.30197   1.34331    0.012
 6143.00    1.31087   1.34744    0.012
 6144.00    1.30593   1.35206    0.012
 6145.00    1.29874   1.35314    0.012
 6146.00    1.28537   1.35409    0.011
 6147.00    1.27124   1.35441    0.011
 6148.00    1.27760   1.35560    0.011
 6149.00    1.28568   1.35570    0.011
 6150.00    1.29665   1.35299    0.011
 6151.00    1.30777   1.35060    0.011
 6152.00    1.28713   1.34718    0.011
 6153.00    1.26625   1.34329    0.011
 6154.00    1.25818   1.33885    0.012
 6155.00    1.25141   1.33259    0.012
 6156.00    1.27008   1.32572    0.012
 6157.00    1.28407   1.31880    0.012
 6158.00    1.24409   1.31269    0.012
 6159.00    1.21056   1.30710    0.012
 6160.00    1.22871   1.30118    0.012
 6161.00    1.24807   1.29435    0.012
 6162.00    1.27470   1.28956    0.012
 6163.00    1.29243   1.28704    0.012
 6164.00    1.26784   1.28395    0.012
 6165.00    1.24909   1.28226    0.012
 6166.00    1.25294   1.28205    0.012
 6167.00    1.25520   1.28352    0.012
 6168.00    1.25229   1.28613    0.012
 6169.00    1.24468   1.28746    0.012
 6170.00    1.22428   1.29015    0.012
 6171.00    1.21607   1.29536    0.011
 6172.00    1.23644   1.30039    0.011
 6173.00    1.23892   1.30487    0.011
 6174.00    1.20516   1.30889    0.011
 6175.00    1.17284   1.31251    0.011
 6176.00    1.14305   1.31729    0.011
 6177.00    1.12340   1.32143    0.011
 6178.00    1.11942   1.32408    0.011
 6179.00    1.12099   1.32685    0.011
 6180.00    1.13009   1.32833    0.012
 6181.00    1.13768   1.32848    0.012
 6182.00    1.14346   1.32905    0.011
 6183.00    1.17314   1.32862    0.011
 6184.00    1.22794   1.32801    0.012
 6185.00    1.27148   1.32726    0.012
 6186.00    1.30459   1.32320    0.012
 6187.00    1.31134   1.32115    0.012
 6188.00    1.29655   1.32137    0.012
 6189.00    1.29888   1.31975    0.012
 6190.00    1.31353   1.31912    0.012
 6191.00    1.32189   1.31664    0.012
 6192.00    1.32628   1.31620    0.012
 6193.00    1.29532   1.31983    0.012
 6194.00    1.24485   1.31996    0.012
 6195.00    1.12576   1.32048    0.012
 6196.00    0.97372   1.32266   -2.000
 6197.00    0.99521   1.32508   -2.000
 6198.00    1.08862   1.32908   -2.000
 6199.00    1.28340   1.33014   -2.000
 6200.00    1.51409   1.33053   -2.000
 6201.00    1.51088   1.33357   -2.000
 6202.00    1.43766   1.33562   -2.000
 6203.00    1.33920   1.33625   -2.000
 6204.00    1.23445   1.33581   -2.000
 6205.00    1.20746   1.33415   -2.000
 6206.00    1.19613   1.33346   -2.000
 6207.00    1.18934   1.33241   -2.000
 6208.00    1.18327   1.32857    0.012
 6209.00    1.19341   1.32465    0.012
 6210.00    1.20545   1.32061    0.012
 6211.00    1.24079   1.31603    0.012
 6212.00    1.27798   1.31307    0.012
 6213.00    1.27394   1.30815    0.012
 6214.00    1.26808   1.30232    0.012
 6215.00    1.27030   1.29866    0.012
 6216.00    1.27269   1.29488    0.012
 6217.00    1.27920   1.29309    0.012
 6218.00    1.28434   1.29139    0.012
 6219.00    1.26459   1.28734    0.012
 6220.00    1.24880   1.28573    0.012
 6221.00    1.27672   1.28527    0.012
 6222.00    1.30313   1.28476    0.012
 6223.00    1.31793   1.28514    0.012
 6224.00    1.32134   1.28365    0.012
 6225.00    1.25818   1.28214    0.012
 6226.00    1.20265   1.28250    0.012
 6227.00    1.18252   1.28243    0.011
 6228.00    1.17410   1.28220    0.011
 6229.00    1.21007   1.28223    0.011
 6230.00    1.24459   1.28062    0.011
 6231.00    1.27451   1.28024    0.011
 6232.00    1.29355   1.28080    0.011
 6233.00    1.28334   1.27959    0.011
 6234.00    1.27573   1.27982    0.011
 6235.00    1.27409   1.27890    0.011
 6236.00    1.26876   1.27812    0.011
 6237.00    1.25607   1.27841    0.011
 6238.00    1.23769   1.27579    0.011
 6239.00    1.20944   1.27504    0.012
 6240.00    1.19175   1.27408    0.012
 6241.00    1.19010   1.27235    0.011
 6242.00    1.20629   1.27223    0.011
 6243.00    1.24631   1.26948    0.012
 6244.00    1.27256   1.26798    0.012
 6245.00    1.28263   1.26778    0.012
 6246.00    1.28774   1.26537    0.012
 6247.00    1.28768   1.26398    0.012
 6248.00    1.29352   1.26258    0.012
 6249.00    1.30474   1.26092    0.012
 6250.00    1.29222   1.26073    0.012
 6251.00    1.26056   1.25891    0.011
 6252.00    1.22297   1.25663    0.011
 6253.00    1.18118   1.25568    0.011
 6254.00    1.15846   1.25533    0.011
 6255.00    1.14761   1.25659    0.011
 6256.00    1.14463   1.25661    0.011
 6257.00    1.14595   1.25696    0.011
 6258.00    1.20405   1.25924    0.012
 6259.00    1.28900   1.26165    0.012
 6260.00    1.38804   1.26527    0.013
 6261.00    1.49283   1.26818    0.014
 6262.00    1.52475   1.27213    0.014
 6263.00    1.53132   1.27752    0.015
 6264.00    1.47548   1.28107    0.015
 6265.00    1.40133   1.28433    0.014
 6266.00    1.33786   1.28809    0.013
 6267.00    1.27699   1.29257    0.013
 6268.00    1.27751   1.29658    0.012
 6269.00    1.29009   1.29850    0.012
 6270.00    1.27447   1.30058    0.012
 6271.00    1.25454   1.30315    0.012
 6272.00    1.22694   1.30508    0.012
 6273.00    1.19848   1.30695    0.012
 6274.00    1.23529   1.30778    0.012
 6275.00    1.27700   1.30817    0.012
 6276.00    1.25738   1.30995    0.012
 6277.00    1.23529   1.31057    0.012
 6278.00    1.21205   1.31142    0.011
 6279.00    1.19111   1.31317    0.011
 6280.00    1.26319   1.31266    0.000
 6281.00    1.33166   1.31411    0.000
 6282.00    1.33859   1.31588    0.000
 6283.00    1.34169   1.31628    0.000
 6284.00    1.30462   1.31861    0.000
 6285.00    1.27361   1.31832    0.000
 6286.00    1.28784   1.31845    0.000
 6287.00    1.30307   1.32002    0.000
 6288.00    1.32406   1.31885    0.000
 6289.00    1.34141   1.31917    0.000
 6290.00    1.34225   1.31838    0.000
 6291.00    1.33613   1.31577    0.000
 6292.00    1.30415   1.31463    0.000
 6293.00    1.27649   1.31194    0.000
 6294.00    1.26223   1.31032    0.000
 6295.00    1.25349   1.30923    0.000
 6296.00    1.25930   1.30559    0.000
 6297.00    1.27560   1.30307    0.000
 6298.00    1.31568   1.30192    0.000
 6299.00    1.33669   1.30150    0.000
 6300.00    1.32027   1.30109    0.000
 6301.00    1.30321   1.29935    0.000
 6302.00    1.28504   1.29888    0.000
 6303.00    1.28391   1.30038    0.000
 6304.00    1.30829   1.30141    0.000
 6305.00    1.32993   1.30099    0.000
 6306.00    1.34796   1.30072    0.000
 6307.00    1.36766   1.30168    0.000
 6308.00    1.38930   1.30298    0.000
 6309.00    1.39742   1.30247    0.000
 6310.00    1.39172   1.30027    0.000
 6311.00    1.37085   1.30002    0.000
 6312.00    1.33628   1.30007    0.000
 6313.00    1.27339   1.29893    0.000
 6314.00    1.18801   1.29767    0.000
 6315.00    1.13586   1.29593    0.000
 6316.00    1.10692   1.29693    0.000
 6317.00    1.12108   1.29771    0.000
 6318.00    1.16167   1.29621    0.000
 6319.00    1.22147   1.29756    0.000
 6320.00    1.29156   1.30014    0.000
 6321.00    1.35923   1.30264    0.012
 6322.00    1.42577   1.30400    0.012
 6323.00    1.41625   1.30537    0.012
 6324.00    1.37627   1.30931    0.012
 6325.00    1.33411   1.31172    0.012
 6326.00    1.29120   1.31327    0.011
 6327.00    1.29344   1.31434    0.011
 6328.00    1.30865   1.31564    0.012
 6329.00    1.29983   1.31801    0.012
 6330.00    1.28531   1.31656    0.011
 6331.00    1.25960   1.31489    0.011
 6332.00    1.23175   1.31566    0.011
 6333.00    1.22422   1.31524    0.011
 6334.00    1.21970   1.31394    0.011
 6335.00    1.22327   1.31144    0.011
 6336.00    1.22772   1.30917    0.011
 6337.00    1.24839   1.30965    0.011
 6338.00    1.27021   1.30907    0.011
 6339.00    1.26614   1.30652    0.011
 6340.00    1.26113   1.30687    0.011
 6341.00    1.20488   1.30766    0.011
 6342.00    1.14962   1.30712    0.011
 6343.00    1.13620   1.30736    0.011
 6344.00    1.12880   1.30662    0.011
 6345.00    1.21771   1.30753    0.011
 6346.00    1.30487   1.30909    0.012
 6347.00    1.37447   1.30779    0.012
 6348.00    1.43114   1.30788    0.012
 6349.00    1.39440   1.30771    0.012
 6350.00    1.35682   1.30545    0.012
 6351.00    1.31454   1.30457    0.011
 6352.00    1.27920   1.30275    0.011
 6353.00    1.27458   1.29982    0.011
 6354.00    1.26793   1.29703    0.011
 6355.00    1.25392   1.29341    0.011
 6356.00    1.24102   1.29112    0.011
 6357.00    1.23149   1.28911    0.011
 6358.00    1.23262   1.28539    0.011
 6359.00    1.26136   1.28328    0.011
 6360.00    1.27132   1.28338    0.011
 6361.00    1.23944   1.28298    0.011
 6362.00    1.19591   1.28277    0.011
 6363.00    1.12985   1.28423    0.011
 6364.00    1.07958   1.28706    0.011
 6365.00    1.05588   1.29063    0.011
 6366.00    1.04364   1.29380    0.011
 6367.00    1.04832   1.29748    0.011
 6368.00    1.06681   1.30288    0.011
 6369.00    1.10322   1.30763    0.012
 6370.00    1.14880   1.31097    0.012
 6371.00    1.20484   1.31492    0.012
 6372.00    1.24991   1.31935    0.012
 6373.00    1.28394   1.32275    0.012
 6374.00    1.27863   1.32529    0.012
 6375.00    1.23837   1.32713    0.012
 6376.00    1.18937   1.32879    0.012
 6377.00    1.13353   1.33074    0.011
 6378.00    1.09420   1.33102    0.011
 6379.00    1.06625   1.33075    0.011
 6380.00    1.08055   1.33125    0.011
 6381.00    1.12036   1.33093    0.011
 6382.00    1.16152   1.33095    0.011
 6383.00    1.20338   1.33064    0.011
 6384.00    1.23851   1.32907    0.011
 6385.00    1.27057   1.32807    0.011
 6386.00    1.27373   1.32740    0.011
 6387.00    1.26552   1.32618    0.011
 6388.00    1.26096   1.32435    0.011
 6389.00    1.25763   1.32279    0.011
 6390.00    1.25899   1.32203    0.011
 6391.00    1.26168   1.32081    0.011
 6392.00    1.23980   1.31847    0.011
 6393.00    1.21222   1.31647    0.011
 6394.00    1.23507   1.31535    0.012
 6395.00    1.26732   1.31448    0.012
 6396.00    1.29119   1.31432    0.012
 6397.00    1.31385   1.31370    0.012
 6398.00    1.29843   1.31374    0.012
 6399.00    1.27905   1.31361    0.012
 6400.00    1.32053   1.31099    0.012
 6401.00    1.36610   1.31246    0.012
 6402.00    1.36516   1.31451    0.012
 6403.00    1.36269   1.31276    0.011
 6404.00    1.30955   1.31400    0.011
 6405.00    1.25772   1.31462    0.011
 6406.00    1.24698   1.31397    0.011
 6407.00    1.23696   1.31424    0.011
 6408.00    1.23754   1.31194    0.011
 6409.00    1.23808   1.31290    0.011
 6410.00    1.23813   1.31518    0.011
 6411.00    1.23568   1.31259    0.011
 6412.00    1.21582   1.31182    0.011
 6413.00    1.19739   1.31300    0.011
 6414.00    1.18670   1.31250    0.011
 6415.00    1.18110   1.31268    0.011
 6416.00    1.19750   1.31262    0.011
 6417.00    1.20388   1.31288    0.011
 6418.00    1.17460   1.31490    0.011
 6419.00    1.15280   1.31526    0.011
 6420.00    1.15339   1.31494    0.012
 6421.00    1.17347   1.31627    0.012
 6422.00    1.24318   1.31744    0.012
 6423.00    1.29251   1.31906    0.012
 6424.00    1.29724   1.32042    0.012
 6425.00    1.28445   1.32009    0.012
 6426.00    1.23839   1.32088    0.012
 6427.00    1.20763   1.32235    0.012
 6428.00    1.20223   1.32247    0.011
 6429.00    1.21273   1.32311    0.011
 6430.00    1.24636   1.32257    0.012
 6431.00    1.26158   1.32176    0.012
 6432.00    1.25327   1.32397    0.011
 6433.00    1.25217   1.32411    0.011
 6434.00    1.25919   1.32327    0.011
 6435.00    1.24666   1.32494    0.011
 6436.00    1.21470   1.32535    0.011
 6437.00    1.20073   1.32659    0.011
 6438.00    1.20254   1.32682    0.011
 6439.00    1.22017   1.32493    0.011
 6440.00    1.25002   1.32755    0.011
 6441.00    1.26851   1.32871    0.011
 6442.00    1.27929   1.32674    0.011
 6443.00    1.29712   1.32766    0.012
 6444.00    1.31915   1.32655    0.012
 6445.00    1.33173   1.32527    0.012
 6446.00    1.33940   1.32499    0.011
 6447.00    1.33102   1.32205    0.012
 6448.00    1.31541   1.32160    0.012
 6449.00    1.29059   1.32017    0.012
 6450.00    1.26220   1.31652    0.012
 6451.00    1.23977   1.31714    0.011
 6452.00    1.21929   1.31692    0.011
 6453.00    1.21249   1.31581    0.011
 6454.00    1.20945   1.31592    0.011
 6455.00    1.17614   1.31492    0.011
 6456.00    1.13596   1.31564    0.011
 6457.00    1.13049   1.31598    0.011
 6458.00    1.13132   1.31558    0.011
 6459.00    1.17240   1.31735    0.011
 6460.00    1.21909   1.31885    0.011
 6461.00    1.25927   1.31998    0.011
 6462.00    1.29879   1.31957    0.011
 6463.00    1.27759   1.31876    0.011
 6464.00    1.25255   1.32098    0.011
 6465.00    1.25403   1.32240    0.011
 6466.00    1.25637   1.32213    0.011
 6467.00    1.28414   1.32299    0.011
 6468.00    1.31052   1.32401    0.012
 6469.00    1.29804   1.32430    0.011
 6470.00    1.28597   1.32393    0.011
 6471.00    1.27960   1.32297    0.011
 6472.00    1.27272   1.32351    0.011
 6473.00    1.26110   1.32446    0.011
 6474.00    1.25099   1.32299    0.011
 6475.00    1.25106   1.32139    0.011
 6476.00    1.25359   1.32105    0.011
 6477.00    1.26901   1.31999    0.011
 6478.00    1.28032   1.31780    0.011
 6479.00    1.27425   1.31553    0.011
 6480.00    1.27696   1.31398    0.011
 6481.00    1.31024   1.31157    0.011
 6482.00    1.34960   1.30747    0.011
 6483.00    1.40678   1.30368    0.011
 6484.00    1.44978   1.30083    0.011
 6485.00    1.45727   1.29678    0.011
 6486.00    1.44968   1.29061    0.011
 6487.00    1.40961   1.28544    0.011
 6488.00    1.37617   1.28069    0.011
 6489.00    1.35513   1.27436    0.011
 6490.00    1.33466   1.26838    0.011
 6491.00    1.31509   1.26198    0.012
 6492.00    1.28823   1.25771    0.012
 6493.00    1.25093   1.25448    0.011
 6494.00    1.20607   1.24828    0.011
 6495.00    1.15168   1.24607    0.011
 6496.00    1.12155   1.24618    0.011
 6497.00    1.11835   1.24533    0.011
 6498.00    1.13880   1.24804    0.011
 6499.00    1.18241   1.24997    0.011
 6500.00    1.22208   1.25341    0.011
 6501.00    1.25833   1.25979    0.011
 6502.00    1.29627   1.26362    0.011
 6503.00    1.33548   1.26911    0.011
 6504.00    1.33944   1.27553    0.011
 6505.00    1.31982   1.28048    0.011
 6506.00    1.30722   1.28657    0.011
 6507.00    1.29874   1.29074    0.011
 6508.00    1.30456   1.29383    0.011
 6509.00    1.31769   1.29791    0.011
 6510.00    1.33492   1.30021    0.011
 6511.00    1.35397   1.30189    0.011
 6512.00    1.33441   1.30361    0.011
 6513.00    1.30019   1.30431    0.011
 6514.00    1.29834   1.30532    0.012
 6515.00    1.30694   1.30526    0.012
 6516.00    1.27922   1.30464    0.012
 6517.00    1.24170   1.30572    0.012
 6518.00    1.22365   1.30521    0.011
 6519.00    1.20993   1.30434    0.011
 6520.00    1.21732   1.30573    0.011
 6521.00    1.22844   1.30590    0.011
 6522.00    1.22763   1.30588    0.011
 6523.00    1.22522   1.30622    0.011
 6524.00    1.21922   1.30596    0.011
 6525.00    1.21287   1.30699    0.011
 6526.00    1.22877   1.30686    0.011
 6527.00    1.24599   1.30610    0.011
 6528.00    1.23771   1.30740    0.000
 6529.00    1.22884   1.30756    0.000
 6530.00    1.22784   1.30713    0.000
 6531.00    1.22725   1.30757    0.000
 6532.00    1.23707   1.30725    0.000
 6533.00    1.24670   1.30698    0.000
 6534.00    1.25365   1.30660    0.000
 6535.00    1.25810   1.30575    0.000
 6536.00    1.24028   1.30560    0.000
 6537.00    1.22686   1.30428    0.000
 6538.00    1.24231   1.30171    0.000
 6539.00    1.26112   1.30057    0.000
 6540.00    1.29710   1.29868    0.000
 6541.00    1.33408   1.29522    0.000
 6542.00    1.37519   1.29207    0.000
 6543.00    1.41132   1.28778    0.000
 6544.00    1.43045   1.28375    0.000
 6545.00    1.45106   1.27938    0.000
 6546.00    1.47595   1.27202    0.000
 6547.00    1.48472   1.26602    0.000
 6548.00    1.45385   1.26054    0.000
 6549.00    1.41008   1.25257    0.000
 6550.00    1.33893   1.24474    0.000
 6551.00    1.29324   1.23533    0.000
 6552.00    1.29446   1.22584    0.000
 6553.00    1.30307   1.21762    0.000
 6554.00    1.32358   1.20432    0.000
 6555.00    1.32594   1.19137    0.000
 6556.00    1.30267   1.18417    0.000
 6557.00    1.30573   1.17432    0.000
 6558.00    1.34152   1.16380    0.000
 6559.00    1.38991   1.15589    0.000
 6560.00    1.45211   1.14847    0.000
 6561.00    1.50616   1.14495    0.000
 6562.00    1.55232   1.13917    0.000
 6563.00    1.51740   1.13373    0.000
 6564.00    1.41340   1.13948    0.000
 6565.00    1.33198   1.14412    0.000
 6566.00    1.26749   1.14540    0.000
 6567.00    1.23945   1.15365    0.000
 6568.00    1.23543   1.16276    0.000
 6569.00    1.22727   1.17023    0.000
 6570.00    1.21672   1.17916    0.000
 6571.00    1.21629   1.18835    0.000
 6572.00    1.22095   1.19834    0.000
 6573.00    1.26021   1.20796    0.000
 6574.00    1.31452   1.21604    0.000
 6575.00    1.33398   1.22415    0.000
 6576.00    1.34041   1.23287    0.000
 6577.00    1.34516   1.23967    0.000
 6578.00    1.34937   1.24462    0.000
 6579.00    1.39163   1.25078    0.000
 6580.00    1.44395   1.25554    0.000
 6581.00    1.47219   1.25799    0.000
 6582.00    1.49521   1.26178    0.000
 6583.00    1.46149   1.26469    0.000
 6584.00    1.41803   1.26583    0.000
 6585.00    1.33551   1.26708    0.000
 6586.00    1.24790   1.26746    0.000
 6587.00    1.21193   1.26814    0.000
 6588.00    1.18067   1.26880    0.000
 6589.00    1.19827   1.26774    0.000
 6590.00    1.21856   1.26705    0.000
 6591.00    1.18053   1.26742    0.000
 6592.00    1.14162   1.26672    0.000
 6593.00    1.13734   1.26495    0.000
 6594.00    1.13433   1.26524    0.000
 6595.00    1.16017   1.26652    0.000
 6596.00    1.18827   1.26610    0.000
 6597.00    1.24513   1.26632    0.000
 6598.00    1.29599   1.26703    0.000
 6599.00    1.29545   1.26761    0.000
 6600.00    1.28968   1.26894    0.000
 6601.00    1.25059   1.26904    0.000
 6602.00    1.22413   1.26957    0.000
 6603.00    1.26056   1.27144    0.000
 6604.00    1.29527   1.27174    0.000
 6605.00    1.32307   1.27190    0.000
 6606.00    1.34928   1.27292    0.000
 6607.00    1.37017   1.27417    0.000
 6608.00    1.37794   1.27525    0.000
 6609.00    1.34863   1.27535    0.012
 6610.00    1.32030   1.27673    0.012
 6611.00    1.29436   1.27915    0.011
 6612.00    1.26447   1.28033    0.011
 6613.00    1.22634   1.28112    0.011
 6614.00    1.19276   1.28233    0.011
 6615.00    1.16741   1.28439    0.011
 6616.00    1.15773   1.28518    0.011
 6617.00    1.17290   1.28475    0.011
 6618.00    1.17622   1.28592    0.011
 6619.00    1.16304   1.28623    0.011
 6620.00    1.13558   1.28533    0.010
 6621.00    1.09062   1.28476    0.011
 6622.00    1.07622   1.28333    0.011
 6623.00    1.09483   1.28226    0.011
 6624.00    1.13109   1.28033    0.011
 6625.00    1.18418   1.27720    0.011
 6626.00    1.20654   1.27614    0.011
 6627.00    1.20308   1.27444    0.011
 6628.00    1.19136   1.27145    0.011
 6629.00    1.17354   1.27006    0.011
 6630.00    1.19589   1.26847    0.011
 6631.00    1.24433   1.26648    0.011
 6632.00    1.26943   1.26528    0.011
 6633.00    1.28125   1.26396    0.011
 6634.00    1.30586   1.26298    0.011
 6635.00    1.33680   1.26277    0.011
 6636.00    1.35902   1.26243    0.011
 6637.00    1.37751   1.26243    0.011
 6638.00    1.36570   1.26320    0.011
 6639.00    1.34278   1.26331    0.011
 6640.00    1.28372   1.26292    0.011
 6641.00    1.21343   1.26428    0.011
 6642.00    1.16930   1.26543    0.011
 6643.00    1.13194   1.26458    0.011
 6644.00    1.15955   1.26518    0.011
 6645.00    1.20087   1.26679    0.011
 6646.00    1.25032   1.26696    0.011
 6647.00    1.30112   1.26711    0.011
 6648.00    1.30171   1.26749    0.011
 6649.00    1.29599   1.26794    0.011
 6650.00    1.30650   1.26821    0.012
 6651.00    1.31842   1.26737    0.012
 6652.00    1.27410   1.26694    0.012
 6653.00    1.22690   1.26701    0.011
 6654.00    1.17248   1.26582    0.011
 6655.00    1.11898   1.26445    0.011
 6656.00    1.14055   1.26367    0.011
 6657.00    1.16119   1.26232    0.011
 6658.00    1.16225   1.26092    0.011
 6659.00    1.16320   1.25971    0.011
 6660.00    1.16292   1.25776    0.011
 6661.00    1.16095   1.25667    0.011
 6662.00    1.14495   1.25623    0.011
 6663.00    1.13235   1.25394    0.011
 6664.00    1.14063   1.25312    0.011
 6665.00    1.15220   1.25398    0.011
 6666.00    1.17969   1.25264    0.011
 6667.00    1.20003   1.25192    0.011
 6668.00    1.19214   1.25279    0.011
 6669.00    1.19559   1.25251    0.011
 6670.00    1.23627   1.25230    0.011
 6671.00    1.26766   1.25264    0.011
 6672.00    1.27328   1.25244    0.011
 6673.00    1.26697   1.25269    0.012
 6674.00    1.23232   1.25246    0.011
 6675.00    1.19278   1.25175    0.011
 6676.00    1.14321   1.25275    0.011
 6677.00    1.11676   1.25258    0.011
 6678.00    1.13162   1.25081    0.011
 6679.00    1.15477   1.25222    0.011
 6680.00    1.19086   1.25367    0.011
 6681.00    1.21153   1.25269    0.011
 6682.00    1.21104   1.25366    0.011
 6683.00    1.19695   1.25525    0.011
 6684.00    1.16642   1.25547    0.011
 6685.00    1.14927   1.25598    0.011
 6686.00    1.14636   1.25692    0.011
 6687.00    1.14941   1.25750    0.011
 6688.00    1.15805   1.25749    0.011
 6689.00    1.16338   1.25760    0.011
 6690.00    1.16597   1.25764    0.011
 6691.00    1.15620   1.25758    0.011
 6692.00    1.13742   1.25722    0.011
 6693.00    1.15210   1.25597    0.011
 6694.00    1.18819   1.25569    0.011
 6695.00    1.23030   1.25521    0.011
 6696.00    1.27579   1.25301    0.000
 6697.00    1.29432   1.25267    0.000
 6698.00    1.29973   1.25239    0.000
 6699.00    1.27884   1.25034    0.000
 6700.00    1.24688   1.25016    0.000
 6701.00    1.21965   1.24960    0.000
 6702.00    1.19412   1.24795    0.000
 6703.00    1.17692   1.24750    0.000
 6704.00    1.16225   1.24602    0.000
 6705.00    1.17847   1.24461    0.000
 6706.00    1.20252   1.24401    0.000
 6707.00    1.21798   1.24180    0.000
 6708.00    1.23167   1.24042    0.000
 6709.00    1.24004   1.23958    0.000
 6710.00    1.24754   1.23693    0.000
 6711.00    1.28688   1.23546    0.000
 6712.00    1.33006   1.23459    0.000
 6713.00    1.33711   1.23245    0.000
 6714.00    1.34117   1.23105    0.000
 6715.00    1.33779   1.23020    0.000
 6716.00    1.33406   1.22961    0.000
 6717.00    1.30236   1.22897    0.000
 6718.00    1.27047   1.22851    0.000
 6719.00    1.24999   1.22977    0.000
 6720.00    1.22915   1.23069    0.000
 6721.00    1.20153   1.23091    0.000
 6722.00    1.17874   1.23234    0.000
 6723.00    1.21122   1.23403    0.000
 6724.00    1.24566   1.23552    0.000
 6725.00    1.29564   1.23676    0.000
 6726.00    1.33564   1.23771    0.000
 6727.00    1.31569   1.23935    0.000
 6728.00    1.29519   1.24049    0.000
 6729.00    1.27206   1.24073    0.000
 6730.00    1.25061   1.24177    0.000
 6731.00    1.23569   1.24227    0.000
 6732.00    1.22098   1.24174    0.000
 6733.00    1.20692   1.24165    0.000
 6734.00    1.19786   1.24122    0.000
 6735.00    1.20243   1.24027    0.000
 6736.00    1.20043   1.23955    0.000
 6737.00    1.18306   1.23837    0.000
 6738.00    1.16887   1.23696    0.000
 6739.00    1.16111   1.23560    0.000
 6740.00    1.15699   1.23442    0.000
 6741.00    1.15927   1.23354    0.000
 6742.00    1.16649   1.23190    0.000
 6743.00    1.18131   1.23062    0.000
 6744.00    1.18427   1.23026    0.000
 6745.00    1.17121   1.22947    0.000
 6746.00    1.16531   1.22881    0.000
 6747.00    1.16795   1.22849    0.000
 6748.00    1.17947   1.22885    0.000
 6749.00    1.20033   1.22937    0.000
 6750.00    1.22289   1.22900    0.000
 6751.00    1.24702   1.23059    0.000
 6752.00    1.26406   1.23235    0.000
 6753.00    1.27532   1.23210    0.012
 6754.00    1.26757   1.23438    0.012
 6755.00    1.24616   1.23662    0.012
 6756.00    1.23116   1.23674    0.013
 6757.00    1.22021   1.23886    0.013
 6758.00    1.17622   1.24063    0.012
 6759.00    1.11400   1.24094    0.012
 6760.00    1.12801   1.24238    0.013
 6761.00    1.17854   1.24311    0.013
 6762.00    1.26677   1.24306    0.013
 6763.00    1.37060   1.24392    0.014
 6764.00    1.44627   1.24388    0.014
 6765.00    1.51197   1.24361    0.013
 6766.00    1.55231   1.24413    0.013
 6767.00    1.58507   1.24362    0.013
 6768.00    1.56941   1.24334    0.013
 6769.00    1.54175   1.24425    0.013
 6770.00    1.48278   1.24421    0.012
 6771.00    1.41753   1.24389    0.012
 6772.00    1.36229   1.24456    0.012
 6773.00    1.30862   1.24511    0.011
 6774.00    1.28404   1.24520    0.011
 6775.00    1.26286   1.24525    0.011
 6776.00    1.27821   1.24564    0.012
 6777.00    1.29645   1.24554    0.012
 6778.00    1.33027   1.24477    0.012
 6779.00    1.36478   1.24466    0.013
 6780.00    1.35492   1.24403    0.013
 6781.00    1.34349   1.24267    0.013
 6782.00    1.28088   1.24202    0.013
 6783.00    1.22134   1.24083    0.012
 6784.00    1.21740   1.23934    0.012
 6785.00    1.21403   1.23891    0.012
 6786.00    1.21675   1.23790    0.012
 6787.00    1.21278   1.23669    0.012
 6788.00    1.15732   1.23698    0.011
 6789.00    1.11780   1.23655    0.011
 6790.00    1.17116   1.23552    0.012
 6791.00    1.22075   1.23633    0.012
 6792.00    1.25290   1.23661    0.012
 6793.00    1.27893   1.23570    0.012
 6794.00    1.28183   1.23670    0.012
 6795.00    1.28108   1.23739    0.012
 6796.00    1.26881   1.23681    0.012
 6797.00    1.26205   1.23797    0.012
 6798.00    1.27008   1.23841    0.012
 6799.00    1.26200   1.23829    0.012
 6800.00    1.21692   1.23938    0.012
 6801.00    1.18217   1.23916    0.012
 6802.00    1.16798   1.23969    0.012
 6803.00    1.14272   1.24041    0.012
 6804.00    1.09830   1.23922    0.012
 6805.00    1.08186   1.24035    0.012
 6806.00    1.10784   1.24085    0.012
 6807.00    1.13375   1.23919    0.012
 6808.00    1.15955   1.24057    0.011
 6809.00    1.17918   1.24085    0.011
 6810.00    1.19157   1.23955    0.011
 6811.00    1.19271   1.24081    0.012
 6812.00    1.18221   1.24094    0.012
 6813.00    1.19519   1.24073    0.012
 6814.00    1.22962   1.24161    0.012
 6815.00    1.23618   1.24134    0.012
 6816.00    1.22032   1.24221    0.012
 6817.00    1.20490   1.24313    0.012
 6818.00    1.18980   1.24283    0.012
 6819.00    1.24866   1.24381    0.012
 6820.00    1.35346   1.24435    0.012
 6821.00    1.39835   1.24432    0.012
 6822.00    1.41074   1.24505    0.012
 6823.00    1.38969   1.24523    0.012
 6824.00    1.35288   1.24517    0.012
 6825.00    1.26858   1.24505    0.012
 6826.00    1.16498   1.24487    0.012
 6827.00    1.16030   1.24456    0.012
 6828.00    1.18998   1.24338    0.012
 6829.00    1.20134   1.24255    0.012
 6830.00    1.20735   1.24190    0.012
 6831.00    1.20349   1.24050    0.012
 6832.00    1.19724   1.23909    0.012
 6833.00    1.19128   1.23750    0.012
 6834.00    1.18538   1.23601    0.011
 6835.00    1.16537   1.23457    0.011
 6836.00    1.14321   1.23254    0.011
 6837.00    1.20682   1.23101    0.012
 6838.00    1.28005   1.22970    0.012
 6839.00    1.29337   1.22807    0.012
 6840.00    1.30221   1.22698    0.013
 6841.00    1.24433   1.22590    0.012
 6842.00    1.18380   1.22519    0.012
 6843.00    1.19303   1.22487    0.012
 6844.00    1.20439   1.22443    0.012
 6845.00    1.28105   1.22480    0.012
 6846.00    1.34865   1.22469    0.012
 6847.00    1.26296   1.22437    0.012
 6848.00    1.18652   1.22502    0.012
 6849.00    1.20684   1.22461    0.012
 6850.00    1.22505   1.22429    0.012
 6851.00    1.22752   1.22455    0.011
 6852.00    1.23125   1.22334    0.011
 6853.00    1.24213   1.22318    0.011
 6854.00    1.24866   1.22301    0.011
 6855.00    1.23557   1.22084    0.011
 6856.00    1.21592   1.22083    0.011
 6857.00    1.17196   1.22097    0.011
 6858.00    1.14446   1.21867    0.011
 6859.00    1.16794   1.21866    0.011
 6860.00    1.19505   1.21927    0.011
 6861.00    1.23170   1.21749    0.012
 6862.00    1.25735   1.21722    0.012
 6863.00    1.25815   1.21826    0.012
 6864.00    1.25444   1.21767    0.012
 6865.00    1.24192   1.21721    0.012
 6866.00    1.23398   1.21808    0.012
 6867.00    1.23386   1.21829    0.012
 6868.00    1.25072   1.21783    0.012
 6869.00    1.29297   1.21840    0.012
 6870.00    1.28847   1.21932    0.012
 6871.00    1.22253   1.21942    0.012
 6872.00    1.18100   1.21947    0.011
 6873.00    1.16770   1.22048    0.011
 6874.00    1.17866   1.22151    0.011
 6875.00    1.21438   1.22161    0.011
 6876.00    1.22951   1.22226    0.011
 6877.00    1.22613   1.22373    0.011
 6878.00    1.21681   1.22458    0.011
 6879.00    1.20278   1.22516    0.011
 6880.00    1.22150   1.22644    0.011
 6881.00    1.26306   1.22803    0.011
 6882.00    1.26940   1.22890    0.012
 6883.00    1.25419   1.22970    0.012
 6884.00    1.23349   1.23200    0.012
 6885.00    1.20985   1.23368    0.012
 6886.00    1.19782   1.23398    0.012
 6887.00    1.19118   1.23630    0.011
 6888.00    1.19955   1.23867    0.012
 6889.00    1.21392   1.23886    0.012
 6890.00    1.19317   1.24056    0.011
 6891.00    1.16044   1.24291    0.011
 6892.00    1.18389   1.24318    0.011
 6893.00    1.22343   1.24418    0.011
 6894.00    1.24269   1.24600    0.011
 6895.00    1.25715   1.24634    0.011
 6896.00    1.26749   1.24683    0.011
 6897.00    1.27704   1.24785    0.011
 6898.00    1.27380   1.24842    0.011
 6899.00    1.26867   1.24877    0.011
 6900.00    1.23026   1.24881    0.012
 6901.00    1.18826   1.24939    0.012
 6902.00    1.17273   1.24981    0.012
 6903.00    1.15906   1.24926    0.012
 6904.00    1.21574   1.24951    0.012
 6905.00    1.27494   1.24942    0.012
 6906.00    1.25376   1.24871    0.012
 6907.00    1.23039   1.24880    0.012
 6908.00    1.14005   1.24780    0.011
 6909.00    1.05791   1.24698    0.011
 6910.00    1.10563   1.24707    0.011
 6911.00    1.15179   1.24524    0.011
 6912.00    1.18229   1.24448    0.011
 6913.00    1.20961   1.24458    0.011
 6914.00    1.21408   1.24230    0.011
 6915.00    1.21359   1.24178    0.011
 6916.00    1.18582   1.24206    0.011
 6917.00    1.16793   1.23993    0.011
 6918.00    1.19363   1.23960    0.011
 6919.00    1.21365   1.23995    0.011
 6920.00    1.21310   1.23851    0.012
 6921.00    1.20849   1.23823    0.012
 6922.00    1.19157   1.23836    0.012
 6923.00    1.17377   1.23765    0.012
 6924.00    1.15366   1.23741    0.012
 6925.00    1.14929   1.23724    0.012
 6926.00    1.17991   1.23710    0.012
 6927.00    1.21039   1.23716    0.012
 6928.00    1.24062   1.23708    0.012
 6929.00    1.26082   1.23735    0.012
 6930.00    1.26419   1.23741    0.012
 6931.00    1.25994   1.23754    0.012
 6932.00    1.24450   1.23824    0.011
 6933.00    1.23812   1.23782    0.011
 6934.00    1.24346   1.23785    0.011
 6935.00    1.25299   1.23899    0.011
 6936.00    1.26730   1.23822    0.011
 6937.00    1.26678   1.23788    0.011
 6938.00    1.25133   1.23888    0.011
 6939.00    1.24549   1.23784    0.011
 6940.00    1.24817   1.23733    0.012
 6941.00    1.22143   1.23801    0.012
 6942.00    1.17169   1.23646    0.012
 6943.00    1.15094   1.23603    0.012
 6944.00    1.15012   1.23670    0.012
 6945.00    1.15288   1.23470    0.012
 6946.00    1.15782   1.23460    0.012
 6947.00    1.15596   1.23576    0.012
 6948.00    1.15054   1.23390    0.012
 6949.00    1.17821   1.23425    0.012
 6950.00    1.22100   1.23592    0.012
 6951.00    1.21947   1.23460    0.012
 6952.00    1.20054   1.23535    0.012
 6953.00    1.20584   1.23739    0.012
 6954.00    1.21924   1.23686    0.011
 6955.00    1.21385   1.23795    0.011
 6956.00    1.20319   1.24015    0.012
 6957.00    1.18506   1.24035    0.012
 6958.00    1.16520   1.24161    0.011
 6959.00    1.17697   1.24346    0.011
 6960.00    1.19462   1.24374    0.011
 6961.00    1.23378   1.24498    0.012
 6962.00    1.27603   1.24612    0.012
 6963.00    1.28631   1.24579    0.012
 6964.00    1.29328   1.24669    0.012
 6965.00    1.26876   1.24687    0.012
 6966.00    1.24214   1.24553    0.012
 6967.00    1.16257   1.24567    0.012
 6968.00    1.08132   1.24495    0.012
 6969.00    1.12953   1.24277    0.012
 6970.00    1.17724   1.24200    0.012
 6971.00    1.20996   1.24055    0.012
 6972.00    1.24053   1.23802    0.012
 6973.00    1.23901   1.23692    0.012
 6974.00    1.22825   1.23564    0.011
 6975.00    1.12869   1.23323    0.011
 6976.00    1.03601   1.23229    0.011
 6977.00    0.99124   1.23241    0.011
 6978.00    0.96844   1.23091    0.011
 6979.00    1.06352   1.23033    0.012
 6980.00    1.14472   1.23217    0.012
 6981.00    1.16608   1.23247    0.012
 6982.00    1.19324   1.23263    0.012
 6983.00    1.24100   1.23520    0.012
 6984.00    1.27359   1.23678    0.012
 6985.00    1.26094   1.23764    0.012
 6986.00    1.25400   1.23974    0.012
 6987.00    1.26154   1.24137    0.012
 6988.00    1.25464   1.24230    0.012
 6989.00    1.21616   1.24340    0.012
 6990.00    1.20075   1.24432    0.012
 6991.00    1.22911   1.24471    0.012
 6992.00    1.27244   1.24486    0.012
 6993.00    1.34053   1.24482    0.012
 6994.00    1.35874   1.24420    0.012
 6995.00    1.30455   1.24365    0.012
 6996.00    1.25006   1.24291    0.012
 6997.00    1.19520   1.24143    0.012
 6998.00    1.16007   1.24045    0.012
 6999.00    1.14715   1.23932    0.012
 7000.00    1.14041   1.23747    0.012
 7001.00    1.13981   1.23639    0.012
 7002.00    1.17405   1.23537    0.012
 7003.00    1.23877   1.23376    0.012
 7004.00    1.25344   1.23253    0.012
 7005.00    1.22955   1.23166    0.012
 7006.00    1.20950   1.23081    0.012
 7007.00    1.19206   1.22958    0.013
 7008.00    1.15326   1.22862    0.013
 7009.00    1.10178   1.22848    0.015
 7010.00    1.10650   1.22743    0.015
 7011.00    1.14033   1.22648    0.015
 7012.00    1.15411   1.22683    0.015
 7013.00    1.15891   1.22580    0.015
 7014.00    1.15660   1.22512    0.014
 7015.00    1.15155   1.22597    0.012
 7016.00    1.14457   1.22481    0.012
 7017.00    1.13695   1.22445    0.012
 7018.00    1.09530   1.22607    0.012
 7019.00    1.04428   1.22536    0.012
 7020.00    1.11754   1.22513    0.012
 7021.00    1.21890   1.22701    0.012
 7022.00    1.31038   1.22737    0.012
 7023.00    1.40008   1.22746    0.012
 7024.00    1.38776   1.22883    0.013
 7025.00    1.36132   1.22999    0.013
 7026.00    1.27829   1.23068    0.013
 7027.00    1.18963   1.23185    0.013
 7028.00    1.16889   1.23357    0.013
 7029.00    1.15241   1.23465    0.013
 7030.00    1.11146   1.23611    0.013
 7031.00    1.07005   1.23839    0.012
 7032.00    1.08983   1.23924    0.012
 7033.00    1.11095   1.24111    0.013
 7034.00    1.16905   1.24416    0.012
 7035.00    1.22372   1.24466    0.012
 7036.00    1.23010   1.24678    0.012
 7037.00    1.23424   1.25053    0.012
 7038.00    1.21773   1.25063    0.012
 7039.00    1.20230   1.25233    0.012
 7040.00    1.19422   1.25632    0.012
 7041.00    1.19471   1.25614    0.013
 7042.00    1.24004   1.25664    0.013
 7043.00    1.27583   1.25953    0.013
 7044.00    1.27139   1.25887    0.013
 7045.00    1.27877   1.25788    0.013
 7046.00    1.32723   1.25848    0.013
 7047.00    1.35280   1.25648    0.014
 7048.00    1.31140   1.25407    0.013
 7049.00    1.25867   1.25232    0.013
 7050.00    1.17765   1.24888   -2.000
 7051.00    1.13001   1.24542   -2.000
 7052.00    1.15418   1.24199   -2.000
 7053.00    1.17548   1.23747   -2.000
 7054.00    1.19143   1.23336   -2.000
 7055.00    1.19720   1.22951   -2.000
 7056.00    1.18637   1.22507   -2.000
 7057.00    1.21780   1.22089   -2.000
 7058.00    1.30966   1.21782   -2.000
 7059.00    1.39546   1.21451   -2.000
 7060.00    1.47363   1.21067   -2.000
 7061.00    1.45727   1.20893   -2.000
 7062.00    1.33607   1.20714   -2.000
 7063.00    1.27990   1.20394   -2.000
 7064.00    1.28736   1.20363   -2.000
 7065.00    1.30463   1.20341   -2.000
 7066.00    1.33039   1.20123   -2.000
 7067.00    1.28350   1.20202   -2.000
 7068.00    1.18142   1.20269   -2.000
 7069.00    1.18295   1.20137   -2.000
 7070.00    1.25366   1.20269   -2.000
 7071.00    1.32381   1.20362   -2.000
 7072.00    1.39363   1.20264   -2.000
 7073.00    1.41038   1.20355   -2.000
 7074.00    1.40007   1.20416   -2.000
 7075.00    1.40211   1.20279   -2.000
 7076.00    1.40962   1.20205   -2.000
 7077.00    1.40495   1.20153   -2.000
 7078.00    1.39567   1.19922   -2.000
 7079.00    1.29684   1.19656   -2.000
 7080.00    1.16917   1.19477   -2.000
 7081.00    1.17911   1.19122   -2.000
 7082.00    1.22613   1.18704   -2.000
 7083.00    1.28570   1.18460   -2.000
 7084.00    1.34805   1.18009   -2.000
 7085.00    1.30844   1.17529   -2.000
 7086.00    1.25092   1.17322   -2.000
 7087.00    1.21688   1.16869   -2.000
 7088.00    1.18598   1.16436   -2.000
 7089.00    1.24506   1.16341   -2.000
 7090.00    1.31268   1.16012   -2.000
 7091.00    1.29651   1.15722   -2.000
 7092.00    1.27542   1.15728   -2.000
 7093.00    1.21040   1.15563   -2.000
 7094.00    1.14546   1.15446   -2.000
 7095.00    1.23710   1.15531   -2.000
 7096.00    1.32282   1.15533   -2.000
 7097.00    1.26146   1.15538   -2.000
 7098.00    1.20512   1.15641   -2.000
 7099.00    1.21541   1.15761   -2.000
 7100.00    1.21727   1.15815   -2.000
 7101.00    1.14448   1.15893   -2.000
 7102.00    1.09816   1.16052   -2.000
 7103.00    1.22481   1.16102   -2.000
 7104.00    1.31301   1.16140   -2.000
 7105.00    1.20539   1.16259   -2.000
 7106.00    1.13024   1.16288   -2.000
 7107.00    1.18878   1.16288   -2.000
 7108.00    1.20887   1.16357   -2.000
 7109.00    1.09788   1.16379   -2.000
 7110.00    1.06912   1.16347   -2.000
 7111.00    1.27660   1.16351   -2.000
 7112.00    1.39307   1.16373   -2.000
 7113.00    1.28624   1.16342   -2.000
 7114.00    1.20114   1.16298   -2.000
 7115.00    1.16204   1.16297   -2.000
 7116.00    1.17051   1.16246   -2.000
 7117.00    1.26645   1.16186   -2.000
 7118.00    1.27765   1.16165   -2.000
 7119.00    1.15273   1.16051   -2.000
 7120.00    1.07719   1.15967   -2.000
 7121.00    1.07126   1.15935   -2.000
 7122.00    1.06623   1.15761   -2.000
 7123.00    1.06233   1.15671   -2.000
 7124.00    1.12533   1.15637   -2.000
 7125.00    1.26151   1.15449   -2.000
 7126.00    1.27187   1.15391   -2.000
 7127.00    1.16091   1.15357   -2.000
 7128.00    1.19331   1.15233   -2.000
 7129.00    1.34761   1.15255   -2.000
 7130.00    1.45019   1.15196   -2.000
 7131.00    1.51403   1.15174   -2.000
 7132.00    1.52617   1.15323   -2.000
 7133.00    1.50431   1.15242   -2.000
 7134.00    1.39102   1.15290   -2.000
 7135.00    1.22506   1.15535   -2.000
 7136.00    1.22294   1.15438   -2.000
 7137.00    1.30301   1.15537   -2.000
 7138.00    1.26985   1.15819   -2.000
 7139.00    1.18751   1.15664   -2.000
 7140.00    1.22474   1.15759   -2.000
 7141.00    1.30650   1.16061   -2.000
 7142.00    1.29878   1.15855   -2.000
 7143.00    1.26281   1.15911   -2.000
 7144.00    1.16312   1.16224   -2.000
 7145.00    1.04662   1.16018   -2.000
 7146.00    1.06562   1.16048   -2.000
 7147.00    1.11382   1.16353   -2.000
 7148.00    1.13489   1.16183   -2.000
 7149.00    1.15132   1.16207   -2.000
 7150.00    1.16746   1.16501   -2.000
 7151.00    1.18358   1.16396   -2.000
 7152.00    1.24582   1.16385   -2.000
 7153.00    1.31226   1.16647   -2.000
 7154.00    1.28570   1.16647   -2.000
 7155.00    1.25406   1.16581   -2.000
 7156.00    1.21796   1.16750   -2.000
 7157.00    1.18036   1.16836   -2.000
 7158.00    1.01443   1.16718   -2.000
 7159.00    0.86673   1.16782   -2.000
 7160.00    1.13261   1.16929   -2.000
 7161.00    1.38084   1.16817   -2.000
 7162.00    1.40671   1.16821   -2.000
 7163.00    1.43931   1.16987   -2.000
 7164.00    1.52936   1.16907   -2.000
 7165.00    1.55720   1.16916   -2.000
 7166.00    1.19072   1.17106   -2.000
 7167.00    0.90976   1.17051   -2.000
 7168.00    1.05345   1.17061   -2.000
 7169.00    1.19877   1.17244   -2.000
 7170.00    1.35068   1.17211   -2.000
 7171.00    1.47599   1.17226   -2.000
 7172.00    1.51247   1.17342   -2.000
 7173.00    1.49455   1.17255   -2.000
 7174.00    1.32317   1.17240   -2.000
 7175.00    1.18979   1.17267   -2.000
 7176.00    1.14810   1.17111   -2.000
 7177.00    1.14949   1.17055   -2.000
 7178.00    1.24058   1.16976   -2.000
 7179.00    1.30334   1.16767   -2.000
 7180.00    1.31479   1.16700   -2.000
 7181.00    1.27791   1.16540   -2.000
 7182.00    1.16452   1.16337   -2.000
 7183.00    1.11568   1.16304   -2.000
 7184.00    1.15651   1.16082   -2.000
 7185.00    1.15435   1.15924   -2.000
 7186.00    1.09962   1.15988   -2.000
 7187.00    1.10400   1.15772   -2.000
 7188.00    1.17210   1.15673   -2.000
 7189.00    1.22342   1.15824   -2.000
 7190.00    1.25878   1.15660   -2.000
 7191.00    1.23896   1.15620   -2.000
 7192.00    1.17288   1.15830   -2.000
 7193.00    1.12946   1.15751   -2.000
 7194.00    1.10276   1.15750   -2.000
 7195.00    1.03703   1.15972   -2.000
 7196.00    0.94601   1.15968   -2.000
 7197.00    0.88968   1.15964   -2.000
 7198.00    0.85304   1.16144   -2.000
 7199.00    0.92696   1.16202   -2.000
 7200.00    1.05548   1.16179   -2.000
 7201.00    1.24940   1.16265   -2.000
 7202.00    1.47126   1.16374   -2.000
 7203.00    1.47701   1.16361   -2.000
 7204.00    1.40370   1.16345   -2.000
 7205.00    1.20182   1.16492   -2.000
 7206.00    0.96013   1.16527   -2.000
 7207.00    0.94718   1.16448   -2.000
 7208.00    0.99327   1.16641   -2.000
 7209.00    1.01687   1.16747   -2.000
 7210.00    1.03575   1.16653   -2.000
 7211.00    1.02862   1.16885   -2.000
 7212.00    1.01718   1.17071   -2.000
 7213.00    1.08829   1.17012   -2.000
 7214.00    1.16972   1.17251   -2.000
 7215.00    1.20363   1.17501   -2.000
 7216.00    1.23343   1.17518   -2.000
 7217.00    1.13126   1.17729   -2.000
 7218.00    1.02238   1.18009   -2.000
