###################################################################
## OUTPUT of StarlightChains_v04.for    [Cid@UFSC - 01/Apr/2007] ##
###################################################################

## Some input info
KUG0210-078._25_34.txt                   [arq_obs]
Base.CB07.vall.4m                        [arq_base]
Masks.EmLines.NEW.gm                     [arq_masks]
StCv04.C11.config                        [arq_config]
   66                                    [N_base]
    0                                    [N_YAV_components = # of components with extra extinction!]
    0                                    [i_FitPowerLaw (1/0 = Yes/No)]
-9.99                                    [alpha_PowerLaw]
CCM                                      [red_law_option]
 1.458241                                [q_norm = A(l_norm)/A(V)]

## (Re)Sampling Parameters
 3741.00                                 [l_ini (A)]
 7218.00                                 [l_fin (A)]
    1.00                                 [dl    (A)]     (OBS: dl_cushion =    50.00 A)

## Normalization info
 4020.00                                 [l_norm (A) - for base]
 4010.00                                 [llow_norm (A) - window for f_obs]
 4060.00                                 [lupp_norm (A) - window for f_obs]
3.018305E-17                             [fobs_norm (in input units)]

## S/N
 3691.00                                 [llow_SN (A) - window for S/N]
 7268.00                                 [lupp_SN (A) - window for S/N]
   4.506                                 [S/N in S/N window]
   6.679                                 [S/N in norm. window]
   0.025                                 [S/N_err in S/N window]
   0.036                                 [S/N_err in norm. window]
  1.0000                                 [fscale_chi2]

## etc...
    -2007307                             [idum_orig]
  2432                                   [NOl_eff]
  2426                                   [Nl_eff]
     6    NSIGMA                         [Ntot_cliped & clip_method]
  1941940                                [Nglobal_steps]
   7                                     [N_chains]
  14                                     [NEX0s_base = N_base in EX0s-fits]
 0   0   1        6   2.0   3.022E+03    [Clip-Bug, RC-Crash & Burn-In warning-flags, n_censored_weights, wei_nsig_threshold & wei_limit]
    22     22.482     22.020      0.462  [idt_all, wdt_TotTime, wdt_UsrTime & wdt_SysTime (sec)]

## Synthesis Results - Best model ##

 1.63939E-05                             [chi2/Nl_eff]
     7.81316                             [adev (%)]

   101.48013                             [sum-of-x (%)]
 1.74013E-17                             [Flux_tot (units of input spectrum!)]
 3.29049E-13                             [Mini_tot (???)]
 1.71837E-13                             [Mcor_tot (???)]

-182.76                                  [v0_min  (km/s)]
 323.58                                  [vd_min  (km/s)]
-0.4210                                  [AV_min  (mag)]
 0.0000                                  [YAV_min (mag)]

# j     x_j(%)      Mini_j(%)     Mcor_j(%)     age_j(yr)     Z_j      (L/M)_j    YAV?  Mstars   component_j        a/Fe...       SSP_chi2r SSP_adev(%)   SSP_AV   SSP_x(%)
  1      9.4120     4.4834E-02    8.5852E-02    1.000000E+06  0.00400  1.094E-02    0   1.0000   age020_m42            0.0000     2.3628E-05    12.5370   1.8663    91.3342
  2      0.0000     0.0000E+00    0.0000E+00    3.160000E+06  0.00400  4.007E-02    0   0.9999   age045_m42            0.0000     2.5633E-05    12.9022   1.0852    98.6662
  3      0.0000     0.0000E+00    0.0000E+00    5.010000E+06  0.00400  2.539E-02    0   0.9488   age055_m42            0.0000     2.3980E-05    12.5671   1.4352    95.6919
  4      0.0000     0.0000E+00    0.0000E+00    6.610000E+06  0.00400  2.620E-02    0   0.9220   age061_m42            0.0000     2.6183E-05    12.7069   1.0217    98.6637
  5      0.0000     0.0000E+00    0.0000E+00    1.000000E+07  0.00400  1.322E-02    0   0.8862   age070_m42            0.0000     2.2951E-05    10.7369   0.8289    98.7715
  6      0.0000     0.0000E+00    0.0000E+00    1.445000E+07  0.00400  7.883E-03    0   0.8571   age078_m42            0.0000     2.2340E-05    10.8832   1.1574    96.2929
  7      0.0000     0.0000E+00    0.0000E+00    2.512000E+07  0.00400  5.251E-03    0   0.8174   age090_m42            0.0000     2.2833E-05    10.3996   0.7116    99.0514
  8      0.0000     0.0000E+00    0.0000E+00    4.000000E+07  0.00400  3.649E-03    0   0.7851   age104_m42            0.0000     2.3672E-05    10.6569   0.4663   100.2809
  9      0.0000     0.0000E+00    0.0000E+00    5.500000E+07  0.00400  3.098E-03    0   0.7629   age110_m42            0.0000     2.7305E-05    11.7641   0.5699   101.3460
 10      0.0000     0.0000E+00    0.0000E+00    1.015200E+08  0.00400  2.228E-03    0   0.7207   age116_m42            0.0000     3.0849E-05    12.4821   0.5598   102.1772
 11      0.0000     0.0000E+00    0.0000E+00    2.861200E+08  0.00400  1.093E-03    0   0.6648   age125_m42            0.0000     3.1834E-05    12.0461  -0.0000   104.7932
 12      0.0000     0.0000E+00    0.0000E+00    5.088000E+08  0.00400  6.597E-04    0   0.6365   age130_m42            0.0000     3.7075E-05    13.1100  -0.0557   106.7761
 13      0.0000     0.0000E+00    0.0000E+00    1.434000E+09  0.00400  2.132E-04    0   0.5798   age139_m42            0.0000     3.5944E-05    12.7695  -1.0000   108.8978
 14      0.0000     0.0000E+00    0.0000E+00    4.250000E+09  0.00400  5.895E-05    0   0.5377   age158_m42            0.0000     4.3079E-05    13.0345  -1.0000    97.7343
 15      0.0000     0.0000E+00    0.0000E+00    7.500000E+09  0.00400  3.510E-05    0   0.5212   age171_m42            0.0000     5.5734E-05    15.4034  -1.0000    93.4424
 16      0.0000     0.0000E+00    0.0000E+00    1.300000E+10  0.00400  2.005E-05    0   0.5034   age193_m42            0.0000     7.0021E-05    18.5927  -1.0000    89.4505
 17      0.0000     0.0000E+00    0.0000E+00    1.800000E+10  0.00400  1.525E-05    0   0.4967   age213_m42            0.0000     7.0411E-05    19.0425  -1.0000    88.5724
 18     12.0960     5.0917E-02    9.7501E-02    1.000000E+06  0.00800  1.238E-02    0   1.0000   age020_m52            0.0000     2.3722E-05    12.5482   1.8618    91.5265
 19      0.0000     0.0000E+00    0.0000E+00    3.160000E+06  0.00800  3.074E-02    0   0.9966   age045_m52            0.0000     2.3717E-05    12.6002   1.7782    92.4879
 20      0.0000     0.0000E+00    0.0000E+00    5.010000E+06  0.00800  2.668E-02    0   0.9443   age055_m52            0.0000     2.3612E-05    12.4135   1.5270    94.6632
 21      0.0000     0.0000E+00    0.0000E+00    6.610000E+06  0.00800  2.136E-02    0   0.9177   age061_m52            0.0000     1.9943E-05    10.6203   0.3208   100.1274
 22      0.0000     0.0000E+00    0.0000E+00    1.000000E+07  0.00800  1.215E-02    0   0.8827   age070_m52            0.0000     2.1558E-05    10.1128   1.0377    97.9258
 23      0.0000     0.0000E+00    0.0000E+00    1.445000E+07  0.00800  8.717E-03    0   0.8552   age078_m52            0.0000     2.2427E-05    10.7939   1.1218    97.6478
 24      0.0000     0.0000E+00    0.0000E+00    2.512000E+07  0.00800  5.592E-03    0   0.8162   age090_m52            0.0000     2.3004E-05    10.2836   0.7760   100.2035
 25      0.0000     0.0000E+00    0.0000E+00    4.000000E+07  0.00800  3.896E-03    0   0.7841   age104_m52            0.0000     2.4813E-05    10.8181   0.6589   101.5983
 26      0.0000     0.0000E+00    0.0000E+00    1.015200E+08  0.00800  2.148E-03    0   0.7226   age116_m52            0.0000     2.8467E-05    11.8846   0.5474   102.5360
 27      0.0000     0.0000E+00    0.0000E+00    2.861200E+08  0.00800  9.925E-04    0   0.6683   age125_m52            0.0000     3.7694E-05    13.1320  -0.0000   107.8905
 28      0.0000     0.0000E+00    0.0000E+00    9.047900E+08  0.00800  3.141E-04    0   0.6138   age135_m52            0.0000     4.2297E-05    14.9258  -0.8936   114.6863
 29      0.0000     0.0000E+00    0.0000E+00    1.434000E+09  0.00800  1.719E-04    0   0.5853   age139_m52            0.0000     4.2880E-05    11.9738  -1.0000   104.3343
 30      0.0000     0.0000E+00    0.0000E+00    2.500000E+09  0.00800  7.872E-05    0   0.5600   age150_m52            0.0000     5.9945E-05    15.4177  -1.0000    96.5004
 31      0.0000     0.0000E+00    0.0000E+00    4.250000E+09  0.00800  4.336E-05    0   0.5426   age158_m52            0.0000     6.0768E-05    15.6862  -1.0000    95.2918
 32      0.0000     0.0000E+00    0.0000E+00    6.250000E+09  0.00800  3.159E-05    0   0.5319   age166_m52            0.0000     8.1925E-05    19.6410  -1.0000    90.8494
 33      0.0000     0.0000E+00    0.0000E+00    1.300000E+10  0.00800  1.361E-05    0   0.5073   age193_m52            0.0000     1.3721E-04    29.1783  -1.0000    78.9760
 34      0.0000     0.0000E+00    0.0000E+00    1.800000E+10  0.00800  9.886E-06    0   0.4990   age213_m52            0.0000     1.5939E-04    31.2067  -1.0000    75.7079
 35      0.0000     0.0000E+00    0.0000E+00    1.000000E+06  0.02000  1.544E-02    0   1.0000   age020_m62            0.0000     2.3788E-05    12.5472   1.8595    91.7086
 36      3.7073     5.1354E-03    9.6941E-03    3.160000E+06  0.02000  3.762E-02    0   0.9858   age045_m62            0.0000     2.3737E-05    12.6038   1.7937    92.6160
 37      0.0000     0.0000E+00    0.0000E+00    5.010000E+06  0.02000  3.296E-02    0   0.9342   age055_m62            0.0000     2.5358E-05    12.8749   1.3748    97.3147
 38      0.0000     0.0000E+00    0.0000E+00    8.710000E+06  0.02000  1.154E-02    0   0.8861   age067_m62            0.0000     1.8043E-05     6.8530   0.6535    96.9691
 39      0.0000     0.0000E+00    0.0000E+00    1.445000E+07  0.02000  7.663E-03    0   0.8472   age078_m62            0.0000     1.9446E-05     8.9201   0.7289    99.1126
 40      0.0000     0.0000E+00    0.0000E+00    2.512000E+07  0.02000  4.532E-03    0   0.8099   age090_m62            0.0000     2.0093E-05     8.7787   0.7266    98.6945
 41      0.0000     0.0000E+00    0.0000E+00    5.500000E+07  0.02000  2.733E-03    0   0.7595   age110_m62            0.0000     2.4349E-05    10.7192   0.6476   100.7519
 42      0.0000     0.0000E+00    0.0000E+00    1.609000E+08  0.02000  1.369E-03    0   0.6985   age120_m62            0.0000     3.3947E-05    12.3284   0.4138   105.0932
 43      0.0000     0.0000E+00    0.0000E+00    2.861200E+08  0.02000  9.013E-04    0   0.6714   age125_m62            0.0000     4.2304E-05    13.2485   0.1219   109.0385
 44      0.0000     0.0000E+00    0.0000E+00    5.088000E+08  0.02000  5.028E-04    0   0.6449   age130_m62            0.0000     4.8875E-05    15.1648  -0.3546   114.2379
 45      0.0000     0.0000E+00    0.0000E+00    9.047900E+08  0.02000  2.428E-04    0   0.6179   age135_m62            0.0000     4.2342E-05    15.8521  -0.9988   115.0731
 46      0.0000     0.0000E+00    0.0000E+00    1.434000E+09  0.02000  1.263E-04    0   0.5908   age139_m62            0.0000     4.6269E-05    13.0927  -1.0000   106.0128
 47      0.0000     0.0000E+00    0.0000E+00    2.500000E+09  0.02000  5.985E-05    0   0.5673   age150_m62            0.0000     6.8288E-05    16.3268  -1.0000    97.3030
 48      0.0000     0.0000E+00    0.0000E+00    4.250000E+09  0.02000  3.271E-05    0   0.5468   age158_m62            0.0000     1.0178E-04    22.0789  -1.0000    89.4604
 49     13.6360     5.2250E+01    5.1698E+01    1.000000E+10  0.02000  1.360E-05    0   0.5167   age181_m62            0.0000     1.5381E-04    28.9703  -1.0000    80.1843
 50      0.0000     0.0000E+00    0.0000E+00    1.800000E+10  0.02000  7.124E-06    0   0.5013   age213_m62            0.0000     1.9227E-04    32.5812  -1.0000    73.9009
 51      0.0000     0.0000E+00    0.0000E+00    1.000000E+06  0.05000  2.592E-02    0   0.9998   age020_m72            0.0000     2.4035E-05    12.4961   1.8581    91.5865
 52      0.0000     0.0000E+00    0.0000E+00    3.160000E+06  0.05000  4.845E-02    0   0.9577   age045_m72            0.0000     2.4238E-05    12.8233   1.6526    94.3369
 53      0.0000     0.0000E+00    0.0000E+00    5.010000E+06  0.05000  3.072E-02    0   0.9147   age055_m72            0.0000     2.0928E-05    10.3146   1.2689    96.2863
 54     48.4217     1.7343E-01    2.9480E-01    6.610000E+06  0.05000  1.455E-02    0   0.8877   age061_m72            0.0000     1.9094E-05     7.7838   0.7427    96.4652
 55      0.0000     0.0000E+00    0.0000E+00    1.000000E+07  0.05000  9.074E-03    0   0.8524   age070_m72            0.0000     2.1477E-05    10.6314   1.4420    96.0163
 56      0.0000     0.0000E+00    0.0000E+00    2.512000E+07  0.05000  4.250E-03    0   0.7902   age090_m72            0.0000     2.2979E-05    10.4989   1.1332    98.1473
 57      0.0000     0.0000E+00    0.0000E+00    4.000000E+07  0.05000  3.087E-03    0   0.7618   age104_m72            0.0000     2.4100E-05    10.3117   0.9104    99.6483
 58      0.0000     0.0000E+00    0.0000E+00    1.015200E+08  0.05000  1.700E-03    0   0.7096   age116_m72            0.0000     3.2006E-05    11.6840   0.5869   103.9559
 59      0.0000     0.0000E+00    0.0000E+00    2.861200E+08  0.05000  7.384E-04    0   0.6633   age125_m72            0.0000     4.6680E-05    14.2450  -0.0627   111.7559
 60      0.0000     0.0000E+00    0.0000E+00    5.088000E+08  0.05000  3.819E-04    0   0.6372   age130_m72            0.0000     4.5656E-05    15.7070  -0.6467   115.9009
 61      0.0000     0.0000E+00    0.0000E+00    9.047900E+08  0.05000  1.676E-04    0   0.6110   age135_m72            0.0000     5.0334E-05    14.2573  -1.0000   108.7453
 62      1.3539     7.9842E-01    8.9807E-01    1.434000E+09  0.05000  8.837E-05    0   0.5874   age139_m72            0.0000     7.2188E-05    16.5301  -1.0000    98.7417
 63      0.0000     0.0000E+00    0.0000E+00    2.500000E+09  0.05000  4.233E-05    0   0.5598   age150_m72            0.0000     1.0687E-04    22.2686  -1.0000    90.1865
 64     12.8533     4.6677E+01    4.6916E+01    6.250000E+09  0.05000  1.435E-05    0   0.5249   age166_m72            0.0000     1.6840E-04    30.7208  -1.0000    77.3482
 65      0.0000     0.0000E+00    0.0000E+00    1.300000E+10  0.05000  6.513E-06    0   0.5036   age193_m72            0.0000     2.1984E-04    35.1355  -1.0000    70.4032
 66      0.0000     0.0000E+00    0.0000E+00    1.800000E+10  0.05000  4.527E-06    0   0.4945   age213_m72            0.0000     2.5101E-04    37.2335  -1.0000    65.8507


## Synthesis Results - Average & Chains ##

# j      x_j: min, <> & last-chain-values for 1 ...  7 chains
  1      9.4120      0.8293      0.0257      0.0000      0.9837      0.4932      0.0000      0.0000      0.4925
  2      0.0000      1.0275      1.1740      0.3881      0.0000      0.0336      1.0321      0.0459      0.0058
  3      0.0000      1.2216      1.1885      4.3070      1.6280      1.0396      1.5081      1.8295      1.6860
  4      0.0000      0.9639      0.2195      2.0252      0.0000      0.0000      0.0000      0.0000      0.0000
  5      0.0000      1.2319      0.2890      2.9734      0.2157      0.0000      0.1031      0.0443      0.0000
  6      0.0000      1.4348      0.3287      0.0000      0.0000      0.2084      0.0592      0.0426      0.0000
  7      0.0000      1.9331      0.4206      1.1758      0.0000      0.0000      0.0000      0.0000      0.0000
  8      0.0000      1.1568      0.0000      0.0000      0.0000      0.0207      0.0000      0.0000      0.0000
  9      0.0000      1.2116      0.2518      0.0000      0.0000      0.0000      0.0000      0.0000      0.0254
 10      0.0000      0.8746      0.1932      0.0680      0.0000      0.0000      0.0000      0.0240      0.0000
 11      0.0000      1.3367      0.6162      3.3683      0.0000      0.0000      0.1411      0.0041      0.0100
 12      0.0000      1.3810      0.1562      0.0000      0.0000      0.0000      0.0000      0.0000      0.0220
 13      0.0000      1.2081      0.4150      0.6484      0.0028      0.0000      0.0000      0.0000      0.0000
 14      0.0000      0.9223      0.0000      1.4741      0.0000      0.0000      0.0000      0.0000      1.4369
 15      0.0000      1.1631      0.4775      0.7531      0.0000      0.0000      0.0000      0.0000      0.0431
 16      0.0000      0.9383      0.5051      1.1541      0.0000      0.0012      0.0000      0.0000      0.1563
 17      0.0000      1.0640      0.3194      0.0000      0.0000      0.1775      0.0000      0.0000      0.0000
 18     12.0960      1.1204      1.1292      1.8064      1.0201      0.9525      0.1234      0.9488      0.7654
 19      0.0000      1.3944      0.3813      0.0000      0.3138      0.2842      0.0000      0.0000      1.7206
 20      0.0000      1.5211      0.2047      2.1275      0.0000      0.0000      0.0000      0.0000      0.0000
 21      0.0000      1.1294      0.0000      1.7108      0.0000      0.0000      0.0000      0.0142      0.0394
 22      0.0000      0.9589      0.7064      3.4288      0.0076      0.0000      0.0000      0.0000      0.0000
 23      0.0000      1.3283      0.7347      7.2724      0.0015      0.0000      1.3905      0.0062      0.0000
 24      0.0000      0.8028      0.5562      0.0255      0.0401      0.0798      0.0000      0.0000      0.0000
 25      0.0000      0.8581      0.0497      0.7313      0.0555      0.0000      0.0000      0.0093      0.0000
 26      0.0000      1.3766      0.4066      3.9835      0.0000      0.1951      0.0000      0.0000      0.0000
 27      0.0000      0.8418      1.1569      3.3341      0.0000      0.0000      0.0267      0.0000      0.0000
 28      0.0000      0.8734      0.0000      0.0172      0.0000      0.3055      0.0000      0.0000      0.0000
 29      0.0000      1.0598      0.2534      0.7707      0.0000      0.0000      0.0000      0.0000      0.0132
 30      0.0000      1.4167      1.2131      0.0333      1.2646      0.9872      0.8659      1.1724      2.5398
 31      0.0000      0.8770      0.1381      0.0000      0.0000      0.0000      0.0000      0.0000      0.0000
 32      0.0000      1.5256      0.2571      0.0000      0.0000      0.0000      0.0120      0.0000      0.0000
 33      0.0000      1.5964      0.0116      0.0000      0.0000      0.0490      0.0000      0.0551      0.0000
 34      0.0000      1.0895      0.2660      0.0000      0.0000      0.1089      0.0000      0.3054      0.3448
 35      0.0000      1.0888      1.4775      0.0000      0.0000      0.0000      0.0106      0.1187      0.0000
 36      3.7073      1.7327      0.2963      1.6385      0.3308      0.1646      1.2243      0.4719      2.3242
 37      0.0000      1.2799      0.3006      0.0000      0.0377      0.0000      3.2854      0.0131      0.0014
 38      0.0000      1.2918      0.0788      0.8710      0.0000      0.0000      0.0000      0.0000      0.0000
 39      0.0000      1.3077      0.7481      0.0000      0.0000      0.0000      2.5362      0.0000      0.0007
 40      0.0000      1.5403      1.5045      5.2428      0.0000      0.1047      1.8611      0.2073      1.0491
 41      0.0000      1.1471      0.0360      0.0000      0.0000      0.0000      0.0568      0.0000      0.0015
 42      0.0000      0.8124      1.2359      2.1778      0.0000      0.0000      0.0000      0.0000      0.0000
 43      0.0000      1.2016      0.3131      0.4151      0.1095      0.0000      0.0000      0.0000      0.0147
 44      0.0000      0.9187      0.0000      0.0000      0.0000      0.0000      0.0000      0.1107      0.0000
 45      0.0000      1.5803      0.0331      2.7315      0.0000      0.0000      0.0000      0.0000      0.0000
 46      0.0000      0.9627      0.3209      4.5513      0.0089      0.0000      0.0000      0.0348      0.0000
 47      0.0000      1.1649      0.5563      3.9844      0.0000      0.0980      0.0000      0.0000      0.0569
 48      0.0000      1.2019      0.3309      3.5646      0.3206      0.0909      0.3420      0.3549      0.0000
 49     13.6360      1.1217      0.4461      1.5150      0.3596      0.3768      0.1967      0.2399      0.1803
 50      0.0000      0.8424      0.4751      0.0000      0.1635      0.1159      0.0000      0.0830      0.1270
 51      0.0000      1.1994      1.1104      8.0022      0.0077      0.5553      0.2094      0.6726      0.1796
 52      0.0000      1.3243      0.6178      0.8864      0.0000      0.3908      0.5955      0.1215      0.0000
 53      0.0000      0.9984      0.0228      3.5307      0.0000      0.0000      0.0000      0.0000      0.0000
 54     48.4217     12.0465     53.1468      1.1476     71.0739     70.6579     61.8404     70.4737     64.7124
 55      0.0000      1.4016      0.7059      1.9098      0.0167      0.0000      0.0000      0.0000      0.0000
 56      0.0000      1.1716      1.5740      0.0801      1.0290      0.9871      1.9293      0.7610      1.1072
 57      0.0000      0.9785      0.0064      0.0000      0.0000      0.0000      0.0000      0.0000      0.0000
 58      0.0000      1.0697      0.0000      0.0000      0.0293      0.0769      1.0457      0.0000      0.0000
 59      0.0000      1.2244      0.0000      0.0000      0.0000      0.0000      0.0000      0.0572      0.0000
 60      0.0000      1.3630      0.3076      0.6498      0.3136      0.3226      0.2585      0.5598      0.2009
 61      0.0000      0.7161      0.1901      0.0000      0.4648      0.4370      0.5823      0.6744      0.8340
 62      1.3539      0.9677      0.7522      0.6551      0.4202      0.4552      0.4093      0.2580      0.0000
 63      0.0000      1.1296      1.3582      0.9378      1.1396      1.2417      0.9013      2.3070      0.8746
 64     12.8533      1.6749      2.7839      1.1230      3.2151      2.9558      1.8877      3.2904      4.8354
 65      0.0000      1.2312      1.3570      0.7437      1.1950      1.3194      1.9386      1.1418      0.0000
 66      0.0000      1.4624      3.8210      1.8660      4.9677      5.2284      4.0384      4.3484      4.0066

# j      m_j: min, <> & last-chain-values for 1 ...  7 chains
  1  8.5852E-02  1.0111E-02  3.0119E-04  0.0000E+00  1.1003E-02  5.2827E-03  0.0000E+00  0.0000E+00  6.3974E-03
  2  0.0000E+00  3.4204E-03  3.7612E-03  1.6918E-03  0.0000E+00  9.8217E-05  3.6661E-03  1.4854E-04  2.0665E-05
  3  0.0000E+00  6.0896E-03  5.7020E-03  2.8112E-02  7.4444E-03  4.5525E-03  8.0223E-03  8.8673E-03  8.9534E-03
  4  0.0000E+00  4.5249E-03  9.9180E-04  1.2448E-02  0.0000E+00  0.0000E+00  0.0000E+00  0.0000E+00  0.0000E+00
  5  0.0000E+00  1.1016E-02  2.4875E-03  3.4816E-02  1.7696E-03  0.0000E+00  9.8409E-04  3.8540E-04  0.0000E+00
  6  0.0000E+00  2.0809E-02  4.5886E-03  0.0000E+00  0.0000E+00  2.6551E-03  9.1653E-04  6.0038E-04  0.0000E+00
  7  0.0000E+00  4.0140E-02  8.4061E-03  3.1968E-02  0.0000E+00  0.0000E+00  0.0000E+00  0.0000E+00  0.0000E+00
  8  0.0000E+00  3.3202E-02  0.0000E+00  0.0000E+00  0.0000E+00  5.2279E-04  0.0000E+00  0.0000E+00  0.0000E+00
  9  0.0000E+00  3.9800E-02  7.9610E-03  0.0000E+00  0.0000E+00  0.0000E+00  0.0000E+00  0.0000E+00  8.8916E-04
 10  0.0000E+00  3.7739E-02  8.0217E-03  3.8443E-03  0.0000E+00  0.0000E+00  0.0000E+00  1.0082E-03  0.0000E+00
 11  0.0000E+00  1.0845E-01  4.8120E-02  3.5785E-01  0.0000E+00  0.0000E+00  1.2217E-02  3.2108E-04  8.6493E-04
 12  0.0000E+00  1.7774E-01  1.9348E-02  0.0000E+00  0.0000E+00  0.0000E+00  0.0000E+00  0.0000E+00  3.0196E-03
 13  0.0000E+00  4.3826E-01  1.4491E-01  3.0802E-01  9.3815E-04  0.0000E+00  0.0000E+00  0.0000E+00  0.0000E+00
 14  0.0000E+00  1.1222E+00  0.0000E+00  2.3485E+00  0.0000E+00  0.0000E+00  0.0000E+00  0.0000E+00  1.8626E+00
 15  0.0000E+00  2.3038E+00  9.1036E-01  1.9532E+00  0.0000E+00  0.0000E+00  0.0000E+00  0.0000E+00  9.0875E-02
 16  0.0000E+00  3.1425E+00  1.6281E+00  5.0612E+00  0.0000E+00  3.4477E-03  0.0000E+00  0.0000E+00  5.5764E-01
 17  0.0000E+00  4.6227E+00  1.3357E+00  0.0000E+00  0.0000E+00  6.7761E-01  0.0000E+00  0.0000E+00  0.0000E+00
 18  9.7501E-02  1.2072E-02  1.1711E-02  2.5487E-02  1.0083E-02  9.0160E-03  1.4186E-03  9.9398E-03  8.7857E-03
 19  0.0000E+00  6.0305E-03  1.5871E-03  0.0000E+00  1.2451E-03  1.0798E-03  0.0000E+00  0.0000E+00  7.9272E-03
 20  0.0000E+00  7.1814E-03  9.3025E-04  1.3153E-02  0.0000E+00  0.0000E+00  0.0000E+00  0.0000E+00  0.0000E+00
 21  0.0000E+00  6.4728E-03  0.0000E+00  1.2838E-02  0.0000E+00  0.0000E+00  0.0000E+00  7.9345E-05  2.4056E-04
 22  0.0000E+00  9.2931E-03  6.5891E-03  4.3510E-02  6.7273E-05  0.0000E+00  0.0000E+00  0.0000E+00  0.0000E+00
 23  0.0000E+00  1.7383E-02  9.2541E-03  1.2462E-01  1.7424E-05  0.0000E+00  1.9419E-02  7.9441E-05  0.0000E+00
 24  0.0000E+00  1.5630E-02  1.0422E-02  6.4974E-04  7.1585E-04  1.3643E-03  0.0000E+00  0.0000E+00  0.0000E+00
 25  0.0000E+00  2.3038E-02  1.2841E-03  2.5708E-02  1.3657E-03  0.0000E+00  0.0000E+00  2.4365E-04  0.0000E+00
 26  0.0000E+00  6.1775E-02  1.7561E-02  2.3407E-01  0.0000E+00  7.6926E-03  0.0000E+00  0.0000E+00  0.0000E+00
 27  0.0000E+00  7.5613E-02  1.0002E-01  3.9214E-01  0.0000E+00  0.0000E+00  2.5638E-03  0.0000E+00  0.0000E+00
 28  0.0000E+00  2.2766E-01  0.0000E+00  5.8681E-03  0.0000E+00  6.9948E-02  0.0000E+00  0.0000E+00  0.0000E+00
 29  0.0000E+00  4.8137E-01  1.1079E-01  4.5833E-01  0.0000E+00  0.0000E+00  0.0000E+00  0.0000E+00  6.3697E-03
 30  0.0000E+00  1.3444E+00  1.1079E+00  4.1384E-02  1.1008E+00  8.2292E-01  8.7682E-01  1.0818E+00  2.5677E+00
 31  0.0000E+00  1.4640E+00  2.2188E-01  0.0000E+00  0.0000E+00  0.0000E+00  0.0000E+00  0.0000E+00  0.0000E+00
 32  0.0000E+00  3.4267E+00  5.5580E-01  0.0000E+00  0.0000E+00  0.0000E+00  2.8643E-02  0.0000E+00  0.0000E+00
 33  0.0000E+00  7.9374E+00  5.5456E-02  0.0000E+00  0.0000E+00  2.1416E-01  0.0000E+00  2.6650E-01  0.0000E+00
 34  0.0000E+00  7.3360E+00  1.7236E+00  0.0000E+00  0.0000E+00  6.4432E-01  0.0000E+00  1.9994E+00  2.4734E+00
 35  0.0000E+00  9.4064E-03  1.2286E-02  0.0000E+00  0.0000E+00  0.0000E+00  9.7601E-05  9.9734E-04  0.0000E+00
 36  9.6941E-03  6.0566E-03  9.9671E-04  7.4992E-03  1.0607E-03  5.0556E-04  4.5667E-03  1.6038E-03  8.6550E-03
 37  0.0000E+00  4.8393E-03  1.0939E-03  0.0000E+00  1.3060E-04  0.0000E+00  1.3255E-02  4.8325E-05  5.7875E-06
 38  0.0000E+00  1.3232E-02  7.7699E-04  1.1682E-02  0.0000E+00  0.0000E+00  0.0000E+00  0.0000E+00  0.0000E+00
 39  0.0000E+00  1.9285E-02  1.0619E-02  0.0000E+00  0.0000E+00  0.0000E+00  3.9914E-02  0.0000E+00  1.0364E-05
 40  0.0000E+00  3.6718E-02  3.4520E-02  1.6365E-01  0.0000E+00  2.1932E-03  4.7344E-02  4.8046E-03  2.6643E-02
 41  0.0000E+00  4.2522E-02  1.2862E-03  0.0000E+00  0.0000E+00  0.0000E+00  2.2482E-03  0.0000E+00  6.0829E-05
 42  0.0000E+00  5.5296E-02  8.0962E-02  1.9409E-01  0.0000E+00  0.0000E+00  0.0000E+00  0.0000E+00  0.0000E+00
 43  0.0000E+00  1.1940E-01  2.9942E-02  5.4009E-02  9.9831E-03  0.0000E+00  0.0000E+00  0.0000E+00  1.5576E-03
 44  0.0000E+00  1.5719E-01  0.0000E+00  0.0000E+00  0.0000E+00  0.0000E+00  0.0000E+00  1.8416E-02  0.0000E+00
 45  0.0000E+00  5.3646E-01  1.0820E-02  1.2142E+00  0.0000E+00  0.0000E+00  0.0000E+00  0.0000E+00  0.0000E+00
 46  0.0000E+00  6.0073E-01  1.9273E-01  3.7186E+00  5.0830E-03  0.0000E+00  0.0000E+00  2.1120E-02  0.0000E+00
 47  0.0000E+00  1.4730E+00  6.7699E-01  6.5966E+00  0.0000E+00  1.0886E-01  0.0000E+00  0.0000E+00  7.6697E-02
 48  0.0000E+00  2.6800E+00  7.1029E-01  1.0408E+01  6.5586E-01  1.7806E-01  8.1370E-01  7.6958E-01  0.0000E+00
 49  5.1698E+01  5.6847E+00  2.1760E+00  1.0053E+01  1.6718E+00  1.6776E+00  1.0636E+00  1.1823E+00  9.7349E-01
 50  0.0000E+00  7.9075E+00  4.2924E+00  0.0000E+00  1.4081E+00  9.5607E-01  0.0000E+00  7.5757E-01  1.2705E+00
 51  0.0000E+00  6.1713E-03  5.4989E-03  5.3914E-02  3.6225E-05  2.5099E-03  1.1496E-03  3.3648E-03  9.8465E-04
 52  0.0000E+00  3.4919E-03  1.5680E-03  3.0603E-03  0.0000E+00  9.0514E-04  1.6756E-03  3.1153E-04  0.0000E+00
 53  0.0000E+00  3.9655E-03  8.7287E-05  1.8362E-02  0.0000E+00  0.0000E+00  0.0000E+00  0.0000E+00  0.0000E+00
 54  2.9480E-01  9.8040E-02  4.1630E-01  1.2229E-02  5.3061E-01  5.0516E-01  5.3707E-01  5.5766E-01  5.6108E-01
 55  0.0000E+00  1.7564E-02  8.5142E-03  3.1336E-02  1.9213E-04  0.0000E+00  0.0000E+00  0.0000E+00  0.0000E+00
 56  0.0000E+00  2.9059E-02  3.7573E-02  2.6022E-03  2.3411E-02  2.1507E-02  5.1063E-02  1.8351E-02  2.9255E-02
 57  0.0000E+00  3.2210E-02  2.0355E-04  0.0000E+00  0.0000E+00  0.0000E+00  0.0000E+00  0.0000E+00  0.0000E+00
 58  0.0000E+00  5.9563E-02  0.0000E+00  0.0000E+00  1.4952E-03  3.7592E-03  6.2134E-02  0.0000E+00  0.0000E+00
 59  0.0000E+00  1.4672E-01  0.0000E+00  0.0000E+00  0.0000E+00  0.0000E+00  0.0000E+00  6.6683E-03  0.0000E+00
 60  0.0000E+00  3.0335E-01  6.5887E-02  1.8936E-01  6.4037E-02  6.3071E-02  6.1399E-02  1.2114E-01  4.7644E-02
 61  0.0000E+00  3.4824E-01  8.8959E-02  0.0000E+00  2.0736E-01  1.8670E-01  3.0219E-01  3.1887E-01  4.3211E-01
 62  8.9807E-01  8.5800E-01  6.4193E-01  7.6060E-01  3.4181E-01  3.5456E-01  3.8731E-01  2.2243E-01  0.0000E+00
 63  0.0000E+00  1.9928E+00  2.3061E+00  2.1662E+00  1.8441E+00  1.9243E+00  1.6967E+00  3.9570E+00  1.6437E+00
 64  4.6916E+01  8.1723E+00  1.3074E+01  7.1751E+00  1.4391E+01  1.2670E+01  9.8289E+00  1.5610E+01  2.5135E+01
 65  0.0000E+00  1.2699E+01  1.3472E+01  1.0044E+01  1.1307E+01  1.1955E+01  2.1338E+01  1.1451E+01  0.0000E+00
 66  0.0000E+00  2.1309E+01  5.3587E+01  3.5602E+01  6.6402E+01  6.6925E+01  6.2793E+01  6.1607E+01  6.2197E+01

# AV, chi2 & Mass for <> & i_chain = 1 ...  7 solutions
AV      -0.4210      0.1410      0.1460      0.0780      0.1614      0.1471      0.2647      0.1465      0.1837
chi2 1.6394E-05  3.7193E-05  2.5180E-05  2.8495E-05  2.2898E-05  2.3303E-05  2.3553E-05  2.2947E-05  2.4097E-05
Mass 1.7184E-13  2.7346E-13  2.8601E-13  1.9188E-13  3.0636E-13  3.1386E-13  3.0255E-13  2.8333E-13  2.7181E-13
-182.76                                  [v0_min (km/s) before EX0s...]
 323.58                                  [vd_min (km/s) before EX0s...]


## Synthetic spectrum (Best Model) ##l_obs f_obs f_syn wei
 3478    [Nl_obs]
 3741.00    0.94013   0.91587    0.000
 3742.00    0.90616   0.90662    0.000
 3743.00    0.81583   0.89520    0.000
 3744.00    0.74412   0.88278    0.000
 3745.00    0.68327   0.87187    0.081
 3746.00    0.72591   0.86442    0.082
 3747.00    0.82112   0.86218    0.084
 3748.00    0.88186   0.86551    0.084
 3749.00    0.92745   0.87329    0.084
 3750.00    0.92900   0.88486    0.083
 3751.00    0.91393   0.89933    0.081
 3752.00    0.95940   0.91537    0.080
 3753.00    1.02428   0.93013    0.078
 3754.00    1.08106   0.94263    0.077
 3755.00    1.13567   0.95278    0.076
 3756.00    1.21462   0.95987    0.076
 3757.00    1.29891   0.96379    0.076
 3758.00    1.22832   0.96381    0.076
 3759.00    1.13069   0.96060    0.075
 3760.00    0.99443   0.95502    0.073
 3761.00    0.85303   0.94693    0.072
 3762.00    0.83420   0.93621    0.070
 3763.00    0.82688   0.92374    0.068
 3764.00    0.76284   0.91134    0.067
 3765.00    0.69552   0.90027    0.066
 3766.00    0.62323   0.89109    0.066
 3767.00    0.55220   0.88571    0.065
 3768.00    0.64953   0.88570    0.066
 3769.00    0.74547   0.89076    0.068
 3770.00    0.80770   0.90056    0.069
 3771.00    0.86358   0.91397    0.069
 3772.00    0.83627   0.93068    0.068
 3773.00    0.81761   0.94987    0.068
 3774.00    0.87490   0.96864    0.068
 3775.00    0.92301   0.98633    0.068
 3776.00    0.91159   1.00240    0.069
 3777.00    0.88569   1.01544    0.070
 3778.00    0.78647   1.02522    0.070
 3779.00    0.72847   1.03142    0.070
 3780.00    0.83914   1.03422    0.073
 3781.00    0.97521   1.03347    0.076
 3782.00    1.19743   1.02894    0.076
 3783.00    1.32464   1.02151    0.077
 3784.00    1.18013   1.01157    0.077
 3785.00    1.06230   0.99903    0.077
 3786.00    1.00964   0.98404    0.075
 3787.00    1.00155   0.96694    0.074
 3788.00    1.08738   0.94813    0.074
 3789.00    1.15666   0.92780    0.075
 3790.00    1.19563   0.90648    0.078
 3791.00    1.17579   0.88540    0.078
 3792.00    1.06181   0.86628    0.076
 3793.00    1.00829   0.84977    0.074
 3794.00    1.03970   0.83772    0.071
 3795.00    0.99691   0.83258    0.069
 3796.00    0.86240   0.83413    0.068
 3797.00    0.77530   0.84183    0.068
 3798.00    0.73983   0.85465    0.070
 3799.00    0.76395   0.87159    0.070
 3800.00    0.84532   0.89185    0.070
 3801.00    0.90799   0.91292    0.070
 3802.00    0.95483   0.93201    0.070
 3803.00    1.00832   0.94957    0.070
 3804.00    1.06678   0.96532    0.070
 3805.00    1.10708   0.97771    0.069
 3806.00    1.13547   0.98686    0.068
 3807.00    1.09015   0.99216    0.068
 3808.00    1.00254   0.99452    0.067
 3809.00    0.96441   0.99399    0.068
 3810.00    0.95101   0.98981    0.070
 3811.00    0.89218   0.98292    0.070
 3812.00    0.81371   0.97403    0.069
 3813.00    0.75318   0.96427    0.068
 3814.00    0.69930   0.95368    0.068
 3815.00    0.74089   0.94175    0.069
 3816.00    0.81248   0.93179    0.071
 3817.00    0.74011   0.92513    0.069
 3818.00    0.62998   0.91989    0.067
 3819.00    0.66192   0.91584    0.068
 3820.00    0.72430   0.91104    0.070
 3821.00    0.77782   0.90682    0.071
 3822.00    0.82984   0.90343    0.071
 3823.00    0.70564   0.89743    0.069
 3824.00    0.55883   0.88854    0.066
 3825.00    0.40493   0.87612    0.065
 3826.00    0.25040   0.86096    0.063
 3827.00    0.40686   0.84410    0.066
 3828.00    0.58003   0.82526    0.068
 3829.00    0.67916   0.80641    0.069
 3830.00    0.77570   0.78896    0.070
 3831.00    0.77822   0.77458    0.071
 3832.00    0.77993   0.76605    0.071
 3833.00    0.76347   0.76351    0.070
 3834.00    0.75282   0.76664    0.069
 3835.00    0.81431   0.77654    0.069
 3836.00    0.86996   0.79153    0.069
 3837.00    0.87625   0.81089    0.069
 3838.00    0.87299   0.83363    0.069
 3839.00    0.80974   0.85601    0.067
 3840.00    0.75937   0.87798    0.067
 3841.00    0.77251   0.89794    0.069
 3842.00    0.79966   0.91491    0.071
 3843.00    0.88288   0.92965    0.072
 3844.00    0.96466   0.94049    0.074
 3845.00    1.04168   0.94831    0.073
 3846.00    1.07515   0.95324    0.072
 3847.00    0.98635   0.95617    0.000
 3848.00    0.91392   0.95841    0.000
 3849.00    0.88081   0.95834    0.000
 3850.00    0.86960   0.95714    0.000
 3851.00    0.90383   0.95528    0.000
 3852.00    0.91039   0.95290    0.000
 3853.00    0.86706   0.95161    0.000
 3854.00    0.85251   0.94957    0.000
 3855.00    0.88335   0.94713    0.000
 3856.00    0.87686   0.94553    0.000
 3857.00    0.81868   0.94454    0.000
 3858.00    0.80352   0.94449    0.000
 3859.00    0.84077   0.94442    0.000
 3860.00    0.89689   0.94377    0.000
 3861.00    0.97326   0.94304    0.000
 3862.00    0.96940   0.94262    0.000
 3863.00    0.88951   0.94111    0.000
 3864.00    0.77613   0.93957    0.000
 3865.00    0.63476   0.93780    0.000
 3866.00    0.58611   0.93502    0.000
 3867.00    0.60565   0.93231    0.000
 3868.00    0.58672   0.92913    0.000
 3869.00    0.54294   0.92699    0.000
 3870.00    0.58244   0.92533    0.000
 3871.00    0.66900   0.92267    0.000
 3872.00    0.69595   0.91873    0.000
 3873.00    0.69357   0.91460    0.000
 3874.00    0.76913   0.91018    0.000
 3875.00    0.87782   0.90457    0.000
 3876.00    0.91436   0.89708    0.000
 3877.00    0.92461   0.88639    0.000
 3878.00    0.87844   0.87418    0.000
 3879.00    0.81488   0.86057    0.000
 3880.00    0.80117   0.84560    0.000
 3881.00    0.80026   0.82942    0.064
 3882.00    0.82084   0.81228    0.063
 3883.00    0.84592   0.79688    0.062
 3884.00    0.87562   0.78452    0.064
 3885.00    0.90609   0.77646    0.066
 3886.00    0.93564   0.77436    0.068
 3887.00    0.96506   0.77766    0.069
 3888.00    0.97102   0.78676    0.068
 3889.00    0.97498   0.80035    0.067
 3890.00    0.89330   0.81730    0.068
 3891.00    0.80735   0.83722    0.069
 3892.00    0.82666   0.85795    0.068
 3893.00    0.84755   0.87774    0.068
 3894.00    0.85976   0.89500    0.068
 3895.00    0.87421   0.91002    0.068
 3896.00    0.93474   0.92289    0.068
 3897.00    0.98475   0.93400    0.067
 3898.00    0.91032   0.94308    0.065
 3899.00    0.83110   0.94965    0.064
 3900.00    0.71274   0.95545    0.061
 3901.00    0.62182   0.96037    0.060
 3902.00    0.69844   0.96505    0.059
 3903.00    0.74600   0.96961    0.058
 3904.00    0.65375   0.97342    0.057
 3905.00    0.58926   0.97736    0.056
 3906.00    0.63353   0.98057    0.056
 3907.00    0.69200   0.98292    0.056
 3908.00    0.79678   0.98481    0.059
 3909.00    0.85770   0.98555    0.060
 3910.00    0.79770   0.98436    0.060
 3911.00    0.76262   0.98167    0.061
 3912.00    0.78639   0.97687    0.062
 3913.00    0.80343   0.97085    0.063
 3914.00    0.80673   0.96359    0.063
 3915.00    0.80099   0.95484    0.064
 3916.00    0.77918   0.94615    0.065
 3917.00    0.79400   0.93709    0.066
 3918.00    0.86574   0.92907    0.066
 3919.00    0.91920   0.92096    0.067
 3920.00    0.94770   0.91278    0.066
 3921.00    0.93034   0.90554    0.067
 3922.00    0.85789   0.89817    0.068
 3923.00    0.83801   0.89174    0.069
 3924.00    0.87381   0.88499    0.070
 3925.00    0.88916   0.87789    0.070
 3926.00    0.88540   0.87168    0.070
 3927.00    0.88971   0.86526    0.070
 3928.00    0.90065   0.86039    0.071
 3929.00    0.86068   0.85684    0.070
 3930.00    0.78382   0.85477    0.069
 3931.00    0.76432   0.85516    0.068
 3932.00    0.78134   0.85686    0.068
 3933.00    0.75404   0.86077    0.067
 3934.00    0.70208   0.86596    0.065
 3935.00    0.75874   0.87241    0.065
 3936.00    0.86798   0.87993    0.066
 3937.00    0.92407   0.88721    0.067
 3938.00    0.95793   0.89463    0.067
 3939.00    0.95057   0.90164    0.067
 3940.00    0.92845   0.90831    0.067
 3941.00    0.95609   0.91466    0.067
 3942.00    0.99876   0.92075    0.067
 3943.00    0.98051   0.92623    0.067
 3944.00    0.94696   0.93112    0.066
 3945.00    0.91511   0.93563    0.066
 3946.00    0.88360   0.93946    0.066
 3947.00    0.93613   0.94289    0.067
 3948.00    1.00212   0.94436    0.067
 3949.00    0.95791   0.94432    0.067
 3950.00    0.90055   0.94309    0.067
 3951.00    1.02641   0.94025    0.067
 3952.00    1.16719   0.93534    0.068
 3953.00    1.06294   0.92791    0.067
 3954.00    0.94742   0.91844    0.066
 3955.00    0.92351   0.90631    0.066
 3956.00    0.90147   0.89137    0.067
 3957.00    0.91634   0.87306    0.067
 3958.00    0.93105   0.85206    0.067
 3959.00    0.94284   0.82931    0.067
 3960.00    0.94975   0.80443    0.000
 3961.00    0.90169   0.77829    0.000
 3962.00    0.86043   0.75219    0.000
 3963.00    0.87275   0.72747    0.000
 3964.00    0.86747   0.70651    0.000
 3965.00    0.75770   0.68993    0.000
 3966.00    0.68375   0.67937    0.000
 3967.00    0.77794   0.67665    0.000
 3968.00    0.86899   0.68107    0.000
 3969.00    0.94799   0.69246    0.000
 3970.00    1.01247   0.71004    0.000
 3971.00    1.03058   0.73278    0.000
 3972.00    1.05920   0.75948    0.000
 3973.00    1.11631   0.78784    0.000
 3974.00    1.12663   0.81574    0.000
 3975.00    1.02832   0.84197    0.000
 3976.00    0.94996   0.86588    0.000
 3977.00    0.91170   0.88663    0.000
 3978.00    0.90488   0.90420    0.000
 3979.00    0.95306   0.91927    0.000
 3980.00    1.02575   0.93172    0.000
 3981.00    1.13597   0.94220    0.069
 3982.00    1.14638   0.95103    0.069
 3983.00    1.02256   0.95781    0.068
 3984.00    0.97409   0.96398    0.067
 3985.00    1.01486   0.96907    0.067
 3986.00    1.02283   0.97323    0.066
 3987.00    0.99657   0.97661    0.066
 3988.00    0.99042   0.97860    0.065
 3989.00    1.00279   0.98041    0.064
 3990.00    1.01943   0.98106    0.064
 3991.00    1.03953   0.98123    0.064
 3992.00    1.04469   0.98165    0.064
 3993.00    1.03917   0.98210    0.065
 3994.00    1.03809   0.98254    0.064
 3995.00    1.03980   0.98277    0.064
 3996.00    1.04375   0.98305    0.064
 3997.00    1.04894   0.98310    0.064
 3998.00    1.07766   0.98258    0.064
 3999.00    1.11758   0.98103    0.063
 4000.00    1.10183   0.97947    0.064
 4001.00    1.06319   0.97745    0.064
 4002.00    1.05586   0.97492    0.064
 4003.00    1.05954   0.97280    0.064
 4004.00    1.08611   0.97146    0.064
 4005.00    1.11945   0.97094    0.064
 4006.00    1.07043   0.97128    0.064
 4007.00    1.00116   0.97339    0.064
 4008.00    1.03910   0.97671    0.064
 4009.00    1.09835   0.98049    0.064
 4010.00    1.06442   0.98413    0.064
 4011.00    1.01602   0.98764    0.064
 4012.00    0.93861   0.99087    0.063
 4013.00    0.85786   0.99268    0.063
 4014.00    0.94641   0.99302    0.063
 4015.00    1.04806   0.99171    0.063
 4016.00    1.01410   0.98874    0.064
 4017.00    0.97443   0.98421    0.064
 4018.00    0.98662   0.97791    0.063
 4019.00    1.00000   0.97061    0.063
 4020.00    1.04488   0.96313    0.064
 4021.00    1.09315   0.95615    0.064
 4022.00    1.20125   0.94988    0.065
 4023.00    1.29755   0.94497    0.066
 4024.00    1.26702   0.94111    0.065
 4025.00    1.22727   0.93846    0.064
 4026.00    1.11747   0.93741    0.064
 4027.00    1.01149   0.93750    0.064
 4028.00    0.92757   0.94007    0.065
 4029.00    0.86851   0.94354    0.065
 4030.00    0.92333   0.94785    0.065
 4031.00    0.95629   0.95239    0.065
 4032.00    0.90725   0.95702    0.063
 4033.00    0.87610   0.96210    0.062
 4034.00    0.90104   0.96607    0.062
 4035.00    0.92192   0.96930    0.062
 4036.00    0.93199   0.97152    0.063
 4037.00    0.92639   0.97204    0.063
 4038.00    0.88499   0.97091    0.062
 4039.00    0.88200   0.96803    0.062
 4040.00    0.95494   0.96455    0.063
 4041.00    1.00001   0.96176    0.063
 4042.00    0.99705   0.95928    0.063
 4043.00    1.00080   0.95828    0.063
 4044.00    1.01466   0.95824    0.063
 4045.00    0.97813   0.95863    0.063
 4046.00    0.87478   0.95968    0.062
 4047.00    0.85002   0.96106    0.062
 4048.00    0.91701   0.96277    0.063
 4049.00    1.00265   0.96344    0.063
 4050.00    1.10749   0.96305    0.063
 4051.00    1.11890   0.96143    0.063
 4052.00    1.04547   0.95879    0.063
 4053.00    0.99762   0.95550    0.062
 4054.00    0.97026   0.95174    0.063
 4055.00    1.00271   0.94806    0.063
 4056.00    1.07728   0.94389    0.062
 4057.00    1.07643   0.93989    0.062
 4058.00    1.02901   0.93629    0.062
 4059.00    1.05425   0.93364    0.062
 4060.00    1.11869   0.93142    0.063
 4061.00    1.13080   0.92938    0.063
 4062.00    1.11840   0.92798    0.063
 4063.00    1.06968   0.92655    0.063
 4064.00    1.00630   0.92490    0.062
 4065.00    0.95978   0.92327    0.062
 4066.00    0.91908   0.92204    0.062
 4067.00    0.88591   0.92141    0.062
 4068.00    0.85493   0.91988    0.062
 4069.00    0.83862   0.91813    0.063
 4070.00    0.82582   0.91659    0.064
 4071.00    0.77919   0.91526    0.064
 4072.00    0.72599   0.91495    0.065
 4073.00    0.85849   0.91546    0.065
 4074.00    1.01897   0.91784    0.065
 4075.00    1.06564   0.92073    0.064
 4076.00    1.09973   0.92340    0.063
 4077.00    1.00869   0.92657    0.063
 4078.00    0.90848   0.93000    0.063
 4079.00    0.88465   0.93358    0.062
 4080.00    0.86374   0.93706    0.062
 4081.00    0.90259   0.93998    0.062
 4082.00    0.94297   0.94206    0.062
 4083.00    1.02833   0.94256    0.062
 4084.00    1.10075   0.94192    0.062
 4085.00    0.95976   0.94003    0.062
 4086.00    0.82989   0.93619    0.061
 4087.00    0.81451   0.93065    0.061
 4088.00    0.81383   0.92288    0.061
 4089.00    0.92095   0.91199    0.061
 4090.00    1.02207   0.89828    0.062
 4091.00    1.08959   0.88226    0.063
 4092.00    1.14063   0.86436    0.000
 4093.00    1.11787   0.84473    0.000
 4094.00    1.09449   0.82457    0.000
 4095.00    1.06877   0.80518    0.000
 4096.00    1.02745   0.78798    0.000
 4097.00    0.93813   0.77495    0.000
 4098.00    0.88881   0.76649    0.000
 4099.00    0.94404   0.76332    0.000
 4100.00    1.01185   0.76553    0.000
 4101.00    1.10793   0.77229    0.000
 4102.00    1.15182   0.78300    0.000
 4103.00    1.09416   0.79714    0.000
 4104.00    1.02226   0.81360    0.000
 4105.00    0.92621   0.83048    0.000
 4106.00    0.88842   0.84649    0.000
 4107.00    0.93724   0.86140    0.000
 4108.00    0.98352   0.87392    0.000
 4109.00    1.02648   0.88418    0.000
 4110.00    1.07253   0.89227    0.000
 4111.00    1.12213   0.89822    0.000
 4112.00    1.11400   0.90233    0.000
 4113.00    1.04726   0.90461    0.060
 4114.00    1.02420   0.90624    0.060
 4115.00    1.04025   0.90676    0.059
 4116.00    1.01629   0.90707    0.059
 4117.00    0.96075   0.90724    0.059
 4118.00    0.94200   0.90759    0.059
 4119.00    0.94877   0.90815    0.059
 4120.00    0.91717   0.90828    0.058
 4121.00    0.86220   0.90907    0.058
 4122.00    0.87173   0.90917    0.058
 4123.00    0.91553   0.90942    0.059
 4124.00    1.04158   0.90877    0.060
 4125.00    1.20557   0.90769    0.060
 4126.00    1.18823   0.90615    0.061
 4127.00    1.09889   0.90447    0.061
 4128.00    1.05826   0.90320    0.060
 4129.00    1.03413   0.90209    0.060
 4130.00    1.00381   0.90218    0.059
 4131.00    0.97172   0.90203    0.059
 4132.00    0.93789   0.90252    0.059
 4133.00    0.90365   0.90247    0.059
 4134.00    0.99665   0.90202    0.059
 4135.00    1.11365   0.90058    0.060
 4136.00    1.06498   0.89798    0.060
 4137.00    0.99212   0.89472    0.060
 4138.00    1.02927   0.89049    0.060
 4139.00    1.07811   0.88676    0.061
 4140.00    1.08654   0.88320    0.061
 4141.00    1.09217   0.88023    0.061
 4142.00    1.02034   0.87836    0.062
 4143.00    0.94583   0.87745    0.062
 4144.00    0.99004   0.87729    0.061
 4145.00    1.03161   0.87843    0.060
 4146.00    0.97826   0.88047    0.062
 4147.00    0.93391   0.88258    0.063
 4148.00    1.02861   0.88435    0.063
 4149.00    1.11605   0.88615    0.063
 4150.00    1.13186   0.88783    0.063
 4151.00    1.13798   0.88946    0.063
 4152.00    1.07529   0.89189    0.062
 4153.00    1.01203   0.89414    0.062
 4154.00    0.94567   0.89696    0.060
 4155.00    0.89334   0.89968    0.060
 4156.00    0.90234   0.90246    0.060
 4157.00    0.90800   0.90477    0.060
 4158.00    0.90171   0.90638    0.059
 4159.00    0.89965   0.90736    0.058
 4160.00    0.91033   0.90722    0.058
 4161.00    0.92827   0.90617    0.058
 4162.00    0.96485   0.90411    0.058
 4163.00    0.97311   0.90133    0.059
 4164.00    0.91883   0.89778    0.059
 4165.00    0.91150   0.89376    0.059
 4166.00    0.99410   0.88959    0.059
 4167.00    1.01052   0.88564    0.059
 4168.00    0.91630   0.88188    0.058
 4169.00    0.90281   0.87859    0.059
 4170.00    1.00755   0.87608    0.059
 4171.00    1.02287   0.87428    0.059
 4172.00    0.92300   0.87327    0.058
 4173.00    0.84619   0.87269    0.057
 4174.00    0.79554   0.87292    0.057
 4175.00    0.80535   0.87387    0.057
 4176.00    0.87567   0.87513    0.057
 4177.00    0.90855   0.87663    0.057
 4178.00    0.90836   0.87797    0.056
 4179.00    0.87994   0.87891    0.056
 4180.00    0.82955   0.88000    0.056
 4181.00    0.87557   0.88064    0.056
 4182.00    0.98751   0.88116    0.056
 4183.00    0.96112   0.88125    0.056
 4184.00    0.85182   0.88146    0.055
 4185.00    0.75726   0.88168    0.055
 4186.00    0.67039   0.88147    0.055
 4187.00    0.71274   0.88101    0.055
 4188.00    0.81369   0.87974    0.056
 4189.00    0.86617   0.87844    0.056
 4190.00    0.89975   0.87634    0.056
 4191.00    0.87623   0.87367    0.056
 4192.00    0.83374   0.87059    0.055
 4193.00    0.82278   0.86714    0.055
 4194.00    0.82060   0.86385    0.055
 4195.00    0.84519   0.86104    0.055
 4196.00    0.87593   0.85893    0.055
 4197.00    0.89494   0.85794    0.055
 4198.00    0.91180   0.85849    0.056
 4199.00    0.91842   0.86022    0.057
 4200.00    0.92360   0.86333    0.057
 4201.00    0.94610   0.86719    0.057
 4202.00    0.97037   0.87153    0.056
 4203.00    0.92436   0.87590    0.055
 4204.00    0.87378   0.88017    0.055
 4205.00    0.83618   0.88368    0.054
 4206.00    0.79913   0.88620    0.054
 4207.00    0.85992   0.88791    0.055
 4208.00    0.91737   0.88865    0.055
 4209.00    0.87680   0.88916    0.055
 4210.00    0.83834   0.88887    0.055
 4211.00    0.83070   0.88838    0.055
 4212.00    0.82635   0.88754    0.055
 4213.00    0.85310   0.88673    0.055
 4214.00    0.87574   0.88513    0.055
 4215.00    0.87009   0.88298    0.055
 4216.00    0.87432   0.87981    0.055
 4217.00    0.93105   0.87544    0.055
 4218.00    0.95610   0.87047    0.055
 4219.00    0.84576   0.86424    0.055
 4220.00    0.76202   0.85814    0.054
 4221.00    0.77194   0.85181    0.054
 4222.00    0.77907   0.84636    0.055
 4223.00    0.77792   0.84195    0.054
 4224.00    0.75961   0.83929    0.054
 4225.00    0.69803   0.83837    0.055
 4226.00    0.68309   0.83908    0.055
 4227.00    0.76947   0.84132    0.055
 4228.00    0.84854   0.84418    0.055
 4229.00    0.91385   0.84801    0.055
 4230.00    0.93187   0.85167    0.055
 4231.00    0.87207   0.85508    0.054
 4232.00    0.80920   0.85804    0.054
 4233.00    0.74189   0.86070    0.053
 4234.00    0.71872   0.86316    0.053
 4235.00    0.75160   0.86578    0.053
 4236.00    0.74208   0.86869    0.053
 4237.00    0.68514   0.87134    0.052
 4238.00    0.71347   0.87410    0.052
 4239.00    0.82597   0.87633    0.053
 4240.00    0.84670   0.87776    0.053
 4241.00    0.78757   0.87838    0.052
 4242.00    0.77305   0.87771    0.052
 4243.00    0.79272   0.87592    0.054
 4244.00    0.79380   0.87296    0.054
 4245.00    0.78233   0.86931    0.054
 4246.00    0.81218   0.86510    0.054
 4247.00    0.86642   0.86080    0.056
 4248.00    0.84729   0.85679    0.056
 4249.00    0.79039   0.85334    0.056
 4250.00    0.75395   0.85063    0.056
 4251.00    0.72664   0.84882    0.056
 4252.00    0.74744   0.84799    0.055
 4253.00    0.78669   0.84818    0.056
 4254.00    0.84812   0.84892    0.055
 4255.00    0.91677   0.85014    0.053
 4256.00    0.88084   0.85187    0.053
 4257.00    0.81636   0.85344    0.053
 4258.00    0.82770   0.85526    0.054
 4259.00    0.85604   0.85629    0.054
 4260.00    0.84378   0.85669    0.054
 4261.00    0.82425   0.85583    0.054
 4262.00    0.75776   0.85393    0.054
 4263.00    0.68485   0.85107    0.055
 4264.00    0.72238   0.84694    0.055
 4265.00    0.77071   0.84206    0.055
 4266.00    0.74849   0.83664    0.054
 4267.00    0.72195   0.83145    0.053
 4268.00    0.72879   0.82675    0.053
 4269.00    0.73659   0.82340    0.052
 4270.00    0.75526   0.82143    0.052
 4271.00    0.77335   0.82102    0.052
 4272.00    0.77599   0.82213    0.052
 4273.00    0.77846   0.82428    0.052
 4274.00    0.77869   0.82734    0.053
 4275.00    0.77794   0.83044    0.053
 4276.00    0.76835   0.83338    0.053
 4277.00    0.75348   0.83568    0.053
 4278.00    0.70348   0.83697    0.053
 4279.00    0.67592   0.83704    0.053
 4280.00    0.76454   0.83614    0.052
 4281.00    0.83520   0.83413    0.052
 4282.00    0.83083   0.83152   -2.000
 4283.00    0.80965   0.82859   -2.000
 4284.00    0.73039   0.82521   -2.000
 4285.00    0.70216   0.82236   -2.000
 4286.00    0.82224   0.81934   -2.000
 4287.00    0.90310   0.81678   -2.000
 4288.00    0.88669   0.81435   -2.000
 4289.00    0.87414   0.81181   -2.000
 4290.00    0.86984   0.80926   -2.000
 4291.00    0.87075   0.80611   -2.000
 4292.00    0.88136   0.80268   -2.000
 4293.00    0.85890   0.79825   -2.000
 4294.00    0.78280   0.79358   -2.000
 4295.00    0.74628   0.78789   -2.000
 4296.00    0.76607   0.78200   -2.000
 4297.00    0.78465   0.77593   -2.000
 4298.00    0.80171   0.76999    0.053
 4299.00    0.79718   0.76488    0.053
 4300.00    0.76884   0.76038    0.053
 4301.00    0.77410   0.75719    0.053
 4302.00    0.81204   0.75530    0.053
 4303.00    0.79015   0.75513    0.053
 4304.00    0.71691   0.75665    0.053
 4305.00    0.70870   0.76022    0.053
 4306.00    0.74962   0.76564    0.053
 4307.00    0.79699   0.77299    0.053
 4308.00    0.84864   0.78213    0.053
 4309.00    0.81054   0.79238    0.052
 4310.00    0.72026   0.80368    0.051
 4311.00    0.70119   0.81494    0.051
 4312.00    0.71822   0.82576    0.051
 4313.00    0.77257   0.83515    0.051
 4314.00    0.84329   0.84255    0.052
 4315.00    0.84366   0.84765    0.052
 4316.00    0.81752   0.85009    0.052
 4317.00    0.88109   0.85038    0.052
 4318.00    0.97334   0.84832    0.052
 4319.00    0.95916   0.84511    0.053
 4320.00    0.91653   0.84090    0.053
 4321.00    0.88743   0.83680    0.053
 4322.00    0.86129   0.83315    0.053
 4323.00    0.86914   0.83057    0.053
 4324.00    0.88291   0.82880    0.053
 4325.00    0.86279   0.82749    0.054
 4326.00    0.83819   0.82625    0.055
 4327.00    0.86001   0.82405    0.055
 4328.00    0.88616   0.82056    0.054
 4329.00    0.86536   0.81486    0.054
 4330.00    0.84188   0.80678    0.000
 4331.00    0.88481   0.79614    0.000
 4332.00    0.92841   0.78312    0.000
 4333.00    0.87098   0.76907    0.000
 4334.00    0.81461   0.75477    0.000
 4335.00    0.78399   0.74202    0.000
 4336.00    0.75444   0.73165    0.000
 4337.00    0.73876   0.72488    0.000
 4338.00    0.72711   0.72221    0.000
 4339.00    0.75062   0.72377    0.000
 4340.00    0.76953   0.72937    0.000
 4341.00    0.75865   0.73812    0.000
 4342.00    0.75551   0.74950    0.000
 4343.00    0.79143   0.76181    0.000
 4344.00    0.81269   0.77446    0.000
 4345.00    0.77411   0.78643    0.000
 4346.00    0.75960   0.79716    0.000
 4347.00    0.82653   0.80627    0.000
 4348.00    0.88380   0.81423    0.000
 4349.00    0.91351   0.82119    0.000
 4350.00    0.91325   0.82737    0.000
 4351.00    0.83995   0.83321    0.054
 4352.00    0.79594   0.83887    0.054
 4353.00    0.81359   0.84436    0.054
 4354.00    0.84819   0.84965    0.054
 4355.00    0.91379   0.85483    0.055
 4356.00    0.93444   0.85982    0.055
 4357.00    0.88326   0.86424    0.054
 4358.00    0.84688   0.86774    0.054
 4359.00    0.83128   0.87040    0.054
 4360.00    0.79614   0.87196    0.054
 4361.00    0.73692   0.87241    0.053
 4362.00    0.72344   0.87168    0.053
 4363.00    0.75973   0.87001    0.053
 4364.00    0.79720   0.86747    0.054
 4365.00    0.83579   0.86405    0.054
 4366.00    0.89393   0.86011    0.054
 4367.00    0.96860   0.85581    0.055
 4368.00    0.94956   0.85155    0.055
 4369.00    0.86072   0.84719    0.054
 4370.00    0.81263   0.84302    0.054
 4371.00    0.79120   0.83904    0.054
 4372.00    0.81686   0.83526    0.054
 4373.00    0.86949   0.83118    0.054
 4374.00    0.85779   0.82682    0.054
 4375.00    0.81401   0.82184    0.053
 4376.00    0.77523   0.81636    0.054
 4377.00    0.73862   0.81025    0.055
 4378.00    0.73588   0.80397    0.054
 4379.00    0.74568   0.79787    0.053
 4380.00    0.75911   0.79238    0.053
 4381.00    0.77369   0.78793    0.054
 4382.00    0.79836   0.78482    0.054
 4383.00    0.82568   0.78363    0.053
 4384.00    0.76154   0.78428    0.053
 4385.00    0.67787   0.78684    0.053
 4386.00    0.68605   0.79082    0.052
 4387.00    0.70977   0.79615    0.052
 4388.00    0.73174   0.80244    0.052
 4389.00    0.75348   0.80900    0.052
 4390.00    0.73242   0.81523    0.052
 4391.00    0.70755   0.82077    0.053
 4392.00    0.76506   0.82555    0.053
 4393.00    0.82695   0.82917    0.053
 4394.00    0.81226   0.83133    0.053
 4395.00    0.79755   0.83217    0.053
 4396.00    0.90335   0.83160    0.053
 4397.00    0.99863   0.82981    0.054
 4398.00    0.86285   0.82718    0.053
 4399.00    0.73360   0.82414    0.051
 4400.00    0.68509   0.82120    0.052
 4401.00    0.64928   0.81853    0.052
 4402.00    0.72027   0.81664    0.052
 4403.00    0.77804   0.81576    0.053
 4404.00    0.75290   0.81599    0.053
 4405.00    0.74458   0.81731    0.053
 4406.00    0.81898   0.81931    0.053
 4407.00    0.86912   0.82159    0.053
 4408.00    0.82246   0.82414    0.052
 4409.00    0.78811   0.82672    0.052
 4410.00    0.79458   0.82905    0.051
 4411.00    0.78998   0.83101    0.051
 4412.00    0.75440   0.83278    0.051
 4413.00    0.72549   0.83449    0.051
 4414.00    0.71258   0.83604    0.052
 4415.00    0.70986   0.83757    0.053
 4416.00    0.72823   0.83904    0.053
 4417.00    0.75304   0.84030    0.053
 4418.00    0.78945   0.84129    0.052
 4419.00    0.80763   0.84208    0.052
 4420.00    0.79712   0.84247    0.052
 4421.00    0.79648   0.84233    0.052
 4422.00    0.80948   0.84178    0.052
 4423.00    0.84539   0.84071    0.051
 4424.00    0.90916   0.83931    0.051
 4425.00    0.91986   0.83762    0.052
 4426.00    0.87368   0.83585    0.052
 4427.00    0.87593   0.83412    0.052
 4428.00    0.92397   0.83253    0.052
 4429.00    0.92837   0.83117    0.052
 4430.00    0.89637   0.83026    0.053
 4431.00    0.82784   0.82984    0.052
 4432.00    0.73250   0.82999    0.052
 4433.00    0.71706   0.83065    0.052
 4434.00    0.75314   0.83177    0.052
 4435.00    0.76196   0.83335    0.052
 4436.00    0.75541   0.83509    0.052
 4437.00    0.81623   0.83696    0.053
 4438.00    0.91011   0.83890    0.053
 4439.00    0.89759   0.84076    0.054
 4440.00    0.83994   0.84262    0.054
 4441.00    0.79505   0.84422    0.053
 4442.00    0.75481   0.84554    0.052
 4443.00    0.76996   0.84636    0.052
 4444.00    0.80214   0.84651    0.052
 4445.00    0.83184   0.84591    0.053
 4446.00    0.86090   0.84439    0.053
 4447.00    0.87290   0.84194    0.052
 4448.00    0.88135   0.83856    0.051
 4449.00    0.82121   0.83437    0.051
 4450.00    0.74980   0.82955    0.052
 4451.00    0.74994   0.82451    0.052
 4452.00    0.75891   0.81946    0.052
 4453.00    0.77890   0.81489    0.051
 4454.00    0.79983   0.81088    0.051
 4455.00    0.76497   0.80785    0.051
 4456.00    0.72735   0.80557    0.050
 4457.00    0.72740   0.80436    0.050
 4458.00    0.72908   0.80380    0.049
 4459.00    0.79500   0.80397    0.050
 4460.00    0.85663   0.80452    0.050
 4461.00    0.83126   0.80536    0.000
 4462.00    0.80326   0.80631    0.000
 4463.00    0.74434   0.80740    0.000
 4464.00    0.69721   0.80856    0.000
 4465.00    0.74573   0.81014    0.000
 4466.00    0.79037   0.81204    0.000
 4467.00    0.81139   0.81466    0.000
 4468.00    0.83684   0.81776    0.000
 4469.00    0.88355   0.82160    0.000
 4470.00    0.90785   0.82564    0.000
 4471.00    0.84455   0.82993    0.000
 4472.00    0.80149   0.83402    0.000
 4473.00    0.82423   0.83765    0.000
 4474.00    0.83867   0.84068    0.000
 4475.00    0.83030   0.84294    0.000
 4476.00    0.80127   0.84465    0.000
 4477.00    0.72357   0.84573    0.000
 4478.00    0.70316   0.84663    0.000
 4479.00    0.79941   0.84720    0.000
 4480.00    0.86209   0.84775    0.000
 4481.00    0.86527   0.84816    0.000
 4482.00    0.86322   0.84856    0.049
 4483.00    0.85308   0.84867    0.050
 4484.00    0.84455   0.84852    0.050
 4485.00    0.83820   0.84798    0.050
 4486.00    0.82181   0.84724    0.050
 4487.00    0.79341   0.84629    0.049
 4488.00    0.77343   0.84545    0.049
 4489.00    0.76238   0.84471    0.048
 4490.00    0.76921   0.84450    0.049
 4491.00    0.79274   0.84481    0.049
 4492.00    0.80368   0.84598    0.049
 4493.00    0.80427   0.84790    0.049
 4494.00    0.78667   0.85071    0.049
 4495.00    0.75591   0.85424    0.048
 4496.00    0.77123   0.85830    0.048
 4497.00    0.81584   0.86273    0.049
 4498.00    0.79991   0.86715    0.050
 4499.00    0.75035   0.87139    0.049
 4500.00    0.75954   0.87510    0.049
 4501.00    0.79710   0.87814    0.050
 4502.00    0.86771   0.88029    0.050
 4503.00    0.95211   0.88143    0.049
 4504.00    0.95355   0.88159    0.049
 4505.00    0.92538   0.88074    0.049
 4506.00    0.87685   0.87911    0.048
 4507.00    0.82217   0.87678    0.048
 4508.00    0.82246   0.87409    0.048
 4509.00    0.83651   0.87112    0.048
 4510.00    0.85445   0.86817    0.048
 4511.00    0.87319   0.86529    0.049
 4512.00    0.89348   0.86264    0.049
 4513.00    0.91402   0.86012    0.048
 4514.00    0.84478   0.85775    0.048
 4515.00    0.76488   0.85520    0.048
 4516.00    0.81476   0.85244    0.048
 4517.00    0.87514   0.84911    0.048
 4518.00    0.87283   0.84517    0.048
 4519.00    0.86767   0.84049    0.049
 4520.00    0.83671   0.83512    0.049
 4521.00    0.80665   0.82931    0.049
 4522.00    0.83817   0.82315    0.049
 4523.00    0.86567   0.81724    0.048
 4524.00    0.81779   0.81162    0.048
 4525.00    0.77608   0.80702    0.048
 4526.00    0.80365   0.80331    0.049
 4527.00    0.82359   0.80111    0.049
 4528.00    0.78389   0.80002    0.048
 4529.00    0.74739   0.80041    0.048
 4530.00    0.72984   0.80178    0.048
 4531.00    0.71932   0.80414    0.048
 4532.00    0.74174   0.80710    0.048
 4533.00    0.75747   0.81033    0.049
 4534.00    0.74765   0.81370    0.049
 4535.00    0.74813   0.81670    0.048
 4536.00    0.78149   0.81946    0.048
 4537.00    0.81389   0.82151    0.048
 4538.00    0.84372   0.82312    0.048
 4539.00    0.86824   0.82400    0.048
 4540.00    0.88047   0.82441    0.048
 4541.00    0.88691   0.82431    0.049
 4542.00    0.88175   0.82385    0.049
 4543.00    0.85347   0.82320    0.049
 4544.00    0.78480   0.82240    0.048
 4545.00    0.73718   0.82173    0.048
 4546.00    0.72172   0.82120    0.048
 4547.00    0.73510   0.82107    0.048
 4548.00    0.78719   0.82145    0.047
 4549.00    0.82747   0.82237    0.048
 4550.00    0.85380   0.82403    0.000
 4551.00    0.86340   0.82616    0.000
 4552.00    0.85558   0.82895    0.000
 4553.00    0.82885   0.83190    0.000
 4554.00    0.78476   0.83510    0.000
 4555.00    0.75381   0.83801    0.000
 4556.00    0.73351   0.84067    0.000
 4557.00    0.73444   0.84273    0.000
 4558.00    0.75052   0.84426    0.000
 4559.00    0.77674   0.84517    0.000
 4560.00    0.80933   0.84561    0.000
 4561.00    0.83281   0.84567    0.000
 4562.00    0.85132   0.84554    0.000
 4563.00    0.84524   0.84534    0.000
 4564.00    0.82746   0.84516    0.000
 4565.00    0.82810   0.84502    0.000
 4566.00    0.83627   0.84492    0.000
 4567.00    0.82847   0.84479    0.000
 4568.00    0.81507   0.84454    0.000
 4569.00    0.78741   0.84408    0.000
 4570.00    0.75555   0.84329    0.000
 4571.00    0.78551   0.84217    0.000
 4572.00    0.83061   0.84059    0.000
 4573.00    0.81860   0.83870    0.000
 4574.00    0.79527   0.83641    0.000
 4575.00    0.76468   0.83405    0.000
 4576.00    0.73296   0.83154    0.000
 4577.00    0.76817   0.82927    0.000
 4578.00    0.81104   0.82720    0.000
 4579.00    0.84234   0.82558    0.000
 4580.00    0.87276   0.82437    0.000
 4581.00    0.84084   0.82358    0.000
 4582.00    0.80632   0.82316    0.000
 4583.00    0.79522   0.82288    0.000
 4584.00    0.78452   0.82272    0.000
 4585.00    0.78179   0.82237    0.000
 4586.00    0.77961   0.82185    0.000
 4587.00    0.78713   0.82097    0.000
 4588.00    0.79051   0.81983    0.000
 4589.00    0.74950   0.81840    0.000
 4590.00    0.71902   0.81686    0.000
 4591.00    0.76808   0.81530    0.000
 4592.00    0.80701   0.81388    0.000
 4593.00    0.78765   0.81275    0.000
 4594.00    0.76930   0.81197    0.000
 4595.00    0.75549   0.81171    0.000
 4596.00    0.74931   0.81187    0.000
 4597.00    0.77164   0.81271    0.000
 4598.00    0.78243   0.81391    0.000
 4599.00    0.75713   0.81588    0.000
 4600.00    0.73397   0.81807    0.000
 4601.00    0.71650   0.82096    0.000
 4602.00    0.72529   0.82388    0.000
 4603.00    0.79393   0.82725    0.000
 4604.00    0.82710   0.83042    0.000
 4605.00    0.79029   0.83366    0.000
 4606.00    0.77740   0.83652    0.000
 4607.00    0.80565   0.83907    0.000
 4608.00    0.82327   0.84122    0.000
 4609.00    0.82488   0.84283    0.000
 4610.00    0.79996   0.84417    0.000
 4611.00    0.73994   0.84492    0.000
 4612.00    0.72632   0.84561    0.000
 4613.00    0.76677   0.84577    0.000
 4614.00    0.80244   0.84601    0.000
 4615.00    0.83319   0.84584    0.000
 4616.00    0.85781   0.84576    0.000
 4617.00    0.87687   0.84536    0.000
 4618.00    0.84511   0.84496    0.000
 4619.00    0.77276   0.84429    0.000
 4620.00    0.75171   0.84348    0.000
 4621.00    0.76671   0.84246    0.000
 4622.00    0.77564   0.84115    0.000
 4623.00    0.78084   0.83968    0.000
 4624.00    0.78918   0.83779    0.000
 4625.00    0.79922   0.83579    0.000
 4626.00    0.78961   0.83329    0.000
 4627.00    0.77080   0.83072    0.000
 4628.00    0.82544   0.82761    0.000
 4629.00    0.90970   0.82442    0.000
 4630.00    0.91947   0.82077    0.000
 4631.00    0.90361   0.81706    0.000
 4632.00    0.81996   0.81307    0.000
 4633.00    0.71667   0.80905    0.000
 4634.00    0.75574   0.80500    0.000
 4635.00    0.82891   0.80093    0.000
 4636.00    0.77924   0.79709    0.000
 4637.00    0.70585   0.79322    0.000
 4638.00    0.69560   0.78977    0.000
 4639.00    0.69482   0.78632    0.000
 4640.00    0.72269   0.78348    0.000
 4641.00    0.75372   0.78073    0.000
 4642.00    0.76061   0.77887    0.000
 4643.00    0.76576   0.77728    0.000
 4644.00    0.76359   0.77686    0.000
 4645.00    0.76115   0.77687    0.000
 4646.00    0.73665   0.77816    0.000
 4647.00    0.71260   0.77987    0.000
 4648.00    0.70922   0.78271    0.000
 4649.00    0.70786   0.78574    0.000
 4650.00    0.73942   0.78946    0.000
 4651.00    0.76703   0.79301    0.000
 4652.00    0.75432   0.79661    0.000
 4653.00    0.74846   0.79965    0.000
 4654.00    0.79267   0.80206    0.000
 4655.00    0.82899   0.80358    0.000
 4656.00    0.82121   0.80398    0.000
 4657.00    0.80507   0.80333    0.000
 4658.00    0.75159   0.80147    0.000
 4659.00    0.72517   0.79876    0.000
 4660.00    0.79789   0.79523    0.000
 4661.00    0.84389   0.79146    0.000
 4662.00    0.80791   0.78757    0.000
 4663.00    0.76220   0.78416    0.000
 4664.00    0.69107   0.78130    0.000
 4665.00    0.65904   0.77944    0.000
 4666.00    0.71462   0.77837    0.000
 4667.00    0.76505   0.77834    0.000
 4668.00    0.80549   0.77884    0.000
 4669.00    0.83179   0.78003    0.000
 4670.00    0.83415   0.78120    0.000
 4671.00    0.83476   0.78259    0.000
 4672.00    0.83278   0.78349    0.000
 4673.00    0.84377   0.78428    0.000
 4674.00    0.87166   0.78442    0.000
 4675.00    0.85136   0.78438    0.000
 4676.00    0.77567   0.78386    0.000
 4677.00    0.74240   0.78330    0.000
 4678.00    0.75210   0.78255    0.000
 4679.00    0.77866   0.78195    0.000
 4680.00    0.82028   0.78142    0.000
 4681.00    0.82274   0.78118    0.000
 4682.00    0.79436   0.78112    0.000
 4683.00    0.77009   0.78139    0.000
 4684.00    0.74867   0.78180    0.000
 4685.00    0.71801   0.78244    0.000
 4686.00    0.68174   0.78310    0.000
 4687.00    0.68706   0.78379    0.000
 4688.00    0.71442   0.78432    0.000
 4689.00    0.72503   0.78463    0.000
 4690.00    0.72792   0.78457    0.000
 4691.00    0.72262   0.78410    0.000
 4692.00    0.71407   0.78315    0.000
 4693.00    0.71860   0.78176    0.000
 4694.00    0.72755   0.77994    0.000
 4695.00    0.74351   0.77787    0.000
 4696.00    0.76147   0.77558    0.000
 4697.00    0.74213   0.77335    0.000
 4698.00    0.71406   0.77123    0.000
 4699.00    0.70867   0.76937    0.000
 4700.00    0.70755   0.76799    0.000
 4701.00    0.71285   0.76683    0.000
 4702.00    0.71907   0.76640    0.000
 4703.00    0.68235   0.76601    0.000
 4704.00    0.64108   0.76655    0.000
 4705.00    0.72440   0.76694    0.000
 4706.00    0.81627   0.76842    0.000
 4707.00    0.78502   0.76965    0.000
 4708.00    0.74957   0.77209    0.000
 4709.00    0.76993   0.77425    0.000
 4710.00    0.78936   0.77761    0.000
 4711.00    0.77566   0.78067    0.000
 4712.00    0.75969   0.78468    0.000
 4713.00    0.70902   0.78824    0.000
 4714.00    0.66745   0.79223    0.000
 4715.00    0.71507   0.79554    0.000
 4716.00    0.75383   0.79860    0.000
 4717.00    0.72991   0.80068    0.000
 4718.00    0.71339   0.80185    0.000
 4719.00    0.73716   0.80199    0.000
 4720.00    0.75232   0.80103    0.000
 4721.00    0.72993   0.79926    0.000
 4722.00    0.72186   0.79663    0.000
 4723.00    0.76520   0.79368    0.000
 4724.00    0.79615   0.79045    0.000
 4725.00    0.78980   0.78744    0.000
 4726.00    0.76600   0.78485    0.000
 4727.00    0.69748   0.78279    0.000
 4728.00    0.66870   0.78157    0.000
 4729.00    0.72749   0.78100    0.000
 4730.00    0.76899   0.78124    0.000
 4731.00    0.77744   0.78203    0.000
 4732.00    0.77696   0.78336    0.000
 4733.00    0.76158   0.78496    0.000
 4734.00    0.74195   0.78674    0.000
 4735.00    0.71609   0.78867    0.000
 4736.00    0.70490   0.79053    0.000
 4737.00    0.71258   0.79243    0.000
 4738.00    0.73778   0.79406    0.000
 4739.00    0.78284   0.79572    0.000
 4740.00    0.78283   0.79710    0.000
 4741.00    0.73779   0.79827    0.000
 4742.00    0.74831   0.79916    0.000
 4743.00    0.80779   0.79964    0.000
 4744.00    0.81160   0.79989    0.000
 4745.00    0.77219   0.79941    0.000
 4746.00    0.76065   0.79886    0.000
 4747.00    0.76816   0.79747    0.000
 4748.00    0.78645   0.79613    0.000
 4749.00    0.81120   0.79401    0.000
 4750.00    0.79186   0.79201    0.000
 4751.00    0.74950   0.78943    0.000
 4752.00    0.73346   0.78696    0.000
 4753.00    0.72933   0.78412    0.000
 4754.00    0.74911   0.78128    0.000
 4755.00    0.77819   0.77817    0.000
 4756.00    0.76500   0.77516    0.000
 4757.00    0.73781   0.77203    0.000
 4758.00    0.72986   0.76915    0.000
 4759.00    0.72726   0.76640    0.000
 4760.00    0.75126   0.76424    0.000
 4761.00    0.78134   0.76249    0.048
 4762.00    0.79069   0.76159    0.048
 4763.00    0.79623   0.76135    0.048
 4764.00    0.75254   0.76186    0.048
 4765.00    0.70192   0.76308    0.047
 4766.00    0.70470   0.76481    0.047
 4767.00    0.71290   0.76706    0.047
 4768.00    0.68905   0.76952    0.047
 4769.00    0.66313   0.77204    0.047
 4770.00    0.75229   0.77443    0.047
 4771.00    0.84473   0.77638    0.047
 4772.00    0.83449   0.77793    0.048
 4773.00    0.82481   0.77884    0.048
 4774.00    0.83125   0.77911    0.048
 4775.00    0.83445   0.77873    0.048
 4776.00    0.79094   0.77779    0.048
 4777.00    0.74927   0.77638    0.048
 4778.00    0.72494   0.77464    0.047
 4779.00    0.70843   0.77277    0.046
 4780.00    0.74540   0.77110    0.045
 4781.00    0.76840   0.76952    0.045
 4782.00    0.71744   0.76843    0.044
 4783.00    0.67975   0.76796    0.044
 4784.00    0.69853   0.76798    0.044
 4785.00    0.70727   0.76873    0.045
 4786.00    0.68070   0.77001    0.045
 4787.00    0.65444   0.77179    0.045
 4788.00    0.62908   0.77387    0.045
 4789.00    0.63509   0.77608    0.045
 4790.00    0.72008   0.77818    0.045
 4791.00    0.78610   0.77988    0.046
 4792.00    0.81099   0.78123    0.046
 4793.00    0.80426   0.78200    0.045
 4794.00    0.73804   0.78230    0.044
 4795.00    0.70277   0.78211    0.044
 4796.00    0.71836   0.78158    0.044
 4797.00    0.73276   0.78074    0.045
 4798.00    0.74545   0.77950    0.045
 4799.00    0.74690   0.77816    0.046
 4800.00    0.73411   0.77651    0.046
 4801.00    0.71411   0.77514    0.046
 4802.00    0.68605   0.77366    0.045
 4803.00    0.71355   0.77248    0.045
 4804.00    0.79577   0.77155    0.045
 4805.00    0.81597   0.77101    0.046
 4806.00    0.78229   0.77080    0.045
 4807.00    0.76430   0.77091    0.045
 4808.00    0.75832   0.77138    0.044
 4809.00    0.73935   0.77210    0.043
 4810.00    0.71166   0.77308    0.044
 4811.00    0.69644   0.77405    0.043
 4812.00    0.68858   0.77508    0.043
 4813.00    0.70147   0.77578    0.043
 4814.00    0.72502   0.77628    0.044
 4815.00    0.72941   0.77631    0.044
 4816.00    0.72526   0.77591    0.045
 4817.00    0.74087   0.77514    0.044
 4818.00    0.76404   0.77376    0.044
 4819.00    0.74685   0.77227    0.044
 4820.00    0.71654   0.77057    0.044
 4821.00    0.73066   0.76884    0.044
 4822.00    0.75688   0.76709    0.043
 4823.00    0.74952   0.76537    0.043
 4824.00    0.73466   0.76380    0.043
 4825.00    0.72644   0.76243    0.043
 4826.00    0.71940   0.76129    0.043
 4827.00    0.70471   0.76016    0.043
 4828.00    0.68897   0.75949    0.043
 4829.00    0.66437   0.75865    0.043
 4830.00    0.63891   0.75819    0.044
 4831.00    0.61759   0.75742    0.044
 4832.00    0.59652   0.75689    0.043
 4833.00    0.62681   0.75600    0.044
 4834.00    0.65840   0.75516    0.044
 4835.00    0.67850   0.75412    0.044
 4836.00    0.69799   0.75305    0.044
 4837.00    0.70181   0.75193    0.044
 4838.00    0.70912   0.75065    0.044
 4839.00    0.76414   0.74940    0.044
 4840.00    0.80623   0.74790    0.044
 4841.00    0.73148   0.74621    0.044
 4842.00    0.66478   0.74415    0.043
 4843.00    0.65145   0.74147    0.044
 4844.00    0.65773   0.73807    0.044
 4845.00    0.76511   0.73392    0.044
 4846.00    0.83790   0.72871    0.044
 4847.00    0.76667   0.72259    0.044
 4848.00    0.70770   0.71528    0.000
 4849.00    0.69092   0.70679    0.000
 4850.00    0.68748   0.69734    0.000
 4851.00    0.72268   0.68711    0.000
 4852.00    0.73797   0.67653    0.000
 4853.00    0.70400   0.66590    0.000
 4854.00    0.67688   0.65599    0.000
 4855.00    0.66437   0.64680    0.000
 4856.00    0.65270   0.63919    0.000
 4857.00    0.64257   0.63350    0.000
 4858.00    0.64475   0.63039    0.000
 4859.00    0.66684   0.62958    0.000
 4860.00    0.67748   0.63170    0.000
 4861.00    0.67188   0.63524    0.000
 4862.00    0.68327   0.64079    0.000
 4863.00    0.71590   0.64721    0.000
 4864.00    0.71458   0.65457    0.000
 4865.00    0.67588   0.66202    0.000
 4866.00    0.67818   0.66951    0.000
 4867.00    0.72029   0.67682    0.000
 4868.00    0.70559   0.68360    0.000
 4869.00    0.64222   0.69019    0.000
 4870.00    0.63100   0.69654    0.000
 4871.00    0.65912   0.70229    0.000
 4872.00    0.64835   0.70756    0.000
 4873.00    0.61181   0.71204    0.000
 4874.00    0.62841   0.71626    0.000
 4875.00    0.67585   0.71926    0.045
 4876.00    0.67931   0.72180    0.044
 4877.00    0.66055   0.72329    0.044
 4878.00    0.67481   0.72391    0.044
 4879.00    0.70353   0.72387    0.044
 4880.00    0.70006   0.72354    0.044
 4881.00    0.68449   0.72282    0.044
 4882.00    0.69588   0.72195    0.045
 4883.00    0.71586   0.72154    0.046
 4884.00    0.72171   0.72157    0.047
 4885.00    0.72378   0.72264    0.048
 4886.00    0.70421   0.72402    0.047
 4887.00    0.67992   0.72675    0.046
 4888.00    0.65965   0.72968    0.046
 4889.00    0.64008   0.73401    0.046
 4890.00    0.65489   0.73866    0.046
 4891.00    0.67422   0.74322    0.045
 4892.00    0.67841   0.74766    0.046
 4893.00    0.68120   0.75135    0.047
 4894.00    0.67836   0.75451    0.047
 4895.00    0.67521   0.75668    0.047
 4896.00    0.71741   0.75820    0.046
 4897.00    0.75985   0.75861    0.046
 4898.00    0.71392   0.75878    0.046
 4899.00    0.67066   0.75820    0.046
 4900.00    0.69062   0.75712    0.046
 4901.00    0.71161   0.75575    0.046
 4902.00    0.74588   0.75436    0.046
 4903.00    0.77879   0.75269    0.045
 4904.00    0.79986   0.75076    0.046
 4905.00    0.81172   0.74845    0.047
 4906.00    0.76432   0.74623    0.047
 4907.00    0.72488   0.74347    0.047
 4908.00    0.72549   0.74092    0.046
 4909.00    0.72125   0.73786    0.046
 4910.00    0.69727   0.73466    0.046
 4911.00    0.68536   0.73083    0.046
 4912.00    0.71422   0.72700    0.046
 4913.00    0.72554   0.72293    0.045
 4914.00    0.68694   0.71873    0.045
 4915.00    0.66525   0.71511    0.045
 4916.00    0.68470   0.71170    0.045
 4917.00    0.66167   0.71027    0.045
 4918.00    0.54948   0.70930    0.045
 4919.00    0.50281   0.71105    0.044
 4920.00    0.57569   0.71305    0.044
 4921.00    0.64181   0.71687    0.043
 4922.00    0.69715   0.72056    0.044
 4923.00    0.72249   0.72571    0.044
 4924.00    0.70586   0.73021    0.045
 4925.00    0.68498   0.73439    0.044
 4926.00    0.65887   0.73795    0.043
 4927.00    0.67624   0.74035    0.043
 4928.00    0.74080   0.74178    0.044
 4929.00    0.75804   0.74225    0.044
 4930.00    0.72998   0.74174    0.044
 4931.00    0.70576   0.74067    0.044
 4932.00    0.68478   0.74005    0.043
 4933.00    0.67115   0.73907    0.043
 4934.00    0.66297   0.73850    0.043
 4935.00    0.64650   0.73813    0.043
 4936.00    0.62459   0.73892    0.042
 4937.00    0.66116   0.74036    0.042
 4938.00    0.73115   0.74295    0.043
 4939.00    0.75230   0.74525    0.043
 4940.00    0.74912   0.74833    0.000
 4941.00    0.72141   0.75101    0.000
 4942.00    0.68313   0.75362    0.000
 4943.00    0.69762   0.75525    0.000
 4944.00    0.73160   0.75674    0.000
 4945.00    0.77121   0.75695    0.000
 4946.00    0.81259   0.75636    0.000
 4947.00    0.78062   0.75462    0.000
 4948.00    0.72952   0.75204    0.000
 4949.00    0.69730   0.74865    0.000
 4950.00    0.66911   0.74434    0.000
 4951.00    0.68613   0.74014    0.000
 4952.00    0.71077   0.73544    0.000
 4953.00    0.71471   0.73140    0.000
 4954.00    0.71601   0.72711    0.000
 4955.00    0.70501   0.72394    0.000
 4956.00    0.69293   0.72205    0.000
 4957.00    0.67664   0.72048    0.000
 4958.00    0.66012   0.71961    0.000
 4959.00    0.67411   0.71883    0.000
 4960.00    0.68857   0.71873    0.000
 4961.00    0.69475   0.71865    0.000
 4962.00    0.70064   0.71878    0.000
 4963.00    0.70041   0.71897    0.000
 4964.00    0.70226   0.71964    0.000
 4965.00    0.72970   0.72009    0.000
 4966.00    0.75280   0.72080    0.000
 4967.00    0.73958   0.72128    0.000
 4968.00    0.71936   0.72146    0.000
 4969.00    0.65548   0.72151    0.000
 4970.00    0.61002   0.72070    0.000
 4971.00    0.65487   0.71956    0.000
 4972.00    0.69178   0.71758    0.000
 4973.00    0.69711   0.71490    0.000
 4974.00    0.69388   0.71188    0.000
 4975.00    0.66235   0.70819    0.000
 4976.00    0.64882   0.70468    0.000
 4977.00    0.68562   0.70125    0.000
 4978.00    0.70361   0.69827    0.000
 4979.00    0.67661   0.69562    0.000
 4980.00    0.66259   0.69393    0.000
 4981.00    0.67538   0.69318    0.000
 4982.00    0.66965   0.69332    0.000
 4983.00    0.63063   0.69407    0.000
 4984.00    0.60609   0.69548    0.000
 4985.00    0.60430   0.69706    0.000
 4986.00    0.61514   0.69841    0.000
 4987.00    0.64343   0.69987    0.000
 4988.00    0.63603   0.70049    0.000
 4989.00    0.58531   0.70117    0.000
 4990.00    0.59931   0.70090    0.000
 4991.00    0.68261   0.69997    0.000
 4992.00    0.73223   0.69855    0.000
 4993.00    0.75005   0.69643    0.000
 4994.00    0.74080   0.69367    0.000
 4995.00    0.70901   0.69055    0.000
 4996.00    0.69955   0.68697    0.000
 4997.00    0.70644   0.68309    0.000
 4998.00    0.69666   0.67962    0.000
 4999.00    0.67617   0.67589    0.000
 5000.00    0.68565   0.67306    0.000
 5001.00    0.71200   0.66992    0.000
 5002.00    0.70253   0.66755    0.000
 5003.00    0.67551   0.66495    0.000
 5004.00    0.67403   0.66321    0.000
 5005.00    0.68337   0.66153    0.000
 5006.00    0.68106   0.66027    0.000
 5007.00    0.67452   0.65876    0.000
 5008.00    0.70298   0.65762    0.000
 5009.00    0.74218   0.65630    0.000
 5010.00    0.72189   0.65535    0.000
 5011.00    0.68642   0.65491    0.000
 5012.00    0.67620   0.65465    0.000
 5013.00    0.67122   0.65554    0.000
 5014.00    0.65934   0.65641    0.000
 5015.00    0.64633   0.65820    0.000
 5016.00    0.58005   0.66014    0.000
 5017.00    0.50723   0.66268    0.000
 5018.00    0.57518   0.66530    0.000
 5019.00    0.65502   0.66819    0.000
 5020.00    0.61591   0.67109    0.000
 5021.00    0.57098   0.67436    0.000
 5022.00    0.63976   0.67713    0.000
 5023.00    0.70888   0.68019    0.000
 5024.00    0.69170   0.68253    0.000
 5025.00    0.67512   0.68454    0.000
 5026.00    0.67024   0.68640    0.000
 5027.00    0.67186   0.68722    0.000
 5028.00    0.74941   0.68784    0.000
 5029.00    0.80932   0.68744    0.042
 5030.00    0.72680   0.68658    0.043
 5031.00    0.65435   0.68487    0.043
 5032.00    0.64295   0.68274    0.042
 5033.00    0.63079   0.68006    0.041
 5034.00    0.61504   0.67781    0.041
 5035.00    0.60754   0.67561    0.041
 5036.00    0.63220   0.67393    0.042
 5037.00    0.65162   0.67281    0.042
 5038.00    0.65409   0.67218    0.041
 5039.00    0.66213   0.67258    0.041
 5040.00    0.68546   0.67401    0.042
 5041.00    0.69204   0.67548    0.042
 5042.00    0.65928   0.67782    0.041
 5043.00    0.64580   0.67971    0.041
 5044.00    0.67150   0.68181    0.041
 5045.00    0.68877   0.68350    0.041
 5046.00    0.69112   0.68531    0.041
 5047.00    0.68195   0.68728    0.041
 5048.00    0.65495   0.68922    0.041
 5049.00    0.64025   0.69155    0.041
 5050.00    0.64227   0.69362    0.041
 5051.00    0.63137   0.69607    0.041
 5052.00    0.60498   0.69800    0.041
 5053.00    0.60234   0.70009    0.041
 5054.00    0.62475   0.70129    0.041
 5055.00    0.65865   0.70248    0.041
 5056.00    0.70326   0.70270    0.042
 5057.00    0.70863   0.70260    0.042
 5058.00    0.68182   0.70176    0.041
 5059.00    0.67107   0.70033    0.041
 5060.00    0.67191   0.69847    0.042
 5061.00    0.70862   0.69606    0.042
 5062.00    0.76807   0.69337    0.042
 5063.00    0.74169   0.69102    0.042
 5064.00    0.66772   0.68854    0.042
 5065.00    0.64163   0.68634    0.042
 5066.00    0.63862   0.68432    0.042
 5067.00    0.63263   0.68228    0.042
 5068.00    0.62539   0.68044    0.042
 5069.00    0.62658   0.67837    0.042
 5070.00    0.63076   0.67656    0.042
 5071.00    0.63049   0.67459    0.042
 5072.00    0.62888   0.67260    0.043
 5073.00    0.62973   0.67091    0.042
 5074.00    0.63120   0.66910    0.042
 5075.00    0.60490   0.66779    0.042
 5076.00    0.57298   0.66635    0.042
 5077.00    0.61337   0.66580    0.043
 5078.00    0.66525   0.66561    0.044
 5079.00    0.66549   0.66629    0.044
 5080.00    0.65962   0.66765    0.043
 5081.00    0.69165   0.66954    0.043
 5082.00    0.72673   0.67182    0.042
 5083.00    0.66240   0.67411    0.042
 5084.00    0.59361   0.67662    0.042
 5085.00    0.54370   0.67868    0.042
 5086.00    0.49761   0.68059    0.042
 5087.00    0.63115   0.68177    0.042
 5088.00    0.75253   0.68267    0.042
 5089.00    0.64792   0.68288    0.041
 5090.00    0.55755   0.68260    0.041
 5091.00    0.62569   0.68167    0.041
 5092.00    0.68595   0.68025    0.041
 5093.00    0.68487   0.67850    0.041
 5094.00    0.68438   0.67636    0.042
 5095.00    0.68735   0.67431    0.042
 5096.00    0.68075   0.67210    0.043
 5097.00    0.62941   0.67053    0.042
 5098.00    0.59762   0.66896    0.042
 5099.00    0.64030   0.66798    0.041
 5100.00    0.65570   0.66719    0.041
 5101.00    0.58431   0.66651    0.041
 5102.00    0.54691   0.66611    0.041
 5103.00    0.60113   0.66596    0.041
 5104.00    0.64272   0.66623    0.041
 5105.00    0.65511   0.66678    0.040
 5106.00    0.64524   0.66785    0.041
 5107.00    0.59085   0.66882    0.041
 5108.00    0.56155   0.67046    0.041
 5109.00    0.57597   0.67189    0.041
 5110.00    0.58981   0.67324    0.040
 5111.00    0.60277   0.67444    0.040
 5112.00    0.61193   0.67498    0.041
 5113.00    0.61599   0.67508    0.041
 5114.00    0.62369   0.67465    0.041
 5115.00    0.63567   0.67339    0.041
 5116.00    0.64758   0.67146    0.041
 5117.00    0.65941   0.66910    0.041
 5118.00    0.64682   0.66597    0.041
 5119.00    0.61183   0.66309    0.041
 5120.00    0.59928   0.65983    0.040
 5121.00    0.60489   0.65711    0.041
 5122.00    0.60829   0.65476    0.040
 5123.00    0.61011   0.65314    0.040
 5124.00    0.59948   0.65212    0.040
 5125.00    0.58108   0.65154    0.040
 5126.00    0.60662   0.65157    0.040
 5127.00    0.65614   0.65161    0.040
 5128.00    0.70263   0.65255    0.040
 5129.00    0.74768   0.65311    0.041
 5130.00    0.70208   0.65381    0.041
 5131.00    0.61937   0.65405    0.041
 5132.00    0.61023   0.65430    0.041
 5133.00    0.62682   0.65395    0.041
 5134.00    0.63195   0.65322    0.040
 5135.00    0.63371   0.65229    0.040
 5136.00    0.64297   0.65054    0.040
 5137.00    0.65407   0.64935    0.040
 5138.00    0.64304   0.64785    0.041
 5139.00    0.62765   0.64624    0.041
 5140.00    0.62127   0.64511    0.041
 5141.00    0.61628   0.64368    0.041
 5142.00    0.59774   0.64264    0.040
 5143.00    0.57767   0.64207    0.040
 5144.00    0.61198   0.64191    0.040
 5145.00    0.65045   0.64170    0.040
 5146.00    0.64505   0.64252    0.041
 5147.00    0.63785   0.64312    0.041
 5148.00    0.62661   0.64450    0.041
 5149.00    0.61572   0.64573    0.042
 5150.00    0.62057   0.64694    0.042
 5151.00    0.62399   0.64816    0.043
 5152.00    0.60250   0.64909    0.043
 5153.00    0.58327   0.64953    0.042
 5154.00    0.58812   0.64886    0.042
 5155.00    0.59311   0.64736    0.041
 5156.00    0.59923   0.64421    0.041
 5157.00    0.60440   0.64012    0.042
 5158.00    0.60407   0.63462    0.042
 5159.00    0.60964   0.62788    0.043
 5160.00    0.64213   0.62047    0.042
 5161.00    0.64653   0.61219    0.042
 5162.00    0.54614   0.60373    0.042
 5163.00    0.48564   0.59575    0.042
 5164.00    0.54960   0.58823    0.042
 5165.00    0.59075   0.58201    0.042
 5166.00    0.57148   0.57717    0.042
 5167.00    0.56371   0.57418    0.042
 5168.00    0.58209   0.57272    0.042
 5169.00    0.57974   0.57232    0.042
 5170.00    0.53656   0.57280    0.042
 5171.00    0.52076   0.57388    0.041
 5172.00    0.55193   0.57597    0.041
 5173.00    0.56607   0.57866    0.040
 5174.00    0.55459   0.58130    0.041
 5175.00    0.55017   0.58383    0.042
 5176.00    0.55508   0.58581    0.042
 5177.00    0.58750   0.58795    0.041
 5178.00    0.65192   0.58956    0.041
 5179.00    0.66075   0.59108    0.041
 5180.00    0.61255   0.59260    0.040
 5181.00    0.58625   0.59431    0.039
 5182.00    0.57976   0.59677    0.039
 5183.00    0.57185   0.59967    0.038
 5184.00    0.56281   0.60374    0.039
 5185.00    0.55194   0.60730    0.039
 5186.00    0.53979   0.61078    0.039
 5187.00    0.54806   0.61417    0.039
 5188.00    0.56890   0.61696    0.039
 5189.00    0.59548   0.61994    0.039
 5190.00    0.62513   0.62213    0.000
 5191.00    0.62750   0.62418    0.000
 5192.00    0.61713   0.62587    0.000
 5193.00    0.60816   0.62767    0.000
 5194.00    0.59974   0.62831    0.000
 5195.00    0.60158   0.62816    0.000
 5196.00    0.60693   0.62778    0.000
 5197.00    0.62585   0.62658    0.000
 5198.00    0.64869   0.62498    0.000
 5199.00    0.60208   0.62289    0.000
 5200.00    0.53889   0.62100    0.000
 5201.00    0.54364   0.61895    0.000
 5202.00    0.56147   0.61763    0.000
 5203.00    0.59410   0.61650    0.000
 5204.00    0.62896   0.61630    0.000
 5205.00    0.60456   0.61665    0.000
 5206.00    0.57367   0.61849    0.000
 5207.00    0.56472   0.62081    0.000
 5208.00    0.55735   0.62387    0.000
 5209.00    0.53762   0.62796    0.000
 5210.00    0.51744   0.63164    0.000
 5211.00    0.54094   0.63567    0.041
 5212.00    0.56582   0.63880    0.040
 5213.00    0.63359   0.64152    0.041
 5214.00    0.69696   0.64327    0.041
 5215.00    0.68903   0.64437    0.041
 5216.00    0.67553   0.64515    0.041
 5217.00    0.60528   0.64494    0.041
 5218.00    0.54654   0.64496    0.041
 5219.00    0.57166   0.64415    0.041
 5220.00    0.60439   0.64302    0.040
 5221.00    0.67957   0.64198    0.041
 5222.00    0.72985   0.64065    0.042
 5223.00    0.66934   0.63978    0.042
 5224.00    0.61348   0.63950    0.042
 5225.00    0.57464   0.64034    0.042
 5226.00    0.54575   0.64198    0.042
 5227.00    0.54731   0.64448    0.042
 5228.00    0.56368   0.64769    0.041
 5229.00    0.61859   0.65023    0.042
 5230.00    0.65136   0.65309    0.042
 5231.00    0.63464   0.65610    0.041
 5232.00    0.62238   0.65851    0.041
 5233.00    0.61876   0.66143    0.041
 5234.00    0.62706   0.66404    0.041
 5235.00    0.65551   0.66635    0.041
 5236.00    0.65887   0.66758    0.041
 5237.00    0.62507   0.66775    0.040
 5238.00    0.62555   0.66765    0.040
 5239.00    0.67067   0.66690    0.040
 5240.00    0.67285   0.66550    0.040
 5241.00    0.62578   0.66395    0.040
 5242.00    0.62307   0.66219    0.039
 5243.00    0.66522   0.66036    0.039
 5244.00    0.64871   0.65840    0.039
 5245.00    0.57986   0.65599    0.038
 5246.00    0.57594   0.65432    0.038
 5247.00    0.62306   0.65316    0.038
 5248.00    0.63915   0.65282    0.039
 5249.00    0.63379   0.65198    0.040
 5250.00    0.59628   0.65133    0.040
 5251.00    0.53927   0.65094    0.038
 5252.00    0.53906   0.64950    0.038
 5253.00    0.56890   0.64784    0.038
 5254.00    0.60330   0.64516    0.038
 5255.00    0.63979   0.64235    0.038
 5256.00    0.64224   0.63876    0.039
 5257.00    0.63123   0.63455    0.039
 5258.00    0.60119   0.62967    0.039
 5259.00    0.56475   0.62366    0.039
 5260.00    0.56528   0.61794    0.039
 5261.00    0.57628   0.61287    0.039
 5262.00    0.58043   0.60871    0.039
 5263.00    0.58299   0.60552    0.040
 5264.00    0.56827   0.60394    0.040
 5265.00    0.55030   0.60316    0.040
 5266.00    0.53481   0.60400    0.041
 5267.00    0.51968   0.60643    0.042
 5268.00    0.51889   0.60922    0.042
 5269.00    0.51960   0.61346    0.042
 5270.00    0.51549   0.61903    0.042
 5271.00    0.51106   0.62512    0.041
 5272.00    0.55567   0.63043    0.041
 5273.00    0.60193   0.63593    0.042
 5274.00    0.55082   0.64128    0.042
 5275.00    0.50340   0.64632    0.042
 5276.00    0.57772   0.65174    0.042
 5277.00    0.64524   0.65654    0.042
 5278.00    0.60932   0.66059    0.042
 5279.00    0.57412   0.66400    0.042
 5280.00    0.54603   0.66712    0.041
 5281.00    0.53061   0.66997    0.041
 5282.00    0.60446   0.67279    0.041
 5283.00    0.66222   0.67512    0.042
 5284.00    0.63271   0.67742    0.041
 5285.00    0.61009   0.67891    0.041
 5286.00    0.61737   0.67928    0.041
 5287.00    0.62574   0.67870    0.041
 5288.00    0.63799   0.67751    0.041
 5289.00    0.65993   0.67633    0.041
 5290.00    0.71098   0.67453    0.041
 5291.00    0.74335   0.67268    0.041
 5292.00    0.72794   0.67077    0.041
 5293.00    0.70236   0.66899    0.041
 5294.00    0.65439   0.66778    0.040
 5295.00    0.61431   0.66686    0.040
 5296.00    0.58930   0.66680    0.041
 5297.00    0.58923   0.66750    0.041
 5298.00    0.63070   0.66935    0.040
 5299.00    0.64883   0.67186    0.040
 5300.00    0.63290   0.67413    0.040
 5301.00    0.62519   0.67701    0.039
 5302.00    0.62801   0.67988    0.040
 5303.00    0.62405   0.68257    0.040
 5304.00    0.61242   0.68475    0.039
 5305.00    0.63512   0.68639    0.039
 5306.00    0.69207   0.68738    0.040
 5307.00    0.71725   0.68777    0.039
 5308.00    0.71448   0.68787    0.038
 5309.00    0.68500   0.68714    0.038
 5310.00    0.63484   0.68580    0.038
 5311.00    0.61690   0.68378    0.038
 5312.00    0.62093   0.68122    0.037
 5313.00    0.64180   0.67819    0.037
 5314.00    0.67273   0.67474    0.038
 5315.00    0.66776   0.67114    0.038
 5316.00    0.64408   0.66688    0.038
 5317.00    0.62532   0.66289    0.038
 5318.00    0.60878   0.65827    0.037
 5319.00    0.59200   0.65378    0.037
 5320.00    0.57512   0.64939    0.037
 5321.00    0.55664   0.64570    0.038
 5322.00    0.53764   0.64302    0.038
 5323.00    0.53608   0.64028    0.038
 5324.00    0.53934   0.63909    0.038
 5325.00    0.58818   0.63818    0.039
 5326.00    0.64742   0.63823    0.039
 5327.00    0.63201   0.63848    0.039
 5328.00    0.60298   0.64030    0.039
 5329.00    0.64649   0.64325    0.039
 5330.00    0.70018   0.64542    0.040
 5331.00    0.65439   0.64768    0.040
 5332.00    0.59855   0.64930    0.039
 5333.00    0.59177   0.65111    0.040
 5334.00    0.58814   0.65295    0.040
 5335.00    0.58207   0.65395    0.039
 5336.00    0.57601   0.65515    0.039
 5337.00    0.60630   0.65566    0.039
 5338.00    0.63509   0.65595    0.039
 5339.00    0.62118   0.65630    0.039
 5340.00    0.60729   0.65684    0.039
 5341.00    0.59359   0.65865    0.039
 5342.00    0.58730   0.66017    0.038
 5343.00    0.65044   0.66218    0.039
 5344.00    0.69929   0.66448    0.039
 5345.00    0.65067   0.66672    0.039
 5346.00    0.61257   0.66983    0.039
 5347.00    0.62996   0.67304    0.039
 5348.00    0.64463   0.67611    0.039
 5349.00    0.64778   0.67955    0.039
 5350.00    0.65318   0.68264    0.038
 5351.00    0.66644   0.68524    0.038
 5352.00    0.68089   0.68684    0.038
 5353.00    0.69886   0.68795    0.038
 5354.00    0.70073   0.68841    0.038
 5355.00    0.66214   0.68766    0.038
 5356.00    0.64558   0.68643    0.038
 5357.00    0.67670   0.68426    0.038
 5358.00    0.68130   0.68183    0.038
 5359.00    0.63608   0.67847    0.038
 5360.00    0.59130   0.67496    0.038
 5361.00    0.54723   0.67111    0.038
 5362.00    0.54033   0.66723    0.037
 5363.00    0.58689   0.66406    0.037
 5364.00    0.61980   0.66107    0.037
 5365.00    0.63545   0.65983    0.036
 5366.00    0.62443   0.65845    0.036
 5367.00    0.58366   0.65794    0.037
 5368.00    0.57673   0.65778   -2.000
 5369.00    0.60307   0.65791   -2.000
 5370.00    0.60933   0.65933   -2.000
 5371.00    0.59819   0.66116   -2.000
 5372.00    0.60453   0.66400   -2.000
 5373.00    0.62423   0.66587   -2.000
 5374.00    0.62201   0.66762   -2.000
 5375.00    0.60506   0.66873   -2.000
 5376.00    0.63690   0.66935   -2.000
 5377.00    0.69742   0.67022   -2.000
 5378.00    0.72162   0.67042   -2.000
 5379.00    0.72720   0.67012   -2.000
 5380.00    0.69025   0.66889   -2.000
 5381.00    0.63440   0.66727   -2.000
 5382.00    0.62949   0.66490   -2.000
 5383.00    0.64403   0.66258    0.037
 5384.00    0.65954   0.66038    0.037
 5385.00    0.67536   0.65770    0.038
 5386.00    0.66471   0.65458    0.038
 5387.00    0.64686   0.65158    0.038
 5388.00    0.64129   0.64838    0.038
 5389.00    0.63845   0.64461    0.037
 5390.00    0.62802   0.64216    0.038
 5391.00    0.61624   0.63999    0.039
 5392.00    0.63887   0.63778    0.038
 5393.00    0.66617   0.63548    0.038
 5394.00    0.66351   0.63355    0.038
 5395.00    0.65796   0.63161    0.038
 5396.00    0.60881   0.62889    0.038
 5397.00    0.55703   0.62747    0.038
 5398.00    0.60173   0.62667    0.038
 5399.00    0.64865   0.62589    0.038
 5400.00    0.64567   0.62512    0.038
 5401.00    0.64296   0.62465    0.038
 5402.00    0.64720   0.62415    0.037
 5403.00    0.64944   0.62426    0.036
 5404.00    0.62451   0.62542    0.037
 5405.00    0.59772   0.62741    0.037
 5406.00    0.55424   0.63017    0.036
 5407.00    0.51906   0.63302    0.036
 5408.00    0.53872   0.63622    0.036
 5409.00    0.55781   0.63925    0.036
 5410.00    0.57395   0.64298    0.036
 5411.00    0.59162   0.64678    0.036
 5412.00    0.61558   0.64997    0.036
 5413.00    0.63419   0.65281    0.036
 5414.00    0.63439   0.65515    0.036
 5415.00    0.63642   0.65702    0.035
 5416.00    0.64374   0.65781    0.035
 5417.00    0.64614   0.65850    0.035
 5418.00    0.63639   0.65873    0.035
 5419.00    0.62816   0.65825    0.035
 5420.00    0.62320   0.65723    0.035
 5421.00    0.62920   0.65504    0.035
 5422.00    0.65549   0.65322    0.035
 5423.00    0.66292   0.65169    0.035
 5424.00    0.63989   0.64991    0.035
 5425.00    0.62237   0.64864    0.035
 5426.00    0.61265   0.64681    0.036
 5427.00    0.61887   0.64554    0.036
 5428.00    0.64494   0.64415    0.036
 5429.00    0.67136   0.64360    0.036
 5430.00    0.69816   0.64533    0.036
 5431.00    0.68988   0.64608    0.036
 5432.00    0.64759   0.64718    0.036
 5433.00    0.62449   0.64839    0.036
 5434.00    0.61780   0.64971    0.037
 5435.00    0.62916   0.65170    0.037
 5436.00    0.65409   0.65287    0.037
 5437.00    0.66845   0.65414    0.037
 5438.00    0.67581   0.65397    0.036
 5439.00    0.67172   0.65295    0.037
 5440.00    0.66098   0.65234    0.037
 5441.00    0.65387   0.65090    0.037
 5442.00    0.64860   0.64938    0.036
 5443.00    0.62555   0.64705    0.036
 5444.00    0.59473   0.64434    0.036
 5445.00    0.61524   0.64143    0.036
 5446.00    0.65502   0.63852    0.036
 5447.00    0.63887   0.63643    0.036
 5448.00    0.60494   0.63478    0.036
 5449.00    0.61798   0.63354    0.036
 5450.00    0.64352   0.63227    0.036
 5451.00    0.64323   0.63140    0.036
 5452.00    0.63733   0.63041    0.036
 5453.00    0.63095   0.62993    0.036
 5454.00    0.62450   0.62942    0.036
 5455.00    0.61053   0.62918    0.035
 5456.00    0.59558   0.63031    0.034
 5457.00    0.61361   0.63101    0.035
 5458.00    0.63469   0.63121    0.035
 5459.00    0.62243   0.63125    0.035
 5460.00    0.60830   0.63118    0.034
 5461.00    0.59901   0.63124    0.034
 5462.00    0.59004   0.63060    0.034
 5463.00    0.60389   0.63048    0.034
 5464.00    0.61803   0.63050    0.034
 5465.00    0.63899   0.62919    0.035
 5466.00    0.65897   0.62808    0.035
 5467.00    0.66625   0.62713    0.035
 5468.00    0.67237   0.62526    0.035
 5469.00    0.66847   0.62354    0.035
 5470.00    0.66600   0.62253    0.035
 5471.00    0.67265   0.62208    0.035
 5472.00    0.67392   0.62124    0.035
 5473.00    0.64824   0.61998    0.035
 5474.00    0.62313   0.62012    0.035
 5475.00    0.60031   0.61975    0.035
 5476.00    0.59124   0.62008    0.035
 5477.00    0.62846   0.62196    0.036
 5478.00    0.65623   0.62350   -2.000
 5479.00    0.65715   0.62463   -2.000
 5480.00    0.65422   0.62499   -2.000
 5481.00    0.64194   0.62656   -2.000
 5482.00    0.62482   0.62824   -2.000
 5483.00    0.59758   0.62996   -2.000
 5484.00    0.54502   0.63155   -2.000
 5485.00    0.44635   0.63214   -2.000
 5486.00    0.38650   0.63253   -2.000
 5487.00    0.38844   0.63277   -2.000
 5488.00    0.45196   0.63358   -2.000
 5489.00    0.60152   0.63350   -2.000
 5490.00    0.69826   0.63347   -2.000
 5491.00    0.73007   0.63363   -2.000
 5492.00    0.77089   0.63282   -2.000
 5493.00    0.82148   0.63190   -2.000
 5494.00    0.80067   0.63117   -2.000
 5495.00    0.71161   0.63051   -2.000
 5496.00    0.67049   0.62916   -2.000
 5497.00    0.66978   0.62816   -2.000
 5498.00    0.65939   0.62727   -2.000
 5499.00    0.64180   0.62601   -2.000
 5500.00    0.61212   0.62459   -2.000
 5501.00    0.57454   0.62322   -2.000
 5502.00    0.56720   0.62276    0.034
 5503.00    0.57713   0.62201    0.034
 5504.00    0.61021   0.62110    0.034
 5505.00    0.65481   0.62038    0.035
 5506.00    0.65659   0.61986    0.035
 5507.00    0.63997   0.62060    0.034
 5508.00    0.62815   0.62110    0.034
 5509.00    0.61809   0.62157    0.034
 5510.00    0.62025   0.62285    0.034
 5511.00    0.62621   0.62362    0.034
 5512.00    0.60802   0.62513    0.034
 5513.00    0.58355   0.62685    0.034
 5514.00    0.57913   0.62826    0.034
 5515.00    0.57896   0.62982    0.033
 5516.00    0.60885   0.63091    0.034
 5517.00    0.64378   0.63226    0.035
 5518.00    0.63492   0.63318    0.035
 5519.00    0.62050   0.63322    0.035
 5520.00    0.61210   0.63297    0.035
 5521.00    0.60422   0.63287    0.035
 5522.00    0.56908   0.63260    0.034
 5523.00    0.53251   0.63246    0.034
 5524.00    0.54479   0.63214    0.034
 5525.00    0.55806   0.63155    0.033
 5526.00    0.57724   0.63122    0.034
 5527.00    0.59354   0.63054    0.035
 5528.00    0.54768   0.63109    0.035
 5529.00    0.50767   0.63200    0.035
 5530.00    0.53902   0.63244    0.035
 5531.00    0.56683   0.63316    0.035
 5532.00    0.56506   0.63370    0.035
 5533.00    0.56628   0.63486    0.035
 5534.00    0.58607   0.63579    0.035
 5535.00    0.60818   0.63695    0.035
 5536.00    0.64169   0.63836    0.035
 5537.00    0.66783   0.63903    0.035
 5538.00    0.66473   0.64004    0.034
 5539.00    0.65864   0.64116    0.034
 5540.00    0.64271   0.64214    0.034
 5541.00    0.63885   0.64281    0.040
 5542.00    0.66871   0.64320    0.096
 5543.00    0.67736   0.64379   -1.000
 5544.00    0.63541   0.64424   -1.000
 5545.00    0.60771   0.64415   -1.000
 5546.00    0.60939   0.64396   -1.000
 5547.00    0.60917   0.64388   -1.000
 5548.00    0.60553   0.64344   -1.000
 5549.00    0.60480   0.64251    0.169
 5550.00    0.60861   0.64158    0.047
 5551.00    0.61294   0.64051    0.033
 5552.00    0.61796   0.63902    0.033
 5553.00    0.62023   0.63756    0.032
 5554.00    0.61918   0.63599    0.032
 5555.00    0.61260   0.63460    0.032
 5556.00    0.60012   0.63294    0.032
 5557.00    0.59164   0.63100    0.032
 5558.00    0.58693   0.62986    0.032
 5559.00    0.59156   0.62829    0.032
 5560.00    0.60395   0.62677    0.033
 5561.00    0.59359   0.62566    0.033
 5562.00    0.56659   0.62446    0.033
 5563.00    0.56114   0.62409    0.033
 5564.00    0.56955   0.62336    0.033
 5565.00    0.58790   0.62279    0.033
 5566.00    0.61184   0.62279    0.034
 5567.00    0.60995   0.62267    0.034
 5568.00    0.59543   0.62297    0.033
 5569.00    0.59372   0.62310    0.033
 5570.00    0.59744   0.62358    0.033
 5571.00    0.59070   0.62363    0.034
 5572.00    0.58017   0.62309    0.034
 5573.00    0.55624   0.62322    0.034
 5574.00    0.52819   0.62287    0.033
 5575.00    0.55602   0.62177    0.034
 5576.00    0.59807   0.62042    0.034
 5577.00    0.60082   0.61901    0.034
 5578.00    0.59542   0.61707    0.034
 5579.00    0.58594   0.61499    0.034
 5580.00    0.57580   0.61271    0.034
 5581.00    0.58438   0.60967    0.034
 5582.00    0.59525   0.60779    0.034
 5583.00    0.60118   0.60599    0.033
 5584.00    0.60670   0.60408    0.033
 5585.00    0.60241   0.60269    0.033
 5586.00    0.59765   0.60082    0.033
 5587.00    0.59257   0.60018    0.033
 5588.00    0.58757   0.60007    0.034
 5589.00    0.58750   0.60016    0.033
 5590.00    0.58533   0.60094    0.033
 5591.00    0.54141   0.60117    0.033
 5592.00    0.50487   0.60141    0.033
 5593.00    0.55395   0.60221    0.033
 5594.00    0.59896   0.60342    0.034
 5595.00    0.61135   0.60519    0.034
 5596.00    0.62257   0.60655    0.034
 5597.00    0.62673   0.60701    0.034
 5598.00    0.62915   0.60880    0.034
 5599.00    0.62330   0.61095    0.034
 5600.00    0.61401   0.61276    0.034
 5601.00    0.59136   0.61447    0.034
 5602.00    0.57243   0.61535    0.034
 5603.00    0.56552   0.61710    0.034
 5604.00    0.56930   0.61840    0.033
 5605.00    0.60233   0.61920    0.033
 5606.00    0.62416   0.61963    0.033
 5607.00    0.61974   0.61892    0.033
 5608.00    0.61472   0.61826    0.033
 5609.00    0.60848   0.61675    0.033
 5610.00    0.60332   0.61560    0.033
 5611.00    0.60006   0.61487    0.033
 5612.00    0.58480   0.61323    0.033
 5613.00    0.55100   0.61143    0.033
 5614.00    0.52933   0.60886    0.033
 5615.00    0.52413   0.60787    0.033
 5616.00    0.53417   0.60807    0.032
 5617.00    0.56243   0.60741    0.033
 5618.00    0.57991   0.60654    0.033
 5619.00    0.58603   0.60573    0.033
 5620.00    0.59567   0.60646    0.032
 5621.00    0.60857   0.60753    0.032
 5622.00    0.62241   0.60795    0.032
 5623.00    0.63704   0.60805    0.033
 5624.00    0.62522   0.60824    0.033
 5625.00    0.59434   0.60947    0.032
 5626.00    0.56741   0.61030    0.032
 5627.00    0.54300   0.61052    0.032
 5628.00    0.56530   0.61059    0.032
 5629.00    0.61345   0.61048    0.032
 5630.00    0.64039   0.61026    0.032
 5631.00    0.65712   0.60982    0.032
 5632.00    0.65254   0.60941    0.032
 5633.00    0.63911   0.60874    0.032
 5634.00    0.61311   0.60825    0.032
 5635.00    0.58264   0.60733    0.032
 5636.00    0.58180   0.60672    0.032
 5637.00    0.58985   0.60672    0.032
 5638.00    0.59174   0.60656    0.031
 5639.00    0.59209   0.60684    0.031
 5640.00    0.58882   0.60657    0.032
 5641.00    0.58482   0.60689    0.032
 5642.00    0.57882   0.60754    0.032
 5643.00    0.57249   0.60770    0.031
 5644.00    0.58337   0.60810    0.031
 5645.00    0.59628   0.60826    0.032
 5646.00    0.62631   0.60842    0.032
 5647.00    0.65771   0.60814    0.032
 5648.00    0.64195   0.60740    0.032
 5649.00    0.62408   0.60668    0.032
 5650.00    0.61291   0.60617    0.033
 5651.00    0.60189   0.60544    0.033
 5652.00    0.59443   0.60376    0.033
 5653.00    0.58736   0.60241    0.033
 5654.00    0.58758   0.60176    0.033
 5655.00    0.58671   0.60143    0.033
 5656.00    0.57371   0.60077    0.032
 5657.00    0.56367   0.59938    0.032
 5658.00    0.57652   0.59944    0.033
 5659.00    0.58742   0.60075    0.033
 5660.00    0.58688   0.60155    0.032
 5661.00    0.58843   0.60190    0.032
 5662.00    0.59963   0.60253    0.032
 5663.00    0.60664   0.60441    0.032
 5664.00    0.59774   0.60631    0.032
 5665.00    0.58747   0.60786    0.032
 5666.00    0.57286   0.60919    0.032
 5667.00    0.56258   0.61063    0.032
 5668.00    0.56395   0.61238    0.032
 5669.00    0.56911   0.61346    0.031
 5670.00    0.58305   0.61446    0.031
 5671.00    0.59343   0.61536    0.031
 5672.00    0.59674   0.61593    0.031
 5673.00    0.60912   0.61621    0.031
 5674.00    0.63729   0.61585    0.031
 5675.00    0.64381   0.61569    0.032
 5676.00    0.61734   0.61524    0.032
 5677.00    0.59765   0.61446    0.032
 5678.00    0.58703   0.61397    0.032
 5679.00    0.57229   0.61351    0.032
 5680.00    0.55271   0.61304    0.032
 5681.00    0.54746   0.61219    0.031
 5682.00    0.55709   0.61158    0.031
 5683.00    0.57737   0.61182    0.031
 5684.00    0.60741   0.61224    0.032
 5685.00    0.62045   0.61216    0.032
 5686.00    0.61977   0.61200    0.031
 5687.00    0.60686   0.61189    0.031
 5688.00    0.58526   0.61197    0.032
 5689.00    0.58266   0.61214    0.032
 5690.00    0.59191   0.61152    0.032
 5691.00    0.60378   0.61100    0.032
 5692.00    0.61708   0.60989    0.031
 5693.00    0.63842   0.60861    0.032
 5694.00    0.66357   0.60746    0.032
 5695.00    0.66426   0.60542    0.033
 5696.00    0.65495   0.60370    0.033
 5697.00    0.63825   0.60179    0.033
 5698.00    0.61898   0.59985    0.033
 5699.00    0.61019   0.59856    0.033
 5700.00    0.60447   0.59636    0.032
 5701.00    0.60532   0.59460    0.032
 5702.00    0.60777   0.59397    0.032
 5703.00    0.60070   0.59317    0.031
 5704.00    0.59176   0.59340    0.031
 5705.00    0.57878   0.59343    0.031
 5706.00    0.56518   0.59344    0.032
 5707.00    0.57005   0.59530    0.031
 5708.00    0.57702   0.59692    0.031
 5709.00    0.59136   0.59914    0.030
 5710.00    0.60626   0.60173    0.030
 5711.00    0.60087   0.60361    0.030
 5712.00    0.59465   0.60672    0.030
 5713.00    0.60625   0.60971    0.030
 5714.00    0.61771   0.61221    0.030
 5715.00    0.61707   0.61470    0.030
 5716.00    0.61634   0.61647    0.030
 5717.00    0.61410   0.61841    0.030
 5718.00    0.61016   0.62024    0.030
 5719.00    0.58820   0.62147    0.030
 5720.00    0.57049   0.62203    0.031
 5721.00    0.58458   0.62211    0.031
 5722.00    0.60079   0.62272    0.031
 5723.00    0.62906   0.62332    0.031
 5724.00    0.65339   0.62350    0.032
 5725.00    0.65981   0.62287    0.032
 5726.00    0.66350   0.62209    0.032
 5727.00    0.65701   0.62252    0.031
 5728.00    0.64695   0.62303    0.031
 5729.00    0.62580   0.62311    0.032
 5730.00    0.61702   0.62259    0.032
 5731.00    0.64097   0.62207    0.032
 5732.00    0.65073   0.62242    0.032
 5733.00    0.62828   0.62289    0.032
 5734.00    0.61843   0.62305    0.032
 5735.00    0.63333   0.62296    0.032
 5736.00    0.64071   0.62259    0.032
 5737.00    0.63518   0.62207    0.032
 5738.00    0.63248   0.62226    0.032
 5739.00    0.63403   0.62248    0.032
 5740.00    0.63383   0.62246    0.000
 5741.00    0.63132   0.62180    0.000
 5742.00    0.62773   0.62032    0.000
 5743.00    0.62288   0.62002    0.000
 5744.00    0.62681   0.62032    0.000
 5745.00    0.63974   0.62024    0.000
 5746.00    0.64542   0.61921    0.000
 5747.00    0.64455   0.61754    0.000
 5748.00    0.63892   0.61690    0.000
 5749.00    0.62950   0.61715    0.000
 5750.00    0.63085   0.61727    0.000
 5751.00    0.63974   0.61639    0.000
 5752.00    0.63971   0.61535    0.000
 5753.00    0.63422   0.61508    0.000
 5754.00    0.62210   0.61529    0.000
 5755.00    0.60644   0.61560    0.000
 5756.00    0.61102   0.61526    0.000
 5757.00    0.62503   0.61500    0.000
 5758.00    0.62370   0.61563    0.000
 5759.00    0.61622   0.61616    0.000
 5760.00    0.61329   0.61651    0.000
 5761.00    0.61193   0.61663    0.000
 5762.00    0.62693   0.61688    0.000
 5763.00    0.64666   0.61756    0.000
 5764.00    0.64235   0.61786    0.000
 5765.00    0.63232   0.61772    0.000
 5766.00    0.65016   0.61720    0.000
 5767.00    0.67336   0.61687    0.000
 5768.00    0.66456   0.61624    0.000
 5769.00    0.65100   0.61490    0.000
 5770.00    0.63637   0.61335    0.000
 5771.00    0.62164   0.61155    0.000
 5772.00    0.64595   0.60997    0.000
 5773.00    0.67307   0.60813    0.000
 5774.00    0.69614   0.60533    0.000
 5775.00    0.71905   0.60281    0.000
 5776.00    0.70459   0.60112    0.000
 5777.00    0.68894   0.59967    0.000
 5778.00    0.63608   0.59859    0.000
 5779.00    0.58457   0.59669    0.000
 5780.00    0.55481   0.59537    0.000
 5781.00    0.52911   0.59601    0.000
 5782.00    0.54444   0.59657    0.000
 5783.00    0.55917   0.59786    0.000
 5784.00    0.56953   0.59863    0.000
 5785.00    0.57928   0.59944    0.000
 5786.00    0.58559   0.60220    0.000
 5787.00    0.59066   0.60429    0.000
 5788.00    0.59024   0.60685    0.000
 5789.00    0.59330   0.60928    0.000
 5790.00    0.60903   0.61081    0.000
 5791.00    0.61587   0.61333   -2.000
 5792.00    0.59559   0.61509   -2.000
 5793.00    0.58150   0.61700   -2.000
 5794.00    0.58345   0.61914   -2.000
 5795.00    0.58305   0.62004   -2.000
 5796.00    0.57741   0.62113   -2.000
 5797.00    0.58080   0.62178   -2.000
 5798.00    0.60168   0.62218   -2.000
 5799.00    0.61221   0.62310   -2.000
 5800.00    0.60529   0.62312   -2.000
 5801.00    0.60414   0.62301   -2.000
 5802.00    0.61154   0.62293   -2.000
 5803.00    0.61698   0.62223   -2.000
 5804.00    0.61987   0.62210   -2.000
 5805.00    0.63133   0.62170   -2.000
 5806.00    0.65259   0.62112   -2.000
 5807.00    0.65789   0.62101   -2.000
 5808.00    0.64709   0.62037   -2.000
 5809.00    0.63061   0.62000   -2.000
 5810.00    0.60909   0.61976   -2.000
 5811.00    0.59114   0.61954    0.000
 5812.00    0.57600   0.61998    0.000
 5813.00    0.56737   0.62010    0.000
 5814.00    0.56323   0.62021    0.000
 5815.00    0.57142   0.62047    0.000
 5816.00    0.58706   0.62085    0.000
 5817.00    0.60076   0.62166    0.000
 5818.00    0.61344   0.62223    0.000
 5819.00    0.62136   0.62270    0.000
 5820.00    0.62709   0.62310    0.000
 5821.00    0.62437   0.62346    0.000
 5822.00    0.61831   0.62391    0.000
 5823.00    0.59657   0.62417    0.000
 5824.00    0.56955   0.62438    0.000
 5825.00    0.59774   0.62443    0.000
 5826.00    0.64151   0.62441    0.000
 5827.00    0.65652   0.62426    0.000
 5828.00    0.66484   0.62400    0.000
 5829.00    0.63608   0.62376    0.000
 5830.00    0.60040   0.62364    0.000
 5831.00    0.58484   0.62347    0.000
 5832.00    0.57219   0.62292    0.000
 5833.00    0.57127   0.62231    0.000
 5834.00    0.57157   0.62183    0.000
 5835.00    0.58053   0.62156    0.000
 5836.00    0.59008   0.62102    0.000
 5837.00    0.60758   0.61985    0.000
 5838.00    0.62535   0.61859    0.000
 5839.00    0.63673   0.61748    0.000
 5840.00    0.64746   0.61629    0.000
 5841.00    0.63753   0.61451    0.000
 5842.00    0.62795   0.61224    0.000
 5843.00    0.62369   0.61003    0.000
 5844.00    0.61747   0.60799    0.000
 5845.00    0.59231   0.60582    0.000
 5846.00    0.56991   0.60301    0.000
 5847.00    0.56680   0.60014    0.000
 5848.00    0.56614   0.59791    0.000
 5849.00    0.57874   0.59610    0.000
 5850.00    0.59075   0.59436    0.000
 5851.00    0.60017   0.59196    0.000
 5852.00    0.60938   0.58989    0.000
 5853.00    0.61781   0.58913    0.000
 5854.00    0.62328   0.58882    0.000
 5855.00    0.61994   0.58856    0.000
 5856.00    0.61266   0.58750    0.000
 5857.00    0.59529   0.58692    0.000
 5858.00    0.58078   0.58769    0.000
 5859.00    0.57254   0.58856    0.000
 5860.00    0.56757   0.58901    0.000
 5861.00    0.56882   0.58868    0.000
 5862.00    0.58219   0.58884    0.000
 5863.00    0.61570   0.58959    0.000
 5864.00    0.63057   0.59017    0.000
 5865.00    0.61827   0.58989    0.000
 5866.00    0.60509   0.58899    0.000
 5867.00    0.59080   0.58874    0.000
 5868.00    0.58589   0.58812    0.000
 5869.00    0.59159   0.58725    0.000
 5870.00    0.59179   0.58555    0.000
 5871.00    0.58652   0.58349    0.000
 5872.00    0.58180   0.58207    0.000
 5873.00    0.57758   0.57950    0.000
 5874.00    0.58585   0.57661    0.000
 5875.00    0.60379   0.57312    0.000
 5876.00    0.61750   0.56938    0.000
 5877.00    0.62835   0.56596    0.000
 5878.00    0.62694   0.56081    0.000
 5879.00    0.61823   0.55517    0.000
 5880.00    0.60868   0.54987    0.000
 5881.00    0.59870   0.54437    0.000
 5882.00    0.59094   0.53897    0.000
 5883.00    0.58418   0.53268    0.000
 5884.00    0.57067   0.52580    0.000
 5885.00    0.55454   0.52140    0.000
 5886.00    0.53821   0.51804    0.000
 5887.00    0.52181   0.51445    0.000
 5888.00    0.51684   0.51195    0.000
 5889.00    0.51504   0.50888    0.000
 5890.00    0.51429   0.50879    0.000
 5891.00    0.51379   0.51190    0.000
 5892.00    0.52099   0.51416    0.000
 5893.00    0.52960   0.51737    0.000
 5894.00    0.51321   0.52024    0.000
 5895.00    0.49333   0.52390    0.000
 5896.00    0.49844   0.53057    0.000
 5897.00    0.50605   0.53660    0.000
 5898.00    0.52318   0.54157    0.000
 5899.00    0.54091   0.54611    0.000
 5900.00    0.57048   0.55028    0.000
 5901.00    0.60026   0.55518    0.030
 5902.00    0.58098   0.55954    0.030
 5903.00    0.56231   0.56261    0.029
 5904.00    0.56102   0.56504    0.030
 5905.00    0.55991   0.56700    0.030
 5906.00    0.56138   0.56914    0.030
 5907.00    0.56334   0.57062    0.030
 5908.00    0.56990   0.57125    0.030
 5909.00    0.57563   0.57204    0.030
 5910.00    0.57571   0.57241    0.030
 5911.00    0.57759   0.57320    0.030
 5912.00    0.58897   0.57374    0.030
 5913.00    0.59983   0.57338    0.030
 5914.00    0.60847   0.57400    0.029
 5915.00    0.61676   0.57437    0.029
 5916.00    0.62379   0.57456    0.029
 5917.00    0.62505   0.57527    0.029
 5918.00    0.60936   0.57521    0.028
 5919.00    0.59297   0.57556    0.028
 5920.00    0.57480   0.57610    0.028
 5921.00    0.56002   0.57589    0.028
 5922.00    0.55252   0.57633    0.028
 5923.00    0.55007   0.57661    0.028
 5924.00    0.55708   0.57630    0.028
 5925.00    0.56618   0.57682    0.028
 5926.00    0.57870   0.57687    0.028
 5927.00    0.58270   0.57688    0.028
 5928.00    0.57447   0.57716    0.028
 5929.00    0.56682   0.57666    0.028
 5930.00    0.55991   0.57726    0.028
 5931.00    0.55948   0.57788    0.028
 5932.00    0.56624   0.57774    0.029
 5933.00    0.57725   0.57800    0.029
 5934.00    0.59242   0.57771    0.030
 5935.00    0.59916   0.57798    0.030
 5936.00    0.59861   0.57860    0.029
 5937.00    0.59204   0.57845    0.029
 5938.00    0.58089   0.57847    0.029
 5939.00    0.56540   0.57824    0.029
 5940.00    0.54702   0.57787    0.029
 5941.00    0.53952   0.57799    0.029
 5942.00    0.53841   0.57767    0.028
 5943.00    0.55352   0.57708    0.029
 5944.00    0.57693   0.57674    0.029
 5945.00    0.58744   0.57660    0.029
 5946.00    0.59222   0.57633    0.029
 5947.00    0.58813   0.57561    0.029
 5948.00    0.58065   0.57519    0.029
 5949.00    0.56745   0.57539    0.028
 5950.00    0.55239   0.57583    0.028
 5951.00    0.54941   0.57580    0.028
 5952.00    0.54971   0.57549    0.028
 5953.00    0.56255   0.57632    0.028
 5954.00    0.57819   0.57741    0.028
 5955.00    0.59178   0.57807    0.028
 5956.00    0.60500   0.57871    0.028
 5957.00    0.59324   0.57931    0.028
 5958.00    0.57810   0.58070    0.028
 5959.00    0.56987   0.58186    0.028
 5960.00    0.56230   0.58241    0.028
 5961.00    0.57774   0.58329    0.028
 5962.00    0.59455   0.58378    0.028
 5963.00    0.58972   0.58443    0.028
 5964.00    0.58446   0.58481    0.028
 5965.00    0.59936   0.58455    0.029
 5966.00    0.61443   0.58476    0.029
 5967.00    0.63413   0.58447    0.029
 5968.00    0.65205   0.58393    0.029
 5969.00    0.64616   0.58332    0.029
 5970.00    0.63987   0.58215    0.029
 5971.00    0.63009   0.58151    0.029
 5972.00    0.61985   0.58072    0.030
 5973.00    0.60655   0.57963    0.029
 5974.00    0.59504   0.57882    0.029
 5975.00    0.59278   0.57762    0.029
 5976.00    0.59146   0.57707    0.029
 5977.00    0.59409   0.57673    0.028
 5978.00    0.59676   0.57584    0.028
 5979.00    0.59957   0.57593    0.028
 5980.00    0.60137   0.57612    0.028
 5981.00    0.60024   0.57618    0.028
 5982.00    0.60216   0.57655    0.027
 5983.00    0.61162   0.57633    0.028
 5984.00    0.61545   0.57707    0.028
 5985.00    0.60731   0.57828    0.028
 5986.00    0.60273   0.57849    0.028
 5987.00    0.60470   0.57901    0.028
 5988.00    0.60295   0.57927    0.027
 5989.00    0.59518   0.57953    0.028
 5990.00    0.59438   0.58008    0.028
 5991.00    0.60344   0.57963    0.028
 5992.00    0.60712   0.57962    0.028
 5993.00    0.60411   0.57956    0.028
 5994.00    0.60024   0.57857    0.028
 5995.00    0.59542   0.57838    0.028
 5996.00    0.58786   0.57759    0.028
 5997.00    0.57765   0.57651    0.028
 5998.00    0.56954   0.57623    0.028
 5999.00    0.56321   0.57489    0.028
 6000.00    0.55678   0.57442    0.028
 6001.00    0.55027   0.57418    0.028
 6002.00    0.56179   0.57255    0.029
 6003.00    0.58521   0.57239    0.029
 6004.00    0.59040   0.57207    0.029
 6005.00    0.58505   0.57141    0.029
 6006.00    0.57842   0.57155    0.029
 6007.00    0.57115   0.57028    0.029
 6008.00    0.58063   0.57010    0.029
 6009.00    0.59742   0.57108    0.028
 6010.00    0.60340   0.57060    0.028
 6011.00    0.60536   0.57052    0.028
 6012.00    0.59859   0.57045    0.028
 6013.00    0.58906   0.57055    0.028
 6014.00    0.58872   0.57188    0.028
 6015.00    0.59083   0.57204    0.027
 6016.00    0.59629   0.57238    0.027
 6017.00    0.60248   0.57383    0.028
 6018.00    0.60405   0.57450    0.028
 6019.00    0.60483   0.57585    0.028
 6020.00    0.60590   0.57728    0.028
 6021.00    0.60701   0.57839    0.028
 6022.00    0.60232   0.58028    0.028
 6023.00    0.59710   0.58153    0.028
 6024.00    0.59749   0.58316    0.028
 6025.00    0.59819   0.58495    0.028
 6026.00    0.61559   0.58595    0.028
 6027.00    0.63324   0.58752    0.028
 6028.00    0.63915   0.58886    0.029
 6029.00    0.64383   0.59006    0.029
 6030.00    0.62007   0.59111    0.029
 6031.00    0.59674   0.59170    0.028
 6032.00    0.57891   0.59289    0.028
 6033.00    0.56351   0.59359    0.029
 6034.00    0.56892   0.59413    0.028
 6035.00    0.57381   0.59489    0.028
 6036.00    0.57536   0.59515    0.028
 6037.00    0.57447   0.59591    0.028
 6038.00    0.56142   0.59637    0.028
 6039.00    0.55336   0.59638    0.028
 6040.00    0.56548   0.59685    0.028
 6041.00    0.57868   0.59697    0.027
 6042.00    0.59551   0.59710    0.027
 6043.00    0.60624   0.59718    0.027
 6044.00    0.59968   0.59672    0.027
 6045.00    0.59037   0.59649    0.027
 6046.00    0.57440   0.59619    0.027
 6047.00    0.56517   0.59547    0.027
 6048.00    0.57002   0.59465    0.027
 6049.00    0.58012   0.59398    0.027
 6050.00    0.59974   0.59336    0.027
 6051.00    0.61556   0.59250    0.027
 6052.00    0.62532   0.59158    0.027
 6053.00    0.62935   0.59084    0.028
 6054.00    0.62541   0.59030    0.028
 6055.00    0.62310   0.58994    0.028
 6056.00    0.62282   0.58911    0.028
 6057.00    0.61548   0.58886    0.028
 6058.00    0.60051   0.58952    0.028
 6059.00    0.59304   0.58951    0.028
 6060.00    0.59272   0.58985    0.028
 6061.00    0.59517   0.59026    0.028
 6062.00    0.59992   0.59066    0.029
 6063.00    0.59326   0.59195    0.029
 6064.00    0.57814   0.59207    0.028
 6065.00    0.57473   0.59246    0.028
 6066.00    0.57894   0.59379    0.028
 6067.00    0.59416   0.59394    0.028
 6068.00    0.61566   0.59415    0.028
 6069.00    0.62251   0.59380    0.028
 6070.00    0.62209   0.59315    0.028
 6071.00    0.62002   0.59341    0.027
 6072.00    0.61725   0.59237    0.027
 6073.00    0.61093   0.59084    0.027
 6074.00    0.60329   0.59015    0.026
 6075.00    0.59682   0.58898    0.026
 6076.00    0.59070   0.58764    0.027
 6077.00    0.59109   0.58620    0.027
 6078.00    0.59318   0.58474    0.027
 6079.00    0.59663   0.58430    0.027
 6080.00    0.60036   0.58344    0.027
 6081.00    0.60049   0.58176    0.027
 6082.00    0.60001   0.58130    0.027
 6083.00    0.59171   0.58132    0.027
 6084.00    0.58243   0.58061    0.027
 6085.00    0.57312   0.58012    0.028
 6086.00    0.56381   0.58008    0.028
 6087.00    0.58322   0.58026    0.028
 6088.00    0.60413   0.58009    0.028
 6089.00    0.59448   0.57955    0.028
 6090.00    0.58433   0.57954    0.028
 6091.00    0.57804   0.57993    0.028
 6092.00    0.57180   0.58006    0.029
 6093.00    0.56658   0.57902    0.028
 6094.00    0.56164   0.57836    0.028
 6095.00    0.56023   0.57927    0.028
 6096.00    0.55953   0.57898    0.028
 6097.00    0.56466   0.57856    0.028
 6098.00    0.56756   0.57865    0.028
 6099.00    0.55663   0.57811    0.027
 6100.00    0.54734   0.57920    0.027
 6101.00    0.54606   0.57932    0.027
 6102.00    0.54480   0.57810    0.026
 6103.00    0.54364   0.57954    0.026
 6104.00    0.54228   0.58039    0.026
 6105.00    0.54023   0.58039    0.026
 6106.00    0.53724   0.58118    0.027
 6107.00    0.53160   0.58037    0.026
 6108.00    0.53010   0.58064    0.026
 6109.00    0.53848   0.58175    0.027
 6110.00    0.54974   0.58038    0.027
 6111.00    0.56691   0.57980    0.027
 6112.00    0.58005   0.57975    0.027
 6113.00    0.58599   0.57814    0.027
 6114.00    0.58461   0.57792    0.027
 6115.00    0.57178   0.57726    0.028
 6116.00    0.55967   0.57552    0.028
 6117.00    0.54857   0.57545    0.027
 6118.00    0.54215   0.57443    0.027
 6119.00    0.54141   0.57311    0.028
 6120.00    0.54383   0.57301    0.028
 6121.00    0.54961   0.57195    0.028
 6122.00    0.56256   0.57169    0.028
 6123.00    0.58226   0.57198    0.028
 6124.00    0.58605   0.57097    0.028
 6125.00    0.57664   0.57030    0.027
 6126.00    0.57127   0.57000    0.027
 6127.00    0.56887   0.56920    0.027
 6128.00    0.57561   0.56806    0.026
 6129.00    0.58821   0.56771    0.026
 6130.00    0.59328   0.56785    0.026
 6131.00    0.59411   0.56748    0.027
 6132.00    0.57921   0.56683    0.027
 6133.00    0.55662   0.56599    0.027
 6134.00    0.54507   0.56640    0.027
 6135.00    0.53817   0.56723    0.027
 6136.00    0.53018   0.56679    0.027
 6137.00    0.52181   0.56716    0.028
 6138.00    0.51592   0.56842    0.028
 6139.00    0.51078   0.56928    0.028
 6140.00    0.51235   0.56935    0.027
 6141.00    0.51562   0.56888    0.027
 6142.00    0.52443   0.56933    0.027
 6143.00    0.53438   0.56968    0.027
 6144.00    0.54594   0.56899    0.028
 6145.00    0.55776   0.56757    0.028
 6146.00    0.57206   0.56595    0.028
 6147.00    0.58667   0.56478    0.028
 6148.00    0.59570   0.56251    0.028
 6149.00    0.60426   0.55939    0.028
 6150.00    0.59741   0.55678    0.027
 6151.00    0.58982   0.55382    0.027
 6152.00    0.57337   0.55041    0.027
 6153.00    0.55684   0.54651    0.027
 6154.00    0.54243   0.54266    0.027
 6155.00    0.52890   0.53996    0.026
 6156.00    0.53256   0.53705    0.026
 6157.00    0.53582   0.53325    0.027
 6158.00    0.53447   0.53071    0.027
 6159.00    0.53406   0.52924    0.027
 6160.00    0.54116   0.52688    0.027
 6161.00    0.54619   0.52505    0.026
 6162.00    0.53878   0.52481    0.027
 6163.00    0.53080   0.52513    0.027
 6164.00    0.52014   0.52558    0.027
 6165.00    0.51374   0.52553    0.026
 6166.00    0.52391   0.52638    0.027
 6167.00    0.53282   0.52851    0.027
 6168.00    0.53766   0.52933    0.027
 6169.00    0.54483   0.53022    0.027
 6170.00    0.55833   0.53255    0.027
 6171.00    0.56285   0.53416    0.027
 6172.00    0.54635   0.53539    0.027
 6173.00    0.53729   0.53652    0.027
 6174.00    0.54327   0.53724    0.027
 6175.00    0.55025   0.53836    0.027
 6176.00    0.55899   0.53856    0.027
 6177.00    0.56650   0.53838    0.027
 6178.00    0.57213   0.53884    0.027
 6179.00    0.56905   0.53789    0.027
 6180.00    0.55415   0.53710    0.027
 6181.00    0.54498   0.53713    0.026
 6182.00    0.54264   0.53533    0.026
 6183.00    0.54460   0.53419    0.026
 6184.00    0.55107   0.53404    0.026
 6185.00    0.54706   0.53277    0.026
 6186.00    0.53334   0.53237    0.026
 6187.00    0.52523   0.53160    0.026
 6188.00    0.52171   0.53099    0.026
 6189.00    0.54525   0.53220    0.026
 6190.00    0.58826   0.53165    0.026
 6191.00    0.63288   0.53136    0.026
 6192.00    0.67850   0.53317    0.026
 6193.00    0.69284   0.53376    0.026
 6194.00    0.68989   0.53443    0.027
 6195.00    0.59100   0.53527    0.028
 6196.00    0.44603   0.53559   -2.000
 6197.00    0.42543   0.53692   -2.000
 6198.00    0.45639   0.53720   -2.000
 6199.00    0.47243   0.53674   -2.000
 6200.00    0.48318   0.53746   -2.000
 6201.00    0.50804   0.53718   -2.000
 6202.00    0.53712   0.53629   -2.000
 6203.00    0.53202   0.53570   -2.000
 6204.00    0.51843   0.53400   -2.000
 6205.00    0.52519   0.53273   -2.000
 6206.00    0.53606   0.53137   -2.000
 6207.00    0.54734   0.52880   -2.000
 6208.00    0.55870   0.52735    0.028
 6209.00    0.56743   0.52550    0.027
 6210.00    0.57586   0.52287    0.027
 6211.00    0.57655   0.52150    0.027
 6212.00    0.57663   0.51936    0.026
 6213.00    0.56116   0.51755    0.026
 6214.00    0.54500   0.51681    0.026
 6215.00    0.53881   0.51486    0.026
 6216.00    0.53311   0.51402    0.026
 6217.00    0.54593   0.51377    0.026
 6218.00    0.55818   0.51222    0.025
 6219.00    0.56000   0.51181    0.026
 6220.00    0.56229   0.51152    0.026
 6221.00    0.56965   0.51065    0.026
 6222.00    0.57821   0.51080    0.026
 6223.00    0.59610   0.51038    0.026
 6224.00    0.60828   0.50994    0.027
 6225.00    0.58697   0.51041    0.027
 6226.00    0.56499   0.50981    0.027
 6227.00    0.53991   0.50951    0.027
 6228.00    0.51795   0.50984    0.027
 6229.00    0.50788   0.50933    0.027
 6230.00    0.50160   0.50937    0.027
 6231.00    0.50734   0.50930    0.027
 6232.00    0.51457   0.50910    0.027
 6233.00    0.52580   0.50940    0.027
 6234.00    0.53654   0.50878    0.027
 6235.00    0.54614   0.50868    0.026
 6236.00    0.55477   0.50858    0.026
 6237.00    0.56145   0.50786    0.026
 6238.00    0.56823   0.50810    0.026
 6239.00    0.57517   0.50741    0.026
 6240.00    0.57778   0.50692    0.026
 6241.00    0.57380   0.50754    0.025
 6242.00    0.57447   0.50648    0.025
 6243.00    0.58133   0.50607    0.025
 6244.00    0.58378   0.50652    0.026
 6245.00    0.58104   0.50554    0.026
 6246.00    0.57702   0.50522    0.026
 6247.00    0.57169   0.50530    0.025
 6248.00    0.57372   0.50480    0.026
 6249.00    0.58250   0.50459    0.026
 6250.00    0.58128   0.50448    0.027
 6251.00    0.57202   0.50466    0.027
 6252.00    0.56121   0.50491    0.027
 6253.00    0.54930   0.50512    0.027
 6254.00    0.54924   0.50584    0.027
 6255.00    0.55654   0.50688    0.027
 6256.00    0.55135   0.50809    0.027
 6257.00    0.53938   0.50892    0.027
 6258.00    0.53200   0.51019    0.027
 6259.00    0.52680   0.51236    0.028
 6260.00    0.53014   0.51369    0.029
 6261.00    0.53695   0.51477    0.031
 6262.00    0.54620   0.51659    0.032
 6263.00    0.55628   0.51826    0.033
 6264.00    0.55297   0.51930    0.033
 6265.00    0.54574   0.52006    0.032
 6266.00    0.54035   0.52152    0.030
 6267.00    0.53541   0.52281    0.029
 6268.00    0.55575   0.52308    0.027
 6269.00    0.58104   0.52398    0.026
 6270.00    0.59621   0.52480    0.025
 6271.00    0.60983   0.52520    0.025
 6272.00    0.60401   0.52614    0.025
 6273.00    0.59599   0.52622    0.025
 6274.00    0.59536   0.52674    0.026
 6275.00    0.59529   0.52800    0.026
 6276.00    0.59225   0.52785    0.026
 6277.00    0.58908   0.52858    0.026
 6278.00    0.57266   0.52961    0.026
 6279.00    0.55622   0.52954    0.026
 6280.00    0.54344   0.53055    0.000
 6281.00    0.53203   0.53087    0.000
 6282.00    0.54408   0.53094    0.000
 6283.00    0.55601   0.53201    0.000
 6284.00    0.56667   0.53156    0.000
 6285.00    0.57658   0.53137    0.000
 6286.00    0.58093   0.53170    0.000
 6287.00    0.58355   0.53096    0.000
 6288.00    0.57626   0.53085    0.000
 6289.00    0.56649   0.53015    0.000
 6290.00    0.54544   0.52915    0.000
 6291.00    0.52989   0.52927    0.000
 6292.00    0.53475   0.52842    0.000
 6293.00    0.54290   0.52758    0.000
 6294.00    0.56124   0.52766    0.000
 6295.00    0.57536   0.52738    0.000
 6296.00    0.57835   0.52729    0.000
 6297.00    0.57979   0.52728    0.000
 6298.00    0.57775   0.52736    0.000
 6299.00    0.57698   0.52788    0.000
 6300.00    0.57871   0.52813    0.000
 6301.00    0.57580   0.52847    0.000
 6302.00    0.56495   0.52898    0.000
 6303.00    0.55434   0.52925    0.000
 6304.00    0.54409   0.52980    0.000
 6305.00    0.54354   0.52997    0.000
 6306.00    0.55575   0.52986    0.000
 6307.00    0.56565   0.53022    0.000
 6308.00    0.57286   0.53016    0.000
 6309.00    0.57570   0.53013    0.000
 6310.00    0.57408   0.53026    0.000
 6311.00    0.57335   0.52977    0.000
 6312.00    0.57343   0.53031    0.000
 6313.00    0.56915   0.53096    0.000
 6314.00    0.56140   0.53044    0.000
 6315.00    0.56101   0.53104    0.000
 6316.00    0.56577   0.53235    0.000
 6317.00    0.56814   0.53276    0.000
 6318.00    0.56905   0.53313    0.000
 6319.00    0.57223   0.53437    0.000
 6320.00    0.57664   0.53560    0.000
 6321.00    0.57616   0.53605    0.025
 6322.00    0.57341   0.53701    0.025
 6323.00    0.57288   0.53768    0.025
 6324.00    0.57323   0.53788    0.025
 6325.00    0.57612   0.53893    0.025
 6326.00    0.57987   0.53883    0.026
 6327.00    0.57982   0.53859    0.026
 6328.00    0.57869   0.53940    0.026
 6329.00    0.57227   0.53883    0.026
 6330.00    0.56460   0.53856    0.026
 6331.00    0.57364   0.53862    0.026
 6332.00    0.58588   0.53756    0.026
 6333.00    0.58784   0.53785    0.027
 6334.00    0.58828   0.53786    0.027
 6335.00    0.58503   0.53661    0.027
 6336.00    0.58139   0.53709    0.026
 6337.00    0.58609   0.53741    0.026
 6338.00    0.59139   0.53666    0.026
 6339.00    0.58672   0.53685    0.026
 6340.00    0.58169   0.53668    0.025
 6341.00    0.56793   0.53658    0.025
 6342.00    0.55480   0.53671    0.025
 6343.00    0.56506   0.53570    0.025
 6344.00    0.57583   0.53557    0.025
 6345.00    0.59474   0.53575    0.025
 6346.00    0.61107   0.53438    0.025
 6347.00    0.60152   0.53354    0.025
 6348.00    0.59296   0.53297    0.025
 6349.00    0.59162   0.53164    0.025
 6350.00    0.59156   0.53046    0.025
 6351.00    0.59867   0.52893    0.025
 6352.00    0.60198   0.52787    0.025
 6353.00    0.58846   0.52734    0.025
 6354.00    0.57723   0.52577    0.025
 6355.00    0.57432   0.52491    0.026
 6356.00    0.57064   0.52534    0.026
 6357.00    0.56462   0.52495    0.026
 6358.00    0.55754   0.52480    0.026
 6359.00    0.54774   0.52584    0.026
 6360.00    0.54101   0.52684    0.026
 6361.00    0.54115   0.52809    0.027
 6362.00    0.54716   0.52963    0.027
 6363.00    0.56454   0.53113    0.027
 6364.00    0.57586   0.53331    0.027
 6365.00    0.57697   0.53525    0.027
 6366.00    0.57440   0.53648    0.027
 6367.00    0.56640   0.53846    0.026
 6368.00    0.56492   0.54030    0.025
 6369.00    0.57189   0.54125    0.025
 6370.00    0.57869   0.54249    0.025
 6371.00    0.58529   0.54347    0.025
 6372.00    0.59276   0.54407    0.025
 6373.00    0.60110   0.54481    0.025
 6374.00    0.60563   0.54478    0.025
 6375.00    0.60678   0.54476    0.025
 6376.00    0.60285   0.54528    0.025
 6377.00    0.59494   0.54475    0.025
 6378.00    0.58589   0.54420    0.025
 6379.00    0.57605   0.54449    0.025
 6380.00    0.57594   0.54398    0.026
 6381.00    0.58171   0.54320    0.026
 6382.00    0.57644   0.54316    0.026
 6383.00    0.56533   0.54287    0.026
 6384.00    0.55967   0.54210    0.026
 6385.00    0.55649   0.54160    0.026
 6386.00    0.55504   0.54137    0.026
 6387.00    0.55427   0.54103    0.026
 6388.00    0.55637   0.54059    0.026
 6389.00    0.55944   0.54011    0.026
 6390.00    0.56141   0.53983    0.025
 6391.00    0.56307   0.54021    0.025
 6392.00    0.56045   0.54006    0.025
 6393.00    0.55684   0.53934    0.025
 6394.00    0.55437   0.54040    0.025
 6395.00    0.55211   0.54101    0.025
 6396.00    0.54980   0.53960    0.026
 6397.00    0.54749   0.54068    0.026
 6398.00    0.56835   0.54198    0.026
 6399.00    0.59162   0.54076    0.026
 6400.00    0.60301   0.54150    0.026
 6401.00    0.61360   0.54228    0.026
 6402.00    0.61557   0.54178    0.026
 6403.00    0.61726   0.54238    0.026
 6404.00    0.60962   0.54181    0.026
 6405.00    0.60204   0.54167    0.026
 6406.00    0.59654   0.54255    0.026
 6407.00    0.59140   0.54122    0.026
 6408.00    0.59173   0.54107    0.026
 6409.00    0.59038   0.54208    0.026
 6410.00    0.57273   0.54094    0.026
 6411.00    0.55791   0.54073    0.026
 6412.00    0.56283   0.54143    0.026
 6413.00    0.56827   0.54095    0.026
 6414.00    0.57644   0.54098    0.026
 6415.00    0.58166   0.54121    0.026
 6416.00    0.57417   0.54110    0.026
 6417.00    0.56720   0.54131    0.025
 6418.00    0.56209   0.54148    0.025
 6419.00    0.55988   0.54202    0.025
 6420.00    0.56631   0.54229    0.025
 6421.00    0.57187   0.54213    0.025
 6422.00    0.57522   0.54294    0.025
 6423.00    0.57833   0.54321    0.024
 6424.00    0.58094   0.54280    0.025
 6425.00    0.58198   0.54370    0.025
 6426.00    0.58004   0.54385    0.025
 6427.00    0.57490   0.54335    0.026
 6428.00    0.56442   0.54435    0.026
 6429.00    0.55269   0.54461    0.027
 6430.00    0.53913   0.54460    0.027
 6431.00    0.53122   0.54539    0.027
 6432.00    0.53053   0.54542    0.027
 6433.00    0.53517   0.54622    0.026
 6434.00    0.54582   0.54665    0.026
 6435.00    0.55152   0.54586    0.026
 6436.00    0.55231   0.54701    0.026
 6437.00    0.56288   0.54750    0.026
 6438.00    0.58203   0.54654    0.026
 6439.00    0.58791   0.54720    0.026
 6440.00    0.58355   0.54706    0.026
 6441.00    0.57289   0.54635    0.026
 6442.00    0.55794   0.54642    0.025
 6443.00    0.55418   0.54565    0.025
 6444.00    0.55708   0.54550    0.025
 6445.00    0.55531   0.54504    0.025
 6446.00    0.55113   0.54375    0.025
 6447.00    0.54444   0.54429    0.025
 6448.00    0.53662   0.54420    0.025
 6449.00    0.53854   0.54336    0.026
 6450.00    0.54423   0.54419    0.026
 6451.00    0.53880   0.54433    0.026
 6452.00    0.52971   0.54399    0.026
 6453.00    0.52520   0.54476    0.026
 6454.00    0.52196   0.54530    0.025
 6455.00    0.54127   0.54528    0.025
 6456.00    0.56570   0.54565    0.026
 6457.00    0.56505   0.54653    0.026
 6458.00    0.55985   0.54646    0.026
 6459.00    0.56079   0.54614    0.026
 6460.00    0.56259   0.54723    0.026
 6461.00    0.56706   0.54745    0.026
 6462.00    0.57179   0.54691    0.026
 6463.00    0.57284   0.54765    0.026
 6464.00    0.57365   0.54774    0.026
 6465.00    0.56266   0.54705    0.025
 6466.00    0.55138   0.54731    0.025
 6467.00    0.55567   0.54697    0.025
 6468.00    0.56002   0.54607    0.025
 6469.00    0.56586   0.54610    0.025
 6470.00    0.57084   0.54554    0.025
 6471.00    0.56382   0.54418    0.025
 6472.00    0.55816   0.54357    0.025
 6473.00    0.56518   0.54299    0.025
 6474.00    0.57058   0.54158    0.026
 6475.00    0.56502   0.54024    0.026
 6476.00    0.55821   0.53930    0.026
 6477.00    0.54483   0.53783    0.026
 6478.00    0.53396   0.53582    0.025
 6479.00    0.53371   0.53425    0.025
 6480.00    0.53763   0.53281    0.025
 6481.00    0.55611   0.53059    0.025
 6482.00    0.57376   0.52849    0.026
 6483.00    0.58899   0.52668    0.026
 6484.00    0.59776   0.52423    0.026
 6485.00    0.59038   0.52208    0.026
 6486.00    0.58556   0.52004    0.026
 6487.00    0.58624   0.51739    0.025
 6488.00    0.58379   0.51588    0.025
 6489.00    0.57550   0.51449    0.025
 6490.00    0.56639   0.51214    0.025
 6491.00    0.55596   0.51156    0.025
 6492.00    0.55341   0.51138    0.025
 6493.00    0.56215   0.51071    0.025
 6494.00    0.56575   0.51172    0.025
 6495.00    0.56286   0.51247    0.025
 6496.00    0.55657   0.51344    0.025
 6497.00    0.54651   0.51568    0.025
 6498.00    0.53946   0.51712    0.025
 6499.00    0.53537   0.51910    0.025
 6500.00    0.53958   0.52157    0.026
 6501.00    0.55096   0.52317    0.026
 6502.00    0.56755   0.52531    0.026
 6503.00    0.58812   0.52739    0.026
 6504.00    0.60319   0.52866    0.026
 6505.00    0.61458   0.53008    0.026
 6506.00    0.61430   0.53145    0.026
 6507.00    0.60719   0.53261    0.026
 6508.00    0.60686   0.53323    0.026
 6509.00    0.61000   0.53373    0.025
 6510.00    0.61296   0.53474    0.025
 6511.00    0.61584   0.53486    0.025
 6512.00    0.60981   0.53484    0.025
 6513.00    0.60039   0.53580    0.025
 6514.00    0.59560   0.53577    0.025
 6515.00    0.59232   0.53568    0.025
 6516.00    0.58184   0.53659    0.025
 6517.00    0.56941   0.53672    0.025
 6518.00    0.57021   0.53694    0.025
 6519.00    0.57393   0.53751    0.025
 6520.00    0.58528   0.53758    0.025
 6521.00    0.59798   0.53821    0.025
 6522.00    0.60551   0.53863    0.025
 6523.00    0.61234   0.53848    0.026
 6524.00    0.60813   0.53914    0.025
 6525.00    0.60287   0.53956    0.025
 6526.00    0.58454   0.53953    0.025
 6527.00    0.56543   0.53995    0.026
 6528.00    0.55798   0.54000    0.000
 6529.00    0.55094   0.53995    0.000
 6530.00    0.56088   0.54004    0.000
 6531.00    0.57084   0.53980    0.000
 6532.00    0.58106   0.53971    0.000
 6533.00    0.59093   0.53914    0.000
 6534.00    0.59606   0.53814    0.000
 6535.00    0.60014   0.53774    0.000
 6536.00    0.59482   0.53659    0.000
 6537.00    0.59089   0.53500    0.000
 6538.00    0.59610   0.53389    0.000
 6539.00    0.59937   0.53176    0.000
 6540.00    0.59273   0.52978    0.000
 6541.00    0.58662   0.52803    0.000
 6542.00    0.58273   0.52491    0.000
 6543.00    0.57874   0.52250    0.000
 6544.00    0.57445   0.52014    0.000
 6545.00    0.57340   0.51657    0.000
 6546.00    0.58167   0.51371    0.000
 6547.00    0.58751   0.51027    0.000
 6548.00    0.58741   0.50634    0.000
 6549.00    0.58770   0.50320    0.000
 6550.00    0.58883   0.49915    0.000
 6551.00    0.58834   0.49539    0.000
 6552.00    0.58485   0.49201    0.000
 6553.00    0.58463   0.48799    0.000
 6554.00    0.58966   0.48567    0.000
 6555.00    0.59020   0.48281    0.000
 6556.00    0.58441   0.47917    0.000
 6557.00    0.58379   0.47919    0.000
 6558.00    0.58959   0.47776    0.000
 6559.00    0.60056   0.47457    0.000
 6560.00    0.61718   0.47706    0.000
 6561.00    0.62707   0.47917    0.000
 6562.00    0.63046   0.47818    0.000
 6563.00    0.63689   0.48132    0.000
 6564.00    0.64590   0.48474    0.000
 6565.00    0.63965   0.48556    0.000
 6566.00    0.62194   0.48897    0.000
 6567.00    0.60126   0.49286    0.000
 6568.00    0.57863   0.49476    0.000
 6569.00    0.57068   0.49793    0.000
 6570.00    0.57122   0.50128    0.000
 6571.00    0.55887   0.50325    0.000
 6572.00    0.54006   0.50615    0.000
 6573.00    0.53290   0.50886    0.000
 6574.00    0.53082   0.51031    0.000
 6575.00    0.53916   0.51258    0.000
 6576.00    0.55140   0.51448    0.000
 6577.00    0.56726   0.51519    0.000
 6578.00    0.58428   0.51695    0.000
 6579.00    0.60210   0.51818    0.000
 6580.00    0.62014   0.51834    0.000
 6581.00    0.63286   0.51957    0.000
 6582.00    0.64443   0.51990    0.000
 6583.00    0.65640   0.51954    0.000
 6584.00    0.66844   0.52045    0.000
 6585.00    0.66605   0.52034    0.000
 6586.00    0.66178   0.51953    0.000
 6587.00    0.63630   0.52009    0.000
 6588.00    0.60889   0.51998    0.000
 6589.00    0.58811   0.51889    0.000
 6590.00    0.56769   0.51922    0.000
 6591.00    0.57914   0.51958    0.000
 6592.00    0.59119   0.51890    0.000
 6593.00    0.59497   0.51914    0.000
 6594.00    0.59800   0.51947    0.000
 6595.00    0.58403   0.51902    0.000
 6596.00    0.57140   0.51935    0.000
 6597.00    0.57570   0.51981    0.000
 6598.00    0.57919   0.51958    0.000
 6599.00    0.57566   0.51977    0.000
 6600.00    0.57029   0.52015    0.000
 6601.00    0.55321   0.52014    0.000
 6602.00    0.54062   0.52022    0.000
 6603.00    0.55043   0.52061    0.000
 6604.00    0.55918   0.52092    0.000
 6605.00    0.56368   0.52104    0.000
 6606.00    0.56640   0.52134    0.000
 6607.00    0.56315   0.52185    0.000
 6608.00    0.56339   0.52231    0.000
 6609.00    0.57348   0.52250    0.025
 6610.00    0.58314   0.52263    0.025
 6611.00    0.59180   0.52310    0.025
 6612.00    0.59866   0.52321    0.025
 6613.00    0.60176   0.52305    0.025
 6614.00    0.60484   0.52305    0.025
 6615.00    0.60787   0.52271    0.026
 6616.00    0.60761   0.52240    0.026
 6617.00    0.60213   0.52190    0.025
 6618.00    0.59708   0.52096    0.025
 6619.00    0.59264   0.52054    0.026
 6620.00    0.58873   0.51968    0.026
 6621.00    0.58546   0.51831    0.025
 6622.00    0.58049   0.51796    0.025
 6623.00    0.57367   0.51709    0.025
 6624.00    0.56913   0.51572    0.025
 6625.00    0.56677   0.51547    0.025
 6626.00    0.56315   0.51466    0.025
 6627.00    0.55848   0.51350    0.025
 6628.00    0.55610   0.51353    0.025
 6629.00    0.55540   0.51305    0.025
 6630.00    0.55436   0.51209    0.025
 6631.00    0.55311   0.51235    0.025
 6632.00    0.55494   0.51233    0.025
 6633.00    0.55851   0.51154    0.026
 6634.00    0.57061   0.51185    0.026
 6635.00    0.58692   0.51215    0.025
 6636.00    0.58753   0.51135    0.025
 6637.00    0.58143   0.51147    0.026
 6638.00    0.57591   0.51198    0.026
 6639.00    0.57060   0.51132    0.026
 6640.00    0.57279   0.51106    0.026
 6641.00    0.57731   0.51133    0.026
 6642.00    0.58796   0.51092    0.026
 6643.00    0.60019   0.51053    0.026
 6644.00    0.59458   0.51024    0.026
 6645.00    0.58521   0.50984    0.025
 6646.00    0.57910   0.50947    0.025
 6647.00    0.57353   0.50874    0.026
 6648.00    0.57498   0.50825    0.025
 6649.00    0.57730   0.50792    0.025
 6650.00    0.57998   0.50688    0.025
 6651.00    0.58268   0.50637    0.025
 6652.00    0.58159   0.50614    0.025
 6653.00    0.58030   0.50490    0.026
 6654.00    0.58334   0.50441    0.026
 6655.00    0.58639   0.50443    0.026
 6656.00    0.58415   0.50316    0.026
 6657.00    0.58192   0.50274    0.026
 6658.00    0.57985   0.50308    0.026
 6659.00    0.57691   0.50203    0.026
 6660.00    0.56342   0.50174    0.026
 6661.00    0.55178   0.50220    0.026
 6662.00    0.55541   0.50149    0.026
 6663.00    0.55948   0.50142    0.026
 6664.00    0.56627   0.50170    0.026
 6665.00    0.57128   0.50104    0.026
 6666.00    0.56770   0.50113    0.026
 6667.00    0.56228   0.50114    0.026
 6668.00    0.54962   0.50023    0.025
 6669.00    0.53847   0.50037    0.025
 6670.00    0.53228   0.50019    0.025
 6671.00    0.53160   0.49886    0.025
 6672.00    0.54622   0.49898    0.025
 6673.00    0.55595   0.49907    0.025
 6674.00    0.55404   0.49767    0.025
 6675.00    0.55469   0.49764    0.025
 6676.00    0.56056   0.49808    0.025
 6677.00    0.56565   0.49710    0.025
 6678.00    0.56936   0.49703    0.026
 6679.00    0.56882   0.49758    0.026
 6680.00    0.56163   0.49707    0.026
 6681.00    0.55857   0.49708    0.026
 6682.00    0.56120   0.49759    0.026
 6683.00    0.55720   0.49733    0.026
 6684.00    0.54520   0.49743    0.026
 6685.00    0.54406   0.49777    0.026
 6686.00    0.55449   0.49744    0.025
 6687.00    0.56001   0.49762    0.025
 6688.00    0.56091   0.49777    0.025
 6689.00    0.55945   0.49720    0.025
 6690.00    0.55604   0.49742    0.025
 6691.00    0.55738   0.49742    0.025
 6692.00    0.56218   0.49676    0.025
 6693.00    0.56935   0.49704    0.025
 6694.00    0.57803   0.49684    0.026
 6695.00    0.58022   0.49619    0.026
 6696.00    0.57878   0.49644    0.000
 6697.00    0.58009   0.49590    0.000
 6698.00    0.58276   0.49523    0.000
 6699.00    0.57961   0.49543    0.000
 6700.00    0.57402   0.49456    0.000
 6701.00    0.56402   0.49373    0.000
 6702.00    0.55241   0.49372    0.000
 6703.00    0.54870   0.49253    0.000
 6704.00    0.54739   0.49147    0.000
 6705.00    0.54645   0.49117    0.000
 6706.00    0.54560   0.48988    0.000
 6707.00    0.55353   0.48868    0.000
 6708.00    0.56327   0.48810    0.000
 6709.00    0.55650   0.48704    0.000
 6710.00    0.54707   0.48595    0.000
 6711.00    0.54808   0.48533    0.000
 6712.00    0.55036   0.48479    0.000
 6713.00    0.56426   0.48421    0.000
 6714.00    0.57911   0.48386    0.000
 6715.00    0.59889   0.48371    0.000
 6716.00    0.61891   0.48361    0.000
 6717.00    0.62207   0.48381    0.000
 6718.00    0.62442   0.48406    0.000
 6719.00    0.59446   0.48420    0.000
 6720.00    0.56579   0.48473    0.000
 6721.00    0.56218   0.48526    0.000
 6722.00    0.55837   0.48552    0.000
 6723.00    0.55234   0.48609    0.000
 6724.00    0.54537   0.48656    0.000
 6725.00    0.53099   0.48677    0.000
 6726.00    0.52135   0.48713    0.000
 6727.00    0.54013   0.48732    0.000
 6728.00    0.55995   0.48738    0.000
 6729.00    0.58465   0.48745    0.000
 6730.00    0.60577   0.48727    0.000
 6731.00    0.61302   0.48716    0.000
 6732.00    0.61356   0.48692    0.000
 6733.00    0.59251   0.48638    0.000
 6734.00    0.57339   0.48622    0.000
 6735.00    0.55953   0.48588    0.000
 6736.00    0.55167   0.48508    0.000
 6737.00    0.55784   0.48477    0.000
 6738.00    0.55798   0.48461    0.000
 6739.00    0.54597   0.48386    0.000
 6740.00    0.54100   0.48338    0.000
 6741.00    0.54844   0.48352    0.000
 6742.00    0.54640   0.48313    0.000
 6743.00    0.52975   0.48254    0.000
 6744.00    0.52310   0.48314    0.000
 6745.00    0.52997   0.48324    0.000
 6746.00    0.53643   0.48270    0.000
 6747.00    0.54238   0.48370    0.000
 6748.00    0.54309   0.48427    0.000
 6749.00    0.53830   0.48393    0.000
 6750.00    0.52884   0.48516    0.000
 6751.00    0.51503   0.48598    0.000
 6752.00    0.53171   0.48581    0.000
 6753.00    0.57328   0.48704    0.028
 6754.00    0.57787   0.48784    0.029
 6755.00    0.55588   0.48773    0.029
 6756.00    0.53058   0.48877    0.029
 6757.00    0.50318   0.48935    0.029
 6758.00    0.48295   0.48917    0.029
 6759.00    0.46665   0.49001    0.029
 6760.00    0.51400   0.49038    0.030
 6761.00    0.59185   0.49008    0.031
 6762.00    0.63037   0.49073    0.031
 6763.00    0.65262   0.49108    0.032
 6764.00    0.64958   0.49074    0.032
 6765.00    0.63759   0.49120    0.032
 6766.00    0.63262   0.49158    0.032
 6767.00    0.62975   0.49123    0.032
 6768.00    0.64402   0.49143    0.032
 6769.00    0.66253   0.49178    0.032
 6770.00    0.65247   0.49133    0.031
 6771.00    0.63669   0.49115    0.030
 6772.00    0.63545   0.49131    0.030
 6773.00    0.63651   0.49062    0.029
 6774.00    0.61071   0.48999    0.029
 6775.00    0.58179   0.48993    0.028
 6776.00    0.55938   0.48908    0.028
 6777.00    0.53748   0.48811    0.028
 6778.00    0.54704   0.48798    0.028
 6779.00    0.55798   0.48717    0.028
 6780.00    0.57853   0.48604    0.029
 6781.00    0.59873   0.48600    0.029
 6782.00    0.59744   0.48553    0.029
 6783.00    0.59602   0.48452    0.029
 6784.00    0.59222   0.48470    0.029
 6785.00    0.58968   0.48468    0.029
 6786.00    0.60092   0.48399    0.029
 6787.00    0.61072   0.48445    0.030
 6788.00    0.60950   0.48477    0.030
 6789.00    0.60895   0.48446    0.030
 6790.00    0.61234   0.48509    0.031
 6791.00    0.61404   0.48551    0.031
 6792.00    0.60789   0.48558    0.031
 6793.00    0.59960   0.48626    0.031
 6794.00    0.58322   0.48649    0.030
 6795.00    0.57140   0.48687    0.030
 6796.00    0.57398   0.48750    0.029
 6797.00    0.58264   0.48741    0.029
 6798.00    0.60757   0.48799    0.028
 6799.00    0.62413   0.48847    0.028
 6800.00    0.62146   0.48809    0.028
 6801.00    0.60963   0.48876    0.028
 6802.00    0.57963   0.48903    0.028
 6803.00    0.56578   0.48853    0.029
 6804.00    0.57992   0.48923    0.029
 6805.00    0.59068   0.48930    0.029
 6806.00    0.59631   0.48887    0.029
 6807.00    0.58453   0.48954    0.029
 6808.00    0.54951   0.48951    0.029
 6809.00    0.54329   0.48928    0.029
 6810.00    0.57086   0.48991    0.029
 6811.00    0.57959   0.48986    0.030
 6812.00    0.56883   0.48984    0.031
 6813.00    0.56783   0.49043    0.031
 6814.00    0.57573   0.49041    0.031
 6815.00    0.56662   0.49051    0.031
 6816.00    0.54383   0.49099    0.031
 6817.00    0.54050   0.49102    0.030
 6818.00    0.55095   0.49114    0.029
 6819.00    0.56041   0.49149    0.028
 6820.00    0.56927   0.49146    0.028
 6821.00    0.56699   0.49150    0.028
 6822.00    0.55867   0.49171    0.028
 6823.00    0.56619   0.49154    0.028
 6824.00    0.58118   0.49144    0.028
 6825.00    0.59231   0.49148    0.028
 6826.00    0.60186   0.49111    0.029
 6827.00    0.58956   0.49087    0.029
 6828.00    0.56966   0.49077    0.029
 6829.00    0.56480   0.49023    0.030
 6830.00    0.56434   0.48989    0.030
 6831.00    0.57955   0.48970    0.031
 6832.00    0.59856   0.48910    0.031
 6833.00    0.57712   0.48872    0.030
 6834.00    0.54777   0.48852    0.030
 6835.00    0.53929   0.48801    0.030
 6836.00    0.53400   0.48763    0.031
 6837.00    0.53906   0.48749    0.031
 6838.00    0.54528   0.48720    0.031
 6839.00    0.56799   0.48678    0.031
 6840.00    0.59194   0.48671    0.031
 6841.00    0.58880   0.48663    0.031
 6842.00    0.58459   0.48606    0.030
 6843.00    0.57169   0.48600    0.029
 6844.00    0.55963   0.48603    0.029
 6845.00    0.58324   0.48522    0.029
 6846.00    0.60396   0.48508    0.029
 6847.00    0.57590   0.48517    0.029
 6848.00    0.54918   0.48413    0.029
 6849.00    0.53645   0.48389    0.029
 6850.00    0.52784   0.48405    0.030
 6851.00    0.54985   0.48297    0.030
 6852.00    0.57226   0.48265    0.030
 6853.00    0.59701   0.48294    0.031
 6854.00    0.61691   0.48207    0.031
 6855.00    0.61489   0.48171    0.031
 6856.00    0.60852   0.48214    0.031
 6857.00    0.58604   0.48168    0.031
 6858.00    0.56742   0.48133    0.031
 6859.00    0.56073   0.48181    0.030
 6860.00    0.55241   0.48180    0.030
 6861.00    0.53984   0.48152    0.030
 6862.00    0.52983   0.48194    0.030
 6863.00    0.52558   0.48230    0.029
 6864.00    0.53135   0.48215    0.029
 6865.00    0.55673   0.48248    0.029
 6866.00    0.57292   0.48306    0.030
 6867.00    0.57342   0.48308    0.030
 6868.00    0.56576   0.48338    0.030
 6869.00    0.54589   0.48404    0.030
 6870.00    0.53536   0.48420    0.030
 6871.00    0.53707   0.48458    0.030
 6872.00    0.54027   0.48527    0.030
 6873.00    0.54517   0.48547    0.030
 6874.00    0.55610   0.48602    0.030
 6875.00    0.57317   0.48676    0.030
 6876.00    0.56775   0.48692    0.030
 6877.00    0.54210   0.48764    0.031
 6878.00    0.53686   0.48854    0.030
 6879.00    0.54780   0.48865    0.030
 6880.00    0.55485   0.48946    0.030
 6881.00    0.55916   0.49053    0.031
 6882.00    0.55625   0.49064    0.030
 6883.00    0.54891   0.49143    0.030
 6884.00    0.52773   0.49260    0.030
 6885.00    0.49915   0.49276    0.029
 6886.00    0.52268   0.49342    0.029
 6887.00    0.57038   0.49452    0.029
 6888.00    0.58902   0.49477    0.030
 6889.00    0.59603   0.49526    0.030
 6890.00    0.58424   0.49616    0.030
 6891.00    0.56605   0.49649    0.030
 6892.00    0.55360   0.49683    0.030
 6893.00    0.54280   0.49747    0.030
 6894.00    0.55624   0.49786    0.031
 6895.00    0.57543   0.49806    0.031
 6896.00    0.59641   0.49850    0.031
 6897.00    0.61774   0.49890    0.032
 6898.00    0.59421   0.49893    0.031
 6899.00    0.56406   0.49921    0.031
 6900.00    0.54595   0.49956    0.031
 6901.00    0.52914   0.49933    0.031
 6902.00    0.53988   0.49950    0.031
 6903.00    0.55256   0.49976    0.031
 6904.00    0.54854   0.49922    0.031
 6905.00    0.54392   0.49927    0.031
 6906.00    0.55595   0.49943    0.030
 6907.00    0.56746   0.49863    0.029
 6908.00    0.55885   0.49858    0.030
 6909.00    0.55068   0.49868    0.030
 6910.00    0.54919   0.49777    0.030
 6911.00    0.54829   0.49764    0.030
 6912.00    0.55322   0.49771    0.030
 6913.00    0.55487   0.49687    0.030
 6914.00    0.53298   0.49671    0.030
 6915.00    0.51691   0.49678    0.030
 6916.00    0.53300   0.49615    0.030
 6917.00    0.53983   0.49597    0.030
 6918.00    0.50582   0.49610    0.030
 6919.00    0.48628   0.49575    0.030
 6920.00    0.51917   0.49558    0.031
 6921.00    0.53619   0.49580    0.032
 6922.00    0.50497   0.49576    0.031
 6923.00    0.48522   0.49559    0.031
 6924.00    0.49511   0.49593    0.031
 6925.00    0.50420   0.49618    0.031
 6926.00    0.51149   0.49598    0.031
 6927.00    0.52243   0.49643    0.031
 6928.00    0.54037   0.49688    0.031
 6929.00    0.54837   0.49661    0.031
 6930.00    0.53967   0.49710    0.031
 6931.00    0.53955   0.49766    0.031
 6932.00    0.55210   0.49724    0.031
 6933.00    0.55211   0.49771    0.031
 6934.00    0.53588   0.49828    0.031
 6935.00    0.53806   0.49767    0.031
 6936.00    0.56122   0.49809    0.031
 6937.00    0.56271   0.49865    0.031
 6938.00    0.54240   0.49786    0.031
 6939.00    0.53253   0.49824    0.031
 6940.00    0.53190   0.49883    0.031
 6941.00    0.53515   0.49796    0.031
 6942.00    0.54143   0.49834    0.032
 6943.00    0.54428   0.49904    0.032
 6944.00    0.54478   0.49824    0.032
 6945.00    0.55303   0.49868    0.032
 6946.00    0.56597   0.49953    0.032
 6947.00    0.54178   0.49895    0.032
 6948.00    0.49806   0.49950    0.031
 6949.00    0.51362   0.50047    0.031
 6950.00    0.55622   0.50019    0.031
 6951.00    0.55641   0.50086    0.031
 6952.00    0.53993   0.50186    0.031
 6953.00    0.55816   0.50183    0.031
 6954.00    0.58801   0.50258    0.031
 6955.00    0.58672   0.50344    0.031
 6956.00    0.57668   0.50349    0.031
 6957.00    0.55761   0.50421    0.030
 6958.00    0.53646   0.50479    0.030
 6959.00    0.52252   0.50468    0.031
 6960.00    0.50992   0.50524    0.031
 6961.00    0.52000   0.50544    0.031
 6962.00    0.53332   0.50497    0.031
 6963.00    0.54402   0.50526    0.032
 6964.00    0.55446   0.50515    0.032
 6965.00    0.53922   0.50425    0.032
 6966.00    0.52228   0.50427    0.032
 6967.00    0.54344   0.50404    0.032
 6968.00    0.56581   0.50288    0.033
 6969.00    0.53542   0.50272    0.033
 6970.00    0.50667   0.50268    0.032
 6971.00    0.52807   0.50157    0.032
 6972.00    0.54844   0.50140    0.032
 6973.00    0.55355   0.50179    0.032
 6974.00    0.55440   0.50105    0.032
 6975.00    0.51437   0.50101    0.032
 6976.00    0.48370   0.50185    0.032
 6977.00    0.51808   0.50162    0.031
 6978.00    0.54668   0.50173    0.031
 6979.00    0.54416   0.50280    0.031
 6980.00    0.54192   0.50296    0.031
 6981.00    0.54091   0.50312    0.031
 6982.00    0.53982   0.50410    0.031
 6983.00    0.53850   0.50438    0.031
 6984.00    0.54096   0.50446    0.031
 6985.00    0.55465   0.50513    0.032
 6986.00    0.56577   0.50530    0.033
 6987.00    0.57034   0.50518    0.033
 6988.00    0.58005   0.50548    0.033
 6989.00    0.60102   0.50545    0.032
 6990.00    0.59128   0.50513    0.032
 6991.00    0.52332   0.50513    0.032
 6992.00    0.49465   0.50494    0.032
 6993.00    0.53103   0.50450    0.032
 6994.00    0.54431   0.50431    0.032
 6995.00    0.52405   0.50406    0.032
 6996.00    0.51877   0.50364    0.032
 6997.00    0.53263   0.50334    0.032
 6998.00    0.53866   0.50310    0.032
 6999.00    0.53588   0.50282    0.032
 7000.00    0.53104   0.50247    0.031
 7001.00    0.52415   0.50225    0.031
 7002.00    0.53763   0.50218    0.031
 7003.00    0.56893   0.50181    0.031
 7004.00    0.56905   0.50159    0.031
 7005.00    0.54514   0.50175    0.032
 7006.00    0.52349   0.50137    0.032
 7007.00    0.50338   0.50116    0.032
 7008.00    0.49445   0.50153    0.033
 7009.00    0.49215   0.50119    0.033
 7010.00    0.49773   0.50099    0.033
 7011.00    0.50738   0.50156    0.032
 7012.00    0.51993   0.50134    0.033
 7013.00    0.53378   0.50118    0.034
 7014.00    0.53770   0.50191    0.034
 7015.00    0.53779   0.50187    0.033
 7016.00    0.52973   0.50178    0.033
 7017.00    0.51901   0.50259    0.033
 7018.00    0.52672   0.50278    0.032
 7019.00    0.53949   0.50280    0.032
 7020.00    0.55911   0.50364    0.032
 7021.00    0.58028   0.50402    0.032
 7022.00    0.53937   0.50415    0.032
 7023.00    0.48725   0.50505    0.032
 7024.00    0.47722   0.50560    0.034
 7025.00    0.47302   0.50578    0.036
 7026.00    0.51675   0.50679    0.037
 7027.00    0.56524   0.50757    0.037
 7028.00    0.54765   0.50771    0.038
 7029.00    0.52592   0.50882    0.038
 7030.00    0.50786   0.50989    0.038
 7031.00    0.49006   0.50991    0.039
 7032.00    0.51498   0.51096    0.036
 7033.00    0.53806   0.51225    0.035
 7034.00    0.51064   0.51208    0.035
 7035.00    0.48618   0.51275    0.035
 7036.00    0.50325   0.51395    0.034
 7037.00    0.52029   0.51346    0.034
 7038.00    0.53705   0.51341    0.033
 7039.00    0.55436   0.51401    0.033
 7040.00    0.57534   0.51298    0.033
 7041.00    0.58988   0.51195    0.033
 7042.00    0.57066   0.51151    0.032
 7043.00    0.55506   0.50972    0.032
 7044.00    0.55468   0.50772    0.032
 7045.00    0.55434   0.50613    0.032
 7046.00    0.55413   0.50357    0.032
 7047.00    0.54852   0.50086    0.033
 7048.00    0.52710   0.49844    0.033
 7049.00    0.50778   0.49540    0.033
 7050.00    0.49370   0.49245   -2.000
 7051.00    0.49661   0.48985   -2.000
 7052.00    0.53603   0.48684   -2.000
 7053.00    0.55858   0.48411   -2.000
 7054.00    0.54961   0.48196   -2.000
 7055.00    0.55180   0.47952   -2.000
 7056.00    0.57216   0.47735   -2.000
 7057.00    0.58130   0.47607   -2.000
 7058.00    0.57440   0.47454   -2.000
 7059.00    0.56633   0.47305   -2.000
 7060.00    0.55678   0.47271   -2.000
 7061.00    0.56685   0.47215   -2.000
 7062.00    0.59867   0.47128   -2.000
 7063.00    0.60497   0.47164   -2.000
 7064.00    0.58631   0.47184   -2.000
 7065.00    0.58236   0.47136   -2.000
 7066.00    0.59109   0.47201   -2.000
 7067.00    0.58418   0.47254   -2.000
 7068.00    0.56537   0.47210   -2.000
 7069.00    0.55798   0.47253   -2.000
 7070.00    0.55823   0.47291   -2.000
 7071.00    0.57868   0.47213   -2.000
 7072.00    0.61095   0.47194   -2.000
 7073.00    0.62329   0.47177   -2.000
 7074.00    0.62549   0.47038   -2.000
 7075.00    0.61766   0.46936   -2.000
 7076.00    0.60541   0.46854   -2.000
 7077.00    0.58916   0.46651   -2.000
 7078.00    0.57139   0.46473   -2.000
 7079.00    0.56777   0.46349   -2.000
 7080.00    0.56871   0.46108   -2.000
 7081.00    0.59154   0.45888   -2.000
 7082.00    0.62026   0.45761   -2.000
 7083.00    0.61741   0.45529   -2.000
 7084.00    0.60760   0.45312   -2.000
 7085.00    0.57667   0.45223   -2.000
 7086.00    0.54204   0.45044   -2.000
 7087.00    0.53959   0.44869   -2.000
 7088.00    0.54145   0.44837   -2.000
 7089.00    0.56939   0.44737   -2.000
 7090.00    0.59980   0.44624   -2.000
 7091.00    0.57811   0.44644   -2.000
 7092.00    0.55336   0.44621   -2.000
 7093.00    0.55761   0.44569   -2.000
 7094.00    0.56258   0.44618   -2.000
 7095.00    0.56792   0.44652   -2.000
 7096.00    0.57184   0.44646   -2.000
 7097.00    0.54059   0.44701   -2.000
 7098.00    0.51266   0.44764   -2.000
 7099.00    0.52869   0.44785   -2.000
 7100.00    0.53720   0.44828   -2.000
 7101.00    0.47899   0.44895   -2.000
 7102.00    0.43868   0.44929   -2.000
 7103.00    0.51537   0.44957   -2.000
 7104.00    0.57141   0.45009   -2.000
 7105.00    0.52230   0.45040   -2.000
 7106.00    0.46416   0.45052   -2.000
 7107.00    0.36885   0.45080   -2.000
 7108.00    0.32439   0.45093   -2.000
 7109.00    0.45324   0.45084   -2.000
 7110.00    0.54374   0.45080   -2.000
 7111.00    0.52405   0.45061   -2.000
 7112.00    0.50926   0.45018   -2.000
 7113.00    0.50649   0.44975   -2.000
 7114.00    0.50107   0.44921   -2.000
 7115.00    0.49007   0.44835   -2.000
 7116.00    0.49326   0.44748   -2.000
 7117.00    0.52257   0.44666   -2.000
 7118.00    0.55759   0.44548   -2.000
 7119.00    0.60182   0.44424   -2.000
 7120.00    0.63041   0.44330   -2.000
 7121.00    0.63695   0.44211   -2.000
 7122.00    0.62353   0.44076   -2.000
 7123.00    0.58537   0.43989   -2.000
 7124.00    0.54466   0.43906   -2.000
 7125.00    0.50114   0.43792   -2.000
 7126.00    0.50507   0.43725   -2.000
 7127.00    0.55475   0.43702   -2.000
 7128.00    0.54569   0.43636   -2.000
 7129.00    0.48668   0.43590   -2.000
 7130.00    0.48372   0.43628   -2.000
 7131.00    0.52273   0.43619   -2.000
 7132.00    0.55925   0.43584   -2.000
 7133.00    0.59413   0.43665   -2.000
 7134.00    0.62275   0.43704   -2.000
 7135.00    0.64777   0.43668   -2.000
 7136.00    0.65450   0.43769   -2.000
 7137.00    0.65205   0.43845   -2.000
 7138.00    0.64764   0.43803   -2.000
 7139.00    0.64236   0.43902   -2.000
 7140.00    0.61708   0.44007   -2.000
 7141.00    0.58434   0.43960   -2.000
 7142.00    0.58052   0.44046   -2.000
 7143.00    0.58583   0.44175   -2.000
 7144.00    0.59582   0.44132   -2.000
 7145.00    0.60704   0.44194   -2.000
 7146.00    0.58516   0.44338   -2.000
 7147.00    0.55614   0.44311   -2.000
 7148.00    0.55925   0.44339   -2.000
 7149.00    0.56786   0.44480   -2.000
 7150.00    0.54847   0.44477   -2.000
 7151.00    0.52547   0.44472   -2.000
 7152.00    0.51699   0.44587   -2.000
 7153.00    0.50982   0.44609   -2.000
 7154.00    0.51155   0.44583   -2.000
 7155.00    0.51377   0.44664   -2.000
 7156.00    0.53073   0.44707   -2.000
 7157.00    0.54760   0.44677   -2.000
 7158.00    0.52867   0.44729   -2.000
 7159.00    0.51195   0.44790   -2.000
 7160.00    0.54552   0.44774   -2.000
 7161.00    0.57758   0.44811   -2.000
 7162.00    0.59058   0.44879   -2.000
 7163.00    0.60561   0.44878   -2.000
 7164.00    0.63787   0.44909   -2.000
 7165.00    0.67239   0.44974   -2.000
 7166.00    0.72118   0.44982   -2.000
 7167.00    0.75097   0.45006   -2.000
 7168.00    0.68645   0.45056   -2.000
 7169.00    0.63210   0.45057   -2.000
 7170.00    0.61865   0.45065   -2.000
 7171.00    0.60558   0.45097   -2.000
 7172.00    0.59382   0.45086   -2.000
 7173.00    0.59171   0.45066   -2.000
 7174.00    0.61681   0.45074   -2.000
 7175.00    0.62745   0.45059   -2.000
 7176.00    0.60322   0.45023   -2.000
 7177.00    0.58615   0.45005   -2.000
 7178.00    0.58400   0.44989   -2.000
 7179.00    0.57869   0.44951   -2.000
 7180.00    0.56765   0.44916   -2.000
 7181.00    0.56353   0.44910   -2.000
 7182.00    0.57037   0.44888   -2.000
 7183.00    0.56050   0.44840   -2.000
 7184.00    0.52742   0.44845   -2.000
 7185.00    0.52112   0.44853   -2.000
 7186.00    0.54755   0.44801   -2.000
 7187.00    0.58175   0.44810   -2.000
 7188.00    0.62433   0.44847   -2.000
 7189.00    0.61871   0.44804   -2.000
 7190.00    0.56729   0.44805   -2.000
 7191.00    0.52704   0.44862   -2.000
 7192.00    0.49616   0.44838   -2.000
 7193.00    0.50524   0.44822   -2.000
 7194.00    0.54381   0.44880   -2.000
 7195.00    0.56809   0.44882   -2.000
 7196.00    0.58309   0.44853   -2.000
 7197.00    0.57206   0.44902   -2.000
 7198.00    0.54625   0.44935   -2.000
 7199.00    0.49281   0.44905   -2.000
 7200.00    0.42573   0.44939   -2.000
 7201.00    0.44522   0.45007   -2.000
 7202.00    0.50167   0.44996   -2.000
 7203.00    0.54674   0.45013   -2.000
 7204.00    0.58764   0.45115   -2.000
 7205.00    0.59125   0.45150   -2.000
 7206.00    0.58330   0.45155   -2.000
 7207.00    0.58116   0.45278   -2.000
 7208.00    0.58052   0.45367   -2.000
 7209.00    0.22830   0.45370   -2.000
 7210.00   -0.19788   0.45502   -2.000
 7211.00    0.07144   0.45640   -2.000
 7212.00    0.45627   0.45648   -2.000
 7213.00    0.53849   0.45769   -2.000
 7214.00    0.58289   0.45941   -2.000
 7215.00    0.60735   0.45971   -2.000
 7216.00    0.63007   0.46064   -2.000
 7217.00    0.58996   0.46244   -2.000
 7218.00    0.54665   0.46304   -2.000
