###################################################################
## OUTPUT of StarlightChains_v04.for    [Cid@UFSC - 01/Apr/2007] ##
###################################################################

## Some input info
KUG0210-078._46_46.txt                   [arq_obs]
Base.CB07.vall.4m                        [arq_base]
Masks.EmLines.NEW.gm                     [arq_masks]
StCv04.C11.config                        [arq_config]
   66                                    [N_base]
    0                                    [N_YAV_components = # of components with extra extinction!]
    0                                    [i_FitPowerLaw (1/0 = Yes/No)]
-9.99                                    [alpha_PowerLaw]
CCM                                      [red_law_option]
 1.458241                                [q_norm = A(l_norm)/A(V)]

## (Re)Sampling Parameters
 3741.00                                 [l_ini (A)]
 7218.00                                 [l_fin (A)]
    1.00                                 [dl    (A)]     (OBS: dl_cushion =    50.00 A)

## Normalization info
 4020.00                                 [l_norm (A) - for base]
 4010.00                                 [llow_norm (A) - window for f_obs]
 4060.00                                 [lupp_norm (A) - window for f_obs]
9.800547E-18                             [fobs_norm (in input units)]

## S/N
 3691.00                                 [llow_SN (A) - window for S/N]
 7268.00                                 [lupp_SN (A) - window for S/N]
   2.736                                 [S/N in S/N window]
   3.851                                 [S/N in norm. window]
   0.008                                 [S/N_err in S/N window]
   0.011                                 [S/N_err in norm. window]
  1.0000                                 [fscale_chi2]

## etc...
    -2007897                             [idum_orig]
  2397                                   [NOl_eff]
  2286                                   [Nl_eff]
   111    NSIGMA                         [Ntot_cliped & clip_method]
  6045480                                [Nglobal_steps]
   7                                     [N_chains]
  30                                     [NEX0s_base = N_base in EX0s-fits]
 0   0   1      111   2.0   4.502E+03    [Clip-Bug, RC-Crash & Burn-In warning-flags, n_censored_weights, wei_nsig_threshold & wei_limit]
    47     47.128     46.380      0.748  [idt_all, wdt_TotTime, wdt_UsrTime & wdt_SysTime (sec)]

## Synthesis Results - Best model ##

 1.19707E-05                             [chi2/Nl_eff]
    40.74633                             [adev (%)]

   107.19293                             [sum-of-x (%)]
 4.29825E-18                             [Flux_tot (units of input spectrum!)]
 3.94379E-14                             [Mini_tot (???)]
 2.21323E-14                             [Mcor_tot (???)]

 -42.87                                  [v0_min  (km/s)]
  87.20                                  [vd_min  (km/s)]
-0.6654                                  [AV_min  (mag)]
 0.0000                                  [YAV_min (mag)]

# j     x_j(%)      Mini_j(%)     Mcor_j(%)     age_j(yr)     Z_j      (L/M)_j    YAV?  Mstars   component_j        a/Fe...       SSP_chi2r SSP_adev(%)   SSP_AV   SSP_x(%)
  1      0.0000     0.0000E+00    0.0000E+00    1.000000E+06  0.00400  1.094E-02    0   1.0000   age020_m42            0.0000     1.5847E-05    48.1276   2.4597    84.4837
  2      0.0000     0.0000E+00    0.0000E+00    3.160000E+06  0.00400  4.007E-02    0   0.9999   age045_m42            0.0000     1.4109E-05    45.4288   1.6791    91.6856
  3      0.0000     0.0000E+00    0.0000E+00    5.010000E+06  0.00400  2.539E-02    0   0.9488   age055_m42            0.0000     1.5115E-05    47.1024   2.0459    88.1650
  4      0.0000     0.0000E+00    0.0000E+00    6.610000E+06  0.00400  2.620E-02    0   0.9220   age061_m42            0.0000     1.4380E-05    45.8436   1.6357    90.9377
  5      0.0000     0.0000E+00    0.0000E+00    1.000000E+07  0.00400  1.322E-02    0   0.8862   age070_m42            0.0000     1.5106E-05    48.2771   1.4369    90.6306
  6      0.0000     0.0000E+00    0.0000E+00    1.445000E+07  0.00400  7.883E-03    0   0.8571   age078_m42            0.0000     1.5487E-05    48.8143   1.7700    88.1849
  7      0.0000     0.0000E+00    0.0000E+00    2.512000E+07  0.00400  5.251E-03    0   0.8174   age090_m42            0.0000     1.5066E-05    48.5571   1.3164    90.9241
  8      0.0000     0.0000E+00    0.0000E+00    4.000000E+07  0.00400  3.649E-03    0   0.7851   age104_m42            0.0000     1.4670E-05    47.8768   1.0688    92.2265
  9      0.8497     2.7888E-02    3.7911E-02    5.500000E+07  0.00400  3.098E-03    0   0.7629   age110_m42            0.0000     1.4152E-05    46.0156   1.1766    93.4351
 10      0.0000     0.0000E+00    0.0000E+00    1.015200E+08  0.00400  2.228E-03    0   0.7207   age116_m42            0.0000     1.3877E-05    44.7621   1.1721    94.2745
 11      0.0000     0.0000E+00    0.0000E+00    2.861200E+08  0.00400  1.093E-03    0   0.6648   age125_m42            0.0000     1.3685E-05    44.8555   0.6049    96.9810
 12      0.0000     0.0000E+00    0.0000E+00    5.088000E+08  0.00400  6.597E-04    0   0.6365   age130_m42            0.0000     1.3093E-05    42.7454   0.5316    99.6637
 13      0.0000     0.0000E+00    0.0000E+00    1.434000E+09  0.00400  2.132E-04    0   0.5798   age139_m42            0.0000     1.2191E-05    42.1543  -0.5250   104.1117
 14      0.0000     0.0000E+00    0.0000E+00    4.250000E+09  0.00400  5.895E-05    0   0.5377   age158_m42            0.0000     1.2489E-05    43.5219  -1.0000   101.4375
 15      0.0283     8.1900E-02    7.6064E-02    7.500000E+09  0.00400  3.510E-05    0   0.5212   age171_m42            0.0000     1.2979E-05    46.4797  -1.0000    98.3860
 16      0.0000     0.0000E+00    0.0000E+00    1.300000E+10  0.00400  2.005E-05    0   0.5034   age193_m42            0.0000     1.3994E-05    49.6958  -1.0000    95.2120
 17      0.1080     7.1973E-01    6.3702E-01    1.800000E+10  0.00400  1.525E-05    0   0.4967   age213_m42            0.0000     1.4073E-05    50.2961  -1.0000    94.2810
 18      0.0000     0.0000E+00    0.0000E+00    1.000000E+06  0.00800  1.238E-02    0   1.0000   age020_m52            0.0000     1.5863E-05    48.1845   2.4560    84.6379
 19      0.0000     0.0000E+00    0.0000E+00    3.160000E+06  0.00800  3.074E-02    0   0.9966   age045_m52            0.0000     1.5780E-05    48.2027   2.3807    85.3676
 20      0.5949     2.2672E-03    3.8149E-03    5.010000E+06  0.00800  2.668E-02    0   0.9443   age055_m52            0.0000     1.5394E-05    47.6851   2.1404    87.0201
 21      0.0000     0.0000E+00    0.0000E+00    6.610000E+06  0.00800  2.136E-02    0   0.9177   age061_m52            0.0000     1.4966E-05    48.6527   0.9070    92.4888
 22      0.0000     0.0000E+00    0.0000E+00    1.000000E+07  0.00800  1.215E-02    0   0.8827   age070_m52            0.0000     1.5587E-05    49.3819   1.6453    89.6147
 23      0.0000     0.0000E+00    0.0000E+00    1.445000E+07  0.00800  8.717E-03    0   0.8552   age078_m52            0.0000     1.5334E-05    48.6313   1.7302    89.5289
 24      2.8507     5.1832E-02    7.5385E-02    2.512000E+07  0.00800  5.592E-03    0   0.8162   age090_m52            0.0000     1.4996E-05    48.5572   1.3807    91.9714
 25      0.0000     0.0000E+00    0.0000E+00    4.000000E+07  0.00800  3.896E-03    0   0.7841   age104_m52            0.0000     1.4463E-05    47.4197   1.2593    93.5883
 26      0.0000     0.0000E+00    0.0000E+00    1.015200E+08  0.00800  2.148E-03    0   0.7226   age116_m52            0.0000     1.3945E-05    45.7823   1.1560    94.5754
 27      0.5297     5.4269E-02    6.4626E-02    2.861200E+08  0.00800  9.925E-04    0   0.6683   age125_m52            0.0000     1.3089E-05    42.8317   0.5996   100.3667
 28     17.0182     5.5088E+00    6.0252E+00    9.047900E+08  0.00800  3.141E-04    0   0.6138   age135_m52            0.0000     1.1787E-05    40.5102  -0.3688   109.7249
 29      0.0000     0.0000E+00    0.0000E+00    1.434000E+09  0.00800  1.719E-04    0   0.5853   age139_m52            0.0000     1.2085E-05    41.9850  -0.9474   107.3442
 30      0.0000     0.0000E+00    0.0000E+00    2.500000E+09  0.00800  7.872E-05    0   0.5600   age150_m52            0.0000     1.2731E-05    45.2359  -1.0000   101.8235
 31      0.0000     0.0000E+00    0.0000E+00    4.250000E+09  0.00800  4.336E-05    0   0.5426   age158_m52            0.0000     1.2926E-05    45.7390  -1.0000   100.6054
 32      0.0000     0.0000E+00    0.0000E+00    6.250000E+09  0.00800  3.159E-05    0   0.5319   age166_m52            0.0000     1.4280E-05    49.1627  -1.0000    97.2907
 33      0.0000     0.0000E+00    0.0000E+00    1.300000E+10  0.00800  1.361E-05    0   0.5073   age193_m52            0.0000     1.9645E-05    57.9798  -1.0000    86.8958
 34      1.4093     1.4494E+01    1.2888E+01    1.800000E+10  0.00800  9.886E-06    0   0.4990   age213_m52            0.0000     2.2006E-05    59.0639  -1.0000    83.9822
 35      0.0000     0.0000E+00    0.0000E+00    1.000000E+06  0.02000  1.544E-02    0   1.0000   age020_m62            0.0000     1.5916E-05    48.3089   2.4538    84.8029
 36      0.0000     0.0000E+00    0.0000E+00    3.160000E+06  0.02000  3.762E-02    0   0.9858   age045_m62            0.0000     1.6020E-05    48.3736   2.3976    85.3610
 37      0.0000     0.0000E+00    0.0000E+00    5.010000E+06  0.02000  3.296E-02    0   0.9342   age055_m62            0.0000     1.4841E-05    46.4508   1.9956    89.4359
 38      0.0000     0.0000E+00    0.0000E+00    8.710000E+06  0.02000  1.154E-02    0   0.8861   age067_m62            0.0000     1.7689E-05    54.9439   1.2365    88.3481
 39      0.0000     0.0000E+00    0.0000E+00    1.445000E+07  0.02000  7.663E-03    0   0.8472   age078_m62            0.0000     1.5825E-05    50.9939   1.3209    90.9461
 40      0.0000     0.0000E+00    0.0000E+00    2.512000E+07  0.02000  4.532E-03    0   0.8099   age090_m62            0.0000     1.5921E-05    51.0867   1.3246    90.2624
 41      0.0000     0.0000E+00    0.0000E+00    5.500000E+07  0.02000  2.733E-03    0   0.7595   age110_m62            0.0000     1.4768E-05    47.9450   1.2588    92.3915
 42      2.1038     1.5625E-01    1.9448E-01    1.609000E+08  0.02000  1.369E-03    0   0.6985   age120_m62            0.0000     1.3792E-05    44.4681   1.0199    97.0101
 43      0.0000     0.0000E+00    0.0000E+00    2.861200E+08  0.02000  9.013E-04    0   0.6714   age125_m62            0.0000     1.3028E-05    41.9589   0.6978   101.9911
 44      0.0000     0.0000E+00    0.0000E+00    5.088000E+08  0.02000  5.028E-04    0   0.6449   age130_m62            0.0000     1.1882E-05    38.9984   0.1727   109.2880
 45     21.6179     9.0526E+00    9.9674E+00    9.047900E+08  0.02000  2.428E-04    0   0.6179   age135_m62            0.0000     1.1627E-05    40.0716  -0.4815   110.5123
 46      0.0000     0.0000E+00    0.0000E+00    1.434000E+09  0.02000  1.263E-04    0   0.5908   age139_m62            0.0000     1.1999E-05    40.9707  -0.9428   109.1760
 47      0.0000     0.0000E+00    0.0000E+00    2.500000E+09  0.02000  5.985E-05    0   0.5673   age150_m62            0.0000     1.3157E-05    45.2162  -1.0000   103.1206
 48      0.0000     0.0000E+00    0.0000E+00    4.250000E+09  0.02000  3.271E-05    0   0.5468   age158_m62            0.0000     1.5920E-05    50.5258  -1.0000    96.6060
 49      4.0991     3.0645E+01    2.8215E+01    1.000000E+10  0.02000  1.360E-05    0   0.5167   age181_m62            0.0000     2.1221E-05    55.8123  -1.0000    88.4693
 50      0.1445     2.0624E+00    1.8423E+00    1.800000E+10  0.02000  7.124E-06    0   0.5013   age213_m62            0.0000     2.5616E-05    58.1247  -1.0000    82.5266
 51      0.0000     0.0000E+00    0.0000E+00    1.000000E+06  0.05000  2.592E-02    0   0.9998   age020_m72            0.0000     1.6053E-05    48.6835   2.4456    84.8392
 52      0.0000     0.0000E+00    0.0000E+00    3.160000E+06  0.05000  4.845E-02    0   0.9577   age045_m72            0.0000     1.5576E-05    47.7587   2.2742    86.6258
 53      0.0000     0.0000E+00    0.0000E+00    5.010000E+06  0.05000  3.072E-02    0   0.9147   age055_m72            0.0000     1.5964E-05    50.0762   1.8736    88.2533
 54      0.0000     0.0000E+00    0.0000E+00    6.610000E+06  0.05000  1.455E-02    0   0.8877   age061_m72            0.0000     1.8749E-05    56.6574   1.3200    87.7364
 55      0.0104     1.1707E-04    1.7782E-04    1.000000E+07  0.05000  9.074E-03    0   0.8524   age070_m72            0.0000     1.6023E-05    49.8795   2.0473    88.0264
 56      0.0320     7.6594E-04    1.0785E-03    2.512000E+07  0.05000  4.250E-03    0   0.7902   age090_m72            0.0000     1.5367E-05    49.0530   1.7435    89.8716
 57      4.1256     1.3588E-01    1.8446E-01    4.000000E+07  0.05000  3.087E-03    0   0.7618   age104_m72            0.0000     1.5224E-05    48.9245   1.5242    91.1557
 58      0.0000     0.0000E+00    0.0000E+00    1.015200E+08  0.05000  1.700E-03    0   0.7096   age116_m72            0.0000     1.4038E-05    45.5221   1.1899    95.9065
 59      0.0000     0.0000E+00    0.0000E+00    2.861200E+08  0.05000  7.384E-04    0   0.6633   age125_m72            0.0000     1.2365E-05    40.0451   0.4878   105.7497
 60      0.0000     0.0000E+00    0.0000E+00    5.088000E+08  0.05000  3.819E-04    0   0.6372   age130_m72            0.0000     1.1671E-05    39.2175  -0.1243   111.0538
 61     41.2638     2.5033E+01    2.7254E+01    9.047900E+08  0.05000  1.676E-04    0   0.6110   age135_m72            0.0000     1.1892E-05    40.0986  -0.9392   112.1376
 62     10.4068     1.1974E+01    1.2533E+01    1.434000E+09  0.05000  8.837E-05    0   0.5874   age139_m72            0.0000     1.3245E-05    45.1283  -1.0000   104.8908
 63      0.0000     0.0000E+00    0.0000E+00    2.500000E+09  0.05000  4.233E-05    0   0.5598   age150_m72            0.0000     1.6294E-05    50.1184  -1.0000    97.5690
 64      0.0000     0.0000E+00    0.0000E+00    6.250000E+09  0.05000  1.435E-05    0   0.5249   age166_m72            0.0000     2.2880E-05    56.9839  -1.0000    85.7496
 65      0.0000     0.0000E+00    0.0000E+00    1.300000E+10  0.05000  6.513E-06    0   0.5036   age193_m72            0.0000     2.9031E-05    59.9984  -1.0000    79.1713
 66      0.0000     0.0000E+00    0.0000E+00    1.800000E+10  0.05000  4.527E-06    0   0.4945   age213_m72            0.0000     3.2804E-05    61.3028  -1.0000    74.6498


## Synthesis Results - Average & Chains ##

# j      x_j: min, <> & last-chain-values for 1 ...  7 chains
  1      0.0000      0.3313      0.2089      1.0988      0.7887      0.3504      0.0000      0.0000      0.0962
  2      0.0000      0.2656      0.7718      0.1096      0.6953      0.7725      0.0000      0.5025      0.0000
  3      0.0000      0.3412      1.0843      0.0000      0.0782      1.8653      0.1025      0.2875      0.6118
  4      0.0000      0.2539      0.7135      0.6021      0.4290      0.4689      0.1967      0.7517      1.2365
  5      0.0000      0.3085      0.2810      1.2474      0.0796      0.3695      0.6543      0.4158      0.2517
  6      0.0000      0.2480      0.6771      1.2311      0.0000      0.0000      1.0220      0.1536      1.1990
  7      0.0000      0.4146      0.0000      2.2679      0.1414      0.3551      1.2737      0.0000      0.1899
  8      0.0000      0.2728      0.1765      0.0000      0.2333      0.6885      0.0299      1.4934      0.8602
  9      0.8497      0.2585      0.5546      0.1991      0.0000      0.1510      0.4491      0.9231      0.4286
 10      0.0000      0.1826      0.1775      0.2477      0.0000      0.0000      0.0000      0.3523      0.8621
 11      0.0000      0.2728      0.4317      0.0000      0.9083      0.2838      0.0000      0.5851      0.9786
 12      0.0000      0.2124      0.0000      0.0908      0.0000      0.2065      0.1678      0.3656      0.6084
 13      0.0000      0.2424      0.4004      0.1117      0.8027      0.3082      0.0000      0.3660      0.9064
 14      0.0000      0.2914      0.3100      0.6162      0.8468      0.2652      0.0000      0.3982      0.1351
 15      0.0283      0.3023      0.6885      0.0640      0.3316      0.7658      0.6154      0.5457      0.1521
 16      0.0000      0.3657      2.0459      0.4503      0.0000      0.0507      0.1571      0.1869      0.0000
 17      0.1080      0.2559      0.0428      0.0000      0.0000      0.2211      0.8582      0.1652      0.1641
 18      0.0000      0.2524      0.0000      0.3403      0.6680      0.0000      0.0333      0.0000      0.5562
 19      0.0000      0.2885      0.0000      0.0000      0.9081      0.1331      0.0000      0.3340      0.0000
 20      0.5949      0.2966      0.9690      0.0000      0.3566      0.0000      0.2667      0.1559      0.3962
 21      0.0000      0.1693      0.1386      0.5231      0.0799      0.1625      0.0755      0.7492      0.0000
 22      0.0000      0.2625      0.1357      0.0000      0.5158      0.0000      0.3434      0.0000      0.1053
 23      0.0000      0.2858      0.2982      0.0000      0.2877      0.6765      0.0000      0.1375      0.7418
 24      2.8507      0.4551      0.4754      0.4089      0.4407      2.0250      0.5513      1.7482      0.6901
 25      0.0000      0.2502      0.1666      0.0000      0.2706      0.2399      0.4133      0.7245      0.7637
 26      0.0000      0.3078      0.2378      0.0000      0.2684      1.3082      0.3205      0.3654      0.2172
 27      0.5297      0.2685      0.7554      0.9897      1.0326      0.3737      0.2481      0.4555      1.2562
 28     17.0182     13.9775     12.2920     11.9670     13.7449     14.1213     14.8231     13.1823     12.5949
 29      0.0000      0.2297      0.0964      0.4200      0.3955      0.0012      0.0000      0.0000      0.4872
 30      0.0000      0.3418      0.2206      0.3389      0.1345      1.0051      0.0000      0.0910      0.0747
 31      0.0000      0.2687      0.1703      0.6865      0.1434      0.0000      0.0224      0.2847      0.8698
 32      0.0000      0.2820      0.0000      0.6117      0.5000      1.0242      0.0000      0.0000      1.2438
 33      0.0000      0.2071      0.1744      0.3230      0.0690      0.3187      0.0000      0.4051      0.2953
 34      1.4093      5.5004      5.2628      4.3117      5.0272      5.5884      4.2674      3.9547      3.0771
 35      0.0000      0.2417      0.0000      0.0000      0.4643      0.4907      0.0625      0.6688      0.0000
 36      0.0000      0.2738      1.7248      0.4729      0.2705      0.0012      0.1935      0.0096      0.7718
 37      0.0000      0.1716      0.3809      0.7122      0.1774      0.0000      0.1363      0.4370      0.0000
 38      0.0000      0.2534      0.8348      0.7378      0.4301      0.5894      0.4671      0.2514      0.4642
 39      0.0000      0.2786      1.1390      0.3051      0.4524      0.0304      0.0000      0.0000      1.7119
 40      0.0000      0.2594      0.2816      0.0000      0.7411      0.0000      0.6803      0.5791      0.0000
 41      0.0000      0.1891      0.0000      0.1616      0.9208      0.3960      0.0646      0.3700      0.3645
 42      2.1038      0.1918      0.0329      0.0000      0.8210      0.0000      0.7836      0.1698      0.4899
 43      0.0000      0.3286      0.5090      2.3834      0.0000      1.3803      0.0000      0.3975      0.3147
 44      0.0000      0.1868      0.9809      0.6740      0.7021      0.0000      0.1128      0.0429      0.4245
 45     21.6179      0.2550      0.7366      0.5165      0.0000      0.5885      0.4587      0.0374      1.1502
 46      0.0000      0.2387      0.2255      0.2895      0.4859      0.6287      0.1662      0.0000      0.8725
 47      0.0000      0.2637      0.0000      0.8726      0.0950      1.0581      0.0958      0.0000      0.2075
 48      0.0000      0.3408      0.0000      0.0000      0.0000      0.3522      0.2587      0.0000      1.2314
 49      4.0991      3.0188      2.3591      2.9636      2.2768      2.3306      3.1624      3.3746      1.8990
 50      0.1445     18.6656     17.4138     17.2250     17.1214     18.3422     16.2088     18.7939     15.5428
 51      0.0000      0.2236      0.1776      0.0000      0.2461      0.0000      0.4038      0.3502      0.4310
 52      0.0000      0.2490      0.7902      0.3382      0.0000      0.0000      0.0512      0.0000      0.7475
 53      0.0000      0.2477      0.8896      0.5662      0.9258      0.1711      0.6869      0.2369      0.2896
 54      0.0000      0.2588      0.7563      0.0000      0.2329      0.3398      0.4695      0.7319      0.2765
 55      0.0104      0.2973      0.3132      0.0517      0.3834      0.0000      0.4754      0.5772      1.5178
 56      0.0320      0.3186      0.0000      0.0901      0.2031      0.7192      0.4972      0.1009      0.2708
 57      4.1256      0.1956      0.0000      0.4797      0.2355      0.0000      0.2899      0.2543      0.0626
 58      0.0000      0.2587      0.6879      0.0560      0.5197      0.0000      0.0765      0.4552      0.0000
 59      0.0000      0.2034      0.1418      0.6544      1.4600      0.3324      0.1567      0.4000      0.2730
 60      0.0000      0.2627      0.4373      0.3928      0.4612      0.7548      0.0615      0.0502      0.0000
 61     41.2638     57.5554     51.1211     53.3329     54.0148     50.4504     61.1943     55.8332     48.5027
 62     10.4068      0.2403      0.5012      1.2083      0.0000      0.6466      0.2596      0.1986      1.8763
 63      0.0000      0.3730      0.9733      0.8308      0.5340      0.8723      0.2251      0.0000      0.0000
 64      0.0000      0.2485      0.5770      0.2425      0.2149      0.0699      0.0086      0.1992      0.6522
 65      0.0000      0.3450      1.0093      0.0556      0.5445      0.5141      0.0639      0.1840      0.8144
 66      0.0000      0.2554      0.0000      0.3820      0.0000      0.0000      0.2159      0.4065      1.6936

# j      m_j: min, <> & last-chain-values for 1 ...  7 chains
  1  0.0000E+00  1.4628E-03  9.5889E-04  5.2754E-03  3.8655E-03  1.5889E-03  0.0000E+00  0.0000E+00  4.6311E-04
  2  0.0000E+00  3.2014E-04  9.6707E-04  1.4371E-04  9.3025E-04  9.5637E-04  0.0000E+00  6.2914E-04  0.0000E+00
  3  0.0000E+00  6.1591E-04  2.0346E-03  0.0000E+00  1.5662E-04  3.4583E-03  2.1124E-04  5.3898E-04  1.2045E-03
  4  0.0000E+00  4.3163E-04  1.2609E-03  1.1128E-03  8.0953E-04  8.1877E-04  3.8192E-04  1.3273E-03  2.2927E-03
  5  0.0000E+00  9.9893E-04  9.4589E-04  4.3919E-03  2.8605E-04  1.2291E-03  2.4196E-03  1.3986E-03  8.8892E-04
  6  0.0000E+00  1.3024E-03  3.6967E-03  7.0306E-03  0.0000E+00  0.0000E+00  6.1300E-03  8.3816E-04  6.8685E-03
  7  0.0000E+00  3.1175E-03  0.0000E+00  1.8543E-02  1.1800E-03  2.7423E-03  1.0938E-02  0.0000E+00  1.5575E-03
  8  0.0000E+00  2.8354E-03  1.9073E-03  0.0000E+00  2.6915E-03  7.3493E-03  3.5521E-04  1.6123E-02  9.7507E-03
  9  3.7911E-02  3.0746E-03  6.8577E-03  2.5750E-03  0.0000E+00  1.8445E-03  6.1013E-03  1.1406E-02  5.5604E-03
 10  0.0000E+00  2.8523E-03  2.8826E-03  4.2089E-03  0.0000E+00  0.0000E+00  0.0000E+00  5.7174E-03  1.4693E-02
 11  0.0000E+00  8.0158E-03  1.3184E-02  0.0000E+00  2.9622E-02  8.5631E-03  0.0000E+00  1.7858E-02  3.1360E-02
 12  0.0000E+00  9.8996E-03  0.0000E+00  4.6015E-03  0.0000E+00  9.8844E-03  8.9306E-03  1.7700E-02  3.0926E-02
 13  0.0000E+00  3.1845E-02  5.4681E-02  1.5953E-02  1.1704E-01  4.1588E-02  0.0000E+00  4.9947E-02  1.2988E-01
 14  0.0000E+00  1.2838E-01  1.4200E-01  2.9520E-01  4.1414E-01  1.2003E-01  0.0000E+00  1.8226E-01  6.4918E-02
 15  7.6064E-02  2.1683E-01  5.1337E-01  4.9885E-02  2.6402E-01  5.6417E-01  5.0415E-01  4.0655E-01  1.1896E-01
 16  0.0000E+00  4.4351E-01  2.5794E+00  5.9378E-01  0.0000E+00  6.3145E-02  2.1762E-01  2.3548E-01  0.0000E+00
 17  6.3702E-01  4.0264E-01  7.0001E-02  0.0000E+00  0.0000E+00  3.5734E-01  1.5421E+00  2.6991E-01  2.8164E-01
 18  0.0000E+00  9.8463E-04  0.0000E+00  1.4438E-03  2.8933E-03  0.0000E+00  1.4842E-04  0.0000E+00  2.3672E-03
 19  0.0000E+00  4.5184E-04  0.0000E+00  0.0000E+00  1.5786E-03  2.1401E-04  0.0000E+00  5.4340E-04  0.0000E+00
 20  3.8149E-03  5.0709E-04  1.7222E-03  0.0000E+00  6.7671E-04  0.0000E+00  5.2076E-04  2.7684E-04  7.3892E-04
 21  0.0000E+00  3.5140E-04  2.9907E-04  1.1806E-03  1.8414E-04  3.4640E-04  1.7890E-04  1.6151E-03  0.0000E+00
 22  0.0000E+00  9.2098E-04  4.9504E-04  0.0000E+00  2.0094E-03  0.0000E+00  1.3764E-03  0.0000E+00  4.0319E-04
 23  0.0000E+00  1.3544E-03  1.4691E-03  0.0000E+00  1.5132E-03  3.2930E-03  0.0000E+00  6.7670E-04  3.8342E-03
 24  7.5385E-02  3.2086E-03  3.4847E-03  3.1347E-03  3.4491E-03  1.4664E-02  4.4391E-03  1.2803E-02  5.3070E-03
 25  0.0000E+00  2.4327E-03  1.6836E-03  0.0000E+00  2.9202E-03  2.3951E-03  4.5892E-03  7.3165E-03  8.0981E-03
 26  0.0000E+00  5.0018E-03  4.0169E-03  0.0000E+00  4.8418E-03  2.1835E-02  5.9475E-03  6.1680E-03  3.8497E-03
 27  6.4626E-02  8.7320E-03  2.5542E-02  3.5002E-02  3.7281E-02  1.2485E-02  9.2157E-03  1.5389E-02  4.4566E-02
 28  6.0252E+00  1.3193E+00  1.2062E+00  1.2283E+00  1.4402E+00  1.3691E+00  1.5981E+00  1.2925E+00  1.2968E+00
 29  0.0000E+00  3.7782E-02  1.6478E-02  7.5122E-02  7.2198E-02  2.0598E-04  0.0000E+00  0.0000E+00  8.7401E-02
 30  0.0000E+00  1.1744E-01  7.8813E-02  1.2661E-01  5.1312E-02  3.5476E-01  0.0000E+00  3.2488E-02  2.7985E-02
 31  0.0000E+00  1.6243E-01  1.0704E-01  4.5122E-01  9.6194E-02  0.0000E+00  1.5461E-02  1.7873E-01  5.7345E-01
 32  0.0000E+00  2.2933E-01  0.0000E+00  5.4095E-01  4.5141E-01  8.5564E-01  0.0000E+00  0.0000E+00  1.1034E+00
 33  0.0000E+00  3.7287E-01  3.2643E-01  6.3230E-01  1.3786E-01  5.8947E-01  0.0000E+00  7.5763E-01  5.8001E-01
 34  1.2888E+01  1.3410E+01  1.3339E+01  1.1431E+01  1.3605E+01  1.3995E+01  1.1883E+01  1.0016E+01  8.1833E+00
 35  0.0000E+00  7.5615E-04  0.0000E+00  0.0000E+00  1.6122E-03  1.5767E-03  2.2315E-04  2.1735E-03  0.0000E+00
 36  0.0000E+00  3.4651E-04  2.2696E-03  6.5088E-04  3.8009E-04  1.5721E-06  2.7971E-04  1.2603E-05  1.0655E-03
 37  0.0000E+00  2.3489E-04  5.4206E-04  1.0603E-03  2.6953E-04  0.0000E+00  2.1306E-04  6.2150E-04  0.0000E+00
 38  0.0000E+00  9.3980E-04  3.2188E-03  2.9756E-03  1.7707E-03  2.2452E-03  1.9787E-03  9.6855E-04  1.8780E-03
 39  0.0000E+00  1.4878E-03  6.3232E-03  1.7717E-03  2.6819E-03  1.6655E-04  0.0000E+00  0.0000E+00  9.9719E-03
 40  0.0000E+00  2.2390E-03  2.5273E-03  0.0000E+00  7.1015E-03  0.0000E+00  6.7069E-03  5.1928E-03  0.0000E+00
 41  0.0000E+00  2.5387E-03  0.0000E+00  2.3589E-03  1.3720E-02  5.4603E-03  9.9089E-04  5.1588E-03  5.3375E-03
 42  1.9448E-01  4.7275E-03  8.4378E-04  0.0000E+00  2.2461E-02  0.0000E+00  2.2058E-02  4.3478E-03  1.3171E-02
 43  0.0000E+00  1.1824E-02  1.9039E-02  9.3255E-02  0.0000E+00  5.1015E-02  0.0000E+00  1.4858E-02  1.2353E-02
 44  0.0000E+00  1.1576E-02  6.3179E-02  4.5405E-02  4.8283E-02  0.0000E+00  7.9825E-03  2.7618E-03  2.8688E-02
 45  9.9674E+00  3.1347E-02  9.4126E-02  6.9039E-02  0.0000E+00  7.4311E-02  6.4397E-02  4.7716E-03  1.5422E-01
 46  0.0000E+00  5.3939E-02  5.2968E-02  7.1127E-02  1.2186E-01  1.4591E-01  4.2883E-02  0.0000E+00  2.1505E-01
 47  0.0000E+00  1.2075E-01  0.0000E+00  4.3443E-01  4.8294E-02  4.9761E-01  5.0120E-02  0.0000E+00  1.0362E-01
 48  0.0000E+00  2.7515E-01  0.0000E+00  0.0000E+00  0.0000E+00  2.9212E-01  2.3861E-01  0.0000E+00  1.0846E+00
 49  2.8215E+01  5.5397E+00  4.5007E+00  5.9141E+00  4.6381E+00  4.3932E+00  6.6283E+00  6.4331E+00  3.8013E+00
 50  1.8423E+00  6.3442E+01  6.1533E+01  6.3665E+01  6.4598E+01  6.4037E+01  6.2924E+01  6.6357E+01  5.7624E+01
 51  0.0000E+00  4.1653E-04  3.4403E-04  0.0000E+00  5.0899E-04  0.0000E+00  8.5929E-04  6.7779E-04  8.7587E-04
 52  0.0000E+00  2.3774E-04  7.8434E-04  3.5118E-04  0.0000E+00  0.0000E+00  5.5802E-05  0.0000E+00  7.7845E-04
 53  0.0000E+00  3.5621E-04  1.3302E-03  8.8549E-04  1.4781E-03  2.5276E-04  1.1283E-03  3.5400E-04  4.5438E-04
 54  0.0000E+00  7.6279E-04  2.3170E-03  0.0000E+00  7.6173E-04  1.0286E-03  1.5801E-03  2.2407E-03  8.8895E-04
 55  1.7782E-04  1.3489E-03  1.4776E-03  2.5501E-04  1.9311E-03  0.0000E+00  2.4636E-03  2.7205E-03  7.5122E-03
 56  1.0785E-03  2.8609E-03  0.0000E+00  8.7967E-04  2.0252E-03  6.6346E-03  5.1005E-03  9.4149E-04  2.6529E-03
 57  1.8446E-01  2.3320E-03  0.0000E+00  6.2172E-03  3.1158E-03  0.0000E+00  3.9472E-03  3.1487E-03  8.1344E-04
 58  0.0000E+00  5.2151E-03  1.4420E-02  1.2267E-03  1.1630E-02  0.0000E+00  1.7616E-03  9.5348E-03  0.0000E+00
 59  0.0000E+00  8.8269E-03  6.3950E-03  3.0877E-02  7.0318E-02  1.4813E-02  7.7676E-03  1.8028E-02  1.2921E-02
 60  0.0000E+00  2.1168E-02  3.6641E-02  3.4420E-02  4.1260E-02  6.2482E-02  5.6605E-03  4.2059E-03  0.0000E+00
 61  2.7254E+01  1.0135E+01  9.3585E+00  1.0212E+01  1.0558E+01  9.1251E+00  1.2308E+01  1.0213E+01  9.3162E+00
 62  1.2533E+01  7.7167E-02  1.6729E-01  4.2187E-01  0.0000E+00  2.1325E-01  9.5186E-02  6.6253E-02  6.5712E-01
 63  0.0000E+00  2.3828E-01  6.4633E-01  5.7711E-01  3.7866E-01  5.7234E-01  1.6424E-01  0.0000E+00  0.0000E+00
 64  0.0000E+00  4.3904E-01  1.0598E+00  4.6594E-01  4.2148E-01  1.2691E-01  1.7294E-02  3.6565E-01  1.2569E+00
 65  0.0000E+00  1.2884E+00  3.9189E+00  2.2574E-01  2.2572E+00  1.9723E+00  2.7276E-01  7.1399E-01  3.3177E+00
 66  0.0000E+00  1.3477E+00  0.0000E+00  2.1917E+00  0.0000E+00  0.0000E+00  1.3013E+00  2.2282E+00  9.7471E+00

# AV, chi2 & Mass for <> & i_chain = 1 ...  7 solutions
AV      -0.6654     -0.9861     -1.0000     -1.0000     -1.0000     -1.0000     -1.0000     -1.0000     -1.0000
chi2 1.1971E-05  1.3195E-05  1.2924E-05  1.2842E-05  1.2728E-05  1.2976E-05  1.2686E-05  1.2871E-05  1.2777E-05
Mass 2.2132E-14  5.3961E-14  5.0947E-14  4.8707E-14  4.7714E-14  5.1564E-14  4.6373E-14  5.0987E-14  4.8557E-14
 -42.87                                  [v0_min (km/s) before EX0s...]
  87.20                                  [vd_min (km/s) before EX0s...]


## Synthetic spectrum (Best Model) ##l_obs f_obs f_syn wei
 3478    [Nl_obs]
 3741.00    1.29397   0.65151    0.000
 3742.00    0.83792   0.62748    0.000
 3743.00    0.00353   0.59765    0.000
 3744.00    0.36299   0.56640    0.000
 3745.00    1.41803   0.53067    0.034
 3746.00    1.41906   0.48852    0.034
 3747.00    0.88486   0.44049    0.033
 3748.00    0.30021   0.39845    0.033
 3749.00   -0.30662   0.38732    0.000
 3750.00   -0.42610   0.42146    0.000
 3751.00   -0.36158   0.48806    0.000
 3752.00   -0.78617   0.56295    0.000
 3753.00   -1.36752   0.63043    0.000
 3754.00   -0.91257   0.67892    0.000
 3755.00   -0.17992   0.69275    0.000
 3756.00    0.49158   0.66592    0.032
 3757.00    1.14967   0.62021    0.032
 3758.00    0.62317   0.59092    0.031
 3759.00   -0.11012   0.59232    0.000
 3760.00    0.12228   0.61183    0.036
 3761.00    0.48296   0.63237    0.045
 3762.00    0.29708   0.64561    0.036
 3763.00    0.05984   0.65016    0.029
 3764.00   -0.52948   0.64461    0.000
 3765.00   -1.13911   0.62399    0.000
 3766.00   -0.72956   0.59076    0.000
 3767.00   -0.30033   0.55673    0.000
 3768.00   -0.41804   0.52764    0.000
 3769.00   -0.52427   0.50582    0.000
 3770.00   -0.35179   0.50476    0.000
 3771.00   -0.16509   0.53440    0.000
 3772.00    0.20800   0.58022    0.026
 3773.00    0.53256   0.61885    0.027
 3774.00    0.43109   0.64495    0.027
 3775.00    0.33639   0.66928    0.027
 3776.00    0.28560   0.69923    0.027
 3777.00    0.20912   0.73294    0.027
 3778.00    0.00268   0.76717    0.027
 3779.00   -0.01919   0.79817    0.000
 3780.00    0.71442   0.81886    0.028
 3781.00    1.11777   0.82725    0.029
 3782.00    0.40094   0.83025    0.029
 3783.00    0.07997   0.82907    0.029
 3784.00    0.89116   0.81032    0.030
 3785.00    1.13866   0.76735    0.030
 3786.00    0.00894   0.71831    0.029
 3787.00   -0.61096   0.68418    0.000
 3788.00   -0.15630   0.66788    0.000
 3789.00    0.24305   0.66387    0.029
 3790.00    0.54112   0.66555    0.029
 3791.00    0.69435   0.66026    0.029
 3792.00    0.61575   0.63608    0.028
 3793.00    0.70351   0.59499    0.028
 3794.00    1.02494   0.54874    0.028
 3795.00    0.86134   0.50364    0.027
 3796.00    0.09824   0.46112    0.026
 3797.00   -0.17717   0.43374    0.000
 3798.00    0.07877   0.44241    0.026
 3799.00    0.26127   0.49144    0.026
 3800.00    0.37319   0.56198    0.026
 3801.00    0.36278   0.63275    0.026
 3802.00    0.24871   0.69210    0.026
 3803.00    0.19499   0.73137    0.026
 3804.00    0.18631   0.74469    0.026
 3805.00    0.31535   0.73815    0.026
 3806.00    0.53467   0.73212    0.026
 3807.00    0.49275   0.74713    0.026
 3808.00    0.30092   0.78385    0.026
 3809.00    0.00721   0.82207    0.026
 3810.00   -0.33741   0.83822    0.000
 3811.00   -0.14591   0.82027    0.000
 3812.00    0.27744   0.77515    0.028
 3813.00    0.51713   0.72701    0.044
 3814.00    0.68871   0.70000    0.229
 3815.00    0.44671   0.70287   -1.000
 3816.00    0.07471   0.72597   -1.000
 3817.00    0.20957   0.74464   -1.000
 3818.00    0.47739   0.73811   -1.000
 3819.00    0.22474   0.71344   -1.000
 3820.00   -0.13942   0.69865    0.000
 3821.00    0.45835   0.70446   -1.000
 3822.00    1.21936   0.70779   -1.000
 3823.00    1.21605   0.68609   -1.000
 3824.00    1.11466   0.64897   -1.000
 3825.00    0.65751   0.61962   -1.000
 3826.00    0.16842   0.60513   -1.000
 3827.00    0.28262   0.59805   -1.000
 3828.00    0.42925   0.59070   -1.000
 3829.00    0.39680   0.57729   -1.000
 3830.00    0.36113   0.55014   -1.000
 3831.00    0.35558   0.50573   -1.000
 3832.00    0.35020   0.45380   -1.000
 3833.00    0.34841   0.41091   -1.000
 3834.00    0.37914   0.38901   -1.000
 3835.00    0.81426   0.39216   -1.000
 3836.00    1.19757   0.41443   -1.000
 3837.00    1.14304   0.44398   -1.000
 3838.00    1.07945   0.47487   -1.000
 3839.00    0.95895   0.51056   -1.000
 3840.00    0.86134   0.55667   -1.000
 3841.00    0.87670   0.61095   -1.000
 3842.00    0.77346   0.66073   -1.000
 3843.00    0.19545   0.69539   -1.000
 3844.00   -0.19225   0.71587    0.000
 3845.00    0.05270   0.73126   -1.000
 3846.00    0.29858   0.74801   -1.000
 3847.00    0.54707   0.76065    0.000
 3848.00    0.80252   0.76115    0.000
 3849.00    1.07468   0.75815    0.000
 3850.00    1.25121   0.76852    0.000
 3851.00    1.22944   0.79027    0.000
 3852.00    1.13330   0.80516    0.000
 3853.00    0.90305   0.80379    0.000
 3854.00    0.79175   0.79128    0.000
 3855.00    0.86807   0.77820    0.000
 3856.00    0.86080   0.77040    0.000
 3857.00    0.73780   0.76190    0.000
 3858.00    0.75524   0.75011    0.000
 3859.00    0.94380   0.74996    0.000
 3860.00    1.03196   0.77314    0.000
 3861.00    1.01229   0.80805    0.000
 3862.00    1.03939   0.83423    0.000
 3863.00    1.11081   0.84332    0.000
 3864.00    0.88169   0.83956    0.000
 3865.00    0.40150   0.83233    0.000
 3866.00    0.24224   0.83013    0.000
 3867.00    0.31902   0.83373    0.000
 3868.00    0.23924   0.83400    0.000
 3869.00    0.05834   0.81947    0.000
 3870.00    0.13998   0.78770    0.000
 3871.00    0.37001   0.75161    0.000
 3872.00    0.80317   0.73447    0.000
 3873.00    1.33625   0.74800    0.000
 3874.00    1.36007   0.77576    0.000
 3875.00    1.16733   0.78739    0.000
 3876.00    0.82762   0.76774    0.000
 3877.00    0.43436   0.73174    0.000
 3878.00    0.28986   0.70963    0.000
 3879.00    0.22203   0.70979    0.000
 3880.00    0.22050   0.71032    0.000
 3881.00    0.23598   0.69559   -1.000
 3882.00    0.08761   0.67305   -1.000
 3883.00   -0.09502   0.64753    0.000
 3884.00   -0.19865   0.60923    0.000
 3885.00   -0.28926   0.55581    0.000
 3886.00   -0.32527   0.50172    0.000
 3887.00   -0.35452   0.46209    0.000
 3888.00   -0.23463   0.44757    0.000
 3889.00   -0.10199   0.46742    0.000
 3890.00   -0.03227   0.51838    0.000
 3891.00    0.03431   0.57926   -1.000
 3892.00    0.17039   0.62723   -1.000
 3893.00    0.30471   0.65518   -1.000
 3894.00    0.25190   0.67181   -1.000
 3895.00    0.21936   0.68918   -1.000
 3896.00    0.60139   0.70907   -1.000
 3897.00    0.94870   0.72354   -1.000
 3898.00    0.88537   0.73164   -1.000
 3899.00    0.78082   0.74512   -1.000
 3900.00    0.34045   0.76971   -1.000
 3901.00   -0.00931   0.79129    0.000
 3902.00    0.19428   0.79484   -1.000
 3903.00    0.40220   0.78343   -1.000
 3904.00    0.63091   0.76823   -1.000
 3905.00    0.74570   0.76168   -1.000
 3906.00    0.41434   0.77692   -1.000
 3907.00    0.18813   0.81409   -1.000
 3908.00    0.30471   0.85651   -1.000
 3909.00    0.44235   0.88817   -1.000
 3910.00    0.63812   0.90439   -1.000
 3911.00    0.72595   0.90534   -1.000
 3912.00    0.55890   0.89272   -1.000
 3913.00    0.53280   0.87486   -1.000
 3914.00    0.79438   0.86063   -1.000
 3915.00    0.94139   0.84933   -1.000
 3916.00    0.88494   0.83670   -1.000
 3917.00    0.86422   0.82187   -1.000
 3918.00    0.89903   0.80563   -1.000
 3919.00    0.85200   0.79127    0.103
 3920.00    0.69333   0.78498    0.031
 3921.00    0.51019   0.78954    0.022
 3922.00    0.29766   0.79967    0.022
 3923.00    0.17139   0.80445    0.023
 3924.00    0.13648   0.79307    0.023
 3925.00    0.24753   0.76270    0.023
 3926.00    0.49493   0.71847    0.023
 3927.00    0.76825   0.66552    0.023
 3928.00    1.06291   0.60635    0.024
 3929.00    1.03256   0.54214    0.024
 3930.00    0.76661   0.47378    0.024
 3931.00    0.33682   0.40549    0.023
 3932.00   -0.19723   0.34964    0.000
 3933.00   -0.04162   0.32495    0.000
 3934.00    0.49780   0.34361    0.023
 3935.00    0.73120   0.40012    0.023
 3936.00    0.81647   0.47589    0.024
 3937.00    0.79710   0.55366    0.023
 3938.00    0.73399   0.62384    0.023
 3939.00    0.76342   0.67911    0.023
 3940.00    0.82596   0.71293    0.023
 3941.00    0.78551   0.72609    0.023
 3942.00    0.71393   0.72810    0.023
 3943.00    0.62107   0.73386    0.023
 3944.00    0.52286   0.75521    0.022
 3945.00    0.88646   0.78629    0.023
 3946.00    1.34424   0.80637    0.023
 3947.00    1.34419   0.80754    0.023
 3948.00    1.27084   0.80437    0.022
 3949.00    1.02522   0.80938    0.022
 3950.00    0.75903   0.81704    0.022
 3951.00    0.49805   0.81978    0.022
 3952.00    0.23749   0.82313    0.022
 3953.00    0.49646   0.83069    0.022
 3954.00    0.77930   0.82931    0.022
 3955.00    0.64534   0.80984    0.022
 3956.00    0.50777   0.78749    0.021
 3957.00    0.45920   0.78008    0.021
 3958.00    0.41841   0.77947    0.022
 3959.00    0.52498   0.76088    0.022
 3960.00    0.63113   0.71463    0.000
 3961.00    0.73245   0.65634    0.000
 3962.00    0.80480   0.60450    0.000
 3963.00    0.64943   0.55887    0.000
 3964.00    0.51744   0.50655    0.000
 3965.00    0.52415   0.44006    0.000
 3966.00    0.59420   0.36578    0.000
 3967.00    0.96166   0.30083    0.000
 3968.00    1.15100   0.26437    0.000
 3969.00    0.65780   0.26758    0.000
 3970.00    0.44646   0.30777    0.000
 3971.00    1.13603   0.37054    0.000
 3972.00    1.59407   0.44001    0.000
 3973.00    1.42502   0.50762    0.000
 3974.00    1.23342   0.57065    0.000
 3975.00    0.98947   0.62692    0.000
 3976.00    0.75387   0.67692    0.000
 3977.00    0.53504   0.72495    0.000
 3978.00    0.45388   0.77120    0.000
 3979.00    0.61353   0.80659    0.000
 3980.00    0.68413   0.82167    0.000
 3981.00    0.61839   0.82059    0.023
 3982.00    0.72503   0.81963    0.023
 3983.00    1.06352   0.83013    0.023
 3984.00    1.13575   0.84926    0.023
 3985.00    0.89265   0.86853    0.023
 3986.00    0.74535   0.88513    0.022
 3987.00    0.69809   0.89954    0.022
 3988.00    0.60541   0.90884    0.022
 3989.00    0.47092   0.91344    0.022
 3990.00    0.59738   0.92169    0.022
 3991.00    0.93573   0.93777    0.021
 3992.00    1.03323   0.95331    0.021
 3993.00    0.95866   0.95602    0.021
 3994.00    0.84132   0.94174    0.021
 3995.00    0.69718   0.91696    0.021
 3996.00    0.78224   0.89581    0.021
 3997.00    0.99290   0.89483    0.021
 3998.00    1.02978   0.91998    0.021
 3999.00    0.98389   0.95664    0.021
 4000.00    0.70910   0.98341    0.021
 4001.00    0.34024   0.99260    0.021
 4002.00    0.15968   0.98514    0.021
 4003.00    0.04525   0.95869    0.021
 4004.00    0.17166   0.92059    0.021
 4005.00    0.36943   0.89770    0.021
 4006.00    0.52085   0.91002    0.021
 4007.00    0.66089   0.94577    0.021
 4008.00    0.54391   0.97861    0.021
 4009.00    0.37582   0.99631    0.021
 4010.00    0.27923   1.00230    0.021
 4011.00    0.19375   1.00292    0.021
 4012.00    0.47309   1.00307    0.021
 4013.00    0.79439   1.00637    0.021
 4014.00    0.90306   1.01271    0.022
 4015.00    0.99530   1.01730    0.022
 4016.00    0.59274   1.01799    0.022
 4017.00    0.16935   1.02223    0.021
 4018.00    0.58162   1.03535    0.021
 4019.00    0.99004   1.04737    0.022
 4020.00    0.89548   1.04508    0.022
 4021.00    0.80599   1.02887    0.022
 4022.00    0.80594   1.00771    0.022
 4023.00    0.81050   0.99054    0.022
 4024.00    0.86478   0.98800    0.022
 4025.00    0.91235   1.00589    0.022
 4026.00    0.90897   1.03189    0.022
 4027.00    0.87617   1.04133    0.022
 4028.00    0.67366   1.01798    0.021
 4029.00    0.51353   0.96743    0.021
 4030.00    0.54764   0.91401    0.021
 4031.00    0.62193   0.88184    0.021
 4032.00    0.84692   0.87843    0.021
 4033.00    1.01409   0.89865    0.021
 4034.00    1.00000   0.93588    0.021
 4035.00    1.04019   0.98323    0.021
 4036.00    1.22478   1.02932    0.021
 4037.00    1.35119   1.05939    0.021
 4038.00    1.34478   1.06448    0.021
 4039.00    1.44565   1.05030    0.021
 4040.00    1.75860   1.03346    0.021
 4041.00    1.83667   1.02262    0.022
 4042.00    1.51010   1.00474    0.021
 4043.00    1.27290   0.96299    0.021
 4044.00    1.17054   0.91005    0.021
 4045.00    1.11012   0.88575    0.021
 4046.00    1.10530   0.91148    0.021
 4047.00    1.11980   0.96407    0.022
 4048.00    1.15686   1.00718    0.021
 4049.00    1.16931   1.02745    0.029
 4050.00    1.15643   1.02866    0.089
 4051.00    1.23574   1.01449   -1.000
 4052.00    1.39878   0.98975   -1.000
 4053.00    1.46770   0.96447   -1.000
 4054.00    1.46129   0.94815   -1.000
 4055.00    1.28716   0.94162   -1.000
 4056.00    0.99493   0.93932   -1.000
 4057.00    0.94282   0.94199   -1.000
 4058.00    1.03903   0.95661   -1.000
 4059.00    1.11297   0.97795   -1.000
 4060.00    1.17489   0.98339   -1.000
 4061.00    1.28205   0.95724   -1.000
 4062.00    1.41042   0.91503   -1.000
 4063.00    1.31748   0.89142   -1.000
 4064.00    1.13512   0.90037   -1.000
 4065.00    1.37497   0.92282   -1.000
 4066.00    1.76039   0.94051   -1.000
 4067.00    1.67217   0.95710   -1.000
 4068.00    1.44642   0.97373   -1.000
 4069.00    1.24275   0.97380   -1.000
 4070.00    1.04440   0.95139   -1.000
 4071.00    1.10773   0.92969   -1.000
 4072.00    1.22178   0.92993   -1.000
 4073.00    0.85999   0.93921   -1.000
 4074.00    0.42650   0.92739   -1.000
 4075.00    0.69787   0.88587    0.046
 4076.00    1.04721   0.83906    0.022
 4077.00    1.07541   0.82185    0.021
 4078.00    1.08009   0.84846    0.021
 4079.00    1.25020   0.90190    0.021
 4080.00    1.42664   0.95035    0.021
 4081.00    0.91025   0.97030    0.021
 4082.00    0.41156   0.95976    0.021
 4083.00    0.72473   0.93523    0.021
 4084.00    1.02801   0.91736    0.020
 4085.00    1.16835   0.91846    0.020
 4086.00    1.28230   0.93797    0.020
 4087.00    1.12473   0.96336    0.020
 4088.00    1.01319   0.97849    0.020
 4089.00    1.23946   0.97599    0.020
 4090.00    1.43498   0.96061    0.021
 4091.00    1.45792   0.94202    0.020
 4092.00    1.44153   0.92512    0.000
 4093.00    1.24910   0.90481    0.000
 4094.00    1.08608   0.87271    0.000
 4095.00    1.03111   0.83040    0.000
 4096.00    0.95433   0.78802    0.000
 4097.00    0.81047   0.74888    0.000
 4098.00    0.62313   0.70454    0.000
 4099.00    0.32216   0.64803    0.000
 4100.00    0.21706   0.59081    0.000
 4101.00    0.55186   0.56129    0.000
 4102.00    0.77899   0.57917    0.000
 4103.00    0.79656   0.63558    0.000
 4104.00    0.82990   0.70402    0.000
 4105.00    0.88997   0.76243    0.000
 4106.00    0.99966   0.80107    0.000
 4107.00    1.18310   0.81993    0.000
 4108.00    1.30568   0.82546    0.000
 4109.00    1.34873   0.82763    0.000
 4110.00    1.33672   0.83621    0.000
 4111.00    1.26136   0.85592    0.000
 4112.00    1.13096   0.88424    0.000
 4113.00    0.94470   0.91468    0.020
 4114.00    1.03524   0.94084    0.020
 4115.00    1.37360   0.95614    0.021
 4116.00    1.28880   0.95359    0.029
 4117.00    0.87015   0.93382    0.099
 4118.00    0.74922   0.91148   -1.000
 4119.00    0.83490   0.90214   -1.000
 4120.00    0.98110   0.90503   -1.000
 4121.00    1.16414   0.91026   -1.000
 4122.00    1.19665   0.91663   -1.000
 4123.00    1.14918   0.92862   -1.000
 4124.00    1.09455   0.94151   -1.000
 4125.00    1.03661   0.94275   -1.000
 4126.00    1.02789   0.92793   -1.000
 4127.00    1.03870   0.90722   -1.000
 4128.00    1.04987   0.89338    0.054
 4129.00    1.06115   0.88692    0.023
 4130.00    0.87414   0.87877    0.020
 4131.00    0.63070   0.86730    0.020
 4132.00    0.89152   0.86437    0.020
 4133.00    1.27073   0.88142    0.020
 4134.00    1.16975   0.91579    0.020
 4135.00    0.97814   0.95313    0.020
 4136.00    0.92980   0.98150    0.020
 4137.00    0.90238   1.00117    0.019
 4138.00    1.03735   1.01628    0.020
 4139.00    1.18957   1.02086    0.020
 4140.00    1.40042   1.00209    0.020
 4141.00    1.61532   0.95726    0.020
 4142.00    1.35396   0.90606    0.020
 4143.00    1.07617   0.88054    0.020
 4144.00    1.22364   0.89489    0.020
 4145.00    1.35732   0.93084    0.020
 4146.00    1.00745   0.95953    0.020
 4147.00    0.68534   0.96756    0.019
 4148.00    0.79235   0.95980    0.019
 4149.00    0.91287   0.94870    0.019
 4150.00    1.16658   0.94273    0.019
 4151.00    1.38233   0.93975    0.019
 4152.00    1.32856   0.93238    0.019
 4153.00    1.27709   0.91918    0.019
 4154.00    1.23816   0.90703    0.019
 4155.00    1.19894   0.90374    0.019
 4156.00    1.15843   0.91238    0.019
 4157.00    1.15234   0.93082    0.019
 4158.00    1.27006   0.95143    0.019
 4159.00    1.34778   0.96554    0.019
 4160.00    1.30476   0.97274    0.019
 4161.00    1.28181   0.98019    0.019
 4162.00    1.31039   0.99054    0.019
 4163.00    1.33485   0.99803    0.020
 4164.00    1.35022   0.99703    0.019
 4165.00    1.29703   0.98728    0.019
 4166.00    1.11251   0.97471    0.019
 4167.00    1.02355   0.96865    0.019
 4168.00    1.09430   0.96931    0.019
 4169.00    1.14521   0.96090    0.019
 4170.00    1.16705   0.92880    0.019
 4171.00    1.27185   0.88118    0.019
 4172.00    1.48347   0.84490    0.020
 4173.00    1.36551   0.83899    0.020
 4174.00    0.87355   0.85651    0.020
 4175.00    0.52316   0.87447    0.019
 4176.00    0.31447   0.87887    0.019
 4177.00    0.59682   0.87699    0.019
 4178.00    1.31262   0.88442    0.020
 4179.00    1.60053   0.90295    0.020
 4180.00    1.55563   0.91850    0.020
 4181.00    1.34051   0.92214    0.020
 4182.00    1.00898   0.92194    0.020
 4183.00    0.81962   0.92859    0.019
 4184.00    0.71547   0.93857    0.020
 4185.00    0.73384   0.93853    0.020
 4186.00    0.81630   0.92605    0.020
 4187.00    1.01864   0.91758    0.020
 4188.00    1.27536   0.92649    0.020
 4189.00    1.02195   0.94499    0.020
 4190.00    0.56948   0.96088    0.020
 4191.00    0.84556   0.97586    0.020
 4192.00    1.36361   0.99188    0.020
 4193.00    1.31552   0.99614    0.020
 4194.00    1.10963   0.97674    0.020
 4195.00    1.22284   0.94077    0.020
 4196.00    1.40924   0.90503    0.020
 4197.00    1.31609   0.88054    0.020
 4198.00    1.17156   0.87227    0.020
 4199.00    1.22226   0.87799    0.020
 4200.00    1.30057   0.88603    0.020
 4201.00    1.23416   0.88870    0.019
 4202.00    1.15300   0.89130    0.019
 4203.00    1.00355   0.90031    0.019
 4204.00    0.84965   0.91553    0.019
 4205.00    0.76666   0.93509    0.019
 4206.00    0.68656   0.95543    0.019
 4207.00    1.06169   0.96927    0.019
 4208.00    1.41685   0.97262    0.019
 4209.00    1.18523   0.97166    0.019
 4210.00    0.97952   0.97620    0.019
 4211.00    1.15099   0.98534    0.019
 4212.00    1.27603   0.98515    0.019
 4213.00    0.96204   0.96434    0.019
 4214.00    0.68891   0.93162    0.018
 4215.00    0.69663   0.91352    0.018
 4216.00    0.74925   0.92802    0.018
 4217.00    1.04051   0.96387    0.018
 4218.00    1.24965   0.99574    0.018
 4219.00    1.10806   1.01096    0.018
 4220.00    1.02077   1.01004    0.018
 4221.00    1.12475   0.99271    0.018
 4222.00    1.16992   0.95671    0.018
 4223.00    1.04096   0.90325    0.018
 4224.00    0.89777   0.83991    0.018
 4225.00    0.71865   0.78598    0.018
 4226.00    0.65079   0.77084    0.018
 4227.00    0.82468   0.81073    0.018
 4228.00    0.95952   0.88619    0.018
 4229.00    1.02070   0.95533    0.017
 4230.00    1.10780   0.98755    0.017
 4231.00    1.23754   0.97934    0.017
 4232.00    1.23548   0.94918    0.017
 4233.00    1.04316   0.92189    0.017
 4234.00    0.90543   0.90903    0.017
 4235.00    0.83699   0.90685    0.017
 4236.00    0.94012   0.90974    0.016
 4237.00    1.23518   0.91511    0.017
 4238.00    1.18710   0.92270    0.017
 4239.00    0.80039   0.93605    0.016
 4240.00    0.72907   0.95634    0.017
 4241.00    0.93223   0.97771    0.017
 4242.00    1.20791   0.99473    0.017
 4243.00    1.53920   1.00487    0.017
 4244.00    1.56429   1.00179    0.018
 4245.00    1.38302   0.98081    0.018
 4246.00    1.26191   0.95111    0.018
 4247.00    1.17631   0.92790    0.018
 4248.00    1.06571   0.91474    0.018
 4249.00    0.94223   0.90720    0.018
 4250.00    1.00324   0.90733    0.018
 4251.00    1.14656   0.91741    0.018
 4252.00    1.21145   0.92793    0.019
 4253.00    1.24627   0.93079    0.019
 4254.00    0.96927   0.93417    0.018
 4255.00    0.59065   0.94737    0.018
 4256.00    0.58504   0.96071    0.018
 4257.00    0.68125   0.95550    0.018
 4258.00    0.94184   0.92903    0.018
 4259.00    1.23928   0.90028    0.019
 4260.00    1.44537   0.89388    0.019
 4261.00    1.63512   0.91965    0.019
 4262.00    1.48240   0.96472    0.019
 4263.00    1.28283   1.00646    0.019
 4264.00    1.18321   1.03062    0.019
 4265.00    1.09336   1.03405    0.019
 4266.00    0.96565   1.01859    0.018
 4267.00    0.83563   0.98929    0.018
 4268.00    0.91785   0.95153    0.018
 4269.00    1.00610   0.90751    0.018
 4270.00    1.15206   0.86313    0.018
 4271.00    1.29266   0.83343    0.018
 4272.00    1.29134   0.82890    0.018
 4273.00    1.28652   0.84404    0.018
 4274.00    1.23373   0.87025    0.018
 4275.00    1.13312   0.90614    0.018
 4276.00    0.59819   0.94621    0.018
 4277.00    0.19194   0.97524    0.018
 4278.00    0.64296   0.98195    0.018
 4279.00    1.01299   0.96986    0.018
 4280.00    0.96371   0.95195    0.018
 4281.00    0.91429   0.93857    0.018
 4282.00    0.86434   0.93237   -2.000
 4283.00    0.82845   0.93046   -2.000
 4284.00    0.84110   0.92780   -2.000
 4285.00    0.91028   0.92019   -2.000
 4286.00    1.14378   0.90394   -2.000
 4287.00    1.28084   0.87502   -2.000
 4288.00    1.17870   0.83788   -2.000
 4289.00    1.10849   0.81306   -2.000
 4290.00    1.10655   0.82143   -2.000
 4291.00    1.19007   0.85751   -2.000
 4292.00    1.43228   0.89189   -2.000
 4293.00    1.53251   0.90358   -2.000
 4294.00    1.40248   0.89705   -2.000
 4295.00    1.31951   0.88438   -2.000
 4296.00    1.30349   0.86509   -2.000
 4297.00    1.23431   0.83160   -2.000
 4298.00    1.09859   0.78686    0.018
 4299.00    1.02734   0.74834    0.018
 4300.00    1.02720   0.73140    0.018
 4301.00    0.93770   0.73522    0.018
 4302.00    0.76123   0.75061    0.017
 4303.00    0.84099   0.76944    0.017
 4304.00    1.14060   0.78230    0.017
 4305.00    1.40109   0.78052    0.018
 4306.00    1.63203   0.76502    0.018
 4307.00    1.56572   0.74849    0.018
 4308.00    1.30202   0.74797    0.018
 4309.00    1.27512   0.77078    0.018
 4310.00    1.38592   0.80570    0.017
 4311.00    1.29310   0.83284    0.017
 4312.00    1.09708   0.84394    0.017
 4313.00    0.92929   0.85129    0.017
 4314.00    0.77387   0.87494    0.017
 4315.00    0.76399   0.91933    0.017
 4316.00    0.80892   0.96560    0.017
 4317.00    0.94238   0.99097    0.017
 4318.00    1.10414   0.98991    0.017
 4319.00    1.18128   0.97249    0.017
 4320.00    1.23580   0.95099    0.017
 4321.00    1.14473   0.92891    0.017
 4322.00    1.02179   0.89790    0.018
 4323.00    1.04397   0.85078    0.017
 4324.00    1.09139   0.80107    0.017
 4325.00    1.19962   0.77961    0.017
 4326.00    1.31589   0.80387    0.018
 4327.00    1.29093   0.85554    0.018
 4328.00    1.25278   0.89728    0.018
 4329.00    1.07513   0.90934    0.018
 4330.00    0.88950   0.90178    0.000
 4331.00    0.78835   0.89325    0.000
 4332.00    0.69118   0.88977    0.000
 4333.00    0.82563   0.88496    0.000
 4334.00    0.94734   0.86734    0.000
 4335.00    0.76308   0.82475    0.000
 4336.00    0.60542   0.75450    0.000
 4337.00    0.79403   0.67138    0.000
 4338.00    0.98700   0.59848    0.000
 4339.00    1.21807   0.55509    0.000
 4340.00    1.39941   0.55377    0.000
 4341.00    1.25949   0.59313    0.000
 4342.00    1.11903   0.65316    0.000
 4343.00    0.97588   0.71191    0.000
 4344.00    0.82427   0.76233    0.000
 4345.00    0.63813   0.80602    0.000
 4346.00    0.57474   0.84345    0.000
 4347.00    0.92666   0.87304    0.000
 4348.00    1.20377   0.88753    0.000
 4349.00    1.26744   0.87564    0.000
 4350.00    1.29351   0.84071    0.000
 4351.00    1.22789   0.81026    0.018
 4352.00    1.24177   0.81160    0.021
 4353.00    1.42286   0.84398    0.054
 4354.00    1.50680   0.88620   -1.000
 4355.00    1.41313   0.92040   -1.000
 4356.00    1.34819   0.93798   -1.000
 4357.00    1.32916   0.93773   -1.000
 4358.00    1.39471   0.93037   -1.000
 4359.00    1.57886   0.93338   -1.000
 4360.00    1.57597   0.95285   -1.000
 4361.00    1.34230   0.97881   -1.000
 4362.00    1.10625   1.00062    0.071
 4363.00    0.86759   1.01580    0.023
 4364.00    0.78982   1.02155    0.017
 4365.00    0.86638   1.01077    0.017
 4366.00    0.96948   0.98352    0.017
 4367.00    1.09503   0.95401    0.018
 4368.00    1.05530   0.93830    0.018
 4369.00    0.89245   0.93956    0.018
 4370.00    0.86217   0.94830    0.017
 4371.00    0.91862   0.95024    0.017
 4372.00    0.91612   0.93427    0.017
 4373.00    0.87985   0.90400    0.017
 4374.00    0.69077   0.88212    0.017
 4375.00    0.42548   0.89145    0.017
 4376.00    0.70240   0.92949    0.017
 4377.00    1.21329   0.97009    0.017
 4378.00    1.29829   0.98991    0.017
 4379.00    1.22570   0.98362    0.018
 4380.00    1.32346   0.95387    0.018
 4381.00    1.47464   0.90071    0.018
 4382.00    1.20317   0.83296    0.017
 4383.00    0.82113   0.77987    0.017
 4384.00    0.96428   0.77144    0.017
 4385.00    1.21961   0.80681    0.017
 4386.00    1.28370   0.85567    0.017
 4387.00    1.31545   0.89018    0.017
 4388.00    1.18948   0.90478    0.017
 4389.00    1.04335   0.90895    0.016
 4390.00    1.11104   0.91334    0.016
 4391.00    1.19780   0.92087    0.016
 4392.00    1.18035   0.92455    0.017
 4393.00    1.15734   0.91914    0.017
 4394.00    1.11671   0.91469    0.017
 4395.00    1.07703   0.92615    0.017
 4396.00    1.14267   0.94927    0.017
 4397.00    1.20029   0.96121    0.017
 4398.00    1.08124   0.94861    0.017
 4399.00    0.97221   0.92423    0.017
 4400.00    0.98697   0.91136    0.017
 4401.00    1.01223   0.91512    0.017
 4402.00    1.12581   0.91688    0.017
 4403.00    1.21569   0.90275    0.016
 4404.00    1.15700   0.88501    0.017
 4405.00    1.08434   0.88160    0.017
 4406.00    0.94297   0.89036    0.017
 4407.00    0.86497   0.90076    0.016
 4408.00    1.03994   0.91500    0.016
 4409.00    1.17559   0.93972    0.016
 4410.00    1.18083   0.96912    0.016
 4411.00    1.17523   0.98788    0.016
 4412.00    1.13923   0.98252    0.016
 4413.00    1.10720   0.95067    0.016
 4414.00    1.08467   0.90807    0.016
 4415.00    1.06306   0.88086    0.016
 4416.00    1.04338   0.88403    0.016
 4417.00    1.07916   0.91265    0.016
 4418.00    1.21478   0.95009    0.016
 4419.00    1.25888   0.97681    0.016
 4420.00    1.15893   0.97967    0.016
 4421.00    1.06782   0.96344    0.016
 4422.00    0.98894   0.94731    0.016
 4423.00    0.92662   0.94455    0.016
 4424.00    0.88442   0.95125    0.016
 4425.00    0.89802   0.95717    0.016
 4426.00    0.97146   0.95923    0.016
 4427.00    1.09040   0.95910    0.016
 4428.00    1.25237   0.95567    0.016
 4429.00    1.21329   0.94835    0.016
 4430.00    1.00656   0.94178    0.016
 4431.00    0.84009   0.93758    0.016
 4432.00    0.70317   0.92809    0.017
 4433.00    0.79721   0.90937    0.017
 4434.00    1.04014   0.89449    0.017
 4435.00    1.29252   0.90294    0.017
 4436.00    1.55022   0.93815    0.017
 4437.00    1.48276   0.98157    0.017
 4438.00    1.25567   1.00793    0.017
 4439.00    1.05672   1.00251    0.017
 4440.00    0.86972   0.96807    0.017
 4441.00    0.90914   0.92295    0.017
 4442.00    1.03086   0.89270    0.017
 4443.00    1.11949   0.89507    0.017
 4444.00    1.19796   0.92630    0.017
 4445.00    1.22150   0.96371    0.017
 4446.00    1.23098   0.98694    0.017
 4447.00    0.96162   0.99285    0.017
 4448.00    0.63414   0.98815    0.017
 4449.00    0.71923   0.97893    0.017
 4450.00    0.87210   0.97014    0.016
 4451.00    1.01617   0.96207    0.017
 4452.00    1.15916   0.94653    0.017
 4453.00    1.03067   0.91789    0.017
 4454.00    0.87909   0.88628    0.017
 4455.00    0.94929   0.86887    0.017
 4456.00    1.03043   0.86937    0.016
 4457.00    1.08340   0.87598    0.016
 4458.00    1.13817   0.87766    0.016
 4459.00    1.33432   0.87351    0.016
 4460.00    1.50354   0.86958    0.017
 4461.00    1.12750   0.87438    0.000
 4462.00    0.78837   0.89183    0.000
 4463.00    0.88301   0.91420    0.000
 4464.00    0.99821   0.92878    0.000
 4465.00    1.28002   0.93072    0.000
 4466.00    1.53944   0.92298    0.000
 4467.00    1.66261   0.91027    0.000
 4468.00    1.72728   0.89950    0.000
 4469.00    1.51135   0.89991    0.000
 4470.00    1.33864   0.91627    0.000
 4471.00    1.33472   0.94441    0.000
 4472.00    1.31902   0.97462    0.000
 4473.00    1.26498   0.99787    0.000
 4474.00    1.17934   1.01112    0.000
 4475.00    1.00673   1.01839    0.000
 4476.00    0.96606   1.02257    0.000
 4477.00    1.23631   1.01651    0.000
 4478.00    1.33788   0.98931    0.000
 4479.00    1.09586   0.94359    0.000
 4480.00    0.93379   0.90096    0.000
 4481.00    0.91347   0.88686    0.000
 4482.00    1.00191   0.90920    0.016
 4483.00    1.25905   0.95261    0.016
 4484.00    1.38069   0.99262    0.017
 4485.00    1.31779   1.01188    0.017
 4486.00    1.20785   1.00460    0.017
 4487.00    1.04153   0.97636    0.017
 4488.00    0.91559   0.94362    0.017
 4489.00    0.83234   0.92579    0.017
 4490.00    0.90318   0.93021    0.017
 4491.00    1.11773   0.94572    0.017
 4492.00    1.23747   0.95381    0.017
 4493.00    1.27927   0.94727    0.017
 4494.00    1.15461   0.93647    0.017
 4495.00    0.90951   0.93673    0.017
 4496.00    0.83204   0.95258    0.017
 4497.00    0.86106   0.97510    0.016
 4498.00    0.92901   0.99036    0.016
 4499.00    1.01858   0.99145    0.016
 4500.00    1.08972   0.98684    0.016
 4501.00    1.15197   0.99386    0.017
 4502.00    1.14236   1.01889    0.017
 4503.00    1.10277   1.04832    0.016
 4504.00    1.24070   1.06342    0.016
 4505.00    1.44198   1.05831    0.016
 4506.00    1.41986   1.04147    0.016
 4507.00    1.33040   1.02675    0.016
 4508.00    1.26646   1.02362    0.016
 4509.00    1.20891   1.03032    0.016
 4510.00    1.11442   1.03561    0.016
 4511.00    1.01242   1.02968    0.016
 4512.00    1.02388   1.01270    0.016
 4513.00    1.05345   0.99279    0.016
 4514.00    0.92631   0.97862    0.016
 4515.00    0.78055   0.97341    0.016
 4516.00    0.88571   0.97397    0.016
 4517.00    1.01118   0.97647    0.016
 4518.00    1.07692   0.98080    0.016
 4519.00    1.13994   0.98638    0.016
 4520.00    0.89912   0.98771    0.016
 4521.00    0.65799   0.97959    0.016
 4522.00    0.59096   0.96440    0.016
 4523.00    0.53451   0.94829    0.016
 4524.00    0.67631   0.93219    0.016
 4525.00    0.81393   0.91295    0.016
 4526.00    0.90454   0.89104    0.016
 4527.00    0.99290   0.87235    0.016
 4528.00    1.06365   0.86398    0.016
 4529.00    1.09973   0.86899    0.016
 4530.00    0.93083   0.88240    0.016
 4531.00    0.80769   0.89261    0.016
 4532.00    0.89877   0.89061    0.016
 4533.00    0.98564   0.88133    0.016
 4534.00    1.05641   0.88282    0.016
 4535.00    1.11928   0.90822    0.016
 4536.00    1.15691   0.94920    0.016
 4537.00    1.16536   0.98178    0.016
 4538.00    1.09495   0.98931    0.016
 4539.00    1.05787   0.97667    0.016
 4540.00    1.09805   0.96200    0.016
 4541.00    1.05061   0.95766    0.016
 4542.00    0.82754   0.96048    0.016
 4543.00    0.71456   0.96027    0.016
 4544.00    0.79376   0.95439    0.016
 4545.00    0.85074   0.94766    0.016
 4546.00    0.87376   0.94020    0.016
 4547.00    0.87729   0.92656    0.016
 4548.00    0.85465   0.90884    0.016
 4549.00    0.87490   0.89957    0.016
 4550.00    0.94585   0.90486    0.000
 4551.00    1.06339   0.91381    0.000
 4552.00    1.22949   0.91233    0.000
 4553.00    1.23615   0.90116    0.000
 4554.00    1.09623   0.89464    0.000
 4555.00    0.94774   0.90509    0.000
 4556.00    0.79231   0.93072    0.000
 4557.00    0.75952   0.95874    0.000
 4558.00    0.81421   0.97900    0.000
 4559.00    1.04674   0.99037    0.000
 4560.00    1.39056   0.99372    0.000
 4561.00    1.23075   0.98595    0.000
 4562.00    0.79548   0.96566    0.000
 4563.00    0.81958   0.94173    0.000
 4564.00    1.06205   0.93016    0.000
 4565.00    1.04697   0.94014    0.000
 4566.00    0.92626   0.96526    0.000
 4567.00    0.83415   0.98896    0.000
 4568.00    0.75206   0.99714    0.000
 4569.00    1.01561   0.98666    0.000
 4570.00    1.38130   0.96700    0.000
 4571.00    1.26842   0.95499    0.000
 4572.00    1.03832   0.96046    0.000
 4573.00    0.86435   0.97589    0.000
 4574.00    0.70150   0.98670    0.000
 4575.00    0.71697   0.98748    0.000
 4576.00    0.76005   0.98106    0.000
 4577.00    0.85490   0.96841    0.000
 4578.00    0.95567   0.94886    0.000
 4579.00    0.89552   0.92661    0.000
 4580.00    0.82301   0.90929    0.000
 4581.00    0.97257   0.90026    0.000
 4582.00    1.13137   0.89744    0.000
 4583.00    1.05824   0.89927    0.000
 4584.00    0.98374   0.90665    0.000
 4585.00    0.93699   0.91949    0.000
 4586.00    0.89692   0.93529    0.000
 4587.00    0.97343   0.95008    0.000
 4588.00    1.03293   0.95880    0.000
 4589.00    0.91044   0.95732    0.000
 4590.00    0.79992   0.94659    0.000
 4591.00    0.77980   0.93365    0.000
 4592.00    0.78490   0.92618    0.000
 4593.00    0.93491   0.92568    0.000
 4594.00    1.01953   0.92842    0.000
 4595.00    0.80539   0.93178    0.000
 4596.00    0.65998   0.93604    0.000
 4597.00    0.77169   0.94034    0.000
 4598.00    0.87491   0.94152    0.000
 4599.00    0.95156   0.93834    0.000
 4600.00    0.96379   0.93462    0.000
 4601.00    0.80504   0.93502    0.000
 4602.00    0.69036   0.93894    0.000
 4603.00    0.67613   0.94251    0.000
 4604.00    0.66873   0.94558    0.000
 4605.00    0.67480   0.95316    0.000
 4606.00    0.76375   0.96912    0.000
 4607.00    0.99522   0.98997    0.000
 4608.00    1.10110   1.00605    0.000
 4609.00    1.01788   1.00942    0.000
 4610.00    0.96576   1.00060    0.000
 4611.00    0.95479   0.98748    0.000
 4612.00    0.94186   0.97827    0.000
 4613.00    0.92666   0.97581    0.000
 4614.00    0.92349   0.97705    0.000
 4615.00    0.93269   0.97710    0.000
 4616.00    0.87667   0.97345    0.000
 4617.00    0.76153   0.96689    0.000
 4618.00    0.71613   0.96137    0.000
 4619.00    0.72644   0.96251    0.000
 4620.00    0.79129   0.97204    0.000
 4621.00    0.89447   0.98432    0.000
 4622.00    0.93324   0.99175    0.000
 4623.00    0.93229   0.99155    0.000
 4624.00    0.88527   0.98602    0.000
 4625.00    0.81342   0.97921    0.000
 4626.00    0.83903   0.97328    0.000
 4627.00    0.91021   0.96752    0.000
 4628.00    1.03042   0.96294    0.000
 4629.00    1.17038   0.96382    0.000
 4630.00    1.11048   0.96998    0.000
 4631.00    0.98182   0.97287    0.000
 4632.00    0.84030   0.96587    0.000
 4633.00    0.69504   0.95341    0.000
 4634.00    0.74350   0.94402    0.000
 4635.00    0.83836   0.93944    0.000
 4636.00    0.92378   0.93586    0.000
 4637.00    1.00739   0.93192    0.000
 4638.00    0.96790   0.93069    0.000
 4639.00    0.90995   0.93524    0.000
 4640.00    0.82111   0.94439    0.000
 4641.00    0.72886   0.95242    0.000
 4642.00    0.65124   0.95250    0.000
 4643.00    0.57468   0.94125    0.000
 4644.00    0.57320   0.92039    0.000
 4645.00    0.57456   0.89619    0.000
 4646.00    0.59582   0.87854    0.000
 4647.00    0.61824   0.87638    0.000
 4648.00    0.67995   0.89088    0.000
 4649.00    0.75125   0.91421    0.000
 4650.00    0.97933   0.93566    0.000
 4651.00    1.17203   0.94778    0.000
 4652.00    1.00262   0.94753    0.000
 4653.00    0.83881   0.93623    0.000
 4654.00    0.71593   0.92100    0.000
 4655.00    0.63552   0.91343    0.000
 4656.00    0.79257   0.92250    0.000
 4657.00    0.91619   0.94698    0.000
 4658.00    0.89066   0.97472    0.000
 4659.00    0.85856   0.99029    0.000
 4660.00    0.80242   0.98600    0.000
 4661.00    0.75988   0.96656    0.000
 4662.00    0.75908   0.94295    0.000
 4663.00    0.76162   0.92152    0.000
 4664.00    0.77284   0.89903    0.000
 4665.00    0.76850   0.87060    0.000
 4666.00    0.72930   0.84191    0.000
 4667.00    0.76007   0.82827    0.000
 4668.00    0.92673   0.83892    0.000
 4669.00    1.03557   0.86715    0.000
 4670.00    1.04650   0.89736    0.000
 4671.00    1.02464   0.91805    0.000
 4672.00    0.95415   0.92814    0.000
 4673.00    0.93100   0.93419    0.000
 4674.00    0.96958   0.94209    0.000
 4675.00    0.98099   0.95004    0.000
 4676.00    0.96117   0.95063    0.000
 4677.00    0.93482   0.94000    0.000
 4678.00    0.90185   0.92306    0.000
 4679.00    0.77620   0.90890    0.000
 4680.00    0.56772   0.90365    0.000
 4681.00    0.63373   0.90820    0.000
 4682.00    0.91592   0.91938    0.000
 4683.00    1.03744   0.93140    0.000
 4684.00    1.04766   0.93885    0.000
 4685.00    0.94953   0.94023    0.000
 4686.00    0.78559   0.93758    0.000
 4687.00    0.81272   0.93352    0.000
 4688.00    0.94115   0.92921    0.000
 4689.00    1.04888   0.92479    0.000
 4690.00    1.14707   0.92114    0.000
 4691.00    1.09750   0.92079    0.000
 4692.00    0.98939   0.92577    0.000
 4693.00    0.90115   0.93494    0.000
 4694.00    0.81962   0.94375    0.000
 4695.00    0.78138   0.94598    0.000
 4696.00    0.75543   0.93717    0.000
 4697.00    0.79975   0.91951    0.000
 4698.00    0.86053   0.90164    0.000
 4699.00    0.88698   0.89024    0.000
 4700.00    0.90697   0.88383    0.000
 4701.00    0.94507   0.87823    0.000
 4702.00    0.98580   0.87504    0.000
 4703.00    1.02081   0.87879    0.000
 4704.00    1.05522   0.88728    0.000
 4705.00    1.00608   0.89146    0.000
 4706.00    0.95121   0.88640    0.000
 4707.00    0.73801   0.87800    0.000
 4708.00    0.51942   0.87700    0.000
 4709.00    0.69536   0.88794    0.000
 4710.00    0.86924   0.90452    0.000
 4711.00    0.95654   0.91515    0.000
 4712.00    1.04279   0.91378    0.000
 4713.00    1.11300   0.90624    0.000
 4714.00    1.16270   0.90469    0.000
 4715.00    1.01132   0.91528    0.000
 4716.00    0.89313   0.93325    0.000
 4717.00    1.00960   0.94999    0.000
 4718.00    1.09178   0.96111    0.000
 4719.00    0.98742   0.96645    0.000
 4720.00    0.90374   0.96683    0.000
 4721.00    0.91017   0.96457    0.000
 4722.00    0.90063   0.96380    0.000
 4723.00    0.83379   0.96570    0.000
 4724.00    0.78125   0.96448    0.000
 4725.00    0.77176   0.95191    0.000
 4726.00    0.73278   0.92691    0.000
 4727.00    0.61826   0.89866    0.000
 4728.00    0.58540   0.87870    0.000
 4729.00    0.73260   0.87194    0.000
 4730.00    0.83968   0.87639    0.000
 4731.00    0.87010   0.88798    0.000
 4732.00    0.90318   0.90216    0.000
 4733.00    0.94071   0.91328    0.000
 4734.00    0.93530   0.91698    0.000
 4735.00    0.86710   0.91465    0.000
 4736.00    0.90345   0.91326    0.000
 4737.00    1.07420   0.91806    0.000
 4738.00    1.10135   0.92631    0.000
 4739.00    0.96585   0.93136    0.000
 4740.00    0.86999   0.93208    0.000
 4741.00    0.81372   0.93304    0.000
 4742.00    0.85151   0.93645    0.000
 4743.00    0.97218   0.94001    0.000
 4744.00    1.04822   0.94224    0.000
 4745.00    1.08963   0.94440    0.000
 4746.00    1.06587   0.94711    0.000
 4747.00    0.99761   0.94918    0.000
 4748.00    1.02954   0.94976    0.000
 4749.00    1.12140   0.94854    0.000
 4750.00    1.06750   0.94407    0.000
 4751.00    0.93751   0.93499    0.000
 4752.00    0.84552   0.92291    0.000
 4753.00    0.77075   0.91170    0.000
 4754.00    0.82696   0.90467    0.000
 4755.00    0.93418   0.90345    0.000
 4756.00    0.93361   0.90818    0.000
 4757.00    0.89733   0.91674    0.000
 4758.00    0.95841   0.92408    0.000
 4759.00    1.04656   0.92348    0.000
 4760.00    0.99265   0.91108    0.000
 4761.00    0.90624   0.89000    0.014
 4762.00    0.85145   0.86856    0.014
 4763.00    0.80244   0.85380    0.014
 4764.00    0.93911   0.84805    0.014
 4765.00    1.10194   0.85146    0.014
 4766.00    0.92573   0.86396    0.014
 4767.00    0.71514   0.88270    0.014
 4768.00    0.79370   0.90059    0.014
 4769.00    0.89096   0.91041    0.014
 4770.00    0.76837   0.91117    0.014
 4771.00    0.63985   0.90958    0.014
 4772.00    0.87350   0.91362    0.014
 4773.00    1.09260   0.92435    0.014
 4774.00    0.88977   0.93576    0.014
 4775.00    0.70122   0.94260    0.014
 4776.00    0.71905   0.94440    0.014
 4777.00    0.73786   0.94236    0.014
 4778.00    0.76580   0.93705    0.014
 4779.00    0.80422   0.92976    0.014
 4780.00    0.91437   0.92220    0.014
 4781.00    0.99922   0.91462    0.014
 4782.00    0.95002   0.90701    0.014
 4783.00    0.90767   0.90068    0.013
 4784.00    0.89446   0.89617    0.014
 4785.00    0.87473   0.89227    0.014
 4786.00    0.83212   0.88873    0.014
 4787.00    0.79200   0.88717    0.014
 4788.00    0.75926   0.88858    0.014
 4789.00    0.73870   0.89285    0.014
 4790.00    0.74881   0.90101    0.014
 4791.00    0.81993   0.91432    0.014
 4792.00    1.02334   0.93145    0.014
 4793.00    1.06078   0.94790    0.014
 4794.00    0.78583   0.95738    0.014
 4795.00    0.71322   0.95509    0.014
 4796.00    0.97312   0.94155    0.014
 4797.00    1.07848   0.92296    0.014
 4798.00    0.96114   0.90804    0.014
 4799.00    0.88585   0.90368    0.014
 4800.00    0.86385   0.91064    0.014
 4801.00    0.88499   0.92189    0.014
 4802.00    0.95431   0.92725    0.014
 4803.00    0.96589   0.92189    0.014
 4804.00    0.92060   0.90991    0.014
 4805.00    0.95677   0.89920    0.014
 4806.00    1.06370   0.89419    0.014
 4807.00    1.02878   0.89441    0.014
 4808.00    0.88529   0.89769    0.014
 4809.00    0.88506   0.90216    0.014
 4810.00    0.98118   0.90606    0.014
 4811.00    0.92929   0.90872    0.014
 4812.00    0.79016   0.91153    0.014
 4813.00    0.85262   0.91618    0.014
 4814.00    1.01866   0.92280    0.014
 4815.00    0.94137   0.93029    0.014
 4816.00    0.75574   0.93745    0.014
 4817.00    0.74384   0.94320    0.023
 4818.00    0.79840   0.94602    0.114
 4819.00    0.76309   0.94321   -1.000
 4820.00    0.69857   0.93143   -1.000
 4821.00    0.77154   0.91010   -1.000
 4822.00    0.88194   0.88585   -1.000
 4823.00    0.88442   0.87066   -1.000
 4824.00    0.86278   0.87204   -1.000
 4825.00    0.73196   0.88510   -1.000
 4826.00    0.58169   0.89720   -1.000
 4827.00    0.61447   0.90065   -1.000
 4828.00    0.67220   0.89721   -1.000
 4829.00    0.86065   0.89136    0.031
 4830.00    1.06181   0.88553    0.015
 4831.00    1.01125   0.88153    0.014
 4832.00    0.94543   0.88158    0.015
 4833.00    0.92649   0.88563    0.014
 4834.00    0.90904   0.89010    0.014
 4835.00    0.93790   0.89114    0.014
 4836.00    0.96529   0.88757    0.014
 4837.00    0.95448   0.87994    0.014
 4838.00    0.94377   0.87008    0.014
 4839.00    0.93446   0.86149    0.014
 4840.00    0.91915   0.85722    0.014
 4841.00    0.84969   0.85704    0.014
 4842.00    0.81779   0.85907    0.014
 4843.00    1.03509   0.86264    0.014
 4844.00    1.17903   0.86634    0.014
 4845.00    0.94441   0.86529    0.014
 4846.00    0.75846   0.85546    0.014
 4847.00    0.77507   0.84063    0.014
 4848.00    0.81852   0.82994    0.000
 4849.00    0.95438   0.82795    0.000
 4850.00    0.99929   0.82975    0.000
 4851.00    0.78043   0.82558    0.000
 4852.00    0.62092   0.80902    0.000
 4853.00    0.60830   0.78171    0.000
 4854.00    0.58807   0.75199    0.000
 4855.00    0.55164   0.72854    0.000
 4856.00    0.57512   0.71135    0.000
 4857.00    0.70963   0.68899    0.000
 4858.00    0.83450   0.65024    0.000
 4859.00    0.94376   0.60038    0.000
 4860.00    0.98239   0.56156    0.000
 4861.00    0.92073   0.55461    0.000
 4862.00    0.85725   0.58186    0.000
 4863.00    0.79149   0.62774    0.000
 4864.00    0.77461   0.67395    0.000
 4865.00    0.81155   0.71186    0.000
 4866.00    0.80773   0.74051    0.000
 4867.00    0.76431   0.75862    0.000
 4868.00    0.70764   0.76341    0.000
 4869.00    0.63961   0.75522    0.000
 4870.00    0.66383   0.74182    0.000
 4871.00    0.75763   0.73584    0.000
 4872.00    0.80621   0.74479    0.000
 4873.00    0.82480   0.76424    0.000
 4874.00    0.77058   0.78369    0.000
 4875.00    0.67408   0.79838    0.014
 4876.00    0.73295   0.81160    0.014
 4877.00    0.87040   0.82696    0.013
 4878.00    0.95272   0.84233    0.013
 4879.00    1.01090   0.85154    0.013
 4880.00    0.89984   0.85078    0.013
 4881.00    0.72516   0.84209    0.013
 4882.00    0.74686   0.83079    0.013
 4883.00    0.83118   0.82003    0.013
 4884.00    0.80749   0.81065    0.013
 4885.00    0.75500   0.80480    0.013
 4886.00    0.76540   0.80406    0.013
 4887.00    0.78951   0.80484    0.013
 4888.00    0.71310   0.80079    0.013
 4889.00    0.61927   0.79188    0.013
 4890.00    0.76671   0.78822    0.013
 4891.00    0.94592   0.80159    0.013
 4892.00    0.99450   0.83338    0.013
 4893.00    1.03095   0.87191    0.013
 4894.00    0.93300   0.90248    0.014
 4895.00    0.82744   0.91832    0.014
 4896.00    0.91729   0.92003    0.014
 4897.00    1.00984   0.91085    0.014
 4898.00    0.91048   0.89604    0.014
 4899.00    0.81419   0.88204    0.014
 4900.00    0.79092   0.87325    0.013
 4901.00    0.76837   0.86986    0.013
 4902.00    0.75521   0.87032    0.013
 4903.00    0.74193   0.87531    0.013
 4904.00    0.72766   0.88567    0.013
 4905.00    0.72001   0.89641    0.013
 4906.00    0.75497   0.89802    0.013
 4907.00    0.78583   0.88533    0.013
 4908.00    0.79607   0.86308    0.013
 4909.00    0.81674   0.84269    0.013
 4910.00    0.87988   0.83448    0.013
 4911.00    0.93062   0.84163    0.013
 4912.00    0.93953   0.85927    0.013
 4913.00    0.93965   0.87827    0.013
 4914.00    0.91473   0.88988    0.014
 4915.00    0.91924   0.88690    0.014
 4916.00    0.99535   0.86489    0.013
 4917.00    1.00169   0.82694    0.013
 4918.00    0.86161   0.78610    0.013
 4919.00    0.73693   0.75908    0.013
 4920.00    0.64036   0.75443    0.013
 4921.00    0.58357   0.76685    0.013
 4922.00    0.59021   0.78450    0.013
 4923.00    0.64470   0.80119    0.013
 4924.00    0.76617   0.81945    0.013
 4925.00    0.75891   0.84281    0.013
 4926.00    0.59313   0.86849    0.013
 4927.00    0.53680   0.88985    0.013
 4928.00    0.59929   0.90298    0.013
 4929.00    0.66077   0.90686    0.013
 4930.00    0.72128   0.89985    0.013
 4931.00    0.70705   0.88219    0.013
 4932.00    0.62969   0.86043    0.013
 4933.00    0.66655   0.84426    0.013
 4934.00    0.78833   0.83793    0.013
 4935.00    0.86227   0.83537    0.013
 4936.00    0.90498   0.82715    0.013
 4937.00    0.89248   0.81437    0.013
 4938.00    0.84841   0.80960    0.013
 4939.00    0.82505   0.82218    0.013
 4940.00    0.81198   0.84800    0.000
 4941.00    0.75038   0.87449    0.000
 4942.00    0.66789   0.89149    0.000
 4943.00    0.78302   0.89692    0.000
 4944.00    0.97111   0.89481    0.000
 4945.00    0.97887   0.89116    0.000
 4946.00    0.93023   0.89105    0.000
 4947.00    0.96098   0.89565    0.000
 4948.00    1.01246   0.90183    0.000
 4949.00    0.88871   0.90570    0.000
 4950.00    0.72765   0.90551    0.000
 4951.00    0.72394   0.90124    0.000
 4952.00    0.74674   0.89340    0.000
 4953.00    0.77218   0.88133    0.000
 4954.00    0.79797   0.86186    0.000
 4955.00    0.70964   0.83417    0.000
 4956.00    0.61120   0.80760    0.000
 4957.00    0.72390   0.79843    0.000
 4958.00    0.84774   0.81453    0.000
 4959.00    0.88656   0.84561    0.000
 4960.00    0.92378   0.87258    0.000
 4961.00    0.96249   0.88509    0.000
 4962.00    1.00398   0.88468    0.000
 4963.00    1.10592   0.87574    0.000
 4964.00    1.18094   0.86192    0.000
 4965.00    0.92556   0.84790    0.000
 4966.00    0.69338   0.83878    0.000
 4967.00    0.65545   0.83651    0.000
 4968.00    0.62588   0.83946    0.000
 4969.00    0.64858   0.84595    0.000
 4970.00    0.69800   0.85533    0.000
 4971.00    0.87844   0.86648    0.000
 4972.00    1.00498   0.87717    0.000
 4973.00    0.91690   0.88460    0.000
 4974.00    0.84637   0.88661    0.000
 4975.00    0.83390   0.88201    0.000
 4976.00    0.82849   0.87100    0.000
 4977.00    0.84282   0.85574    0.000
 4978.00    0.84310   0.83819    0.000
 4979.00    0.80977   0.81777    0.000
 4980.00    0.79661   0.79322    0.000
 4981.00    0.82508   0.76742    0.000
 4982.00    0.84923   0.74907    0.000
 4983.00    0.86559   0.74717    0.000
 4984.00    0.82879   0.76350    0.000
 4985.00    0.70844   0.79084    0.000
 4986.00    0.68616   0.81807    0.000
 4987.00    0.79916   0.83617    0.000
 4988.00    0.84846   0.84152    0.000
 4989.00    0.82041   0.83752    0.000
 4990.00    0.81878   0.83141    0.000
 4991.00    0.84541   0.82812    0.000
 4992.00    0.80543   0.82881    0.000
 4993.00    0.70257   0.83283    0.000
 4994.00    0.65516   0.83875    0.000
 4995.00    0.65390   0.84404    0.000
 4996.00    0.71548   0.84413    0.000
 4997.00    0.82310   0.83529    0.000
 4998.00    0.91429   0.81891    0.000
 4999.00    0.99491   0.80074    0.000
 5000.00    0.88918   0.78739    0.000
 5001.00    0.67855   0.78169    0.000
 5002.00    0.67077   0.77968    0.000
 5003.00    0.76237   0.77460    0.000
 5004.00    0.86327   0.76522    0.000
 5005.00    0.96810   0.75898    0.000
 5006.00    0.92521   0.76491    0.000
 5007.00    0.82877   0.78269    0.000
 5008.00    0.90309   0.80089    0.000
 5009.00    1.02980   0.80661    0.000
 5010.00    0.91813   0.79582    0.000
 5011.00    0.74560   0.77492    0.000
 5012.00    0.72773   0.75471    0.000
 5013.00    0.74199   0.74392    0.000
 5014.00    0.81141   0.74387    0.000
 5015.00    0.88986   0.74789    0.000
 5016.00    0.83343   0.74920    0.000
 5017.00    0.76044   0.74814    0.000
 5018.00    0.75979   0.75013    0.000
 5019.00    0.76525   0.75777    0.000
 5020.00    0.83827   0.76778    0.000
 5021.00    0.91459   0.77697    0.000
 5022.00    0.86077   0.78628    0.000
 5023.00    0.80542   0.79652    0.000
 5024.00    0.77954   0.80408    0.000
 5025.00    0.75146   0.80467    0.000
 5026.00    0.67937   0.80037    0.000
 5027.00    0.62009   0.79815    0.000
 5028.00    0.71045   0.80265    0.000
 5029.00    0.79310   0.81334    0.012
 5030.00    0.81339   0.82651    0.012
 5031.00    0.82342   0.83825    0.012
 5032.00    0.77124   0.84400    0.013
 5033.00    0.74538   0.83884    0.013
 5034.00    0.84533   0.82325    0.013
 5035.00    0.90261   0.80473    0.013
 5036.00    0.79371   0.78958    0.013
 5037.00    0.70057   0.77599    0.013
 5038.00    0.65854   0.75779    0.013
 5039.00    0.62465   0.73631    0.012
 5040.00    0.61305   0.72437    0.012
 5041.00    0.61718   0.73403    0.012
 5042.00    0.65829   0.76449    0.013
 5043.00    0.68785   0.80285    0.012
 5044.00    0.69396   0.83326    0.012
 5045.00    0.73546   0.84609    0.012
 5046.00    0.83959   0.84006    0.012
 5047.00    0.91874   0.82067    0.012
 5048.00    0.95921   0.79808    0.013
 5049.00    0.93757   0.78214    0.012
 5050.00    0.83152   0.77762    0.012
 5051.00    0.75178   0.78403    0.012
 5052.00    0.70355   0.79786    0.012
 5053.00    0.67520   0.81405    0.012
 5054.00    0.66783   0.82753    0.012
 5055.00    0.73740   0.83618    0.012
 5056.00    0.87859   0.84177    0.012
 5057.00    0.87002   0.84709    0.012
 5058.00    0.73853   0.85318    0.012
 5059.00    0.72038   0.85898    0.012
 5060.00    0.78409   0.86177    0.012
 5061.00    0.81120   0.85749    0.012
 5062.00    0.81510   0.84318    0.012
 5063.00    0.78959   0.82198    0.012
 5064.00    0.74780   0.80256    0.013
 5065.00    0.77397   0.79169    0.013
 5066.00    0.83292   0.78966    0.013
 5067.00    0.82875   0.79256    0.012
 5068.00    0.79830   0.79681    0.012
 5069.00    0.81262   0.79995    0.012
 5070.00    0.84288   0.79991    0.012
 5071.00    0.70145   0.79698    0.013
 5072.00    0.50838   0.79413    0.013
 5073.00    0.49082   0.79396    0.013
 5074.00    0.51710   0.79579    0.013
 5075.00    0.60790   0.79611    0.013
 5076.00    0.71178   0.79059    0.013
 5077.00    0.65541   0.77626    0.013
 5078.00    0.57356   0.75600    0.013
 5079.00    0.73467   0.73933    0.013
 5080.00    0.92452   0.73497    0.013
 5081.00    0.79131   0.74313    0.012
 5082.00    0.63212   0.75731    0.012
 5083.00    0.63018   0.77198    0.012
 5084.00    0.63532   0.78498    0.012
 5085.00    0.68353   0.79503    0.012
 5086.00    0.72974   0.80135    0.012
 5087.00    0.64994   0.80526    0.012
 5088.00    0.57817   0.80905    0.012
 5089.00    0.65577   0.81397    0.012
 5090.00    0.72920   0.82007    0.012
 5091.00    0.75615   0.82678    0.012
 5092.00    0.78954   0.83200    0.012
 5093.00    0.87314   0.83178    0.012
 5094.00    0.93179   0.82264    0.012
 5095.00    0.84339   0.80442    0.013
 5096.00    0.77869   0.78102    0.013
 5097.00    0.82458   0.75964    0.013
 5098.00    0.85003   0.74884    0.013
 5099.00    0.79752   0.75306    0.012
 5100.00    0.75213   0.76869    0.012
 5101.00    0.72933   0.78606    0.012
 5102.00    0.69481   0.79655    0.012
 5103.00    0.62869   0.79793    0.012
 5104.00    0.61862   0.79262    0.012
 5105.00    0.73817   0.78359    0.012
 5106.00    0.81005   0.77366    0.012
 5107.00    0.78656   0.76555    0.012
 5108.00    0.76802   0.76179    0.012
 5109.00    0.75813   0.76444    0.012
 5110.00    0.74373   0.77310    0.012
 5111.00    0.72247   0.78524    0.012
 5112.00    0.74075   0.79736    0.012
 5113.00    0.81202   0.80656    0.012
 5114.00    0.87901   0.81316    0.012
 5115.00    0.94096   0.81912    0.012
 5116.00    0.96198   0.82428    0.013
 5117.00    0.94042   0.82615    0.013
 5118.00    0.89500   0.82195    0.013
 5119.00    0.82770   0.81086    0.012
 5120.00    0.80559   0.79446    0.012
 5121.00    0.82006   0.77527    0.012
 5122.00    0.81598   0.75708    0.012
 5123.00    0.79869   0.74413    0.012
 5124.00    0.81521   0.73869    0.012
 5125.00    0.85285   0.73917    0.012
 5126.00    0.77849   0.74137    0.012
 5127.00    0.64300   0.74275    0.012
 5128.00    0.59921   0.74468    0.012
 5129.00    0.59893   0.74954    0.012
 5130.00    0.58855   0.75725    0.012
 5131.00    0.57403   0.76571    0.012
 5132.00    0.59418   0.77344    0.012
 5133.00    0.62646   0.78004    0.012
 5134.00    0.69464   0.78335    0.012
 5135.00    0.77340   0.78019    0.012
 5136.00    0.74221   0.76977    0.012
 5137.00    0.68416   0.75632    0.012
 5138.00    0.63867   0.74734    0.012
 5139.00    0.59567   0.74521    0.012
 5140.00    0.69281   0.74596    0.012
 5141.00    0.81155   0.74668    0.012
 5142.00    0.80782   0.74748    0.012
 5143.00    0.79015   0.74916    0.012
 5144.00    0.70084   0.75058    0.012
 5145.00    0.60607   0.74933    0.012
 5146.00    0.61321   0.74670    0.012
 5147.00    0.62455   0.74660    0.012
 5148.00    0.63699   0.74899    0.012
 5149.00    0.64952   0.75015    0.012
 5150.00    0.66571   0.74742    0.012
 5151.00    0.67748   0.74164    0.012
 5152.00    0.61286   0.73707    0.012
 5153.00    0.55801   0.73851    0.012
 5154.00    0.60716   0.74795    0.012
 5155.00    0.65784   0.76363    0.012
 5156.00    0.71997   0.78023    0.012
 5157.00    0.75775   0.79211    0.012
 5158.00    0.65605   0.79700    0.012
 5159.00    0.57793   0.79508    0.012
 5160.00    0.60721   0.78771    0.012
 5161.00    0.61396   0.77677    0.012
 5162.00    0.53666   0.76201    0.012
 5163.00    0.51316   0.74023    0.012
 5164.00    0.65753   0.70787    0.012
 5165.00    0.75000   0.66693    0.012
 5166.00    0.70503   0.62928    0.012
 5167.00    0.68880   0.60937    0.012
 5168.00    0.73788   0.61057    0.013
 5169.00    0.73853   0.62052    0.013
 5170.00    0.64377   0.62447    0.013
 5171.00    0.57851   0.62289    0.013
 5172.00    0.56386   0.63034    0.012
 5173.00    0.56570   0.65710    0.012
 5174.00    0.59234   0.69676    0.013
 5175.00    0.61545   0.73325    0.013
 5176.00    0.63390   0.75615    0.012
 5177.00    0.66274   0.76504    0.012
 5178.00    0.70366   0.76264    0.012
 5179.00    0.67660   0.74865    0.012
 5180.00    0.57978   0.72102    0.012
 5181.00    0.58081   0.68262    0.012
 5182.00    0.67038   0.64715    0.012
 5183.00    0.73456   0.63279    0.012
 5184.00    0.77849   0.64730    0.012
 5185.00    0.73504   0.68101    0.012
 5186.00    0.63030   0.71463    0.012
 5187.00    0.63033   0.73612    0.012
 5188.00    0.69484   0.74439    0.012
 5189.00    0.69382   0.74084    0.012
 5190.00    0.65756   0.72852    0.000
 5191.00    0.61783   0.71449    0.000
 5192.00    0.57648   0.70648    0.000
 5193.00    0.68990   0.70728    0.000
 5194.00    0.86560   0.71364    0.000
 5195.00    0.92505   0.72135    0.000
 5196.00    0.94461   0.73046    0.000
 5197.00    0.77522   0.74220    0.000
 5198.00    0.55125   0.75421    0.000
 5199.00    0.58254   0.76250    0.000
 5200.00    0.67480   0.76403    0.000
 5201.00    0.75001   0.75739    0.000
 5202.00    0.82194   0.74217    0.000
 5203.00    0.71284   0.72042    0.000
 5204.00    0.57668   0.69814    0.000
 5205.00    0.61217   0.68183    0.000
 5206.00    0.66646   0.67447    0.000
 5207.00    0.72033   0.67638    0.000
 5208.00    0.77418   0.68668    0.000
 5209.00    0.73093   0.70471    0.000
 5210.00    0.68405   0.72848    0.000
 5211.00    0.63642   0.75132    0.012
 5212.00    0.59585   0.76515    0.012
 5213.00    0.81210   0.76568    0.012
 5214.00    1.01384   0.75626    0.012
 5215.00    0.98041   0.74668    0.012
 5216.00    0.95071   0.74631    0.012
 5217.00    0.95906   0.75726    0.012
 5218.00    0.96100   0.77374    0.012
 5219.00    0.91632   0.78785    0.012
 5220.00    0.85164   0.79403    0.012
 5221.00    0.67550   0.78963    0.012
 5222.00    0.54553   0.77376    0.012
 5223.00    0.62087   0.74704    0.012
 5224.00    0.67188   0.71398    0.012
 5225.00    0.63399   0.68552    0.012
 5226.00    0.64502   0.67526    0.012
 5227.00    0.80580   0.68800    0.012
 5228.00    0.91018   0.71549    0.012
 5229.00    0.86779   0.74185    0.012
 5230.00    0.83481   0.75355    0.012
 5231.00    0.82287   0.74925    0.012
 5232.00    0.83851   0.73798    0.012
 5233.00    0.90764   0.73088    0.012
 5234.00    0.91932   0.73509    0.012
 5235.00    0.83389   0.74917    0.012
 5236.00    0.75150   0.76599    0.012
 5237.00    0.67360   0.77919    0.012
 5238.00    0.67072   0.78658    0.012
 5239.00    0.76552   0.78968    0.012
 5240.00    0.85401   0.79042    0.012
 5241.00    0.93525   0.79060    0.012
 5242.00    1.02026   0.79165    0.012
 5243.00    1.10908   0.79242    0.012
 5244.00    1.06818   0.78907    0.012
 5245.00    0.91158   0.77924    0.012
 5246.00    0.82923   0.76557    0.012
 5247.00    0.80526   0.75304    0.012
 5248.00    0.81205   0.74474    0.012
 5249.00    0.84012   0.74152    0.012
 5250.00    0.78047   0.74287    0.012
 5251.00    0.66766   0.74718    0.012
 5252.00    0.69260   0.75124    0.012
 5253.00    0.79045   0.75315    0.012
 5254.00    0.78964   0.75643    0.012
 5255.00    0.74353   0.76578    0.012
 5256.00    0.71208   0.78053    0.012
 5257.00    0.68642   0.79351    0.012
 5258.00    0.64319   0.79585    0.012
 5259.00    0.59403   0.78322    0.012
 5260.00    0.68583   0.75723    0.012
 5261.00    0.81754   0.72367    0.012
 5262.00    0.82491   0.68984    0.012
 5263.00    0.80326   0.66251    0.012
 5264.00    0.82092   0.64675    0.012
 5265.00    0.84595   0.64372    0.012
 5266.00    0.72487   0.64691    0.012
 5267.00    0.58262   0.64664    0.012
 5268.00    0.72787   0.64204    0.012
 5269.00    0.90336   0.64255    0.012
 5270.00    0.92594   0.65596    0.012
 5271.00    0.93811   0.67857    0.012
 5272.00    0.82366   0.69843    0.012
 5273.00    0.70497   0.70823    0.013
 5274.00    0.73503   0.71375    0.012
 5275.00    0.76229   0.72509    0.012
 5276.00    0.69493   0.74375    0.012
 5277.00    0.63738   0.76216    0.012
 5278.00    0.72918   0.77063    0.012
 5279.00    0.80821   0.76590    0.012
 5280.00    0.76254   0.75274    0.012
 5281.00    0.73118   0.73874    0.012
 5282.00    0.80058   0.73129    0.012
 5283.00    0.85003   0.73640    0.012
 5284.00    0.79133   0.75417    0.012
 5285.00    0.72641   0.77763    0.012
 5286.00    0.63443   0.79736    0.012
 5287.00    0.59459   0.80847    0.012
 5288.00    0.74136   0.81287    0.012
 5289.00    0.87138   0.81427    0.012
 5290.00    0.95113   0.81351    0.012
 5291.00    0.99196   0.80970    0.012
 5292.00    0.93327   0.80285    0.012
 5293.00    0.88210   0.79282    0.012
 5294.00    0.84750   0.77800    0.012
 5295.00    0.81264   0.75788    0.012
 5296.00    0.77727   0.73744    0.012
 5297.00    0.75549   0.72558    0.012
 5298.00    0.75630   0.72653    0.012
 5299.00    0.75426   0.73614    0.012
 5300.00    0.74802   0.74777    0.013
 5301.00    0.77256   0.75892    0.013
 5302.00    0.83659   0.77111    0.013
 5303.00    0.85697   0.78398    0.012
 5304.00    0.82799   0.79353    0.012
 5305.00    0.79111   0.79691    0.012
 5306.00    0.74637   0.79642    0.012
 5307.00    0.68341   0.79686    0.012
 5308.00    0.60443   0.80020    0.012
 5309.00    0.61518   0.80427    0.012
 5310.00    0.69547   0.80556    0.012
 5311.00    0.72060   0.80238    0.012
 5312.00    0.70815   0.79581    0.012
 5313.00    0.76171   0.78704    0.012
 5314.00    0.85469   0.77673    0.012
 5315.00    0.84123   0.76755    0.012
 5316.00    0.77232   0.76311    0.012
 5317.00    0.75141   0.76473    0.012
 5318.00    0.75217   0.77025    0.012
 5319.00    0.77999   0.77496    0.012
 5320.00    0.81833   0.77470    0.012
 5321.00    0.79480   0.76775    0.011
 5322.00    0.75081   0.75501    0.011
 5323.00    0.64178   0.74017    0.011
 5324.00    0.51471   0.72502    0.012
 5325.00    0.61008   0.70702    0.011
 5326.00    0.75618   0.68564    0.011
 5327.00    0.85843   0.66944    0.011
 5328.00    0.95268   0.66999    0.012
 5329.00    0.88083   0.68974    0.012
 5330.00    0.78569   0.71838    0.011
 5331.00    0.71126   0.74252    0.011
 5332.00    0.63891   0.75728    0.011
 5333.00    0.62280   0.76513    0.011
 5334.00    0.61028   0.76860    0.011
 5335.00    0.58359   0.76786    0.011
 5336.00    0.55674   0.76245    0.011
 5337.00    0.63858   0.75234    0.011
 5338.00    0.71920   0.73952    0.011
 5339.00    0.76521   0.72963    0.011
 5340.00    0.81144   0.72884    0.011
 5341.00    0.86096   0.73799    0.011
 5342.00    0.90862   0.75125    0.011
 5343.00    0.93881   0.76004    0.011
 5344.00    0.95549   0.76086    0.011
 5345.00    0.87998   0.75669    0.011
 5346.00    0.81178   0.75115    0.012
 5347.00    0.78220   0.74699    0.011
 5348.00    0.76114   0.74698    0.011
 5349.00    0.77632   0.75303    0.012
 5350.00    0.78901   0.76433    0.012
 5351.00    0.79297   0.77730    0.012
 5352.00    0.79153   0.78903    0.012
 5353.00    0.77416   0.79902    0.012
 5354.00    0.76664   0.80761    0.012
 5355.00    0.78389   0.81435    0.012
 5356.00    0.76221   0.81806    0.012
 5357.00    0.65626   0.81819    0.012
 5358.00    0.62273   0.81446    0.012
 5359.00    0.72521   0.80619    0.012
 5360.00    0.80429   0.79369    0.012
 5361.00    0.84496   0.77951    0.012
 5362.00    0.84719   0.76671    0.012
 5363.00    0.79412   0.75725    0.012
 5364.00    0.77038   0.75160    0.012
 5365.00    0.78376   0.74807    0.012
 5366.00    0.80212   0.74393    0.012
 5367.00    0.82606   0.73580    0.012
 5368.00    0.83421   0.72215   -2.000
 5369.00    0.82684   0.70767   -2.000
 5370.00    0.82864   0.70174   -2.000
 5371.00    0.83837   0.71112   -2.000
 5372.00    0.90917   0.73345   -2.000
 5373.00    1.02661   0.75900   -2.000
 5374.00    1.07838   0.77780   -2.000
 5375.00    1.08606   0.78628   -2.000
 5376.00    1.02025   0.78711   -2.000
 5377.00    0.91121   0.78389   -2.000
 5378.00    0.82452   0.77837   -2.000
 5379.00    0.74930   0.77150   -2.000
 5380.00    0.70222   0.76448   -2.000
 5381.00    0.66764   0.75934   -2.000
 5382.00    0.76972   0.75861   -2.000
 5383.00    0.92397   0.76274    0.012
 5384.00    0.86511   0.76924    0.012
 5385.00    0.73712   0.77427    0.011
 5386.00    0.68520   0.77447    0.011
 5387.00    0.65393   0.76902    0.011
 5388.00    0.66286   0.75986    0.011
 5389.00    0.68074   0.74997    0.011
 5390.00    0.69824   0.74179    0.011
 5391.00    0.71568   0.73642    0.011
 5392.00    0.71719   0.73307    0.011
 5393.00    0.71654   0.72938    0.011
 5394.00    0.69919   0.72267    0.011
 5395.00    0.68023   0.71362    0.011
 5396.00    0.72902   0.70771    0.011
 5397.00    0.78188   0.70965    0.011
 5398.00    0.82574   0.71859    0.011
 5399.00    0.86874   0.72893    0.011
 5400.00    0.80687   0.73431    0.011
 5401.00    0.74799   0.73064    0.011
 5402.00    0.76608   0.71735    0.011
 5403.00    0.78122   0.69849    0.011
 5404.00    0.75636   0.68254    0.011
 5405.00    0.72946   0.67734    0.011
 5406.00    0.68414   0.68284    0.011
 5407.00    0.63311   0.69194    0.011
 5408.00    0.54436   0.69894    0.012
 5409.00    0.49718   0.70507    0.012
 5410.00    0.66382   0.71431    0.011
 5411.00    0.79614   0.72669    0.011
 5412.00    0.78601   0.73792    0.011
 5413.00    0.76210   0.74516    0.011
 5414.00    0.69089   0.75033    0.011
 5415.00    0.64192   0.75592    0.011
 5416.00    0.65727   0.76104    0.011
 5417.00    0.68463   0.76275    0.011
 5418.00    0.74166   0.75997    0.011
 5419.00    0.77342   0.75499    0.012
 5420.00    0.75139   0.75043    0.012
 5421.00    0.72978   0.74591    0.012
 5422.00    0.70893   0.74076    0.011
 5423.00    0.70353   0.73761    0.011
 5424.00    0.72311   0.73984    0.011
 5425.00    0.75829   0.74627    0.011
 5426.00    0.81560   0.74956    0.011
 5427.00    0.84836   0.74314    0.011
 5428.00    0.85050   0.73016    0.011
 5429.00    0.82251   0.71958    0.011
 5430.00    0.76140   0.71545    0.011
 5431.00    0.71727   0.71446    0.011
 5432.00    0.68959   0.71165    0.011
 5433.00    0.72523   0.70786    0.011
 5434.00    0.81501   0.70885    0.011
 5435.00    0.81342   0.71840    0.011
 5436.00    0.74305   0.73538    0.011
 5437.00    0.67090   0.75480    0.011
 5438.00    0.59757   0.77147    0.011
 5439.00    0.62722   0.78221    0.011
 5440.00    0.71652   0.78635    0.011
 5441.00    0.72512   0.78408    0.011
 5442.00    0.69297   0.77459    0.011
 5443.00    0.68033   0.75729    0.011
 5444.00    0.67622   0.73483    0.011
 5445.00    0.71059   0.71523    0.011
 5446.00    0.75938   0.70799    0.010
 5447.00    0.72706   0.71601    0.011
 5448.00    0.66893   0.73320    0.011
 5449.00    0.67932   0.74922    0.011
 5450.00    0.70792   0.75659    0.011
 5451.00    0.75211   0.75338    0.011
 5452.00    0.79970   0.74124    0.011
 5453.00    0.78677   0.72462    0.011
 5454.00    0.76339   0.71168    0.011
 5455.00    0.76441   0.71032    0.011
 5456.00    0.76863   0.72164    0.011
 5457.00    0.68514   0.73845    0.011
 5458.00    0.59356   0.75039    0.011
 5459.00    0.63650   0.75165    0.011
 5460.00    0.68701   0.74343    0.011
 5461.00    0.71822   0.73163    0.011
 5462.00    0.74868   0.72353    0.011
 5463.00    0.74467   0.72292    0.011
 5464.00    0.74415   0.72838    0.011
 5465.00    0.82549   0.73579    0.011
 5466.00    0.89370   0.74169    0.011
 5467.00    0.79322   0.74477    0.011
 5468.00    0.70244   0.74491    0.011
 5469.00    0.69551   0.74236    0.011
 5470.00    0.67732   0.73763    0.011
 5471.00    0.58697   0.73103    0.011
 5472.00    0.54576   0.72265    0.011
 5473.00    0.75083   0.71203    0.011
 5474.00    0.90343   0.69927    0.011
 5475.00    0.84305   0.68801    0.011
 5476.00    0.77861   0.68399    0.011
 5477.00    0.70052   0.68943    0.011
 5478.00    0.66544   0.69964   -2.000
 5479.00    0.75256   0.70735   -2.000
 5480.00    0.80171   0.71075   -2.000
 5481.00    0.75867   0.71422   -2.000
 5482.00    0.77633   0.72174   -2.000
 5483.00    0.92115   0.73178   -2.000
 5484.00    1.04720   0.73870   -2.000
 5485.00    1.13910   0.73867   -2.000
 5486.00    1.41931   0.73342   -2.000
 5487.00    1.99929   0.72822   -2.000
 5488.00    2.30955   0.72687   -2.000
 5489.00    2.24302   0.72936   -2.000
 5490.00    1.98262   0.73276   -2.000
 5491.00    1.48384   0.73447   -2.000
 5492.00    0.97371   0.73431   -2.000
 5493.00    0.45127   0.73326   -2.000
 5494.00    0.28017   0.73181   -2.000
 5495.00    0.44492   0.72998   -2.000
 5496.00    0.57307   0.72885   -2.000
 5497.00    0.67038   0.72970   -2.000
 5498.00    0.71752   0.73115   -2.000
 5499.00    0.72743   0.72984   -2.000
 5500.00    0.73747   0.72455   -2.000
 5501.00    0.74758   0.71823   -2.000
 5502.00    0.75178   0.71436    0.010
 5503.00    0.75260   0.71286    0.010
 5504.00    0.75481   0.71126    0.011
 5505.00    0.75771   0.70937    0.011
 5506.00    0.78809   0.70929    0.011
 5507.00    0.83028   0.71159    0.011
 5508.00    0.78552   0.71397    0.011
 5509.00    0.70874   0.71322    0.011
 5510.00    0.76029   0.70878    0.011
 5511.00    0.85188   0.70358    0.011
 5512.00    0.83189   0.70132    0.011
 5513.00    0.78285   0.70405    0.011
 5514.00    0.80733   0.71125    0.011
 5515.00    0.84741   0.72083    0.011
 5516.00    0.82144   0.73090    0.011
 5517.00    0.78438   0.73964    0.011
 5518.00    0.73996   0.74543    0.011
 5519.00    0.69461   0.74760    0.011
 5520.00    0.66697   0.74690    0.011
 5521.00    0.64089   0.74457    0.011
 5522.00    0.66893   0.74079    0.011
 5523.00    0.69979   0.73431    0.010
 5524.00    0.64966   0.72414    0.010
 5525.00    0.59920   0.71128    0.010
 5526.00    0.63831   0.69945    0.010
 5527.00    0.67733   0.69401    0.010
 5528.00    0.71412   0.69788    0.010
 5529.00    0.74921   0.70849    0.010
 5530.00    0.76354   0.71930    0.010
 5531.00    0.76991   0.72460    0.010
 5532.00    0.70990   0.72337    0.010
 5533.00    0.66419   0.71896    0.010
 5534.00    0.70754   0.71609    0.010
 5535.00    0.75766   0.71736    0.010
 5536.00    0.84087   0.72234    0.010
 5537.00    0.89270   0.72904    0.010
 5538.00    0.81994   0.73546    0.010
 5539.00    0.76121   0.74002    0.010
 5540.00    0.74876   0.74108    0.010
 5541.00    0.73493   0.73791    0.010
 5542.00    0.71725   0.73224    0.010
 5543.00    0.71166   0.72728    0.010
 5544.00    0.73493   0.72554    0.010
 5545.00    0.73615   0.72793    0.010
 5546.00    0.69191   0.73376    0.010
 5547.00    0.64234   0.74114    0.010
 5548.00    0.58322   0.74751    0.010
 5549.00    0.59492   0.75064    0.010
 5550.00    0.71769   0.74963    0.010
 5551.00    0.78338   0.74516    0.010
 5552.00    0.77048   0.73904    0.010
 5553.00    0.73700   0.73370    0.010
 5554.00    0.67856   0.73091    0.010
 5555.00    0.66321   0.73061    0.010
 5556.00    0.69389   0.73147    0.010
 5557.00    0.73419   0.73216    0.010
 5558.00    0.78355   0.73183    0.010
 5559.00    0.77157   0.73000    0.010
 5560.00    0.70864   0.72638    0.010
 5561.00    0.67767   0.72153    0.010
 5562.00    0.67010   0.71683    0.010
 5563.00    0.69011   0.71311    0.010
 5564.00    0.72785   0.71036    0.010
 5565.00    0.71093   0.70828    0.010
 5566.00    0.66330   0.70683    0.010
 5567.00    0.65864   0.70614    0.010
 5568.00    0.67500   0.70626    0.010
 5569.00    0.73017   0.70691    0.010
 5570.00    0.80174   0.70714    0.010
 5571.00    0.77825   0.70681    0.010
 5572.00    0.72038   0.70734    0.010
 5573.00    0.71925   0.70998    0.010
 5574.00    0.73547   0.71430    0.010
 5575.00    0.70680   0.71872    0.010
 5576.00    0.66670   0.72218    0.010
 5577.00    0.68869   0.72480    0.010
 5578.00    0.72355   0.72655    0.010
 5579.00    0.76119   0.72687    0.010
 5580.00    0.79928   0.72556    0.010
 5581.00    0.80848   0.72288    0.010
 5582.00    0.81414   0.71850    0.010
 5583.00    0.76056   0.71097    0.010
 5584.00    0.70199   0.69865    0.010
 5585.00    0.69221   0.68247    0.010
 5586.00    0.68478   0.66694    0.010
 5587.00    0.61846   0.65758    0.010
 5588.00    0.55407   0.65736    0.010
 5589.00    0.65615   0.66468    0.010
 5590.00    0.75630   0.67467    0.010
 5591.00    0.81815   0.68280    0.010
 5592.00    0.87060   0.68783    0.010
 5593.00    0.81397   0.69201    0.010
 5594.00    0.75988   0.69743    0.010
 5595.00    0.72620   0.70254    0.010
 5596.00    0.69832   0.70362    0.010
 5597.00    0.70547   0.69916    0.010
 5598.00    0.71440   0.69132    0.011
 5599.00    0.73178   0.68348    0.011
 5600.00    0.72953   0.67817    0.011
 5601.00    0.65104   0.67774    0.010
 5602.00    0.58159   0.68448    0.010
 5603.00    0.54139   0.69813    0.010
 5604.00    0.53041   0.71471    0.010
 5605.00    0.59947   0.72886    0.010
 5606.00    0.64600   0.73740    0.010
 5607.00    0.63964   0.74075    0.010
 5608.00    0.63947   0.74128    0.010
 5609.00    0.65185   0.74096    0.010
 5610.00    0.66213   0.73960    0.010
 5611.00    0.66873   0.73459    0.010
 5612.00    0.66657   0.72298    0.010
 5613.00    0.65088   0.70549    0.010
 5614.00    0.65261   0.68851    0.010
 5615.00    0.67796   0.67976    0.010
 5616.00    0.70277   0.68169    0.010
 5617.00    0.72694   0.68997    0.010
 5618.00    0.76645   0.69860    0.010
 5619.00    0.82213   0.70465    0.010
 5620.00    0.79971   0.70749    0.010
 5621.00    0.70473   0.70604    0.009
 5622.00    0.64161   0.69969    0.009
 5623.00    0.60460   0.69114    0.009
 5624.00    0.57633   0.68577    0.009
 5625.00    0.55436   0.68736    0.009
 5626.00    0.56262   0.69528    0.009
 5627.00    0.59001   0.70606    0.009
 5628.00    0.65996   0.71629    0.009
 5629.00    0.75346   0.72379    0.009
 5630.00    0.76435   0.72725    0.009
 5631.00    0.73550   0.72634    0.009
 5632.00    0.70243   0.72186    0.009
 5633.00    0.66762   0.71532    0.009
 5634.00    0.67605   0.70815    0.009
 5635.00    0.69984   0.70158    0.009
 5636.00    0.72615   0.69674    0.010
 5637.00    0.75322   0.69421    0.010
 5638.00    0.72953   0.69333    0.010
 5639.00    0.69318   0.69283    0.010
 5640.00    0.62318   0.69242    0.010
 5641.00    0.54638   0.69308    0.010
 5642.00    0.55637   0.69563    0.010
 5643.00    0.58010   0.69969    0.010
 5644.00    0.64185   0.70411    0.010
 5645.00    0.70807   0.70791    0.010
 5646.00    0.68561   0.71029    0.010
 5647.00    0.65606   0.71093    0.010
 5648.00    0.66257   0.71048    0.010
 5649.00    0.67068   0.71036    0.009
 5650.00    0.65805   0.71113    0.010
 5651.00    0.64509   0.71144    0.010
 5652.00    0.62751   0.70914    0.010
 5653.00    0.61056   0.70345    0.009
 5654.00    0.60521   0.69521    0.009
 5655.00    0.60397   0.68521    0.009
 5656.00    0.64838   0.67430    0.010
 5657.00    0.68281   0.66522    0.010
 5658.00    0.63985   0.66173    0.010
 5659.00    0.60420   0.66450    0.009
 5660.00    0.61141   0.67014    0.009
 5661.00    0.62197   0.67544    0.009
 5662.00    0.64811   0.68061    0.009
 5663.00    0.68141   0.68667    0.009
 5664.00    0.74195   0.69222    0.009
 5665.00    0.77321   0.69464    0.009
 5666.00    0.71150   0.69369    0.009
 5667.00    0.66011   0.69200    0.009
 5668.00    0.63645   0.69261    0.009
 5669.00    0.63353   0.69675    0.009
 5670.00    0.67848   0.70365    0.009
 5671.00    0.70910   0.71139    0.009
 5672.00    0.71111   0.71774    0.009
 5673.00    0.72932   0.72122    0.009
 5674.00    0.77570   0.72206    0.009
 5675.00    0.80882   0.72154    0.010
 5676.00    0.82175   0.72039    0.010
 5677.00    0.78952   0.71821    0.010
 5678.00    0.69689   0.71437    0.010
 5679.00    0.63085   0.70861    0.010
 5680.00    0.59614   0.70124    0.010
 5681.00    0.58163   0.69365    0.010
 5682.00    0.58809   0.68805    0.010
 5683.00    0.59083   0.68566    0.010
 5684.00    0.59015   0.68526    0.009
 5685.00    0.61151   0.68465    0.010
 5686.00    0.65067   0.68357    0.010
 5687.00    0.66450   0.68406    0.010
 5688.00    0.66034   0.68810    0.010
 5689.00    0.67991   0.69537    0.010
 5690.00    0.71429   0.70354    0.010
 5691.00    0.68004   0.71008    0.010
 5692.00    0.60840   0.71372    0.010
 5693.00    0.58682   0.71463    0.010
 5694.00    0.58895   0.71363    0.009
 5695.00    0.65014   0.71118    0.010
 5696.00    0.73545   0.70710    0.010
 5697.00    0.73250   0.70138    0.010
 5698.00    0.69876   0.69469    0.010
 5699.00    0.65374   0.68827    0.010
 5700.00    0.60541   0.68358    0.009
 5701.00    0.64815   0.68176    0.009
 5702.00    0.71308   0.68245    0.009
 5703.00    0.76633   0.68309    0.009
 5704.00    0.81727   0.68064    0.009
 5705.00    0.74875   0.67408    0.009
 5706.00    0.66186   0.66502    0.009
 5707.00    0.64656   0.65646    0.009
 5708.00    0.63936   0.65103    0.009
 5709.00    0.71138   0.65025    0.009
 5710.00    0.78940   0.65452    0.009
 5711.00    0.72250   0.66316    0.009
 5712.00    0.64971   0.67447    0.009
 5713.00    0.64017   0.68599    0.009
 5714.00    0.63190   0.69527    0.009
 5715.00    0.65569   0.70140    0.009
 5716.00    0.68106   0.70511    0.009
 5717.00    0.73366   0.70781    0.009
 5718.00    0.78254   0.71072    0.009
 5719.00    0.79218   0.71430    0.009
 5720.00    0.79614   0.71812    0.009
 5721.00    0.75763   0.72135    0.009
 5722.00    0.71780   0.72300    0.009
 5723.00    0.67042   0.72223    0.009
 5724.00    0.62005   0.71894    0.009
 5725.00    0.55615   0.71423    0.009
 5726.00    0.51296   0.71004    0.009
 5727.00    0.54681   0.70776    0.009
 5728.00    0.59063   0.70688    0.009
 5729.00    0.66547   0.70580    0.009
 5730.00    0.71913   0.70428    0.009
 5731.00    0.71679   0.70401    0.009
 5732.00    0.70634   0.70636    0.009
 5733.00    0.67750   0.71034    0.009
 5734.00    0.68197   0.71350    0.009
 5735.00    0.75190   0.71437    0.009
 5736.00    0.79058   0.71329    0.009
 5737.00    0.77573   0.71153    0.009
 5738.00    0.76708   0.70999    0.009
 5739.00    0.76775   0.70874    0.009
 5740.00    0.75006   0.70759    0.000
 5741.00    0.70815   0.70681    0.000
 5742.00    0.68719   0.70712    0.000
 5743.00    0.69056   0.70859    0.000
 5744.00    0.67501   0.70987    0.000
 5745.00    0.64009   0.70899    0.000
 5746.00    0.62864   0.70575    0.000
 5747.00    0.63838   0.70227    0.000
 5748.00    0.65944   0.70063    0.000
 5749.00    0.68951   0.70003    0.000
 5750.00    0.70707   0.69744    0.000
 5751.00    0.71585   0.69145    0.000
 5752.00    0.74607   0.68468    0.000
 5753.00    0.78945   0.68190    0.000
 5754.00    0.77165   0.68572    0.000
 5755.00    0.72103   0.69422    0.000
 5756.00    0.70195   0.70245    0.000
 5757.00    0.69757   0.70601    0.000
 5758.00    0.68841   0.70337    0.000
 5759.00    0.67733   0.69598    0.000
 5760.00    0.65101   0.68739    0.000
 5761.00    0.61946   0.68196    0.000
 5762.00    0.62588   0.68280    0.000
 5763.00    0.64324   0.68990    0.000
 5764.00    0.65095   0.69995    0.000
 5765.00    0.65636   0.70863    0.000
 5766.00    0.65669   0.71354    0.000
 5767.00    0.65604   0.71462    0.000
 5768.00    0.67111   0.71295    0.000
 5769.00    0.68853   0.70970    0.000
 5770.00    0.69246   0.70581    0.000
 5771.00    0.69493   0.70214    0.000
 5772.00    0.74242   0.69948    0.000
 5773.00    0.79314   0.69841    0.000
 5774.00    0.74561   0.69893    0.000
 5775.00    0.69446   0.70022    0.000
 5776.00    0.70252   0.70034    0.000
 5777.00    0.71161   0.69686    0.000
 5778.00    0.74907   0.68860    0.000
 5779.00    0.78538   0.67694    0.000
 5780.00    0.80312   0.66544    0.000
 5781.00    0.81521   0.65743    0.000
 5782.00    0.77019   0.65385    0.000
 5783.00    0.72877   0.65375    0.000
 5784.00    0.71352   0.65654    0.000
 5785.00    0.70086   0.66242    0.000
 5786.00    0.70256   0.67071    0.000
 5787.00    0.70169   0.67874    0.000
 5788.00    0.68944   0.68382    0.000
 5789.00    0.68532   0.68551    0.000
 5790.00    0.71080   0.68575    0.000
 5791.00    0.74646   0.68718   -2.000
 5792.00    0.81322   0.69074   -2.000
 5793.00    0.86437   0.69490   -2.000
 5794.00    0.87496   0.69728   -2.000
 5795.00    0.88181   0.69669   -2.000
 5796.00    0.88033   0.69454   -2.000
 5797.00    0.85896   0.69404   -2.000
 5798.00    0.79915   0.69734   -2.000
 5799.00    0.76588   0.70338   -2.000
 5800.00    0.77737   0.70862   -2.000
 5801.00    0.79453   0.70994   -2.000
 5802.00    0.82007   0.70667   -2.000
 5803.00    0.83027   0.70067   -2.000
 5804.00    0.82054   0.69509   -2.000
 5805.00    0.78267   0.69231   -2.000
 5806.00    0.71258   0.69266   -2.000
 5807.00    0.65940   0.69505   -2.000
 5808.00    0.62332   0.69810   -2.000
 5809.00    0.62116   0.70087   -2.000
 5810.00    0.64923   0.70267   -2.000
 5811.00    0.64574   0.70277    0.000
 5812.00    0.61748   0.70065    0.000
 5813.00    0.58679   0.69665    0.000
 5814.00    0.55442   0.69238    0.000
 5815.00    0.56082   0.69029    0.000
 5816.00    0.59066   0.69211    0.000
 5817.00    0.61957   0.69741    0.000
 5818.00    0.64797   0.70363    0.000
 5819.00    0.68100   0.70808    0.000
 5820.00    0.71614   0.70973    0.000
 5821.00    0.74466   0.70923    0.000
 5822.00    0.77056   0.70805    0.000
 5823.00    0.78917   0.70735    0.000
 5824.00    0.80533   0.70741    0.000
 5825.00    0.81415   0.70786    0.000
 5826.00    0.82091   0.70832    0.000
 5827.00    0.84806   0.70873    0.000
 5828.00    0.87997   0.70904    0.000
 5829.00    0.87100   0.70898    0.000
 5830.00    0.85439   0.70821    0.000
 5831.00    0.82037   0.70660    0.000
 5832.00    0.78384   0.70436    0.000
 5833.00    0.75250   0.70207    0.000
 5834.00    0.72169   0.70044    0.000
 5835.00    0.67171   0.69980    0.000
 5836.00    0.62042   0.69991    0.000
 5837.00    0.65446   0.70059    0.000
 5838.00    0.69133   0.70215    0.000
 5839.00    0.75540   0.70477    0.000
 5840.00    0.81612   0.70764    0.000
 5841.00    0.77052   0.70943    0.000
 5842.00    0.72606   0.70914    0.000
 5843.00    0.69908   0.70653    0.000
 5844.00    0.67518   0.70215    0.000
 5845.00    0.68123   0.69716    0.000
 5846.00    0.68991   0.69292    0.000
 5847.00    0.71707   0.69027    0.000
 5848.00    0.73335   0.68880    0.000
 5849.00    0.69088   0.68691    0.000
 5850.00    0.64997   0.68304    0.000
 5851.00    0.61584   0.67726    0.000
 5852.00    0.59871   0.67123    0.000
 5853.00    0.64225   0.66645    0.000
 5854.00    0.67507   0.66266    0.000
 5855.00    0.67577   0.65862    0.000
 5856.00    0.66961   0.65465    0.000
 5857.00    0.64594   0.65308    0.000
 5858.00    0.62320   0.65575    0.000
 5859.00    0.60253   0.66154    0.000
 5860.00    0.60187   0.66766    0.000
 5861.00    0.63932   0.67227    0.000
 5862.00    0.67553   0.67527    0.000
 5863.00    0.70966   0.67735    0.000
 5864.00    0.71949   0.67864    0.000
 5865.00    0.69391   0.67933    0.000
 5866.00    0.68468   0.68037    0.000
 5867.00    0.69639   0.68281    0.000
 5868.00    0.71072   0.68633    0.000
 5869.00    0.72800   0.68937    0.000
 5870.00    0.71867   0.69068    0.000
 5871.00    0.68284   0.69027    0.000
 5872.00    0.65870   0.68910    0.000
 5873.00    0.64483   0.68800    0.000
 5874.00    0.63047   0.68691    0.000
 5875.00    0.61573   0.68513    0.000
 5876.00    0.63017   0.68219    0.000
 5877.00    0.66445   0.67829    0.000
 5878.00    0.69386   0.67420    0.000
 5879.00    0.72037   0.67087    0.000
 5880.00    0.70474   0.66885    0.000
 5881.00    0.66721   0.66781    0.000
 5882.00    0.63774   0.66673    0.000
 5883.00    0.61190   0.66454    0.000
 5884.00    0.55479   0.65959    0.000
 5885.00    0.48555   0.64860    0.000
 5886.00    0.47776   0.62769    0.000
 5887.00    0.49023   0.59714    0.000
 5888.00    0.52240   0.56491    0.000
 5889.00    0.56002   0.54335    0.000
 5890.00    0.57910   0.54048    0.000
 5891.00    0.59397   0.55215    0.000
 5892.00    0.58783   0.56484    0.000
 5893.00    0.57786   0.56828    0.000
 5894.00    0.58770   0.56358    0.000
 5895.00    0.60030   0.56050    0.000
 5896.00    0.61166   0.56868    0.000
 5897.00    0.62290   0.58868    0.000
 5898.00    0.66086   0.61292    0.000
 5899.00    0.70053   0.63401    0.000
 5900.00    0.74263   0.64887    0.000
 5901.00    0.78460   0.65775    0.009
 5902.00    0.75716   0.66221    0.009
 5903.00    0.72955   0.66387    0.009
 5904.00    0.69733   0.66417    0.009
 5905.00    0.66564   0.66452    0.009
 5906.00    0.64153   0.66582    0.009
 5907.00    0.62114   0.66793    0.009
 5908.00    0.63545   0.67007    0.009
 5909.00    0.64161   0.67134    0.009
 5910.00    0.59250   0.67079    0.009
 5911.00    0.55283   0.66763    0.009
 5912.00    0.56287   0.66210    0.009
 5913.00    0.57172   0.65609    0.009
 5914.00    0.57550   0.65241    0.009
 5915.00    0.58341   0.65263    0.009
 5916.00    0.60570   0.65614    0.009
 5917.00    0.61883   0.66109    0.008
 5918.00    0.60501   0.66542    0.008
 5919.00    0.58588   0.66805    0.008
 5920.00    0.55346   0.66901    0.008
 5921.00    0.54087   0.66906    0.008
 5922.00    0.57108   0.66936    0.008
 5923.00    0.59327   0.67043    0.008
 5924.00    0.60043   0.67156    0.008
 5925.00    0.61109   0.67144    0.008
 5926.00    0.62748   0.66903    0.008
 5927.00    0.64287   0.66466    0.008
 5928.00    0.65683   0.66030    0.008
 5929.00    0.64117   0.65815    0.008
 5930.00    0.58813   0.65896    0.008
 5931.00    0.56068   0.66127    0.008
 5932.00    0.56169   0.66280    0.008
 5933.00    0.59146   0.66302    0.008
 5934.00    0.64946   0.66332    0.009
 5935.00    0.67380   0.66515    0.009
 5936.00    0.66902   0.66818    0.009
 5937.00    0.65325   0.67049    0.008
 5938.00    0.62912   0.67061    0.009
 5939.00    0.59734   0.66844    0.009
 5940.00    0.56045   0.66533    0.009
 5941.00    0.53178   0.66343    0.009
 5942.00    0.50792   0.66396    0.008
 5943.00    0.52814   0.66625    0.008
 5944.00    0.57091   0.66836    0.009
 5945.00    0.59400   0.66834    0.009
 5946.00    0.60836   0.66557    0.009
 5947.00    0.57475   0.66147    0.009
 5948.00    0.52288   0.65820    0.009
 5949.00    0.51575   0.65688    0.008
 5950.00    0.52309   0.65686    0.008
 5951.00    0.51695   0.65689    0.008
 5952.00    0.50717   0.65679    0.008
 5953.00    0.49350   0.65707    0.008
 5954.00    0.47898   0.65753    0.008
 5955.00    0.49872   0.65746    0.008
 5956.00    0.52453   0.65725    0.008
 5957.00    0.53543   0.65825    0.008
 5958.00    0.54433   0.66128    0.008
 5959.00    0.53593   0.66576    0.008
 5960.00    0.52587   0.67010    0.008
 5961.00    0.55017   0.67291    0.008
 5962.00    0.57653   0.67353    0.008
 5963.00    0.63169   0.67240    0.008
 5964.00    0.68732   0.67064    0.008
 5965.00    0.70048   0.66951    0.008
 5966.00    0.71362   0.66998    0.008
 5967.00    0.72623   0.67197    0.008
 5968.00    0.73544   0.67460    0.008
 5969.00    0.69893   0.67692    0.008
 5970.00    0.66575   0.67817    0.008
 5971.00    0.66241   0.67773    0.008
 5972.00    0.65881   0.67513    0.008
 5973.00    0.65342   0.67037    0.008
 5974.00    0.64546   0.66416    0.008
 5975.00    0.62429   0.65816    0.008
 5976.00    0.60299   0.65440    0.008
 5977.00    0.58117   0.65408    0.008
 5978.00    0.55961   0.65654    0.008
 5979.00    0.53891   0.65955    0.008
 5980.00    0.52717   0.66025    0.008
 5981.00    0.54127   0.65702    0.008
 5982.00    0.54580   0.65102    0.008
 5983.00    0.52673   0.64529    0.008
 5984.00    0.51601   0.64282    0.008
 5985.00    0.52299   0.64452    0.008
 5986.00    0.54121   0.64873    0.008
 5987.00    0.58015   0.65315    0.008
 5988.00    0.60450   0.65625    0.008
 5989.00    0.60529   0.65774    0.008
 5990.00    0.60697   0.65850    0.008
 5991.00    0.60992   0.65981    0.008
 5992.00    0.63057   0.66213    0.008
 5993.00    0.67326   0.66413    0.008
 5994.00    0.69399   0.66391    0.008
 5995.00    0.69064   0.66107    0.008
 5996.00    0.66566   0.65699    0.008
 5997.00    0.61975   0.65383    0.008
 5998.00    0.59226   0.65281    0.008
 5999.00    0.58050   0.65320    0.008
 6000.00    0.57701   0.65349    0.008
 6001.00    0.57972   0.65298    0.008
 6002.00    0.59063   0.65180    0.008
 6003.00    0.60694   0.65046    0.008
 6004.00    0.63836   0.64845    0.008
 6005.00    0.67850   0.64500    0.008
 6006.00    0.68041   0.64121    0.008
 6007.00    0.66306   0.63931    0.008
 6008.00    0.64673   0.64081    0.008
 6009.00    0.63084   0.64472    0.008
 6010.00    0.61661   0.64781    0.008
 6011.00    0.60299   0.64807    0.008
 6012.00    0.61946   0.64610    0.008
 6013.00    0.64549   0.64381    0.008
 6014.00    0.61573   0.64255    0.008
 6015.00    0.57118   0.64210    0.008
 6016.00    0.58325   0.64153    0.008
 6017.00    0.60759   0.64037    0.008
 6018.00    0.66210   0.63849    0.008
 6019.00    0.72179   0.63634    0.008
 6020.00    0.67616   0.63511    0.008
 6021.00    0.61676   0.63559    0.008
 6022.00    0.60707   0.63781    0.008
 6023.00    0.60195   0.64110    0.008
 6024.00    0.60574   0.64481    0.008
 6025.00    0.61003   0.64854    0.008
 6026.00    0.59280   0.65187    0.008
 6027.00    0.57528   0.65493    0.008
 6028.00    0.57579   0.65783    0.008
 6029.00    0.57686   0.66039    0.008
 6030.00    0.59074   0.66253    0.008
 6031.00    0.60355   0.66432    0.008
 6032.00    0.60259   0.66569    0.008
 6033.00    0.60107   0.66650    0.008
 6034.00    0.59470   0.66680    0.008
 6035.00    0.58829   0.66680    0.008
 6036.00    0.58170   0.66644    0.008
 6037.00    0.57737   0.66545    0.008
 6038.00    0.58441   0.66374    0.008
 6039.00    0.59118   0.66160    0.008
 6040.00    0.59693   0.66007    0.008
 6041.00    0.60012   0.65989    0.008
 6042.00    0.59472   0.66119    0.008
 6043.00    0.58903   0.66339    0.008
 6044.00    0.58253   0.66550    0.008
 6045.00    0.57505   0.66699    0.008
 6046.00    0.56523   0.66791    0.008
 6047.00    0.55537   0.66844    0.008
 6048.00    0.54543   0.66847    0.008
 6049.00    0.55840   0.66773    0.008
 6050.00    0.61305   0.66578    0.008
 6051.00    0.65425   0.66248    0.008
 6052.00    0.67410   0.65829    0.008
 6053.00    0.68130   0.65415    0.008
 6054.00    0.67085   0.65114    0.008
 6055.00    0.66162   0.64987    0.008
 6056.00    0.65388   0.65071    0.008
 6057.00    0.63658   0.65330    0.008
 6058.00    0.60894   0.65638    0.008
 6059.00    0.58872   0.65836    0.008
 6060.00    0.57557   0.65796    0.008
 6061.00    0.57607   0.65472    0.008
 6062.00    0.58803   0.64925    0.008
 6063.00    0.59127   0.64377    0.008
 6064.00    0.58804   0.64094    0.008
 6065.00    0.59866   0.64262    0.008
 6066.00    0.61830   0.64868    0.008
 6067.00    0.63106   0.65639    0.008
 6068.00    0.63990   0.66287    0.008
 6069.00    0.68196   0.66699    0.008
 6070.00    0.74048   0.66907    0.008
 6071.00    0.76012   0.66993    0.008
 6072.00    0.76308   0.66995    0.008
 6073.00    0.69387   0.66883    0.008
 6074.00    0.59815   0.66608    0.008
 6075.00    0.52362   0.66143    0.008
 6076.00    0.45568   0.65555    0.008
 6077.00    0.47225   0.64981    0.008
 6078.00    0.51075   0.64535    0.008
 6079.00    0.55979   0.64268    0.008
 6080.00    0.61107   0.64121    0.008
 6081.00    0.63564   0.64003    0.008
 6082.00    0.65574   0.63919    0.008
 6083.00    0.63913   0.63905    0.008
 6084.00    0.61790   0.63964    0.008
 6085.00    0.60096   0.64083    0.008
 6086.00    0.58439   0.64201    0.008
 6087.00    0.60892   0.64230    0.008
 6088.00    0.63557   0.64129    0.008
 6089.00    0.63549   0.63938    0.008
 6090.00    0.63499   0.63786    0.008
 6091.00    0.63961   0.63802    0.008
 6092.00    0.64265   0.64007    0.008
 6093.00    0.61198   0.64328    0.008
 6094.00    0.58390   0.64655    0.008
 6095.00    0.58704   0.64886    0.008
 6096.00    0.59004   0.64983    0.008
 6097.00    0.59175   0.64956    0.008
 6098.00    0.59184   0.64719    0.008
 6099.00    0.58188   0.64113    0.008
 6100.00    0.57232   0.63172    0.008
 6101.00    0.56474   0.62222    0.008
 6102.00    0.55544   0.61717    0.008
 6103.00    0.53935   0.61955    0.008
 6104.00    0.54073   0.62724    0.008
 6105.00    0.59961   0.63541    0.008
 6106.00    0.64790   0.64132    0.008
 6107.00    0.66677   0.64448    0.008
 6108.00    0.67418   0.64589    0.008
 6109.00    0.65433   0.64649    0.008
 6110.00    0.62372   0.64655    0.008
 6111.00    0.57098   0.64667    0.008
 6112.00    0.53936   0.64732    0.008
 6113.00    0.54554   0.64795    0.008
 6114.00    0.55790   0.64791    0.008
 6115.00    0.57994   0.64685    0.008
 6116.00    0.58926   0.64478    0.008
 6117.00    0.58111   0.64154    0.008
 6118.00    0.58327   0.63606    0.008
 6119.00    0.59791   0.62822    0.008
 6120.00    0.60542   0.62051    0.008
 6121.00    0.60533   0.61613    0.008
 6122.00    0.59975   0.61712    0.008
 6123.00    0.58899   0.62267    0.008
 6124.00    0.57134   0.62880    0.008
 6125.00    0.54797   0.63243    0.008
 6126.00    0.56695   0.63345    0.008
 6127.00    0.61686   0.63344    0.008
 6128.00    0.67214   0.63426    0.008
 6129.00    0.73087   0.63662    0.008
 6130.00    0.74690   0.63941    0.008
 6131.00    0.73899   0.64036    0.008
 6132.00    0.70246   0.63710    0.008
 6133.00    0.65196   0.62803    0.008
 6134.00    0.61514   0.61409    0.008
 6135.00    0.58409   0.59995    0.008
 6136.00    0.57321   0.59154    0.008
 6137.00    0.56960   0.59227    0.008
 6138.00    0.58610   0.60012    0.008
 6139.00    0.60874   0.60940    0.008
 6140.00    0.59266   0.61635    0.008
 6141.00    0.56675   0.62134    0.008
 6142.00    0.56135   0.62661    0.008
 6143.00    0.56019   0.63230    0.008
 6144.00    0.56758   0.63617    0.008
 6145.00    0.57637   0.63644    0.008
 6146.00    0.56936   0.63325    0.008
 6147.00    0.56042   0.62854    0.008
 6148.00    0.54972   0.62501    0.008
 6149.00    0.53889   0.62426    0.008
 6150.00    0.54985   0.62597    0.008
 6151.00    0.56185   0.62822    0.008
 6152.00    0.55188   0.62913    0.008
 6153.00    0.54218   0.62807    0.008
 6154.00    0.56658   0.62569    0.008
 6155.00    0.59140   0.62333    0.008
 6156.00    0.62452   0.62092    0.008
 6157.00    0.65525   0.61655    0.008
 6158.00    0.65842   0.60816    0.008
 6159.00    0.66058   0.59539    0.008
 6160.00    0.65474   0.58104    0.008
 6161.00    0.64844   0.57058    0.008
 6162.00    0.63934   0.56854    0.008
 6163.00    0.62810   0.57482    0.008
 6164.00    0.60662   0.58519    0.008
 6165.00    0.58433   0.59393    0.008
 6166.00    0.55887   0.59739    0.008
 6167.00    0.53168   0.59570    0.008
 6168.00    0.49891   0.59191    0.008
 6169.00    0.47864   0.59037    0.008
 6170.00    0.49250   0.59365    0.008
 6171.00    0.50598   0.60025    0.008
 6172.00    0.51859   0.60666    0.008
 6173.00    0.52770   0.61088    0.008
 6174.00    0.52972   0.61294    0.008
 6175.00    0.53405   0.61392    0.008
 6176.00    0.54249   0.61498    0.008
 6177.00    0.55019   0.61673    0.008
 6178.00    0.55677   0.61897    0.008
 6179.00    0.56976   0.62119    0.008
 6180.00    0.59143   0.62334    0.008
 6181.00    0.59927   0.62518    0.008
 6182.00    0.59060   0.62585    0.008
 6183.00    0.58557   0.62471    0.008
 6184.00    0.58436   0.62176    0.008
 6185.00    0.58736   0.61734    0.008
 6186.00    0.59426   0.61224    0.008
 6187.00    0.58749   0.60688    0.008
 6188.00    0.56954   0.60100    0.008
 6189.00    0.53292   0.59528    0.008
 6190.00    0.48286   0.59145    0.008
 6191.00    0.47471   0.59185    0.008
 6192.00    0.49305   0.59746    0.008
 6193.00    0.59226   0.60582    0.008
 6194.00    0.73614   0.61354    0.008
 6195.00    0.97033   0.61843    0.008
 6196.00    1.24789   0.61945   -2.000
 6197.00    1.51610   0.61718   -2.000
 6198.00    1.78044   0.61363   -2.000
 6199.00    1.72393   0.61144   -2.000
 6200.00    1.55371   0.61241   -2.000
 6201.00    1.10825   0.61607   -2.000
 6202.00    0.58041   0.62037   -2.000
 6203.00    0.32841   0.62364   -2.000
 6204.00    0.14491   0.62538   -2.000
 6205.00    0.17583   0.62600   -2.000
 6206.00    0.24991   0.62587   -2.000
 6207.00    0.37246   0.62494   -2.000
 6208.00    0.50266   0.62296    0.008
 6209.00    0.55418   0.61934    0.008
 6210.00    0.59649   0.61362    0.008
 6211.00    0.58034   0.60602    0.008
 6212.00    0.55956   0.59754    0.008
 6213.00    0.55123   0.59027    0.008
 6214.00    0.54345   0.58641    0.008
 6215.00    0.54997   0.58616    0.008
 6216.00    0.55651   0.58788    0.008
 6217.00    0.55676   0.58950    0.008
 6218.00    0.55737   0.58990    0.008
 6219.00    0.56450   0.59008    0.008
 6220.00    0.57243   0.59153    0.008
 6221.00    0.58919   0.59439    0.008
 6222.00    0.60197   0.59769    0.008
 6223.00    0.58398   0.60030    0.008
 6224.00    0.56337   0.60177    0.008
 6225.00    0.52743   0.60193    0.008
 6226.00    0.50193   0.59979    0.008
 6227.00    0.52482   0.59462    0.008
 6228.00    0.54691   0.58700    0.008
 6229.00    0.56603   0.57919    0.008
 6230.00    0.58212   0.57484    0.008
 6231.00    0.58865   0.57663    0.008
 6232.00    0.58645   0.58362    0.008
 6233.00    0.56083   0.59257    0.008
 6234.00    0.54001   0.59961    0.008
 6235.00    0.53026   0.60175    0.008
 6236.00    0.52525   0.59881    0.008
 6237.00    0.52969   0.59303    0.008
 6238.00    0.53920   0.58729    0.008
 6239.00    0.55750   0.58317    0.008
 6240.00    0.56361   0.58067    0.008
 6241.00    0.55117   0.57873    0.009
 6242.00    0.51990   0.57608    0.009
 6243.00    0.46346   0.57342    0.009
 6244.00    0.40997   0.57245    0.009
 6245.00    0.35994   0.57403    0.009
 6246.00    0.36192   0.57847    0.009
 6247.00    0.41784   0.58462    0.009
 6248.00    0.45240   0.58946    0.009
 6249.00    0.46743   0.59045    0.009
 6250.00    0.48697   0.58704    0.009
 6251.00    0.51016   0.58061    0.009
 6252.00    0.52499   0.57400    0.009
 6253.00    0.53390   0.56933    0.008
 6254.00    0.52838   0.56664    0.008
 6255.00    0.51390   0.56505    0.008
 6256.00    0.52117   0.56440    0.008
 6257.00    0.54027   0.56549    0.008
 6258.00    0.62021   0.56930    0.008
 6259.00    0.72889   0.57601    0.008
 6260.00    0.79328   0.58395    0.009
 6261.00    0.83962   0.59092    0.009
 6262.00    0.77883   0.59556    0.010
 6263.00    0.68076   0.59731    0.010
 6264.00    0.53178   0.59700    0.010
 6265.00    0.36788   0.59646    0.010
 6266.00    0.33547   0.59656    0.009
 6267.00    0.33500   0.59676    0.009
 6268.00    0.38675   0.59672    0.008
 6269.00    0.44874   0.59694    0.008
 6270.00    0.48415   0.59793    0.008
 6271.00    0.51551   0.59971    0.008
 6272.00    0.50509   0.60169    0.008
 6273.00    0.48996   0.60302    0.008
 6274.00    0.48477   0.60327    0.008
 6275.00    0.48032   0.60242    0.008
 6276.00    0.52086   0.60027    0.008
 6277.00    0.56320   0.59697    0.008
 6278.00    0.55327   0.59330    0.008
 6279.00    0.54320   0.59036    0.008
 6280.00    0.54309   0.58958    0.000
 6281.00    0.54464   0.59144    0.000
 6282.00    0.57427   0.59495    0.000
 6283.00    0.60446   0.59895    0.000
 6284.00    0.64068   0.60252    0.000
 6285.00    0.67097   0.60545    0.000
 6286.00    0.65706   0.60793    0.000
 6287.00    0.64098   0.60940    0.000
 6288.00    0.61252   0.60924    0.000
 6289.00    0.58873   0.60726    0.000
 6290.00    0.58609   0.60421    0.000
 6291.00    0.58141   0.60141    0.000
 6292.00    0.56918   0.59934    0.000
 6293.00    0.56379   0.59753    0.000
 6294.00    0.57964   0.59520    0.000
 6295.00    0.59447   0.59187    0.000
 6296.00    0.60665   0.58825    0.000
 6297.00    0.61650   0.58527    0.000
 6298.00    0.62111   0.58300    0.000
 6299.00    0.62304   0.58104    0.000
 6300.00    0.61971   0.57951    0.000
 6301.00    0.61155   0.57945    0.000
 6302.00    0.59513   0.58186    0.000
 6303.00    0.57365   0.58641    0.000
 6304.00    0.54457   0.59173    0.000
 6305.00    0.51943   0.59675    0.000
 6306.00    0.49946   0.60076    0.000
 6307.00    0.48626   0.60284    0.000
 6308.00    0.48090   0.60244    0.000
 6309.00    0.48152   0.60005    0.000
 6310.00    0.48825   0.59671    0.000
 6311.00    0.49498   0.59317    0.000
 6312.00    0.50171   0.58959    0.000
 6313.00    0.49373   0.58553    0.000
 6314.00    0.47407   0.58083    0.000
 6315.00    0.47094   0.57641    0.000
 6316.00    0.47938   0.57321    0.000
 6317.00    0.50297   0.57172    0.000
 6318.00    0.53587   0.57298    0.000
 6319.00    0.53658   0.57707    0.000
 6320.00    0.52007   0.58249    0.000
 6321.00    0.49352   0.58792    0.008
 6322.00    0.46230   0.59285    0.008
 6323.00    0.46530   0.59707    0.008
 6324.00    0.48201   0.60013    0.008
 6325.00    0.48561   0.60187    0.008
 6326.00    0.48475   0.60240    0.008
 6327.00    0.45752   0.60219    0.008
 6328.00    0.42271   0.60182    0.008
 6329.00    0.40020   0.60133    0.007
 6330.00    0.38062   0.60069    0.007
 6331.00    0.42752   0.59942    0.007
 6332.00    0.48714   0.59631    0.007
 6333.00    0.54064   0.59088    0.007
 6334.00    0.59323   0.58426    0.007
 6335.00    0.57954   0.57911    0.007
 6336.00    0.55866   0.57780    0.007
 6337.00    0.55073   0.58032    0.007
 6338.00    0.54371   0.58461    0.007
 6339.00    0.54843   0.58847    0.007
 6340.00    0.55357   0.59016    0.007
 6341.00    0.53058   0.58885    0.007
 6342.00    0.50793   0.58550    0.008
 6343.00    0.50069   0.58201    0.008
 6344.00    0.49399   0.58024    0.008
 6345.00    0.49599   0.58086    0.008
 6346.00    0.49808   0.58343    0.008
 6347.00    0.50104   0.58745    0.008
 6348.00    0.50446   0.59188    0.008
 6349.00    0.51119   0.59531    0.008
 6350.00    0.51452   0.59683    0.008
 6351.00    0.49899   0.59608    0.008
 6352.00    0.48591   0.59329    0.007
 6353.00    0.48369   0.58930    0.007
 6354.00    0.48244   0.58513    0.007
 6355.00    0.48476   0.58142    0.008
 6356.00    0.48002   0.57773    0.008
 6357.00    0.45375   0.57330    0.007
 6358.00    0.44230   0.56840    0.007
 6359.00    0.46920   0.56407    0.007
 6360.00    0.48488   0.56101    0.007
 6361.00    0.47559   0.55987    0.007
 6362.00    0.47225   0.56141    0.008
 6363.00    0.48043   0.56556    0.008
 6364.00    0.49551   0.57136    0.008
 6365.00    0.52224   0.57741    0.008
 6366.00    0.53901   0.58241    0.008
 6367.00    0.54109   0.58560    0.008
 6368.00    0.53710   0.58699    0.008
 6369.00    0.52522   0.58757    0.008
 6370.00    0.51306   0.58883    0.008
 6371.00    0.50057   0.59155    0.008
 6372.00    0.48866   0.59510    0.008
 6373.00    0.47732   0.59803    0.008
 6374.00    0.46069   0.59933    0.008
 6375.00    0.43938   0.59892    0.008
 6376.00    0.40643   0.59707    0.008
 6377.00    0.36438   0.59432    0.007
 6378.00    0.36205   0.59168    0.007
 6379.00    0.38708   0.59003    0.008
 6380.00    0.40729   0.58946    0.007
 6381.00    0.42457   0.58972    0.007
 6382.00    0.45567   0.59039    0.007
 6383.00    0.49406   0.59111    0.007
 6384.00    0.52131   0.59220    0.007
 6385.00    0.54347   0.59396    0.007
 6386.00    0.54024   0.59590    0.007
 6387.00    0.52702   0.59711    0.007
 6388.00    0.50816   0.59678    0.007
 6389.00    0.48741   0.59416    0.007
 6390.00    0.48203   0.58918    0.007
 6391.00    0.48098   0.58311    0.007
 6392.00    0.47238   0.57826    0.007
 6393.00    0.46203   0.57721    0.008
 6394.00    0.46068   0.58035    0.008
 6395.00    0.46102   0.58460    0.008
 6396.00    0.45934   0.58629    0.008
 6397.00    0.45737   0.58411    0.008
 6398.00    0.43512   0.57951    0.008
 6399.00    0.41077   0.57608    0.008
 6400.00    0.43230   0.57741    0.008
 6401.00    0.45691   0.58317    0.008
 6402.00    0.48864   0.58954    0.008
 6403.00    0.52061   0.59330    0.008
 6404.00    0.52275   0.59313    0.008
 6405.00    0.52403   0.58972    0.008
 6406.00    0.49884   0.58518    0.007
 6407.00    0.47440   0.58149    0.007
 6408.00    0.46115   0.57976    0.007
 6409.00    0.45187   0.57939    0.007
 6410.00    0.48094   0.57901    0.007
 6411.00    0.50522   0.57895    0.007
 6412.00    0.49610   0.57987    0.007
 6413.00    0.48552   0.58118    0.007
 6414.00    0.46701   0.58226    0.007
 6415.00    0.45784   0.58265    0.007
 6416.00    0.48897   0.58157    0.007
 6417.00    0.51295   0.57888    0.007
 6418.00    0.51149   0.57546    0.007
 6419.00    0.50995   0.57296    0.007
 6420.00    0.50819   0.57339    0.008
 6421.00    0.50869   0.57763    0.008
 6422.00    0.51498   0.58429    0.008
 6423.00    0.51312   0.59067    0.008
 6424.00    0.49338   0.59508    0.008
 6425.00    0.47506   0.59723    0.008
 6426.00    0.45941   0.59678    0.008
 6427.00    0.45358   0.59335    0.008
 6428.00    0.46403   0.58731    0.008
 6429.00    0.46583   0.58029    0.008
 6430.00    0.45508   0.57512    0.008
 6431.00    0.44200   0.57432    0.008
 6432.00    0.42596   0.57765    0.008
 6433.00    0.42377   0.58259    0.007
 6434.00    0.43719   0.58610    0.007
 6435.00    0.45221   0.58609    0.007
 6436.00    0.46882   0.58276    0.007
 6437.00    0.48279   0.57830    0.007
 6438.00    0.49444   0.57598    0.007
 6439.00    0.50913   0.57840    0.007
 6440.00    0.52616   0.58467    0.007
 6441.00    0.54009   0.59160    0.007
 6442.00    0.55192   0.59691    0.007
 6443.00    0.54132   0.59977    0.007
 6444.00    0.51738   0.59991    0.007
 6445.00    0.50380   0.59686    0.007
 6446.00    0.49560   0.59021    0.008
 6447.00    0.50588   0.58071    0.008
 6448.00    0.52448   0.57079    0.008
 6449.00    0.51578   0.56441    0.008
 6450.00    0.49652   0.56432    0.008
 6451.00    0.48828   0.56864    0.008
 6452.00    0.48366   0.57316    0.008
 6453.00    0.49866   0.57514    0.008
 6454.00    0.51906   0.57448    0.007
 6455.00    0.53745   0.57374    0.007
 6456.00    0.55537   0.57576    0.007
 6457.00    0.55022   0.58014    0.007
 6458.00    0.54090   0.58351    0.007
 6459.00    0.51382   0.58303    0.007
 6460.00    0.48426   0.57847    0.007
 6461.00    0.43333   0.57224    0.007
 6462.00    0.38027   0.56870    0.007
 6463.00    0.40706   0.57064    0.007
 6464.00    0.43891   0.57636    0.007
 6465.00    0.46494   0.58249    0.007
 6466.00    0.49062   0.58662    0.007
 6467.00    0.45980   0.58758    0.007
 6468.00    0.43048   0.58580    0.007
 6469.00    0.44292   0.58303    0.007
 6470.00    0.45682   0.58074    0.008
 6471.00    0.49125   0.57980    0.008
 6472.00    0.52095   0.58044    0.008
 6473.00    0.50681   0.58174    0.008
 6474.00    0.49365   0.58282    0.008
 6475.00    0.48720   0.58386    0.008
 6476.00    0.48577   0.58479    0.008
 6477.00    0.51066   0.58459    0.008
 6478.00    0.53245   0.58252    0.008
 6479.00    0.54112   0.57862    0.007
 6480.00    0.55120   0.57361    0.007
 6481.00    0.56626   0.56923    0.007
 6482.00    0.57752   0.56760    0.007
 6483.00    0.57763   0.56929    0.007
 6484.00    0.58662   0.57290    0.007
 6485.00    0.61778   0.57651    0.007
 6486.00    0.62610   0.57861    0.007
 6487.00    0.58518   0.57829    0.007
 6488.00    0.55002   0.57505    0.007
 6489.00    0.52563   0.56861    0.007
 6490.00    0.49829   0.55889    0.007
 6491.00    0.46612   0.54635    0.007
 6492.00    0.43064   0.53205    0.007
 6493.00    0.39040   0.51835    0.007
 6494.00    0.36585   0.50918    0.007
 6495.00    0.36108   0.50712    0.007
 6496.00    0.36093   0.51190    0.007
 6497.00    0.36591   0.52138    0.008
 6498.00    0.39240   0.53257    0.008
 6499.00    0.43996   0.54351    0.008
 6500.00    0.47900   0.55337    0.008
 6501.00    0.51067   0.56145    0.008
 6502.00    0.52279   0.56759    0.008
 6503.00    0.52003   0.57193    0.007
 6504.00    0.51124   0.57458    0.007
 6505.00    0.49839   0.57578    0.007
 6506.00    0.49834   0.57585    0.007
 6507.00    0.50577   0.57527    0.007
 6508.00    0.51622   0.57482    0.007
 6509.00    0.52819   0.57497    0.007
 6510.00    0.53150   0.57525    0.007
 6511.00    0.53097   0.57472    0.007
 6512.00    0.51710   0.57283    0.007
 6513.00    0.49815   0.56947    0.007
 6514.00    0.52067   0.56499    0.007
 6515.00    0.55656   0.56069    0.007
 6516.00    0.58106   0.55820    0.007
 6517.00    0.60248   0.55812    0.007
 6518.00    0.58652   0.56031    0.007
 6519.00    0.56228   0.56425    0.008
 6520.00    0.54036   0.56847    0.008
 6521.00    0.51883   0.57158    0.008
 6522.00    0.53601   0.57299    0.007
 6523.00    0.55840   0.57276    0.007
 6524.00    0.54439   0.57122    0.007
 6525.00    0.52692   0.56890    0.007
 6526.00    0.48581   0.56683    0.007
 6527.00    0.44331   0.56598    0.007
 6528.00    0.44517   0.56609    0.000
 6529.00    0.44812   0.56612    0.000
 6530.00    0.44755   0.56533    0.000
 6531.00    0.44635   0.56398    0.000
 6532.00    0.42945   0.56303    0.000
 6533.00    0.41439   0.56324    0.000
 6534.00    0.42390   0.56455    0.000
 6535.00    0.43396   0.56614    0.000
 6536.00    0.44888   0.56728    0.000
 6537.00    0.46585   0.56801    0.000
 6538.00    0.49620   0.56841    0.000
 6539.00    0.52450   0.56798    0.000
 6540.00    0.54235   0.56607    0.000
 6541.00    0.55814   0.56243    0.000
 6542.00    0.56550   0.55737    0.000
 6543.00    0.57702   0.55171    0.000
 6544.00    0.60276   0.54630    0.000
 6545.00    0.61966   0.54219    0.000
 6546.00    0.61108   0.54052    0.000
 6547.00    0.59554   0.54100    0.000
 6548.00    0.56289   0.54190    0.000
 6549.00    0.54333   0.54151    0.000
 6550.00    0.55151   0.53898    0.000
 6551.00    0.56042   0.53447    0.000
 6552.00    0.57067   0.52863    0.000
 6553.00    0.56744   0.52217    0.000
 6554.00    0.54252   0.51580    0.000
 6555.00    0.56751   0.50982    0.000
 6556.00    0.66299   0.50337    0.000
 6557.00    0.81215   0.49383    0.000
 6558.00    1.02803   0.47815    0.000
 6559.00    1.15912   0.45585    0.000
 6560.00    1.19735   0.43042    0.000
 6561.00    1.14743   0.40852    0.000
 6562.00    1.01235   0.39955    0.000
 6563.00    0.86549   0.40945    0.000
 6564.00    0.70861   0.43336    0.000
 6565.00    0.60470   0.46070    0.000
 6566.00    0.54055   0.48387    0.000
 6567.00    0.50528   0.49952    0.000
 6568.00    0.48904   0.50797    0.000
 6569.00    0.46791   0.51217    0.000
 6570.00    0.44395   0.51448    0.000
 6571.00    0.43086   0.51572    0.000
 6572.00    0.42324   0.51684    0.000
 6573.00    0.44076   0.51904    0.000
 6574.00    0.46923   0.52320    0.000
 6575.00    0.50378   0.52928    0.000
 6576.00    0.54060   0.53584    0.000
 6577.00    0.61140   0.54093    0.000
 6578.00    0.69297   0.54361    0.000
 6579.00    0.75805   0.54424    0.000
 6580.00    0.81877   0.54402    0.000
 6581.00    0.81565   0.54424    0.000
 6582.00    0.79874   0.54515    0.000
 6583.00    0.74311   0.54624    0.000
 6584.00    0.68084   0.54722    0.000
 6585.00    0.60390   0.54816    0.000
 6586.00    0.52507   0.54946    0.000
 6587.00    0.49474   0.55081    0.000
 6588.00    0.46885   0.55074    0.000
 6589.00    0.47333   0.54800    0.000
 6590.00    0.47947   0.54258    0.000
 6591.00    0.49284   0.53579    0.000
 6592.00    0.50613   0.53043    0.000
 6593.00    0.49757   0.52934    0.000
 6594.00    0.49013   0.53246    0.000
 6595.00    0.50802   0.53726    0.000
 6596.00    0.52506   0.54171    0.000
 6597.00    0.53132   0.54528    0.000
 6598.00    0.53741   0.54842    0.000
 6599.00    0.54207   0.55147    0.000
 6600.00    0.54240   0.55384    0.000
 6601.00    0.51526   0.55457    0.000
 6602.00    0.49069   0.55328    0.000
 6603.00    0.47890   0.55038    0.000
 6604.00    0.47561   0.54672    0.000
 6605.00    0.50663   0.54327    0.000
 6606.00    0.52533   0.54068    0.000
 6607.00    0.50276   0.53937    0.000
 6608.00    0.48865   0.53970    0.000
 6609.00    0.49848   0.54201    0.007
 6610.00    0.50706   0.54562    0.007
 6611.00    0.51262   0.54903    0.007
 6612.00    0.50614   0.55140    0.007
 6613.00    0.47451   0.55310    0.007
 6614.00    0.44678   0.55476    0.007
 6615.00    0.42609   0.55626    0.007
 6616.00    0.42727   0.55730    0.007
 6617.00    0.46311   0.55806    0.007
 6618.00    0.47991   0.55866    0.007
 6619.00    0.47021   0.55876    0.007
 6620.00    0.45961   0.55780    0.007
 6621.00    0.44792   0.55557    0.007
 6622.00    0.45434   0.55240    0.007
 6623.00    0.48032   0.54911    0.007
 6624.00    0.48305   0.54689    0.007
 6625.00    0.46362   0.54642    0.007
 6626.00    0.45316   0.54696    0.007
 6627.00    0.45024   0.54735    0.007
 6628.00    0.46417   0.54676    0.007
 6629.00    0.49058   0.54472    0.008
 6630.00    0.50232   0.54137    0.007
 6631.00    0.50455   0.53751    0.007
 6632.00    0.50127   0.53438    0.007
 6633.00    0.49485   0.53338    0.008
 6634.00    0.48194   0.53526    0.008
 6635.00    0.46580   0.53900    0.008
 6636.00    0.45752   0.54282    0.007
 6637.00    0.45259   0.54548    0.007
 6638.00    0.45897   0.54648    0.007
 6639.00    0.46949   0.54607    0.007
 6640.00    0.49604   0.54485    0.007
 6641.00    0.52757   0.54303    0.007
 6642.00    0.52298   0.54096    0.007
 6643.00    0.50904   0.53986    0.007
 6644.00    0.49514   0.54051    0.007
 6645.00    0.48126   0.54219    0.007
 6646.00    0.47883   0.54387    0.007
 6647.00    0.47832   0.54518    0.007
 6648.00    0.48249   0.54605    0.007
 6649.00    0.48724   0.54631    0.007
 6650.00    0.50437   0.54600    0.007
 6651.00    0.52258   0.54549    0.007
 6652.00    0.51695   0.54504    0.008
 6653.00    0.51009   0.54473    0.008
 6654.00    0.51862   0.54461    0.008
 6655.00    0.52775   0.54447    0.008
 6656.00    0.55918   0.54412    0.007
 6657.00    0.58817   0.54342    0.007
 6658.00    0.56575   0.54193    0.007
 6659.00    0.54221   0.53928    0.007
 6660.00    0.50525   0.53581    0.007
 6661.00    0.47262   0.53216    0.007
 6662.00    0.47577   0.52911    0.007
 6663.00    0.47607   0.52784    0.007
 6664.00    0.45879   0.52862    0.007
 6665.00    0.44627   0.53050    0.007
 6666.00    0.45689   0.53284    0.007
 6667.00    0.47259   0.53553    0.007
 6668.00    0.50838   0.53845    0.007
 6669.00    0.53462   0.54126    0.007
 6670.00    0.52950   0.54344    0.007
 6671.00    0.51013   0.54462    0.007
 6672.00    0.45124   0.54455    0.008
 6673.00    0.41269   0.54278    0.008
 6674.00    0.42246   0.53903    0.008
 6675.00    0.44221   0.53362    0.008
 6676.00    0.48246   0.52762    0.008
 6677.00    0.49166   0.52330    0.008
 6678.00    0.44542   0.52287    0.008
 6679.00    0.41110   0.52598    0.007
 6680.00    0.39542   0.53046    0.007
 6681.00    0.39624   0.53473    0.007
 6682.00    0.41971   0.53808    0.007
 6683.00    0.43786   0.54025    0.007
 6684.00    0.44959   0.54133    0.007
 6685.00    0.45372   0.54165    0.007
 6686.00    0.44977   0.54154    0.007
 6687.00    0.45229   0.54133    0.007
 6688.00    0.46087   0.54132    0.007
 6689.00    0.45939   0.54145    0.007
 6690.00    0.44955   0.54141    0.007
 6691.00    0.45325   0.54077    0.007
 6692.00    0.46680   0.53926    0.007
 6693.00    0.48044   0.53682    0.007
 6694.00    0.49413   0.53375    0.007
 6695.00    0.48288   0.53089    0.008
 6696.00    0.45766   0.52952    0.000
 6697.00    0.45212   0.53012    0.000
 6698.00    0.45615   0.53207    0.000
 6699.00    0.46642   0.53427    0.000
 6700.00    0.47932   0.53554    0.000
 6701.00    0.46904   0.53531    0.000
 6702.00    0.45042   0.53396    0.000
 6703.00    0.45561   0.53249    0.000
 6704.00    0.46804   0.53186    0.000
 6705.00    0.45892   0.53221    0.000
 6706.00    0.44433   0.53288    0.000
 6707.00    0.45145   0.53326    0.000
 6708.00    0.46303   0.53310    0.000
 6709.00    0.51580   0.53221    0.000
 6710.00    0.57525   0.53066    0.000
 6711.00    0.62104   0.52846    0.000
 6712.00    0.66518   0.52537    0.000
 6713.00    0.66757   0.52148    0.000
 6714.00    0.66651   0.51737    0.000
 6715.00    0.64350   0.51389    0.000
 6716.00    0.61945   0.51210    0.000
 6717.00    0.59081   0.51295    0.000
 6718.00    0.56266   0.51633    0.000
 6719.00    0.56610   0.52059    0.000
 6720.00    0.56941   0.52417    0.000
 6721.00    0.57025   0.52666    0.000
 6722.00    0.57069   0.52821    0.000
 6723.00    0.56647   0.52885    0.000
 6724.00    0.57015   0.52859    0.000
 6725.00    0.63681   0.52804    0.000
 6726.00    0.69203   0.52807    0.000
 6727.00    0.67871   0.52889    0.000
 6728.00    0.66134   0.53011    0.000
 6729.00    0.62478   0.53121    0.000
 6730.00    0.59145   0.53178    0.000
 6731.00    0.57056   0.53166    0.000
 6732.00    0.55147   0.53109    0.000
 6733.00    0.53817   0.53046    0.000
 6734.00    0.52209   0.52976    0.000
 6735.00    0.49843   0.52874    0.000
 6736.00    0.48446   0.52718    0.000
 6737.00    0.49316   0.52531    0.000
 6738.00    0.49535   0.52369    0.000
 6739.00    0.48442   0.52275    0.000
 6740.00    0.47380   0.52226    0.000
 6741.00    0.46374   0.52176    0.000
 6742.00    0.46040   0.52125    0.000
 6743.00    0.46739   0.52099    0.000
 6744.00    0.46895   0.52078    0.000
 6745.00    0.46319   0.52011    0.000
 6746.00    0.47444   0.51891    0.000
 6747.00    0.50594   0.51748    0.000
 6748.00    0.52096   0.51622    0.000
 6749.00    0.51870   0.51560    0.000
 6750.00    0.51291   0.51591    0.000
 6751.00    0.50385   0.51681    0.000
 6752.00    0.51295   0.51801    0.000
 6753.00    0.53689   0.51972    0.008
 6754.00    0.53332   0.52180    0.008
 6755.00    0.50997   0.52403    0.008
 6756.00    0.49166   0.52635    0.008
 6757.00    0.47652   0.52863    0.008
 6758.00    0.47719   0.53045    0.009
 6759.00    0.48656   0.53155    0.009
 6760.00    0.51299   0.53183    0.009
 6761.00    0.54759   0.53134    0.009
 6762.00    0.53977   0.53024    0.009
 6763.00    0.51441   0.52846    0.009
 6764.00    0.53093   0.52599    0.009
 6765.00    0.56226   0.52310    0.009
 6766.00    0.57012   0.52046    0.009
 6767.00    0.57097   0.51890    0.009
 6768.00    0.54482   0.51865    0.009
 6769.00    0.51198   0.51915    0.009
 6770.00    0.52138   0.52012    0.008
 6771.00    0.53926   0.52190    0.008
 6772.00    0.57371   0.52455    0.008
 6773.00    0.61076   0.52754    0.008
 6774.00    0.57949   0.53015    0.008
 6775.00    0.54024   0.53197    0.008
 6776.00    0.49976   0.53286    0.008
 6777.00    0.45918   0.53296    0.008
 6778.00    0.48449   0.53229    0.008
 6779.00    0.51268   0.53041    0.008
 6780.00    0.48048   0.52708    0.008
 6781.00    0.44806   0.52270    0.008
 6782.00    0.43520   0.51817    0.008
 6783.00    0.42300   0.51475    0.008
 6784.00    0.42269   0.51336    0.008
 6785.00    0.42910   0.51401    0.008
 6786.00    0.50909   0.51612    0.008
 6787.00    0.57945   0.51874    0.008
 6788.00    0.57583   0.52083    0.008
 6789.00    0.57311   0.52188    0.008
 6790.00    0.57561   0.52195    0.008
 6791.00    0.57218   0.52114    0.008
 6792.00    0.54133   0.51967    0.008
 6793.00    0.51837   0.51830    0.008
 6794.00    0.52524   0.51768    0.008
 6795.00    0.52757   0.51787    0.008
 6796.00    0.51555   0.51869    0.008
 6797.00    0.51969   0.51983    0.008
 6798.00    0.56712   0.52097    0.008
 6799.00    0.60768   0.52193    0.008
 6800.00    0.63247   0.52254    0.008
 6801.00    0.65094   0.52262    0.008
 6802.00    0.65683   0.52211    0.008
 6803.00    0.64687   0.52132    0.008
 6804.00    0.60946   0.52068    0.008
 6805.00    0.54818   0.52014    0.008
 6806.00    0.45073   0.51962    0.008
 6807.00    0.41001   0.51925    0.008
 6808.00    0.44492   0.51888    0.008
 6809.00    0.48744   0.51846    0.008
 6810.00    0.53890   0.51820    0.008
 6811.00    0.55932   0.51802    0.008
 6812.00    0.54762   0.51768    0.008
 6813.00    0.56811   0.51735    0.008
 6814.00    0.61799   0.51744    0.009
 6815.00    0.60471   0.51824    0.008
 6816.00    0.54062   0.51929    0.008
 6817.00    0.49402   0.51986    0.008
 6818.00    0.45980   0.51987    0.008
 6819.00    0.47453   0.51989    0.008
 6820.00    0.51966   0.52060    0.008
 6821.00    0.52902   0.52202    0.008
 6822.00    0.51896   0.52350    0.008
 6823.00    0.51747   0.52422    0.008
 6824.00    0.52002   0.52376    0.008
 6825.00    0.50057   0.52222    0.008
 6826.00    0.47218   0.52004    0.008
 6827.00    0.49047   0.51809    0.008
 6828.00    0.52498   0.51737    0.008
 6829.00    0.53336   0.51802    0.008
 6830.00    0.53410   0.51930    0.008
 6831.00    0.53251   0.52040    0.008
 6832.00    0.53037   0.52109    0.008
 6833.00    0.55260   0.52132    0.008
 6834.00    0.57960   0.52082    0.008
 6835.00    0.59959   0.51909    0.008
 6836.00    0.61852   0.51599    0.008
 6837.00    0.58419   0.51182    0.008
 6838.00    0.54389   0.50715    0.009
 6839.00    0.46870   0.50293    0.009
 6840.00    0.39090   0.50018    0.009
 6841.00    0.37270   0.49979    0.008
 6842.00    0.35688   0.50199    0.008
 6843.00    0.38945   0.50605    0.008
 6844.00    0.42389   0.51055    0.008
 6845.00    0.51904   0.51425    0.008
 6846.00    0.60457   0.51660    0.008
 6847.00    0.52741   0.51778    0.008
 6848.00    0.45609   0.51811    0.008
 6849.00    0.44575   0.51784    0.008
 6850.00    0.43618   0.51701    0.008
 6851.00    0.43226   0.51550    0.008
 6852.00    0.43785   0.51309    0.008
 6853.00    0.49734   0.50981    0.008
 6854.00    0.54790   0.50656    0.008
 6855.00    0.55812   0.50460    0.008
 6856.00    0.56163   0.50408    0.008
 6857.00    0.54032   0.50426    0.008
 6858.00    0.51959   0.50464    0.008
 6859.00    0.50063   0.50487    0.008
 6860.00    0.50247   0.50510    0.008
 6861.00    0.55905   0.50620    0.008
 6862.00    0.59689   0.50834    0.008
 6863.00    0.59241   0.51039    0.008
 6864.00    0.56769   0.51103    0.008
 6865.00    0.50337   0.51002    0.008
 6866.00    0.45972   0.50801    0.008
 6867.00    0.45134   0.50619    0.008
 6868.00    0.44197   0.50547    0.008
 6869.00    0.43113   0.50568    0.008
 6870.00    0.42134   0.50595    0.008
 6871.00    0.41293   0.50597    0.008
 6872.00    0.43774   0.50617    0.008
 6873.00    0.50101   0.50679    0.008
 6874.00    0.54820   0.50776    0.008
 6875.00    0.57896   0.50909    0.008
 6876.00    0.57244   0.51055    0.008
 6877.00    0.53234   0.51143    0.008
 6878.00    0.51185   0.51110    0.008
 6879.00    0.50690   0.50962    0.008
 6880.00    0.50552   0.50753    0.008
 6881.00    0.50664   0.50568    0.008
 6882.00    0.47335   0.50503    0.008
 6883.00    0.41901   0.50591    0.008
 6884.00    0.41448   0.50761    0.008
 6885.00    0.43657   0.50955    0.008
 6886.00    0.47618   0.51181    0.008
 6887.00    0.52392   0.51422    0.008
 6888.00    0.52586   0.51626    0.008
 6889.00    0.50950   0.51767    0.008
 6890.00    0.50849   0.51825    0.008
 6891.00    0.51270   0.51789    0.008
 6892.00    0.49479   0.51690    0.008
 6893.00    0.47054   0.51579    0.008
 6894.00    0.45303   0.51480    0.008
 6895.00    0.43713   0.51424    0.008
 6896.00    0.43573   0.51431    0.008
 6897.00    0.43709   0.51468    0.008
 6898.00    0.47137   0.51495    0.008
 6899.00    0.51051   0.51515    0.008
 6900.00    0.50983   0.51561    0.008
 6901.00    0.50485   0.51625    0.008
 6902.00    0.47170   0.51675    0.008
 6903.00    0.43657   0.51705    0.008
 6904.00    0.41100   0.51740    0.008
 6905.00    0.38577   0.51797    0.008
 6906.00    0.39431   0.51867    0.008
 6907.00    0.40314   0.51906    0.008
 6908.00    0.41799   0.51879    0.008
 6909.00    0.43171   0.51763    0.008
 6910.00    0.42731   0.51557    0.008
 6911.00    0.42632   0.51298    0.008
 6912.00    0.45938   0.51027    0.008
 6913.00    0.48599   0.50799    0.008
 6914.00    0.46624   0.50687    0.008
 6915.00    0.45125   0.50705    0.008
 6916.00    0.46251   0.50819    0.008
 6917.00    0.47026   0.51016    0.008
 6918.00    0.46251   0.51252    0.008
 6919.00    0.46284   0.51442    0.008
 6920.00    0.49248   0.51511    0.008
 6921.00    0.50837   0.51417    0.008
 6922.00    0.48245   0.51173    0.008
 6923.00    0.45788   0.50862    0.008
 6924.00    0.43681   0.50625    0.008
 6925.00    0.42253   0.50566    0.008
 6926.00    0.42337   0.50681    0.008
 6927.00    0.42765   0.50864    0.008
 6928.00    0.43858   0.51006    0.008
 6929.00    0.44042   0.51062    0.008
 6930.00    0.42698   0.51033    0.008
 6931.00    0.45132   0.50952    0.008
 6932.00    0.53130   0.50880    0.008
 6933.00    0.55846   0.50882    0.008
 6934.00    0.51722   0.50954    0.008
 6935.00    0.49039   0.51041    0.008
 6936.00    0.48000   0.51123    0.008
 6937.00    0.48514   0.51207    0.008
 6938.00    0.50590   0.51287    0.008
 6939.00    0.52312   0.51320    0.008
 6940.00    0.53720   0.51249    0.008
 6941.00    0.52924   0.51048    0.008
 6942.00    0.50406   0.50758    0.008
 6943.00    0.48229   0.50472    0.008
 6944.00    0.46287   0.50302    0.009
 6945.00    0.45886   0.50332    0.009
 6946.00    0.46415   0.50509    0.008
 6947.00    0.48486   0.50700    0.008
 6948.00    0.51370   0.50796    0.008
 6949.00    0.55599   0.50750    0.008
 6950.00    0.60442   0.50591    0.008
 6951.00    0.57678   0.50432    0.008
 6952.00    0.51926   0.50359    0.008
 6953.00    0.48712   0.50392    0.008
 6954.00    0.46347   0.50522    0.008
 6955.00    0.46160   0.50714    0.008
 6956.00    0.46584   0.50899    0.008
 6957.00    0.44683   0.51031    0.008
 6958.00    0.42244   0.51116    0.008
 6959.00    0.43050   0.51176    0.008
 6960.00    0.44459   0.51228    0.008
 6961.00    0.46650   0.51265    0.008
 6962.00    0.48952   0.51275    0.009
 6963.00    0.50243   0.51263    0.009
 6964.00    0.51429   0.51239    0.009
 6965.00    0.50698   0.51236    0.009
 6966.00    0.49840   0.51294    0.009
 6967.00    0.50342   0.51377    0.009
 6968.00    0.50886   0.51416    0.009
 6969.00    0.45775   0.51384    0.009
 6970.00    0.40881   0.51299    0.008
 6971.00    0.42681   0.51191    0.008
 6972.00    0.44161   0.51023    0.008
 6973.00    0.40891   0.50706    0.008
 6974.00    0.38397   0.50220    0.008
 6975.00    0.43366   0.49638    0.008
 6976.00    0.48146   0.49077    0.008
 6977.00    0.51608   0.48687    0.008
 6978.00    0.53405   0.48646    0.008
 6979.00    0.46261   0.49014    0.008
 6980.00    0.41061   0.49628    0.008
 6981.00    0.44240   0.50266    0.009
 6982.00    0.46553   0.50785    0.009
 6983.00    0.45789   0.51107    0.009
 6984.00    0.44887   0.51229    0.009
 6985.00    0.43573   0.51208    0.009
 6986.00    0.42290   0.51111    0.009
 6987.00    0.41087   0.50990    0.009
 6988.00    0.41379   0.50895    0.009
 6989.00    0.44941   0.50882    0.009
 6990.00    0.44022   0.50950    0.009
 6991.00    0.34602   0.51042    0.009
 6992.00    0.31972   0.51094    0.009
 6993.00    0.40582   0.51088    0.008
 6994.00    0.43607   0.51031    0.008
 6995.00    0.38526   0.50924    0.008
 6996.00    0.39045   0.50748    0.008
 6997.00    0.46712   0.50507    0.008
 6998.00    0.51125   0.50247    0.008
 6999.00    0.51879   0.50058    0.008
 7000.00    0.52287   0.49985    0.008
 7001.00    0.52351   0.49966    0.008
 7002.00    0.55211   0.49908    0.009
 7003.00    0.60518   0.49805    0.009
 7004.00    0.60839   0.49740    0.009
 7005.00    0.57316   0.49777    0.009
 7006.00    0.54116   0.49920    0.009
 7007.00    0.51134   0.50120    0.009
 7008.00    0.52237   0.50307    0.009
 7009.00    0.55767   0.50408    0.009
 7010.00    0.53518   0.50395    0.009
 7011.00    0.48277   0.50275    0.009
 7012.00    0.45893   0.50055    0.009
 7013.00    0.44792   0.49725    0.009
 7014.00    0.43864   0.49339    0.009
 7015.00    0.43004   0.49056    0.009
 7016.00    0.41774   0.49073    0.009
 7017.00    0.40424   0.49403    0.010
 7018.00    0.44709   0.49842    0.011
 7019.00    0.50546   0.50157    0.011
 7020.00    0.56923   0.50233    0.011
 7021.00    0.63423   0.50062    0.012
 7022.00    0.63139   0.49759    0.011
 7023.00    0.61629   0.49515    0.009
 7024.00    0.53738   0.49469    0.009
 7025.00    0.44963   0.49615    0.009
 7026.00    0.48096   0.49855    0.009
 7027.00    0.52412   0.50099    0.009
 7028.00    0.55273   0.50293    0.009
 7029.00    0.58042   0.50408    0.009
 7030.00    0.50970   0.50441    0.009
 7031.00    0.43649   0.50415    0.009
 7032.00    0.44545   0.50360    0.009
 7033.00    0.45365   0.50289    0.009
 7034.00    0.44098   0.50208    0.009
 7035.00    0.42909   0.50121    0.009
 7036.00    0.42798   0.50028    0.009
 7037.00    0.42759   0.50000    0.009
 7038.00    0.43382   0.50188    0.009
 7039.00    0.44206   0.50611    0.009
 7040.00    0.46388   0.51096    0.009
 7041.00    0.48814   0.51458    0.009
 7042.00    0.52519   0.51617    0.009
 7043.00    0.54508   0.51598    0.009
 7044.00    0.49276   0.51519    0.009
 7045.00    0.44993   0.51512    0.009
 7046.00    0.44010   0.51596    0.009
 7047.00    0.43508   0.51679    0.009
 7048.00    0.44412   0.51634    0.009
 7049.00    0.46360   0.51373    0.009
 7050.00    0.50913   0.50888   -2.000
 7051.00    0.51856   0.50252   -2.000
 7052.00    0.45033   0.49629   -2.000
 7053.00    0.40541   0.49185   -2.000
 7054.00    0.40405   0.48973   -2.000
 7055.00    0.42889   0.48934   -2.000
 7056.00    0.49647   0.48941   -2.000
 7057.00    0.50503   0.48880   -2.000
 7058.00    0.42918   0.48727   -2.000
 7059.00    0.41256   0.48565   -2.000
 7060.00    0.47048   0.48507   -2.000
 7061.00    0.50399   0.48570   -2.000
 7062.00    0.51044   0.48682   -2.000
 7063.00    0.47690   0.48746   -2.000
 7064.00    0.40426   0.48672   -2.000
 7065.00    0.42755   0.48437   -2.000
 7066.00    0.53357   0.48145   -2.000
 7067.00    0.56439   0.47954   -2.000
 7068.00    0.53807   0.47987   -2.000
 7069.00    0.48887   0.48244   -2.000
 7070.00    0.42439   0.48590   -2.000
 7071.00    0.48412   0.48890   -2.000
 7072.00    0.61650   0.49091   -2.000
 7073.00    0.59570   0.49193   -2.000
 7074.00    0.49682   0.49223   -2.000
 7075.00    0.51291   0.49233   -2.000
 7076.00    0.57976   0.49266   -2.000
 7077.00    0.56714   0.49320   -2.000
 7078.00    0.52438   0.49344   -2.000
 7079.00    0.48858   0.49274   -2.000
 7080.00    0.45501   0.49046   -2.000
 7081.00    0.46540   0.48626   -2.000
 7082.00    0.48762   0.48061   -2.000
 7083.00    0.47996   0.47483   -2.000
 7084.00    0.46571   0.47040   -2.000
 7085.00    0.49753   0.46779   -2.000
 7086.00    0.53744   0.46625   -2.000
 7087.00    0.45552   0.46510   -2.000
 7088.00    0.35729   0.46416   -2.000
 7089.00    0.40959   0.46343   -2.000
 7090.00    0.47619   0.46311   -2.000
 7091.00    0.45793   0.46323   -2.000
 7092.00    0.43468   0.46354   -2.000
 7093.00    0.45548   0.46408   -2.000
 7094.00    0.47783   0.46487   -2.000
 7095.00    0.56358   0.46598   -2.000
 7096.00    0.64426   0.46749   -2.000
 7097.00    0.59907   0.46933   -2.000
 7098.00    0.55409   0.47115   -2.000
 7099.00    0.51196   0.47241   -2.000
 7100.00    0.46952   0.47298   -2.000
 7101.00    0.42427   0.47315   -2.000
 7102.00    0.38497   0.47338   -2.000
 7103.00    0.38447   0.47379   -2.000
 7104.00    0.39464   0.47398   -2.000
 7105.00    0.45909   0.47346   -2.000
 7106.00    0.50209   0.47219   -2.000
 7107.00    0.45683   0.47054   -2.000
 7108.00    0.42809   0.46872   -2.000
 7109.00    0.45563   0.46677   -2.000
 7110.00    0.49096   0.46516   -2.000
 7111.00    0.54867   0.46459   -2.000
 7112.00    0.55400   0.46523   -2.000
 7113.00    0.43082   0.46657   -2.000
 7114.00    0.37240   0.46798   -2.000
 7115.00    0.45101   0.46906   -2.000
 7116.00    0.50738   0.46953   -2.000
 7117.00    0.52284   0.46937   -2.000
 7118.00    0.53851   0.46874   -2.000
 7119.00    0.55454   0.46791   -2.000
 7120.00    0.57856   0.46711   -2.000
 7121.00    0.61383   0.46655   -2.000
 7122.00    0.63796   0.46642   -2.000
 7123.00    0.64828   0.46638   -2.000
 7124.00    0.69162   0.46576   -2.000
 7125.00    0.77107   0.46451   -2.000
 7126.00    0.75425   0.46293   -2.000
 7127.00    0.64460   0.46113   -2.000
 7128.00    0.62479   0.45908   -2.000
 7129.00    0.68137   0.45723   -2.000
 7130.00    0.69691   0.45667   -2.000
 7131.00    0.68170   0.45807   -2.000
 7132.00    0.65988   0.46098   -2.000
 7133.00    0.63371   0.46439   -2.000
 7134.00    0.55053   0.46741   -2.000
 7135.00    0.43453   0.46949   -2.000
 7136.00    0.44802   0.47057   -2.000
 7137.00    0.52649   0.47066   -2.000
 7138.00    0.48020   0.47013   -2.000
 7139.00    0.37974   0.46968   -2.000
 7140.00    0.37594   0.46962   -2.000
 7141.00    0.40814   0.46951   -2.000
 7142.00    0.36344   0.46894   -2.000
 7143.00    0.29444   0.46773   -2.000
 7144.00    0.34964   0.46570   -2.000
 7145.00    0.43758   0.46298   -2.000
 7146.00    0.44967   0.45999   -2.000
 7147.00    0.44540   0.45785   -2.000
 7148.00    0.44871   0.45793   -2.000
 7149.00    0.45330   0.46030   -2.000
 7150.00    0.45268   0.46390   -2.000
 7151.00    0.45138   0.46766   -2.000
 7152.00    0.42716   0.47067   -2.000
 7153.00    0.40086   0.47238   -2.000
 7154.00    0.45116   0.47305   -2.000
 7155.00    0.50566   0.47341   -2.000
 7156.00    0.55822   0.47367   -2.000
 7157.00    0.61099   0.47332   -2.000
 7158.00    0.68578   0.47217   -2.000
 7159.00    0.75472   0.47043   -2.000
 7160.00    0.69098   0.46822   -2.000
 7161.00    0.63984   0.46544   -2.000
 7162.00    0.74747   0.46201   -2.000
 7163.00    0.82277   0.45877   -2.000
 7164.00    0.62229   0.45742   -2.000
 7165.00    0.46272   0.45906   -2.000
 7166.00    0.56244   0.46301   -2.000
 7167.00    0.64430   0.46754   -2.000
 7168.00    0.63745   0.47132   -2.000
 7169.00    0.60996   0.47399   -2.000
 7170.00    0.49943   0.47579   -2.000
 7171.00    0.42815   0.47681   -2.000
 7172.00    0.48804   0.47688   -2.000
 7173.00    0.51436   0.47593   -2.000
 7174.00    0.44600   0.47418   -2.000
 7175.00    0.39884   0.47224   -2.000
 7176.00    0.40280   0.47060   -2.000
 7177.00    0.40913   0.46898   -2.000
 7178.00    0.42038   0.46677   -2.000
 7179.00    0.44107   0.46425   -2.000
 7180.00    0.47886   0.46266   -2.000
 7181.00    0.50058   0.46287   -2.000
 7182.00    0.49687   0.46432   -2.000
 7183.00    0.50566   0.46529   -2.000
 7184.00    0.53182   0.46448   -2.000
 7185.00    0.49562   0.46184   -2.000
 7186.00    0.38319   0.45847   -2.000
 7187.00    0.35152   0.45604   -2.000
 7188.00    0.40688   0.45546   -2.000
 7189.00    0.43816   0.45647   -2.000
 7190.00    0.44653   0.45820   -2.000
 7191.00    0.43460   0.45975   -2.000
 7192.00    0.40566   0.46093   -2.000
 7193.00    0.44880   0.46208   -2.000
 7194.00    0.54515   0.46333   -2.000
 7195.00    0.60429   0.46430   -2.000
 7196.00    0.63930   0.46495   -2.000
 7197.00    0.59494   0.46559   -2.000
 7198.00    0.50555   0.46613   -2.000
 7199.00    0.56175   0.46630   -2.000
 7200.00    0.68985   0.46611   -2.000
 7201.00    0.66180   0.46592   -2.000
 7202.00    0.56709   0.46586   -2.000
 7203.00    0.46609   0.46532   -2.000
 7204.00    0.36280   0.46335   -2.000
 7205.00    0.34655   0.45999   -2.000
 7206.00    0.35727   0.45673   -2.000
 7207.00    0.35311   0.45559   -2.000
 7208.00    0.34512   0.45719   -2.000
 7209.00    0.41810   0.46047   -2.000
 7210.00    0.50811   0.46371   -2.000
 7211.00    0.42775   0.46546   -2.000
 7212.00    0.31910   0.46558   -2.000
 7213.00    0.43031   0.46499   -2.000
 7214.00    0.56900   0.46476   -2.000
 7215.00    0.47625   0.46540   -2.000
 7216.00    0.36345   0.46666   -2.000
 7217.00    0.38555   0.46769   -2.000
 7218.00    0.41450   0.46776   -2.000
