###################################################################
## OUTPUT of StarlightChains_v04.for    [Cid@UFSC - 01/Apr/2007] ##
###################################################################

## Some input info
KUG0210-078._28_27.txt                   [arq_obs]
Base.CB07.vall.4m                        [arq_base]
Masks.EmLines.NEW.gm                     [arq_masks]
StCv04.C11.config                        [arq_config]
   66                                    [N_base]
    0                                    [N_YAV_components = # of components with extra extinction!]
    0                                    [i_FitPowerLaw (1/0 = Yes/No)]
-9.99                                    [alpha_PowerLaw]
CCM                                      [red_law_option]
 1.458241                                [q_norm = A(l_norm)/A(V)]

## (Re)Sampling Parameters
 3741.00                                 [l_ini (A)]
 7218.00                                 [l_fin (A)]
    1.00                                 [dl    (A)]     (OBS: dl_cushion =    50.00 A)

## Normalization info
 4020.00                                 [l_norm (A) - for base]
 4010.00                                 [llow_norm (A) - window for f_obs]
 4060.00                                 [lupp_norm (A) - window for f_obs]
1.884103E-17                             [fobs_norm (in input units)]

## S/N
 3691.00                                 [llow_SN (A) - window for S/N]
 7268.00                                 [lupp_SN (A) - window for S/N]
   4.925                                 [S/N in S/N window]
   4.338                                 [S/N in norm. window]
   0.029                                 [S/N_err in S/N window]
   0.026                                 [S/N_err in norm. window]
  1.0000                                 [fscale_chi2]

## etc...
    -2007375                             [idum_orig]
  2419                                   [NOl_eff]
  2173                                   [Nl_eff]
   246    NSIGMA                         [Ntot_cliped & clip_method]
 14894880                                [Nglobal_steps]
   7                                     [N_chains]
   8                                     [NEX0s_base = N_base in EX0s-fits]
 0   0   1      246   2.0   1.310E+04    [Clip-Bug, RC-Crash & Burn-In warning-flags, n_censored_weights, wei_nsig_threshold & wei_limit]
   109    109.010    108.556      0.454  [idt_all, wdt_TotTime, wdt_UsrTime & wdt_SysTime (sec)]

## Synthesis Results - Best model ##

 4.35884E-05                             [chi2/Nl_eff]
     6.93346                             [adev (%)]

   127.35201                             [sum-of-x (%)]
 1.15827E-17                             [Flux_tot (units of input spectrum!)]
 1.30084E-12                             [Mini_tot (???)]
 6.43694E-13                             [Mcor_tot (???)]

  78.54                                  [v0_min  (km/s)]
  95.78                                  [vd_min  (km/s)]
-0.5423                                  [AV_min  (mag)]
 0.0000                                  [YAV_min (mag)]

# j     x_j(%)      Mini_j(%)     Mcor_j(%)     age_j(yr)     Z_j      (L/M)_j    YAV?  Mstars   component_j        a/Fe...       SSP_chi2r SSP_adev(%)   SSP_AV   SSP_x(%)
  1     41.4482     2.6489E-02    5.3532E-02    1.000000E+06  0.00400  1.094E-02    0   1.0000   age020_m42            0.0000     5.4539E-05    10.0033   2.8397   113.5701
  2      0.0000     0.0000E+00    0.0000E+00    3.160000E+06  0.00400  4.007E-02    0   0.9999   age045_m42            0.0000     5.5589E-05     9.0993   2.2322   116.2506
  3      0.0000     0.0000E+00    0.0000E+00    5.010000E+06  0.00400  2.539E-02    0   0.9488   age055_m42            0.0000     5.4495E-05     9.4281   2.4981   115.6440
  4      0.0000     0.0000E+00    0.0000E+00    6.610000E+06  0.00400  2.620E-02    0   0.9220   age061_m42            0.0000     5.4729E-05     8.8820   2.1641   116.3717
  5      0.0000     0.0000E+00    0.0000E+00    1.000000E+07  0.00400  1.322E-02    0   0.8862   age070_m42            0.0000     5.2989E-05     7.8569   1.9180   118.3505
  6      0.0000     0.0000E+00    0.0000E+00    1.445000E+07  0.00400  7.883E-03    0   0.8571   age078_m42            0.0000     5.2980E-05     8.2136   2.2039   116.9261
  7      0.0000     0.0000E+00    0.0000E+00    2.512000E+07  0.00400  5.251E-03    0   0.8174   age090_m42            0.0000     5.2837E-05     7.7222   1.8033   118.5270
  8      0.0000     0.0000E+00    0.0000E+00    4.000000E+07  0.00400  3.649E-03    0   0.7851   age104_m42            0.0000     5.2714E-05     7.6314   1.5927   118.7046
  9      0.0000     0.0000E+00    0.0000E+00    5.500000E+07  0.00400  3.098E-03    0   0.7629   age110_m42            0.0000     5.4062E-05     7.9099   1.7472   118.0931
 10      0.0000     0.0000E+00    0.0000E+00    1.015200E+08  0.00400  2.228E-03    0   0.7207   age116_m42            0.0000     5.4585E-05     8.0546   1.7709   117.8696
 11      0.0000     0.0000E+00    0.0000E+00    2.861200E+08  0.00400  1.093E-03    0   0.6648   age125_m42            0.0000     5.3933E-05     7.7159   1.2506   119.9343
 12      0.0000     0.0000E+00    0.0000E+00    5.088000E+08  0.00400  6.597E-04    0   0.6365   age130_m42            0.0000     5.4403E-05     7.7365   1.2478   120.0989
 13      0.0000     0.0000E+00    0.0000E+00    1.434000E+09  0.00400  2.132E-04    0   0.5798   age139_m42            0.0000     5.0370E-05     7.0164   0.2955   121.5233
 14      0.0000     0.0000E+00    0.0000E+00    4.250000E+09  0.00400  5.895E-05    0   0.5377   age158_m42            0.0000     4.6811E-05     7.6296  -0.2159   119.5305
 15      0.0000     0.0000E+00    0.0000E+00    7.500000E+09  0.00400  3.510E-05    0   0.5212   age171_m42            0.0000     4.6250E-05     7.8185  -0.4121   119.0222
 16      0.0000     0.0000E+00    0.0000E+00    1.300000E+10  0.00400  2.005E-05    0   0.5034   age193_m42            0.0000     4.6096E-05     8.0113  -0.5798   118.4873
 17      0.0000     0.0000E+00    0.0000E+00    1.800000E+10  0.00400  1.525E-05    0   0.4967   age213_m42            0.0000     4.6031E-05     7.9934  -0.6080   118.1765
 18     18.7486     1.0588E-02    2.1398E-02    1.000000E+06  0.00800  1.238E-02    0   1.0000   age020_m52            0.0000     5.4332E-05     9.9561   2.8389   113.7838
 19      0.0000     0.0000E+00    0.0000E+00    3.160000E+06  0.00800  3.074E-02    0   0.9966   age045_m52            0.0000     5.4135E-05     9.9134   2.7671   114.6194
 20      0.0000     0.0000E+00    0.0000E+00    5.010000E+06  0.00800  2.668E-02    0   0.9443   age055_m52            0.0000     5.3940E-05     9.4112   2.5661   115.3866
 21      0.0000     0.0000E+00    0.0000E+00    6.610000E+06  0.00800  2.136E-02    0   0.9177   age061_m52            0.0000     5.0464E-05     7.5440   1.4109   120.2449
 22      0.0000     0.0000E+00    0.0000E+00    1.000000E+07  0.00800  1.215E-02    0   0.8827   age070_m52            0.0000     5.2795E-05     7.7904   2.0865   118.8817
 23      0.0000     0.0000E+00    0.0000E+00    1.445000E+07  0.00800  8.717E-03    0   0.8552   age078_m52            0.0000     5.2967E-05     8.0260   2.1819   118.0607
 24      0.0000     0.0000E+00    0.0000E+00    2.512000E+07  0.00800  5.592E-03    0   0.8162   age090_m52            0.0000     5.2923E-05     7.6203   1.8722   119.6815
 25      0.0000     0.0000E+00    0.0000E+00    4.000000E+07  0.00800  3.896E-03    0   0.7841   age104_m52            0.0000     5.3211E-05     7.6667   1.8005   119.6703
 26      0.0000     0.0000E+00    0.0000E+00    1.015200E+08  0.00800  2.148E-03    0   0.7226   age116_m52            0.0000     5.2801E-05     7.8341   1.7412   118.9964
 27      0.0000     0.0000E+00    0.0000E+00    2.861200E+08  0.00800  9.925E-04    0   0.6683   age125_m52            0.0000     5.3584E-05     7.6936   1.3068   121.2795
 28      0.0000     0.0000E+00    0.0000E+00    9.047900E+08  0.00800  3.141E-04    0   0.6138   age135_m52            0.0000     5.2399E-05     7.3995   0.5443   124.1879
 29      0.0000     0.0000E+00    0.0000E+00    1.434000E+09  0.00800  1.719E-04    0   0.5853   age139_m52            0.0000     4.7702E-05     7.2393  -0.0738   123.6633
 30      0.0000     0.0000E+00    0.0000E+00    2.500000E+09  0.00800  7.872E-05    0   0.5600   age150_m52            0.0000     4.6193E-05     7.7533  -0.3839   121.9066
 31      0.0000     0.0000E+00    0.0000E+00    4.250000E+09  0.00800  4.336E-05    0   0.5426   age158_m52            0.0000     4.5937E-05     7.8944  -0.4071   121.1039
 32      0.0000     0.0000E+00    0.0000E+00    6.250000E+09  0.00800  3.159E-05    0   0.5319   age166_m52            0.0000     4.5665E-05     8.2446  -0.6161   121.1534
 33      0.0000     0.0000E+00    0.0000E+00    1.300000E+10  0.00800  1.361E-05    0   0.5073   age193_m52            0.0000     4.6666E-05     7.9835  -1.0000   116.8259
 34      4.4840     3.1712E+00    3.1979E+00    1.800000E+10  0.00800  9.886E-06    0   0.4990   age213_m52            0.0000     4.9968E-05     7.7014  -1.0000   112.1268
 35      0.0000     0.0000E+00    0.0000E+00    1.000000E+06  0.02000  1.544E-02    0   1.0000   age020_m62            0.0000     5.4244E-05     9.9447   2.8338   114.1934
 36      0.0000     0.0000E+00    0.0000E+00    3.160000E+06  0.02000  3.762E-02    0   0.9858   age045_m62            0.0000     5.4777E-05    10.0346   2.7671   115.3216
 37      0.0000     0.0000E+00    0.0000E+00    5.010000E+06  0.02000  3.296E-02    0   0.9342   age055_m62            0.0000     5.4703E-05     9.3723   2.4702   116.4362
 38      0.0000     0.0000E+00    0.0000E+00    8.710000E+06  0.02000  1.154E-02    0   0.8861   age067_m62            0.0000     5.1955E-05     8.0675   1.5690   123.5894
 39      0.0000     0.0000E+00    0.0000E+00    1.445000E+07  0.02000  7.663E-03    0   0.8472   age078_m62            0.0000     5.2150E-05     7.6008   1.7585   121.2819
 40      0.0000     0.0000E+00    0.0000E+00    2.512000E+07  0.02000  4.532E-03    0   0.8099   age090_m62            0.0000     5.1842E-05     7.6653   1.7604   120.6866
 41      0.0000     0.0000E+00    0.0000E+00    5.500000E+07  0.02000  2.733E-03    0   0.7595   age110_m62            0.0000     5.1474E-05     7.5261   1.7737   119.5611
 42      0.0000     0.0000E+00    0.0000E+00    1.609000E+08  0.02000  1.369E-03    0   0.6985   age120_m62            0.0000     5.2938E-05     7.6482   1.6453   120.7191
 43      0.0000     0.0000E+00    0.0000E+00    2.861200E+08  0.02000  9.013E-04    0   0.6714   age125_m62            0.0000     5.3956E-05     7.5137   1.4287   122.3125
 44      0.0000     0.0000E+00    0.0000E+00    5.088000E+08  0.02000  5.028E-04    0   0.6449   age130_m62            0.0000     5.4984E-05     7.6480   1.0742   123.7771
 45      0.0000     0.0000E+00    0.0000E+00    9.047900E+08  0.02000  2.428E-04    0   0.6179   age135_m62            0.0000     4.9819E-05     7.4722   0.4632   124.3746
 46      0.0000     0.0000E+00    0.0000E+00    1.434000E+09  0.02000  1.263E-04    0   0.5908   age139_m62            0.0000     4.6382E-05     7.5617  -0.0158   124.2072
 47      0.0000     0.0000E+00    0.0000E+00    2.500000E+09  0.02000  5.985E-05    0   0.5673   age150_m62            0.0000     4.6250E-05     8.1818  -0.4099   123.5538
 48      0.0000     0.0000E+00    0.0000E+00    4.250000E+09  0.02000  3.271E-05    0   0.5468   age158_m62            0.0000     4.6364E-05     8.9003  -0.7393   123.3258
 49      0.0000     0.0000E+00    0.0000E+00    1.000000E+10  0.02000  1.360E-05    0   0.5167   age181_m62            0.0000     4.8036E-05     8.7650  -1.0000   119.4658
 50      0.0000     0.0000E+00    0.0000E+00    1.800000E+10  0.02000  7.124E-06    0   0.5013   age213_m62            0.0000     5.6333E-05     8.1716  -1.0000   110.3982
 51      0.0000     0.0000E+00    0.0000E+00    1.000000E+06  0.05000  2.592E-02    0   0.9998   age020_m72            0.0000     5.3229E-05     9.8575   2.8219   114.7556
 52      0.0000     0.0000E+00    0.0000E+00    3.160000E+06  0.05000  4.845E-02    0   0.9577   age045_m72            0.0000     5.4629E-05     9.9431   2.6726   115.6693
 53      0.0000     0.0000E+00    0.0000E+00    5.010000E+06  0.05000  3.072E-02    0   0.9147   age055_m72            0.0000     5.2928E-05     8.4580   2.2756   118.7902
 54      0.0000     0.0000E+00    0.0000E+00    6.610000E+06  0.05000  1.455E-02    0   0.8877   age061_m72            0.0000     5.9041E-05    10.5383   1.6261   125.1548
 55      0.0000     0.0000E+00    0.0000E+00    1.000000E+07  0.05000  9.074E-03    0   0.8524   age070_m72            0.0000     5.5205E-05     9.6763   2.4524   118.6859
 56      0.0000     0.0000E+00    0.0000E+00    2.512000E+07  0.05000  4.250E-03    0   0.7902   age090_m72            0.0000     5.3649E-05     8.6545   2.2062   118.5456
 57      0.0000     0.0000E+00    0.0000E+00    4.000000E+07  0.05000  3.087E-03    0   0.7618   age104_m72            0.0000     5.3673E-05     8.4465   2.0043   119.5246
 58      0.0000     0.0000E+00    0.0000E+00    1.015200E+08  0.05000  1.700E-03    0   0.7096   age116_m72            0.0000     5.3247E-05     7.7377   1.7827   120.5823
 59      0.0000     0.0000E+00    0.0000E+00    2.861200E+08  0.05000  7.384E-04    0   0.6633   age125_m72            0.0000     5.4149E-05     7.4711   1.3022   123.4059
 60      0.0000     0.0000E+00    0.0000E+00    5.088000E+08  0.05000  3.819E-04    0   0.6372   age130_m72            0.0000     5.1978E-05     7.5118   0.8037   125.3518
 61      0.0000     0.0000E+00    0.0000E+00    9.047900E+08  0.05000  1.676E-04    0   0.6110   age135_m72            0.0000     4.7245E-05     8.2709   0.0488   125.6076
 62      0.0000     0.0000E+00    0.0000E+00    1.434000E+09  0.05000  8.837E-05    0   0.5874   age139_m72            0.0000     4.5531E-05     8.2287  -0.4149   125.5204
 63      0.0000     0.0000E+00    0.0000E+00    2.500000E+09  0.05000  4.233E-05    0   0.5598   age150_m72            0.0000     4.6463E-05     9.2178  -0.7546   124.9905
 64      0.0000     0.0000E+00    0.0000E+00    6.250000E+09  0.05000  1.435E-05    0   0.5249   age166_m72            0.0000     5.1019E-05     8.3838  -1.0000   115.2061
 65      0.0000     0.0000E+00    0.0000E+00    1.300000E+10  0.05000  6.513E-06    0   0.5036   age193_m72            0.0000     6.7908E-05     8.4407  -1.0000   105.4865
 66     62.6713     9.6792E+01    9.6727E+01    1.800000E+10  0.05000  4.527E-06    0   0.4945   age213_m72            0.0000     8.2757E-05     9.2858  -1.0000    99.0709


## Synthesis Results - Average & Chains ##

# j      x_j: min, <> & last-chain-values for 1 ...  7 chains
  1     41.4482      1.2315      1.2217      1.3280      1.9330      1.2704      1.0963      1.3475      1.3310
  2      0.0000      0.1660      0.0599      0.0504      0.0051      0.0817      0.0684      0.0699      0.0000
  3      0.0000      0.1873      0.1543      0.0218      0.0665      0.1022      0.0000      0.0125      0.0176
  4      0.0000      0.1529      0.0000      0.1374      0.0297      0.0000      0.0063      0.0103      0.0331
  5      0.0000      0.1504      0.1220      0.0793      0.0004      0.0678      0.0510      0.0000      0.0729
  6      0.0000      0.1973      0.1549      0.0000      0.0323      0.0172      0.0639      0.0000      0.0780
  7      0.0000      0.1995      0.0425      0.0280      0.0769      0.0605      0.1197      0.0466      0.0000
  8      0.0000      0.1567      0.1251      0.0339      0.0523      0.1157      0.0219      0.0001      0.1666
  9      0.0000      0.1607      0.0733      0.1192      0.0020      0.0000      0.1647      0.0254      0.0450
 10      0.0000      0.1439      0.0254      0.0780      0.0055      0.0000      0.0208      0.0000      0.0599
 11      0.0000      0.1505      0.0590      0.1045      0.0689      0.1039      0.0000      0.0025      0.1046
 12      0.0000      0.1574      0.0408      0.0369      0.0276      0.1510      0.0255      0.1046      0.0814
 13      0.0000      0.1818      0.0290      0.0561      0.0719      0.0625      0.1010      0.0000      0.0494
 14      0.0000      0.1276      0.0762      0.2196      0.0662      0.0790      0.0624      0.0531      0.0152
 15      0.0000      0.1270      0.1009      0.0411      0.1100      0.0229      0.1500      0.0000      0.0018
 16      0.0000      0.1914      0.0648      0.0362      0.1742      0.2398      0.2258      0.0485      0.0000
 17      0.0000     48.4353     51.5598     51.1694     56.6412     53.4731     52.7404     55.1547     55.3989
 18     18.7486      1.9509      1.5959      1.8076      1.0049      1.8787      3.6099      1.7099      1.6193
 19      0.0000      0.1362      0.0322      0.1682      0.0319      0.0385      0.0000      0.0000      0.0498
 20      0.0000      0.1290      0.0387      0.0872      0.0421      0.0000      0.0215      0.0476      0.0435
 21      0.0000      0.1677      0.0378      0.1687      0.0464      0.0473      0.0000      0.0312      0.0256
 22      0.0000      0.1459      0.1449      0.1365      0.0000      0.0366      0.0000      0.0000      0.0265
 23      0.0000      0.1817      0.0121      0.0000      0.0792      0.1035      0.0974      0.0000      0.0416
 24      0.0000      0.1891      0.1131      0.0000      0.0940      0.0920      0.0379      0.0000      0.0000
 25      0.0000      0.1481      0.0346      0.0000      0.0970      0.0000      0.1219      0.0000      0.0487
 26      0.0000      0.1707      0.0092      0.1320      0.0337      0.0146      0.0380      0.0000      0.0059
 27      0.0000      0.1937      0.0902      0.0956      0.0000      0.0000      0.1535      0.0863      0.0000
 28      0.0000      0.1377      0.0970      0.0697      0.0540      0.2654      0.0000      0.0000      0.0000
 29      0.0000      0.1761      0.0673      0.0229      0.0798      0.1036      0.0470      0.0013      0.0000
 30      0.0000      0.1483      0.1293      0.0565      0.0570      0.0521      0.1295      0.0000      0.0125
 31      0.0000      0.1488      0.1094      0.0000      0.0332      0.1799      0.0938      0.0000      0.0000
 32      0.0000      0.1950      0.0000      0.1244      0.0269      0.0124      0.0296      0.0141      0.0226
 33      0.0000      0.1354      0.0799      0.0818      0.0551      0.0497      0.0916      0.1254      0.0903
 34      4.4840      5.8051      7.5243      6.0804      2.4267      6.3472      6.3865      6.5707      6.3326
 35      0.0000      2.3967      2.4311      2.4353      2.6593      2.5067      2.1591      2.8289      2.8343
 36      0.0000      0.4644      0.5450      0.4151      0.6049      0.6203      0.1290      0.7928      0.2243
 37      0.0000      0.1731      0.0000      0.3254      0.0465      0.2069      0.2181      0.0005      0.0000
 38      0.0000      0.1432      0.0809      0.1048      0.1081      0.0362      0.0138      0.0450      0.0000
 39      0.0000      0.2110      0.0076      0.0883      0.0000      0.0000      0.0045      0.0000      0.0000
 40      0.0000      0.1523      0.0000      0.0656      0.0017      0.2855      0.0000      0.0146      0.0472
 41      0.0000      0.1491      0.0000      0.0401      0.0671      0.0044      0.1057      0.0646      0.0156
 42      0.0000      0.1933      0.0428      0.0619      0.1132      0.0000      0.0000      0.0684      0.0252
 43      0.0000      0.1680      0.0394      0.2103      0.0736      0.2598      0.1331      0.0016      0.0022
 44      0.0000      0.1229      0.0172      0.3422      0.0509      0.0707      0.0000      0.0074      0.0000
 45      0.0000      0.1423      0.1035      0.0944      0.0000      0.0737      0.0413      0.0006      0.0000
 46      0.0000      0.1966      0.0128      0.2252      0.0109      0.0071      0.0037      0.0000      0.0230
 47      0.0000      0.1420      0.0000      0.0929      0.0000      0.0480      0.0318      0.0083      0.0965
 48      0.0000      0.1675      0.1266      0.0000      0.0083      0.1505      0.1193      0.0000      0.0065
 49      0.0000      0.1586      0.0276      0.0382      0.0000      0.0522      0.0889      0.0224      0.0000
 50      0.0000      0.3091      0.3369      0.2893      0.3312      0.1760      0.2493      0.2974      0.2845
 51      0.0000      9.7388     11.2941     11.4322     10.1476      9.7308      9.9997      9.9848     10.2467
 52      0.0000      0.1297      0.0170      0.0004      0.0048      0.0000      0.0040      0.0000      0.0371
 53      0.0000      0.1221      0.0000      0.0000      0.0000      0.0228      0.0606      0.0090      0.0124
 54      0.0000      0.1863      0.0000      0.0091      0.0000      0.0484      0.0048      0.0000      0.0013
 55      0.0000      0.1137      0.0246      0.0352      0.0032      0.1066      0.0119      0.0055      0.0105
 56      0.0000      0.1110      0.0000      0.1142      0.0317      0.0054      0.0009      0.0164      0.0025
 57      0.0000      0.1428      0.0000      0.0892      0.0338      0.2498      0.0083      0.0052      0.0000
 58      0.0000      0.1044      0.0000      0.0291      0.0121      0.0390      0.1206      0.0123      0.0100
 59      0.0000      0.1769      0.0253      0.0780      0.0484      0.0000      0.0764      0.0000      0.0000
 60      0.0000      0.2006      0.1296      0.0754      0.0437      0.0243      0.0081      0.0000      0.0000
 61      0.0000      0.2006      0.0050      0.0650      0.0505      0.0833      0.0977      0.0208      0.1195
 62      0.0000      0.1542      0.0703      0.0832      0.0070      0.1134      0.1696      0.0003      0.0062
 63      0.0000      0.1437      0.0148      0.0827      0.0090      0.0147      0.0674      0.0000      0.0028
 64      0.0000      0.2367      0.0301      0.0801      0.0000      0.0273      0.0000      0.0000      0.0000
 65      0.0000      0.1844      0.1004      0.3504      0.0001      0.0425      0.0374      0.0077      0.0114
 66     62.6713      4.3730      4.3720      4.1238      5.9451      3.8980      4.1459      4.2378      4.0955

# j      m_j: min, <> & last-chain-values for 1 ...  7 chains
  1  5.3532E-02  4.6302E-03  4.3211E-03  4.8723E-03  6.6616E-03  4.5983E-03  3.9484E-03  4.6990E-03  4.6808E-03
  2  0.0000E+00  1.7040E-04  5.7865E-05  5.0497E-05  4.7626E-06  8.0745E-05  6.7238E-05  6.6554E-05  0.0000E+00
  3  0.0000E+00  2.8793E-04  2.2316E-04  3.2772E-05  9.3676E-05  1.5126E-04  0.0000E+00  1.7829E-05  2.5263E-05
  4  0.0000E+00  2.2131E-04  0.0000E+00  1.9401E-04  3.9426E-05  0.0000E+00  8.7097E-06  1.3786E-05  4.4769E-05
  5  0.0000E+00  4.1483E-04  3.1643E-04  2.1349E-04  1.1005E-06  1.8004E-04  1.3478E-04  0.0000E+00  1.8793E-04
  6  0.0000E+00  8.8228E-04  6.5160E-04  0.0000E+00  1.3224E-04  7.3868E-05  2.7374E-04  0.0000E+00  3.2642E-04
  7  0.0000E+00  1.2771E-03  2.5595E-04  1.7523E-04  4.5110E-04  3.7320E-04  7.3426E-04  2.7674E-04  0.0000E+00
  8  0.0000E+00  1.3872E-03  1.0411E-03  2.9310E-04  4.2436E-04  9.8598E-04  1.8578E-04  1.1378E-06  1.3791E-03
  9  0.0000E+00  1.6273E-03  6.9855E-04  1.1777E-03  1.8380E-05  0.0000E+00  1.5980E-03  2.3848E-04  4.2623E-04
 10  0.0000E+00  1.9152E-03  3.1805E-04  1.0133E-03  6.7252E-05  0.0000E+00  2.6452E-04  0.0000E+00  7.4589E-04
 11  0.0000E+00  3.7655E-03  1.3876E-03  2.5514E-03  1.5803E-03  2.5015E-03  0.0000E+00  5.7909E-05  2.4472E-03
 12  0.0000E+00  6.2463E-03  1.5248E-03  1.4296E-03  1.0046E-03  5.7698E-03  9.7076E-04  3.8513E-03  3.0224E-03
 13  0.0000E+00  2.0334E-02  3.0482E-03  6.1280E-03  7.3694E-03  6.7290E-03  1.0817E-02  0.0000E+00  5.1660E-03
 14  0.0000E+00  4.7879E-02  2.6892E-02  8.0414E-02  2.2755E-02  2.8547E-02  2.2412E-02  1.8476E-02  5.3364E-03
 15  0.0000E+00  7.7574E-02  5.7988E-02  2.4466E-02  6.1556E-02  1.3478E-02  8.7748E-02  0.0000E+00  1.0304E-03
 16  0.0000E+00  1.9770E-01  6.2999E-02  3.6474E-02  1.6494E-01  2.3842E-01  2.2337E-01  4.6469E-02  0.0000E+00
 17  0.0000E+00  6.4890E+01  6.4978E+01  6.6894E+01  6.9552E+01  6.8968E+01  6.7683E+01  6.8533E+01  6.9421E+01
 18  2.1398E-02  6.4819E-03  4.9877E-03  5.8605E-03  3.0603E-03  6.0093E-03  1.1489E-02  5.2692E-03  5.0325E-03
 19  0.0000E+00  1.8165E-04  4.0420E-05  2.1882E-04  3.9045E-05  4.9374E-05  0.0000E+00  0.0000E+00  6.2137E-05
 20  0.0000E+00  1.8784E-04  5.2980E-05  1.2395E-04  5.6194E-05  0.0000E+00  2.9995E-05  6.4207E-05  5.9223E-05
 21  0.0000E+00  2.9640E-04  6.2820E-05  2.9098E-04  7.5143E-05  8.0522E-05  0.0000E+00  5.1196E-05  4.2301E-05
 22  0.0000E+00  4.3613E-04  4.0725E-04  3.9792E-04  0.0000E+00  1.0530E-04  0.0000E+00  0.0000E+00  7.4178E-05
 23  0.0000E+00  7.3337E-04  4.6002E-05  0.0000E+00  2.9303E-04  4.0192E-04  3.7648E-04  0.0000E+00  1.5704E-04
 24  0.0000E+00  1.1355E-03  6.3846E-04  0.0000E+00  5.1715E-04  5.3160E-04  2.1787E-04  0.0000E+00  0.0000E+00
 25  0.0000E+00  1.2263E-03  2.6916E-04  0.0000E+00  7.3585E-04  0.0000E+00  9.6671E-04  0.0000E+00  3.7703E-04
 26  0.0000E+00  2.3623E-03  1.2019E-04  1.7827E-03  4.2749E-04  1.9455E-04  5.0408E-04  0.0000E+00  7.6927E-05
 27  0.0000E+00  5.3655E-03  2.3508E-03  2.5846E-03  0.0000E+00  0.0000E+00  4.0736E-03  2.2171E-03  0.0000E+00
 28  0.0000E+00  1.1070E-02  7.3342E-03  5.4693E-03  3.9783E-03  2.0540E-02  0.0000E+00  0.0000E+00  0.0000E+00
 29  0.0000E+00  2.4665E-02  8.8712E-03  3.1327E-03  1.0243E-02  1.3964E-02  6.3041E-03  1.7077E-04  0.0000E+00
 30  0.0000E+00  4.3392E-02  3.5595E-02  1.6140E-02  1.5289E-02  1.4669E-02  3.6299E-02  0.0000E+00  3.4177E-03
 31  0.0000E+00  7.6600E-02  5.2952E-02  0.0000E+00  1.5660E-02  8.9160E-02  4.6263E-02  0.0000E+00  0.0000E+00
 32  0.0000E+00  1.3505E-01  0.0000E+00  8.4091E-02  1.7071E-02  8.2947E-03  1.9640E-02  9.0347E-03  1.4632E-02
 33  0.0000E+00  2.0753E-01  1.1530E-01  1.2239E-01  7.7429E-02  7.3416E-02  1.3456E-01  1.7830E-01  1.2954E-01
 34  3.1979E+00  1.2052E+01  1.4695E+01  1.2319E+01  4.6180E+00  1.2687E+01  1.2701E+01  1.2653E+01  1.2298E+01
 35  0.0000E+00  6.3849E-03  6.0923E-03  6.3309E-03  6.4934E-03  6.4288E-03  5.5099E-03  6.9897E-03  7.0626E-03
 36  0.0000E+00  5.0058E-04  5.5256E-04  4.3661E-04  5.9762E-04  6.4361E-04  1.3315E-04  7.9253E-04  2.2611E-04
 37  0.0000E+00  2.0180E-04  0.0000E+00  3.7014E-04  4.9718E-05  2.3224E-04  2.4357E-04  5.5891E-07  0.0000E+00
 38  0.0000E+00  4.5213E-04  2.4047E-04  3.2291E-04  3.1300E-04  1.1018E-04  4.1676E-05  1.3180E-04  0.0000E+00
 39  0.0000E+00  9.5962E-04  3.2720E-05  3.9176E-04  0.0000E+00  0.0000E+00  1.9811E-05  0.0000E+00  0.0000E+00
 40  0.0000E+00  1.1194E-03  0.0000E+00  4.7025E-04  1.1204E-05  2.0203E-03  0.0000E+00  9.9463E-05  3.2483E-04
 41  0.0000E+00  1.7048E-03  0.0000E+00  4.4745E-04  7.0284E-04  4.8546E-05  1.1576E-03  6.8508E-04  1.6688E-04
 42  0.0000E+00  4.0565E-03  8.4535E-04  1.2667E-03  2.1768E-03  0.0000E+00  0.0000E+00  1.3315E-03  4.9433E-04
 43  0.0000E+00  5.1462E-03  1.1345E-03  6.2885E-03  2.0683E-03  7.6650E-03  3.9064E-03  4.5645E-05  6.2801E-05
 44  0.0000E+00  6.4836E-03  8.5408E-04  1.7618E-02  2.4616E-03  3.5909E-03  0.0000E+00  3.6337E-04  0.0000E+00
 45  0.0000E+00  1.4891E-02  1.0187E-02  9.6452E-03  0.0000E+00  7.4274E-03  4.1376E-03  5.9160E-05  0.0000E+00
 46  0.0000E+00  3.7835E-02  2.3139E-03  4.2288E-02  1.9189E-03  1.3135E-03  6.8802E-04  0.0000E+00  4.1435E-03
 47  0.0000E+00  5.5358E-02  0.0000E+00  3.5340E-02  0.0000E+00  1.8014E-02  1.1887E-02  2.9999E-03  3.5174E-02
 48  0.0000E+00  1.1517E-01  8.1874E-02  0.0000E+00  5.2225E-03  9.9601E-02  7.8557E-02  0.0000E+00  4.1789E-03
 49  0.0000E+00  2.4783E-01  4.0519E-02  5.8227E-02  0.0000E+00  7.8488E-02  1.3303E-01  3.2449E-02  0.0000E+00
 50  0.0000E+00  8.9470E-01  9.1718E-01  8.1705E-01  8.7854E-01  4.9032E-01  6.9109E-01  7.9844E-01  7.7030E-01
 51  0.0000E+00  1.5452E-02  1.6856E-02  1.7699E-02  1.4757E-02  1.4863E-02  1.5198E-02  1.4693E-02  1.5206E-02
 52  0.0000E+00  1.0542E-04  1.3023E-05  3.2447E-07  3.5769E-06  0.0000E+00  3.1013E-06  0.0000E+00  2.8234E-05
 53  0.0000E+00  1.4948E-04  0.0000E+00  0.0000E+00  0.0000E+00  2.6853E-05  7.1083E-05  1.0238E-05  1.4254E-05
 54  0.0000E+00  4.6763E-04  0.0000E+00  2.2365E-05  0.0000E+00  1.1689E-04  1.1613E-05  0.0000E+00  3.0533E-06
 55  0.0000E+00  4.3947E-04  8.9376E-05  1.3256E-04  1.1308E-05  3.9665E-04  4.3878E-05  1.9711E-05  3.8100E-05
 56  0.0000E+00  8.4863E-04  0.0000E+00  8.5248E-04  2.2216E-04  3.9644E-05  6.6204E-06  1.1628E-04  1.7583E-05
 57  0.0000E+00  1.4498E-03  0.0000E+00  8.8316E-04  3.1454E-04  2.4412E-03  8.1157E-05  4.8713E-05  0.0000E+00
 58  0.0000E+00  1.7929E-03  0.0000E+00  4.8831E-04  1.9036E-04  6.4400E-04  1.9833E-03  1.9534E-04  1.6048E-04
 59  0.0000E+00  6.5374E-03  8.7886E-04  2.8107E-03  1.6383E-03  0.0000E+00  2.7057E-03  0.0000E+00  0.0000E+00
 60  0.0000E+00  1.3770E-02  8.3676E-03  5.0491E-03  2.7496E-03  1.6052E-03  5.3244E-04  0.0000E+00  0.0000E+00
 61  0.0000E+00  3.0079E-02  7.0470E-04  9.5139E-03  6.9391E-03  1.2029E-02  1.4031E-02  2.8942E-03  1.6761E-02
 62  0.0000E+00  4.2148E-02  1.8087E-02  2.2209E-02  1.7450E-03  2.9862E-02  4.4419E-02  7.1291E-05  1.5903E-03
 63  0.0000E+00  7.8166E-02  7.5570E-03  4.3876E-02  4.4983E-03  7.6829E-03  3.5096E-02  0.0000E+00  1.4276E-03
 64  0.0000E+00  3.5608E-01  4.2545E-02  1.1755E-01  0.0000E+00  3.9557E-02  0.0000E+00  0.0000E+00  0.0000E+00
 65  0.0000E+00  5.8660E-01  3.0033E-01  1.0874E+00  4.1926E-04  1.3014E-01  1.1401E-01  2.2853E-02  3.3855E-02
 66  9.6727E+01  1.9648E+01  1.8479E+01  1.8080E+01  2.4483E+01  1.6861E+01  1.7844E+01  1.7660E+01  1.7212E+01

# AV, chi2 & Mass for <> & i_chain = 1 ...  7 solutions
AV      -0.5423      0.4861      0.4640      0.5094      0.4595      0.4724      0.4773      0.4387      0.4450
chi2 4.3588E-05  1.0249E-04  1.0128E-04  1.0121E-04  1.0078E-04  1.0075E-04  1.0110E-04  1.0053E-04  1.0058E-04
Mass 6.4369E-13  8.7990E-13  9.0813E-13  9.3040E-13  9.2635E-13  8.9739E-13  9.0781E-13  8.9027E-13  8.9029E-13
  78.54                                  [v0_min (km/s) before EX0s...]
  95.78                                  [vd_min (km/s) before EX0s...]


## Synthetic spectrum (Best Model) ##l_obs f_obs f_syn wei
 3478    [Nl_obs]
 3741.00    0.48385   1.00330    0.000
 3742.00    0.50646   1.01497    0.000
 3743.00    0.44729   0.99731    0.000
 3744.00    0.35069   0.96223    0.000
 3745.00    0.23227   0.92489   -1.000
 3746.00    0.24489   0.89341   -1.000
 3747.00    0.32406   0.86769   -1.000
 3748.00    0.39678   0.84373   -1.000
 3749.00    0.46665   0.82208   -1.000
 3750.00    0.61880   0.81470   -1.000
 3751.00    0.80201   0.83525   -1.000
 3752.00    0.73619   0.88171   -1.000
 3753.00    0.59056   0.93812   -1.000
 3754.00    0.74893   0.99065   -1.000
 3755.00    0.98876   1.03066   -1.000
 3756.00    0.94224   1.04677   -1.000
 3757.00    0.83286   1.03013   -1.000
 3758.00    0.74911   0.99038   -1.000
 3759.00    0.66984   0.95502   -1.000
 3760.00    0.61230   0.94589   -1.000
 3761.00    0.55766   0.96054   -1.000
 3762.00    0.58506   0.97872   -1.000
 3763.00    0.62016   0.98351   -1.000
 3764.00    0.68114   0.97526   -1.000
 3765.00    0.74360   0.96431   -1.000
 3766.00    0.66789   0.95426   -1.000
 3767.00    0.59064   0.94271   -1.000
 3768.00    0.72325   0.93474   -1.000
 3769.00    0.85175   0.93818   -1.000
 3770.00    0.88042   0.95013   -1.000
 3771.00    0.88789   0.96419   -1.000
 3772.00    0.61764   0.98239   -1.000
 3773.00    0.36518   1.00651   -1.000
 3774.00    0.26892   1.02918   -1.000
 3775.00    0.22109   1.04371   -1.000
 3776.00    0.48729   1.05325   -1.000
 3777.00    0.84778   1.06416   -1.000
 3778.00    1.68549   1.07799   -1.000
 3779.00    2.21115   1.09421   -1.000
 3780.00    1.45949   1.11248   -1.000
 3781.00    0.84161   1.12917   -1.000
 3782.00    0.67749   1.13949   -1.000
 3783.00    0.53679   1.14367   -1.000
 3784.00    0.46306   1.14249   -1.000
 3785.00    0.44214   1.12946   -1.000
 3786.00    0.55029   1.09719   -1.000
 3787.00    0.43000   1.05148   -1.000
 3788.00   -0.17176   1.00911    0.000
 3789.00   -0.24987   0.98189    0.000
 3790.00    0.63118   0.97141   -1.000
 3791.00    1.16356   0.97348   -1.000
 3792.00    1.13782   0.97791   -1.000
 3793.00    0.96734   0.97058   -1.000
 3794.00    0.59354   0.94522   -1.000
 3795.00    0.46296   0.90906   -1.000
 3796.00    0.63298   0.87289   -1.000
 3797.00    0.68970   0.84035   -1.000
 3798.00    0.62299   0.81248   -1.000
 3799.00    0.55317   0.79947   -1.000
 3800.00    0.48035   0.81579   -1.000
 3801.00    0.31450   0.86168   -1.000
 3802.00    0.06982   0.92031   -1.000
 3803.00    0.12558   0.97359   -1.000
 3804.00    0.40555   1.01211   -1.000
 3805.00    0.56933   1.03170   -1.000
 3806.00    0.65692   1.03190   -1.000
 3807.00    0.68394   1.02055   -1.000
 3808.00    0.67619   1.01317   -1.000
 3809.00    0.69686   1.02066   -1.000
 3810.00    0.73173   1.03849   -1.000
 3811.00    0.41235   1.05206   -1.000
 3812.00   -0.06023   1.04974    0.000
 3813.00    0.13933   1.02935   -1.000
 3814.00    0.58817   0.99771   -1.000
 3815.00    0.78112   0.96578   -1.000
 3816.00    0.89364   0.94212   -1.000
 3817.00    0.79770   0.92874   -1.000
 3818.00    0.64708   0.91863   -1.000
 3819.00    0.62478   0.90041   -1.000
 3820.00    0.62996   0.87422   -1.000
 3821.00    0.63485   0.85704   -1.000
 3822.00    0.63970   0.86193   -1.000
 3823.00    0.62599   0.87938   -1.000
 3824.00    0.60989   0.88859   -1.000
 3825.00    0.66364   0.88112   -1.000
 3826.00    0.72365   0.86599   -1.000
 3827.00    0.28187   0.85530   -1.000
 3828.00   -0.18689   0.85229    0.000
 3829.00    0.29139   0.85270   -1.000
 3830.00    0.77985   0.85048   -1.000
 3831.00    0.52720   0.83959   -1.000
 3832.00    0.27252   0.81534   -1.000
 3833.00   -0.02734   0.77912    0.000
 3834.00   -0.26655   0.74109    0.000
 3835.00    0.24818   0.71488   -1.000
 3836.00    0.68760   0.70877   -1.000
 3837.00    0.49058   0.72012   -1.000
 3838.00    0.32865   0.73893   -1.000
 3839.00    0.38744   0.75807   -1.000
 3840.00    0.48730   0.77830   -1.000
 3841.00    0.78974   0.80472   -1.000
 3842.00    1.08174   0.84065   -1.000
 3843.00    1.33192   0.88218   -1.000
 3844.00    1.44209   0.91864   -1.000
 3845.00    1.08673   0.94169   -1.000
 3846.00    0.63671   0.95219   -1.000
 3847.00   -0.07916   0.95612    0.000
 3848.00   -0.35918   0.95626    0.000
 3849.00    0.40761   0.95073    0.000
 3850.00    0.92191   0.94086    0.000
 3851.00    0.91255   0.93501    0.000
 3852.00    0.83759   0.93870    0.000
 3853.00    0.64434   0.94567    0.000
 3854.00    0.42444   0.94573    0.000
 3855.00    0.16252   0.93652    0.000
 3856.00    0.30936   0.92266    0.000
 3857.00    1.02209   0.90863    0.000
 3858.00    1.24966   0.89561    0.000
 3859.00    0.88608   0.88303    0.000
 3860.00    0.61838   0.87404    0.000
 3861.00    0.45364   0.87692    0.000
 3862.00    0.36310   0.89603    0.000
 3863.00    0.34287   0.92332    0.000
 3864.00    0.26760   0.94374    0.000
 3865.00    0.14635   0.94908    0.000
 3866.00    0.16165   0.94322    0.000
 3867.00    0.27738   0.93445    0.000
 3868.00    0.44228   0.92698    0.000
 3869.00    0.63895   0.91985    0.000
 3870.00    0.75644   0.91010    0.000
 3871.00    0.82919   0.89719    0.000
 3872.00    0.70559   0.88678    0.000
 3873.00    0.48541   0.88858    0.000
 3874.00    0.34736   0.90692    0.000
 3875.00    0.24423   0.93294    0.000
 3876.00    0.36979   0.94904    0.000
 3877.00    0.57866   0.94362    0.000
 3878.00    0.75043   0.92160    0.000
 3879.00    0.91076   0.89923    0.000
 3880.00    0.80876   0.88783    0.000
 3881.00    0.63941   0.88427   -1.000
 3882.00    0.47926   0.88134   -1.000
 3883.00    0.32104   0.88069   -1.000
 3884.00    0.49963   0.88362   -1.000
 3885.00    0.73377   0.87693   -1.000
 3886.00    0.65039   0.84612   -1.000
 3887.00    0.52769   0.79874   -1.000
 3888.00    0.60004   0.75908   -1.000
 3889.00    0.68909   0.74592   -1.000
 3890.00    0.75834   0.76583   -1.000
 3891.00    0.82660   0.81556   -1.000
 3892.00    1.07090   0.87994   -1.000
 3893.00    1.30413   0.93630   -1.000
 3894.00    0.63649   0.96883   -1.000
 3895.00    0.01220   0.97865   -1.000
 3896.00    0.27466   0.97992   -1.000
 3897.00    0.51388   0.98497   -1.000
 3898.00    0.47812   0.99259   -1.000
 3899.00    0.45174   0.99516   -1.000
 3900.00    0.50173   0.99429   -1.000
 3901.00    0.52654   0.99872   -1.000
 3902.00    0.39759   1.00827   -1.000
 3903.00    0.27496   1.01312   -1.000
 3904.00    0.18269   1.00856   -1.000
 3905.00    0.16687   0.99890   -1.000
 3906.00    0.45040   0.99142   -1.000
 3907.00    0.68336   0.99518   -1.000
 3908.00    0.75148   1.01597   -1.000
 3909.00    0.74924   1.04730   -1.000
 3910.00    0.55301   1.07527   -1.000
 3911.00    0.38642   1.09286   -1.000
 3912.00    0.28983   1.10292   -1.000
 3913.00    0.34889   1.10912   -1.000
 3914.00    0.72561   1.11084   -1.000
 3915.00    0.92761   1.10619   -1.000
 3916.00    0.81930   1.09469   -1.000
 3917.00    0.68901   1.07729   -1.000
 3918.00    0.52457   1.05539   -1.000
 3919.00    0.45982   1.02831   -1.000
 3920.00    0.53111   0.99522   -1.000
 3921.00    0.54356   0.96155   -1.000
 3922.00    0.48534   0.93793   -1.000
 3923.00    0.38190   0.93053   -1.000
 3924.00    0.23057   0.93544   -1.000
 3925.00    0.15637   0.94165   -1.000
 3926.00    0.15420   0.93817   -1.000
 3927.00    0.11696   0.92117   -1.000
 3928.00    0.05085   0.89517   -1.000
 3929.00    0.07879   0.86724   -1.000
 3930.00    0.17490   0.84176   -1.000
 3931.00    0.31400   0.82025   -1.000
 3932.00    0.48047   0.80330   -1.000
 3933.00    0.23825   0.79141   -1.000
 3934.00   -0.23141   0.78475    0.000
 3935.00   -0.39540   0.78385    0.000
 3936.00   -0.41142   0.79099    0.000
 3937.00   -0.45398   0.80886    0.000
 3938.00   -0.50762   0.83675    0.000
 3939.00   -0.15721   0.86935    0.000
 3940.00    0.33773   0.89881   -1.000
 3941.00    0.63237   0.91812   -1.000
 3942.00    0.86646   0.92453   -1.000
 3943.00    1.12290   0.92116   -1.000
 3944.00    1.38494   0.91697   -1.000
 3945.00    0.97054   0.92429   -1.000
 3946.00    0.41819   0.94888   -1.000
 3947.00    0.15937   0.98086   -1.000
 3948.00   -0.05246   1.00534    0.000
 3949.00    0.15510   1.02125   -1.000
 3950.00    0.41273   1.03821   -1.000
 3951.00    0.38584   1.05725   -1.000
 3952.00    0.33579   1.06886   -1.000
 3953.00    0.49272   1.07046   -1.000
 3954.00    0.65916   1.07092   -1.000
 3955.00    0.48148   1.07315   -1.000
 3956.00    0.30054   1.06799   -1.000
 3957.00    0.17879   1.05172   -1.000
 3958.00    0.07779   1.03346   -1.000
 3959.00    0.36994   1.01806   -1.000
 3960.00    0.62319   0.99505    0.000
 3961.00    0.43803   0.95316    0.000
 3962.00    0.28711   0.89879    0.000
 3963.00    0.40524   0.85057    0.000
 3964.00    0.50440   0.81710    0.000
 3965.00    0.49099   0.78932    0.000
 3966.00    0.47124   0.75459    0.000
 3967.00    0.42177   0.70981    0.000
 3968.00    0.34907   0.66072    0.000
 3969.00    0.18742   0.61684    0.000
 3970.00    0.05355   0.58989    0.000
 3971.00    0.00850   0.59135    0.000
 3972.00    0.05168   0.62491    0.000
 3973.00    0.33383   0.68228    0.000
 3974.00    0.47730   0.74978    0.000
 3975.00    0.29874   0.81706    0.000
 3976.00    0.21883   0.87847    0.000
 3977.00    0.33705   0.93200    0.000
 3978.00    0.47363   0.97947    0.000
 3979.00    0.64230   1.02336    0.000
 3980.00    0.63920   1.06131    0.000
 3981.00    0.37312   1.08658   -1.000
 3982.00    0.33296   1.09579   -1.000
 3983.00    0.59665   1.09500   -1.000
 3984.00    0.73985   1.09557   -1.000
 3985.00    0.74039   1.10461   -1.000
 3986.00    0.67581   1.12124   -1.000
 3987.00    0.54324   1.14065   -1.000
 3988.00    0.53773   1.15809   -1.000
 3989.00    0.64924   1.16820   -1.000
 3990.00    0.66596   1.16817   -1.000
 3991.00    0.60572   1.16463   -1.000
 3992.00    0.65830   1.16783   -1.000
 3993.00    0.79151   1.17789   -1.000
 3994.00    0.88864   1.18488   -1.000
 3995.00    0.96314   1.18103   -1.000
 3996.00    0.82932   1.16724   -1.000
 3997.00    0.58132   1.15107   -1.000
 3998.00    0.68081   1.14367   -1.000
 3999.00    0.94583   1.15498   -1.000
 4000.00    0.95051   1.18398   -1.000
 4001.00    0.84817   1.21668   -1.000
 4002.00    0.90489   1.23894   -1.000
 4003.00    1.01745   1.24412   -1.000
 4004.00    0.98929   1.22718   -1.000
 4005.00    0.91943   1.18791   -1.000
 4006.00    0.76124   1.14442   -1.000
 4007.00    0.58137   1.12490   -1.000
 4008.00    0.47269   1.13885   -1.000
 4009.00    0.37818   1.16936   -1.000
 4010.00    0.45741   1.19569   -1.000
 4011.00    0.56363   1.21129   -1.000
 4012.00    0.66643   1.22054   -1.000
 4013.00    0.76884   1.22886   -1.000
 4014.00    0.72142   1.23863   -1.000
 4015.00    0.66241   1.24913   -1.000
 4016.00    0.94241   1.25643   -1.000
 4017.00    1.23669   1.25630   -1.000
 4018.00    1.12107   1.25145   -1.000
 4019.00    1.00000   1.25043   -1.000
 4020.00    0.80424   1.25442   -1.000
 4021.00    0.63102   1.25434   -1.000
 4022.00    0.85509   1.24380   -1.000
 4023.00    1.06256   1.22427   -1.000
 4024.00    1.09134   1.19874   -1.000
 4025.00    1.10983   1.17245   -1.000
 4026.00    1.05018   1.15787   -1.000
 4027.00    0.99672   1.16670   -1.000
 4028.00    0.97892   1.19360   -1.000
 4029.00    0.90697   1.21272   -1.000
 4030.00    0.58682   1.19752   -1.000
 4031.00    0.39056   1.14738   -1.000
 4032.00    0.65903   1.08845   -1.000
 4033.00    0.86837   1.04760   -1.000
 4034.00    0.89235   1.03619   -1.000
 4035.00    0.85749   1.05676   -1.000
 4036.00    0.66611   1.10732   -1.000
 4037.00    0.81973   1.17508    0.415
 4038.00    1.76115   1.23628    0.097
 4039.00    2.24647   1.26980    0.064
 4040.00    1.83011   1.27172    0.063
 4041.00    1.55286   1.25569    0.062
 4042.00    1.51526   1.23662    0.061
 4043.00    1.39782   1.21219    0.060
 4044.00    1.15995   1.16589    0.059
 4045.00    1.16277   1.09508    0.059
 4046.00    1.48461   1.02968    0.061
 4047.00    1.40378   1.01063    0.060
 4048.00    0.85281   1.05004    0.058
 4049.00    0.63629   1.12170    0.057
 4050.00    0.76409   1.18957    0.058
 4051.00    0.98049   1.23372    0.059
 4052.00    1.27733   1.25073    0.060
 4053.00    1.41633   1.24470    0.059
 4054.00    1.42899   1.22316    0.058
 4055.00    1.33039   1.19540    0.057
 4056.00    1.15346   1.16937    0.057
 4057.00    1.07487   1.14811    0.057
 4058.00    1.05702   1.13258    0.057
 4059.00    1.14867   1.12809    0.057
 4060.00    1.29940   1.13811    0.058
 4061.00    1.43723   1.14979    0.058
 4062.00    1.56901   1.13885    0.059
 4063.00    1.58754   1.09743    0.059
 4064.00    1.56030   1.05058    0.059
 4065.00    1.34428   1.03353    0.058
 4066.00    1.06318   1.05389    0.058
 4067.00    1.07752   1.08994    0.058
 4068.00    1.17765   1.12260    0.058
 4069.00    1.27709   1.14734    0.058
 4070.00    1.37635   1.15686    0.058
 4071.00    1.32108   1.14117    0.058
 4072.00    1.23588   1.11176    0.058
 4073.00    1.15852   1.09978    0.058
 4074.00    1.08235   1.11691    0.057
 4075.00    1.10691   1.13750    0.058
 4076.00    1.14261   1.13128    0.059
 4077.00    1.11442   1.10001    0.058
 4078.00    1.08155   1.07411    0.058
 4079.00    1.12556   1.08144    0.059
 4080.00    1.17251   1.12459    0.060
 4081.00    1.46152   1.18182    0.061
 4082.00    1.74593   1.22390    0.062
 4083.00    1.80663   1.23426    0.061
 4084.00    1.86839   1.21964    0.059
 4085.00    1.94753   1.20186    0.059
 4086.00    2.02183   1.20002    0.059
 4087.00    2.04641   1.21993    0.059
 4088.00    2.04476   1.25321    0.060
 4089.00    1.85060   1.28250    0.060
 4090.00    1.72140   1.29300    0.060
 4091.00    1.95663   1.28274    0.060
 4092.00    2.08723   1.26144    0.000
 4093.00    1.74967   1.24047    0.000
 4094.00    1.44854   1.22170    0.000
 4095.00    1.28118   1.19537    0.000
 4096.00    1.19664   1.15441    0.000
 4097.00    1.36679   1.10742    0.000
 4098.00    1.43860   1.06816    0.000
 4099.00    1.25335   1.03653    0.000
 4100.00    1.09796   0.99975    0.000
 4101.00    1.00959   0.95347    0.000
 4102.00    0.92201   0.91510    0.000
 4103.00    0.83599   0.90927    0.000
 4104.00    0.81708   0.94260    0.000
 4105.00    0.91205   1.00066    0.000
 4106.00    1.05124   1.06382    0.000
 4107.00    1.25615   1.11633    0.000
 4108.00    1.31260   1.14723    0.000
 4109.00    1.17507   1.15392    0.000
 4110.00    1.15635   1.14361    0.000
 4111.00    1.27439   1.12889    0.000
 4112.00    1.33413   1.12199    0.000
 4113.00    1.33469   1.12948    0.054
 4114.00    1.22042   1.14855    0.053
 4115.00    1.00334   1.16948    0.053
 4116.00    0.95037   1.18366    0.053
 4117.00    1.02690   1.18655    0.052
 4118.00    1.14832   1.17580    0.052
 4119.00    1.30090   1.15477    0.051
 4120.00    1.40950   1.13524    0.052
 4121.00    1.49133   1.12701    0.052
 4122.00    1.53570   1.12898    0.053
 4123.00    1.56017   1.13613    0.053
 4124.00    1.54586   1.14831    0.054
 4125.00    1.51367   1.16502    0.054
 4126.00    1.25164   1.17810    0.053
 4127.00    0.89834   1.17804    0.052
 4128.00    0.79583   1.16473    0.052
 4129.00    0.77820   1.14559    0.053
 4130.00    0.91859   1.12504    0.053
 4131.00    1.10395   1.10100    0.053
 4132.00    1.18972   1.07268    0.053
 4133.00    1.25210   1.04837    0.052
 4134.00    1.39042   1.04143    0.053
 4135.00    1.54307   1.05903    0.055
 4136.00    1.53792   1.09478    0.055
 4137.00    1.50973   1.13227    0.056
 4138.00    1.47315   1.15820    0.055
 4139.00    1.43568   1.17025    0.055
 4140.00    1.49696   1.17031    0.056
 4141.00    1.56508   1.15403    0.056
 4142.00    1.24053   1.11306    0.055
 4143.00    0.90245   1.05144    0.054
 4144.00    1.15286   0.99622    0.055
 4145.00    1.39428   0.97968    0.055
 4146.00    1.30000   1.00735    0.055
 4147.00    1.20677   1.05332    0.055
 4148.00    1.12974   1.08709    0.055
 4149.00    1.03486   1.09644    0.054
 4150.00    0.76411   1.08745    0.054
 4151.00    0.57766   1.07315    0.054
 4152.00    0.98964   1.06285    0.055
 4153.00    1.29432   1.05786    0.056
 4154.00    1.01318   1.05488    0.055
 4155.00    0.78976   1.05189    0.054
 4156.00    0.81855   1.05031    0.054
 4157.00    0.85918   1.05439    0.053
 4158.00    0.94237   1.06893    0.053
 4159.00    1.05870   1.09385    0.053
 4160.00    1.27507   1.12155    0.053
 4161.00    1.41250   1.14400    0.052
 4162.00    1.34723   1.16006    0.052
 4163.00    1.31072   1.17034    0.053
 4164.00    1.33774   1.17043    0.053
 4165.00    1.30051   1.15651    0.053
 4166.00    1.14021   1.13264    0.052
 4167.00    0.98630   1.10817    0.051
 4168.00    0.84308   1.09290    0.051
 4169.00    0.88731   1.09262    0.051
 4170.00    1.20612   1.10188    0.051
 4171.00    1.35121   1.10394    0.051
 4172.00    1.27257   1.08584    0.051
 4173.00    1.10460   1.05393    0.050
 4174.00    0.83528   1.02851    0.050
 4175.00    0.75910   1.02239    0.049
 4176.00    0.87624   1.03045    0.049
 4177.00    0.94924   1.04032    0.049
 4178.00    0.98327   1.04708    0.049
 4179.00    1.04899   1.05394    0.049
 4180.00    1.13936   1.06208    0.049
 4181.00    1.11527   1.06737    0.049
 4182.00    1.01289   1.06889    0.048
 4183.00    0.97103   1.07410    0.047
 4184.00    0.96546   1.09000    0.048
 4185.00    1.10419   1.11102    0.049
 4186.00    1.31841   1.11999    0.050
 4187.00    1.32305   1.10672    0.050
 4188.00    1.23262   1.08386    0.049
 4189.00    1.12331   1.07393    0.048
 4190.00    1.00664   1.08261    0.048
 4191.00    1.06711   1.09754    0.048
 4192.00    1.18642   1.11030    0.048
 4193.00    1.27852   1.12213    0.048
 4194.00    1.36304   1.12865    0.049
 4195.00    1.31879   1.11747    0.048
 4196.00    1.24499   1.08465    0.048
 4197.00    1.24162   1.04187    0.049
 4198.00    1.25120   1.00502    0.049
 4199.00    1.12100   0.98295    0.049
 4200.00    0.97105   0.97580    0.049
 4201.00    1.01476   0.97790    0.048
 4202.00    1.07821   0.98503    0.048
 4203.00    0.94414   1.00010    0.048
 4204.00    0.79721   1.02705    0.048
 4205.00    0.97349   1.06267    0.048
 4206.00    1.15956   1.09927    0.048
 4207.00    1.25733   1.13077    0.047
 4208.00    1.34723   1.15291    0.047
 4209.00    1.20614   1.16151    0.048
 4210.00    1.06974   1.15672    0.049
 4211.00    1.00155   1.14678    0.050
 4212.00    0.92832   1.13973    0.050
 4213.00    0.80741   1.13181    0.048
 4214.00    0.73162   1.11205    0.046
 4215.00    0.96608   1.08105    0.048
 4216.00    1.17650   1.06036    0.049
 4217.00    1.25923   1.07493    0.049
 4218.00    1.37289   1.12502    0.049
 4219.00    1.61869   1.18462    0.049
 4220.00    1.70637   1.22676    0.050
 4221.00    1.23696   1.24016    0.049
 4222.00    0.89081   1.22330    0.048
 4223.00    0.90969   1.17697    0.048
 4224.00    0.86796   1.10527    0.047
 4225.00    0.67325   1.01692    0.047
 4226.00    0.66008   0.92756    0.047
 4227.00    1.04141   0.86394    0.048
 4228.00    1.28295   0.85535    0.048
 4229.00    1.26087   0.90915    0.047
 4230.00    1.24222   0.99970    0.046
 4231.00    1.22922   1.08658    0.046
 4232.00    1.23676   1.13905    0.045
 4233.00    1.27393   1.14962    0.045
 4234.00    1.21197   1.13307    0.045
 4235.00    1.02415   1.11017    0.044
 4236.00    1.02390   1.09291    0.043
 4237.00    1.23353   1.08583    0.044
 4238.00    1.30475   1.09038    0.044
 4239.00    1.23939   1.10431    0.043
 4240.00    1.30186   1.12414    0.043
 4241.00    1.47558   1.14882    0.043
 4242.00    1.51344   1.17729    0.044
 4243.00    1.44712   1.20782    0.044
 4244.00    1.38872   1.23981    0.045
 4245.00    1.33567   1.26753    0.045
 4246.00    1.20973   1.27639    0.045
 4247.00    1.04077   1.25526    0.045
 4248.00    0.84060   1.20940    0.045
 4249.00    0.62435   1.15465    0.045
 4250.00    0.56161   1.10510    0.045
 4251.00    0.56735   1.07202    0.044
 4252.00    0.72199   1.06154    0.044
 4253.00    0.93372   1.06458    0.045
 4254.00    1.06894   1.06422    0.045
 4255.00    1.17922   1.06042    0.045
 4256.00    1.25640   1.07184    0.044
 4257.00    1.32455   1.10482    0.044
 4258.00    1.39769   1.13521    0.044
 4259.00    1.47196   1.13375    0.044
 4260.00    1.40046   1.10086    0.045
 4261.00    1.30289   1.06895    0.045
 4262.00    1.32544   1.07288    0.045
 4263.00    1.36442   1.11963    0.044
 4264.00    1.39411   1.18582    0.044
 4265.00    1.42289   1.24140    0.045
 4266.00    1.39188   1.26960    0.045
 4267.00    1.35722   1.26692    0.045
 4268.00    1.37841   1.23707    0.044
 4269.00    1.40082   1.18701    0.043
 4270.00    1.36795   1.12223    0.043
 4271.00    1.33901   1.04871    0.043
 4272.00    1.41384   0.98179    0.043
 4273.00    1.47815   0.94160    0.044
 4274.00    1.39802   0.93500    0.044
 4275.00    1.31018   0.95564    0.044
 4276.00    1.15235   0.99936    0.043
 4277.00    1.01339   1.06324    0.043
 4278.00    1.00004   1.13225    0.043
 4279.00    1.00100   1.18008    0.043
 4280.00    1.07601   1.19002    0.043
 4281.00    1.15180   1.17160    0.044
 4282.00    1.23088   1.14969   -2.000
 4283.00    1.33935   1.14064   -2.000
 4284.00    1.54928   1.14207   -2.000
 4285.00    1.70278   1.14193   -2.000
 4286.00    1.69228   1.13415   -2.000
 4287.00    1.54181   1.12086   -2.000
 4288.00    1.04422   1.10085   -2.000
 4289.00    0.63300   1.06796   -2.000
 4290.00    0.40643   1.02743   -2.000
 4291.00    0.47176   1.00190   -2.000
 4292.00    1.07906   1.01034   -2.000
 4293.00    1.46637   1.04561   -2.000
 4294.00    1.49691   1.08123   -2.000
 4295.00    1.37347   1.09938   -2.000
 4296.00    1.03099   1.10013   -2.000
 4297.00    0.83978   1.08650   -2.000
 4298.00    0.83789   1.05525    0.045
 4299.00    0.85546   1.00613    0.045
 4300.00    0.89450   0.95352    0.045
 4301.00    0.92437   0.91882    0.045
 4302.00    0.94531   0.91060    0.045
 4303.00    1.00800   0.91993    0.045
 4304.00    1.10649   0.93255    0.045
 4305.00    1.09426   0.93714    0.045
 4306.00    0.99836   0.92676    0.045
 4307.00    0.96627   0.90083    0.045
 4308.00    0.97657   0.86876    0.044
 4309.00    1.01840   0.84827    0.044
 4310.00    1.07856   0.85443    0.044
 4311.00    1.12310   0.88928    0.044
 4312.00    1.15972   0.94252    0.043
 4313.00    1.19263   1.00113    0.043
 4314.00    1.22392   1.05936    0.042
 4315.00    1.18780   1.12300    0.042
 4316.00    1.12628   1.19977    0.042
 4317.00    1.11180   1.28077    0.042
 4318.00    1.11237   1.34169    0.043
 4319.00    1.14239   1.36521    0.043
 4320.00    1.18028   1.35439    0.044
 4321.00    1.26799   1.32338    0.044
 4322.00    1.36659   1.28093    0.045
 4323.00    1.46907   1.22312    0.045
 4324.00    1.57223   1.14430    0.045
 4325.00    1.28451   1.05583    0.044
 4326.00    0.94509   0.99243    0.043
 4327.00    0.89089   0.99190    0.042
 4328.00    0.86333   1.06011    0.042
 4329.00    1.30141   1.15962    0.043
 4330.00    1.76611   1.23976    0.000
 4331.00    1.60425   1.27835    0.000
 4332.00    1.42820   1.28925    0.000
 4333.00    1.29557   1.29562    0.000
 4334.00    1.17889   1.30708    0.000
 4335.00    1.44521   1.31599    0.000
 4336.00    1.69618   1.30237    0.000
 4337.00    1.74740   1.24746    0.000
 4338.00    1.76205   1.15462    0.000
 4339.00    1.45720   1.05198    0.000
 4340.00    1.17219   0.97332    0.000
 4341.00    1.01534   0.94271    0.000
 4342.00    0.90336   0.96634    0.000
 4343.00    1.01777   1.02712    0.000
 4344.00    1.10672   1.09630    0.000
 4345.00    1.09178   1.15529    0.000
 4346.00    1.11655   1.20019    0.000
 4347.00    1.27565   1.23439    0.000
 4348.00    1.38970   1.26424    0.000
 4349.00    1.37524   1.29049    0.000
 4350.00    1.34293   1.29693    0.000
 4351.00    1.26711   1.26366    0.042
 4352.00    1.23899   1.19972    0.042
 4353.00    1.31122   1.14540    0.042
 4354.00    1.41113   1.13307    0.042
 4355.00    1.56164   1.16051    0.041
 4356.00    1.54744   1.20482    0.041
 4357.00    1.27008   1.24456    0.041
 4358.00    1.12926   1.26532    0.040
 4359.00    1.17986   1.26409    0.040
 4360.00    1.28739   1.25524    0.040
 4361.00    1.46515   1.25934    0.040
 4362.00    1.64448   1.28158    0.041
 4363.00    1.82553   1.31068    0.042
 4364.00    1.87702   1.33685    0.042
 4365.00    1.80423   1.35643    0.041
 4366.00    1.56624   1.36159    0.040
 4367.00    1.18850   1.34308    0.040
 4368.00    1.00729   1.30635    0.040
 4369.00    0.97247   1.27169    0.040
 4370.00    1.10756   1.25445    0.040
 4371.00    1.35382   1.25260    0.041
 4372.00    1.44559   1.25227    0.041
 4373.00    1.44889   1.23856    0.040
 4374.00    1.31960   1.20601    0.040
 4375.00    1.12419   1.16631    0.039
 4376.00    1.06105   1.14452    0.039
 4377.00    1.05501   1.15859    0.040
 4378.00    1.19134   1.19981    0.041
 4379.00    1.38035   1.23812    0.042
 4380.00    1.32033   1.24639    0.041
 4381.00    1.18223   1.21495    0.041
 4382.00    0.99333   1.14603    0.040
 4383.00    0.79115   1.05115    0.040
 4384.00    0.78427   0.96068    0.039
 4385.00    0.81911   0.91673    0.039
 4386.00    0.95256   0.93947    0.039
 4387.00    1.10269   1.00528    0.039
 4388.00    1.20855   1.06968    0.040
 4389.00    1.30876   1.10615    0.040
 4390.00    1.08262   1.11839    0.039
 4391.00    0.82737   1.12494    0.039
 4392.00    0.99463   1.13884    0.040
 4393.00    1.18440   1.15870    0.041
 4394.00    1.23744   1.17565    0.041
 4395.00    1.28749   1.18847    0.040
 4396.00    1.31144   1.20828    0.040
 4397.00    1.32708   1.24204    0.040
 4398.00    1.16033   1.27680    0.040
 4399.00    0.99843   1.28944    0.040
 4400.00    0.89659   1.27136    0.039
 4401.00    0.81910   1.23870    0.039
 4402.00    0.94649   1.21171    0.040
 4403.00    1.03708   1.18579    0.041
 4404.00    0.89705   1.14089    0.040
 4405.00    0.75477   1.07953    0.040
 4406.00    0.60142   1.03306    0.040
 4407.00    0.54581   1.02527    0.040
 4408.00    0.88035   1.05199    0.040
 4409.00    1.13198   1.09939    0.041
 4410.00    1.10865   1.16035    0.040
 4411.00    1.10100   1.22701    0.040
 4412.00    1.13725   1.28242    0.040
 4413.00    1.19452   1.30551    0.040
 4414.00    1.30216   1.28362    0.040
 4415.00    1.36994   1.22827    0.040
 4416.00    1.35523   1.17593    0.040
 4417.00    1.38176   1.16185    0.040
 4418.00    1.48251   1.19336    0.041
 4419.00    1.45452   1.24906    0.041
 4420.00    1.22385   1.29641    0.040
 4421.00    1.13092   1.31143    0.040
 4422.00    1.22833   1.29125    0.040
 4423.00    1.31342   1.25528    0.040
 4424.00    1.38354   1.22890    0.040
 4425.00    1.39185   1.22220    0.040
 4426.00    1.33388   1.22781    0.040
 4427.00    1.21894   1.23612    0.040
 4428.00    1.05013   1.24401    0.040
 4429.00    1.10615   1.24890    0.040
 4430.00    1.34965   1.24654    0.041
 4431.00    1.31503   1.24019    0.040
 4432.00    1.07620   1.23668    0.040
 4433.00    0.95369   1.23141    0.040
 4434.00    0.90617   1.21169    0.041
 4435.00    1.00648   1.17806    0.041
 4436.00    1.19017   1.15393    0.041
 4437.00    1.04876   1.16569    0.041
 4438.00    0.74776   1.21548    0.041
 4439.00    0.85106   1.27725    0.041
 4440.00    1.12593   1.31545    0.041
 4441.00    1.16108   1.31010    0.041
 4442.00    1.10912   1.27044    0.041
 4443.00    1.17492   1.22788    0.041
 4444.00    1.27695   1.21420    0.041
 4445.00    1.19230   1.23971    0.041
 4446.00    1.05986   1.28685    0.041
 4447.00    1.15638   1.32784    0.040
 4448.00    1.30061   1.34934    0.040
 4449.00    1.21289   1.35403    0.040
 4450.00    1.08707   1.34820    0.039
 4451.00    1.16586   1.33691    0.039
 4452.00    1.26988   1.32121    0.040
 4453.00    1.39112   1.29609    0.040
 4454.00    1.51383   1.25597    0.040
 4455.00    1.47345   1.20555    0.040
 4456.00    1.42503   1.16220    0.039
 4457.00    1.39797   1.14014    0.039
 4458.00    1.36951   1.13611    0.039
 4459.00    1.23210   1.13608    0.038
 4460.00    1.09655   1.13045    0.038
 4461.00    0.99854   1.12043    0.000
 4462.00    0.92485   1.11769    0.000
 4463.00    1.13700   1.13624    0.000
 4464.00    1.33231   1.17526    0.000
 4465.00    1.39103   1.21647    0.000
 4466.00    1.42940   1.24228    0.000
 4467.00    1.34392   1.24931    0.000
 4468.00    1.27562   1.24409    0.000
 4469.00    1.28971   1.23293    0.000
 4470.00    1.28815   1.22179    0.000
 4471.00    1.22544   1.21934    0.000
 4472.00    1.20557   1.23411    0.000
 4473.00    1.32501   1.26695    0.000
 4474.00    1.39352   1.30676    0.000
 4475.00    1.32189   1.33997    0.000
 4476.00    1.24070   1.36402    0.000
 4477.00    1.13696   1.38442    0.000
 4478.00    1.13845   1.39902    0.000
 4479.00    1.35429   1.39361    0.000
 4480.00    1.48999   1.35799    0.000
 4481.00    1.48364   1.30306    0.000
 4482.00    1.42163   1.25737    0.038
 4483.00    1.27332   1.24747    0.038
 4484.00    1.24427   1.27850    0.038
 4485.00    1.37765   1.33237    0.037
 4486.00    1.40341   1.38174    0.037
 4487.00    1.30013   1.40376    0.037
 4488.00    1.23721   1.38957    0.037
 4489.00    1.21696   1.34847    0.037
 4490.00    1.24897   1.30445    0.037
 4491.00    1.32970   1.28177    0.037
 4492.00    1.37613   1.28563    0.037
 4493.00    1.39435   1.29680    0.037
 4494.00    1.34395   1.29072    0.037
 4495.00    1.24391   1.26410    0.037
 4496.00    1.20896   1.23793    0.037
 4497.00    1.21535   1.23616    0.037
 4498.00    1.26201   1.26484    0.037
 4499.00    1.33103   1.30862    0.036
 4500.00    1.37385   1.34482    0.036
 4501.00    1.40402   1.36176    0.037
 4502.00    1.44363   1.36963    0.037
 4503.00    1.48717   1.38879    0.037
 4504.00    1.46376   1.42441    0.036
 4505.00    1.41646   1.46027    0.036
 4506.00    1.40169   1.47620    0.036
 4507.00    1.39673   1.46773    0.036
 4508.00    1.53577   1.44867    0.036
 4509.00    1.71087   1.43558    0.036
 4510.00    1.55916   1.43363    0.036
 4511.00    1.34101   1.43439    0.036
 4512.00    1.19669   1.42482    0.035
 4513.00    1.06416   1.40038    0.035
 4514.00    1.10721   1.36945    0.035
 4515.00    1.17112   1.34631    0.035
 4516.00    1.25529   1.33836    0.035
 4517.00    1.34110   1.34025    0.035
 4518.00    1.30647   1.34453    0.035
 4519.00    1.26637   1.35288    0.035
 4520.00    1.24928   1.37039    0.035
 4521.00    1.23463   1.39351    0.035
 4522.00    1.32979   1.40713    0.035
 4523.00    1.41784   1.39900    0.034
 4524.00    1.37229   1.37141    0.034
 4525.00    1.32927   1.33224    0.034
 4526.00    1.31448   1.28592    0.035
 4527.00    1.30226   1.23503    0.035
 4528.00    1.31012   1.18633    0.035
 4529.00    1.31107   1.15227    0.035
 4530.00    1.27118   1.14210    0.035
 4531.00    1.24355   1.15461    0.035
 4532.00    1.27341   1.17990    0.035
 4533.00    1.30124   1.20191    0.034
 4534.00    1.32136   1.20811    0.034
 4535.00    1.28506   1.20250    0.034
 4536.00    1.06889   1.20632    0.034
 4537.00    0.92971   1.23803    0.035
 4538.00    0.99858   1.28825    0.034
 4539.00    1.10949   1.32637    0.034
 4540.00    1.31781   1.33071    0.035
 4541.00    1.48747   1.30843    0.035
 4542.00    1.57965   1.28687    0.035
 4543.00    1.57695   1.28367    0.035
 4544.00    1.40863   1.29230    0.035
 4545.00    1.26591   1.29794    0.035
 4546.00    1.16235   1.29668    0.034
 4547.00    1.17467   1.29399    0.034
 4548.00    1.34256   1.29276    0.035
 4549.00    1.42385   1.29012    0.035
 4550.00    1.40276   1.28655    0.000
 4551.00    1.35174   1.28636    0.000
 4552.00    1.26954   1.28792    0.000
 4553.00    1.30640   1.28524    0.000
 4554.00    1.45274   1.27616    0.000
 4555.00    1.44871   1.26856    0.000
 4556.00    1.32281   1.27671    0.000
 4557.00    1.32322   1.30702    0.000
 4558.00    1.41370   1.35071    0.000
 4559.00    1.46047   1.39075    0.000
 4560.00    1.47987   1.41414    0.000
 4561.00    1.40386   1.41973    0.000
 4562.00    1.27567   1.41253    0.000
 4563.00    1.29126   1.39322    0.000
 4564.00    1.37521   1.36236    0.000
 4565.00    1.39522   1.32991    0.000
 4566.00    1.38901   1.31446    0.000
 4567.00    1.48080   1.32864    0.000
 4568.00    1.60693   1.36371    0.000
 4569.00    1.54519   1.39564    0.000
 4570.00    1.42792   1.40423    0.000
 4571.00    1.34956   1.38681    0.000
 4572.00    1.28073   1.36267    0.000
 4573.00    1.35969   1.35527    0.000
 4574.00    1.46793   1.36800    0.000
 4575.00    1.38863   1.38690    0.000
 4576.00    1.28029   1.39738    0.000
 4577.00    1.26588   1.39351    0.000
 4578.00    1.26221   1.37637    0.000
 4579.00    1.26028   1.34731    0.000
 4580.00    1.25849   1.31109    0.000
 4581.00    1.36661   1.28172    0.000
 4582.00    1.47931   1.27284    0.000
 4583.00    1.38118   1.28312    0.000
 4584.00    1.28334   1.29760    0.000
 4585.00    1.27690   1.30306    0.000
 4586.00    1.26659   1.30056    0.000
 4587.00    1.18847   1.30444    0.000
 4588.00    1.11830   1.32548    0.000
 4589.00    1.13330   1.35754    0.000
 4590.00    1.16494   1.38201    0.000
 4591.00    1.32246   1.38309    0.000
 4592.00    1.43882   1.36133    0.000
 4593.00    1.31869   1.33072    0.000
 4594.00    1.21428   1.30416    0.000
 4595.00    1.18172   1.28630    0.000
 4596.00    1.15797   1.27698    0.000
 4597.00    1.16719   1.27508    0.000
 4598.00    1.19255   1.28011    0.000
 4599.00    1.26838   1.28931    0.000
 4600.00    1.32621   1.29576    0.000
 4601.00    1.33627   1.29690    0.000
 4602.00    1.32687   1.29624    0.000
 4603.00    1.27313   1.29614    0.000
 4604.00    1.25090   1.29636    0.000
 4605.00    1.29084   1.29579    0.000
 4606.00    1.34711   1.29922    0.000
 4607.00    1.43143   1.31778    0.000
 4608.00    1.45385   1.35637    0.000
 4609.00    1.38307   1.40443    0.000
 4610.00    1.34080   1.44054    0.000
 4611.00    1.33625   1.44954    0.000
 4612.00    1.34423   1.43397    0.000
 4613.00    1.36680   1.40958    0.000
 4614.00    1.44083   1.39441    0.000
 4615.00    1.56773   1.39625    0.000
 4616.00    1.61615   1.40935    0.000
 4617.00    1.59344   1.42447    0.000
 4618.00    1.51720   1.43301    0.000
 4619.00    1.39821   1.43105    0.000
 4620.00    1.38974   1.42510    0.000
 4621.00    1.45894   1.42281    0.000
 4622.00    1.40329   1.42444    0.000
 4623.00    1.27066   1.42679    0.000
 4624.00    1.23122   1.42562    0.000
 4625.00    1.24195   1.41862    0.000
 4626.00    1.26840   1.40921    0.000
 4627.00    1.30220   1.40214    0.000
 4628.00    1.35671   1.39850    0.000
 4629.00    1.41957   1.39686    0.000
 4630.00    1.48123   1.39739    0.000
 4631.00    1.54248   1.40080    0.000
 4632.00    1.48585   1.40302    0.000
 4633.00    1.39507   1.39740    0.000
 4634.00    1.32404   1.38237    0.000
 4635.00    1.25773   1.36311    0.000
 4636.00    1.20990   1.34583    0.000
 4637.00    1.16563   1.33005    0.000
 4638.00    1.28017   1.31158    0.000
 4639.00    1.41854   1.29103    0.000
 4640.00    1.36407   1.27554    0.000
 4641.00    1.28838   1.27434    0.000
 4642.00    1.24148   1.28691    0.000
 4643.00    1.19669   1.30080    0.000
 4644.00    1.13886   1.30205    0.000
 4645.00    1.08054   1.28246    0.000
 4646.00    1.16837   1.24512    0.000
 4647.00    1.25708   1.20574    0.000
 4648.00    1.35065   1.18242    0.000
 4649.00    1.43929   1.18553    0.000
 4650.00    1.44737   1.21385    0.000
 4651.00    1.44694   1.25486    0.000
 4652.00    1.35933   1.29338    0.000
 4653.00    1.28534   1.31813    0.000
 4654.00    1.31087   1.32233    0.000
 4655.00    1.32150   1.30914    0.000
 4656.00    1.24880   1.29224    0.000
 4657.00    1.19333   1.28941    0.000
 4658.00    1.21476   1.31265    0.000
 4659.00    1.23751   1.35646    0.000
 4660.00    1.26508   1.40043    0.000
 4661.00    1.31897   1.42260    0.000
 4662.00    1.45359   1.41289    0.000
 4663.00    1.53239   1.37848    0.000
 4664.00    1.46562   1.33594    0.000
 4665.00    1.39318   1.29525    0.000
 4666.00    1.30800   1.25313    0.000
 4667.00    1.24613   1.20611    0.000
 4668.00    1.22952   1.16526    0.000
 4669.00    1.18787   1.15126    0.000
 4670.00    1.10379   1.17468    0.000
 4671.00    1.10032   1.22351    0.000
 4672.00    1.21643   1.27128    0.000
 4673.00    1.31120   1.29877    0.000
 4674.00    1.37811   1.30614    0.000
 4675.00    1.42008   1.30661    0.000
 4676.00    1.43338   1.31215    0.000
 4677.00    1.40841   1.32125    0.000
 4678.00    1.34466   1.32278    0.000
 4679.00    1.34936   1.30943    0.000
 4680.00    1.41521   1.28424    0.000
 4681.00    1.44863   1.25859    0.000
 4682.00    1.45650   1.24414    0.000
 4683.00    1.41484   1.24513    0.000
 4684.00    1.33887   1.25571    0.000
 4685.00    1.32496   1.26586    0.000
 4686.00    1.34874   1.26953    0.000
 4687.00    1.34202   1.26682    0.000
 4688.00    1.31912   1.26325    0.000
 4689.00    1.33449   1.26390    0.000
 4690.00    1.36748   1.26751    0.000
 4691.00    1.34962   1.27053    0.000
 4692.00    1.31160   1.27262    0.000
 4693.00    1.31148   1.27641    0.000
 4694.00    1.32414   1.28622    0.000
 4695.00    1.27572   1.30329    0.000
 4696.00    1.20997   1.32069    0.000
 4697.00    1.25819   1.32631    0.000
 4698.00    1.33309   1.31214    0.000
 4699.00    1.30734   1.28314    0.000
 4700.00    1.26266   1.25374    0.000
 4701.00    1.28455   1.23436    0.000
 4702.00    1.31613   1.22526    0.000
 4703.00    1.26651   1.22228    0.000
 4704.00    1.20829   1.22535    0.000
 4705.00    1.25851   1.23528    0.000
 4706.00    1.31617   1.24644    0.000
 4707.00    1.27190   1.25019    0.000
 4708.00    1.22416   1.24441    0.000
 4709.00    1.30324   1.23680    0.000
 4710.00    1.37897   1.23891    0.000
 4711.00    1.33929   1.25455    0.000
 4712.00    1.29701   1.27353    0.000
 4713.00    1.21495   1.28198    0.000
 4714.00    1.13984   1.27501    0.000
 4715.00    1.13295   1.26379    0.000
 4716.00    1.13416   1.26692    0.000
 4717.00    1.19257   1.29132    0.000
 4718.00    1.25236   1.32907    0.000
 4719.00    1.31970   1.36708    0.000
 4720.00    1.37444   1.39517    0.000
 4721.00    1.37433   1.40928    0.000
 4722.00    1.38274   1.40976    0.000
 4723.00    1.42174   1.40255    0.000
 4724.00    1.44698   1.39730    0.000
 4725.00    1.43078   1.39650    0.000
 4726.00    1.38073   1.38967    0.000
 4727.00    1.24396   1.36195    0.000
 4728.00    1.15148   1.31246    0.000
 4729.00    1.15663   1.25901    0.000
 4730.00    1.20666   1.22352    0.000
 4731.00    1.34250   1.21650    0.000
 4732.00    1.42731   1.23285    0.000
 4733.00    1.42698   1.25901    0.000
 4734.00    1.34808   1.28353    0.000
 4735.00    1.15430   1.30042    0.000
 4736.00    1.10493   1.30670    0.000
 4737.00    1.24125   1.30746    0.000
 4738.00    1.31297   1.31318    0.000
 4739.00    1.31153   1.32669    0.000
 4740.00    1.25079   1.34153    0.000
 4741.00    1.13079   1.34923    0.000
 4742.00    1.09731   1.34874    0.000
 4743.00    1.14008   1.34762    0.000
 4744.00    1.23805   1.35055    0.000
 4745.00    1.37888   1.35610    0.000
 4746.00    1.39672   1.36375    0.000
 4747.00    1.33063   1.37372    0.000
 4748.00    1.33627   1.38419    0.000
 4749.00    1.38483   1.39183    0.000
 4750.00    1.47748   1.39361    0.000
 4751.00    1.59315   1.38848    0.000
 4752.00    1.61054   1.37633    0.000
 4753.00    1.58343   1.35818    0.000
 4754.00    1.48829   1.33775    0.000
 4755.00    1.36666   1.32147    0.000
 4756.00    1.37984   1.31341    0.000
 4757.00    1.43769   1.31330    0.000
 4758.00    1.40347   1.31866    0.000
 4759.00    1.34366   1.32645    0.000
 4760.00    1.29930   1.33266    0.000
 4761.00    1.25847   1.33069    0.030
 4762.00    1.28011   1.31635    0.030
 4763.00    1.31319   1.29226    0.030
 4764.00    1.32275   1.26439    0.030
 4765.00    1.32899   1.23821    0.031
 4766.00    1.27422   1.21851    0.030
 4767.00    1.21327   1.21174    0.029
 4768.00    1.22556   1.22358    0.029
 4769.00    1.24259   1.25252    0.030
 4770.00    1.33604   1.28612    0.030
 4771.00    1.43157   1.30870    0.030
 4772.00    1.41861   1.31600    0.030
 4773.00    1.40552   1.31723    0.030
 4774.00    1.38875   1.32511    0.030
 4775.00    1.37128   1.34257    0.030
 4776.00    1.34383   1.36175    0.030
 4777.00    1.32373   1.37542    0.029
 4778.00    1.37292   1.38138    0.030
 4779.00    1.41282   1.38069    0.030
 4780.00    1.38913   1.37409    0.029
 4781.00    1.36474   1.36057    0.029
 4782.00    1.33671   1.34019    0.029
 4783.00    1.32506   1.31607    0.029
 4784.00    1.38314   1.29502    0.028
 4785.00    1.41663   1.28238    0.028
 4786.00    1.36369   1.27721    0.029
 4787.00    1.31046   1.27657    0.029
 4788.00    1.25634   1.27744    0.029
 4789.00    1.22332   1.27873    0.029
 4790.00    1.24344   1.28228    0.029
 4791.00    1.27722   1.28993    0.029
 4792.00    1.34064   1.30514    0.029
 4793.00    1.40901   1.33173    0.029
 4794.00    1.48668   1.36684    0.030
 4795.00    1.52579   1.39996    0.030
 4796.00    1.50154   1.41829    0.030
 4797.00    1.45267   1.41432    0.030
 4798.00    1.36832   1.39047    0.030
 4799.00    1.31329   1.35848    0.029
 4800.00    1.29540   1.33386    0.029
 4801.00    1.31919   1.32854    0.030
 4802.00    1.38952   1.34391    0.030
 4803.00    1.38819   1.36827    0.030
 4804.00    1.31625   1.38377    0.030
 4805.00    1.28330   1.37950    0.029
 4806.00    1.28420   1.35882    0.029
 4807.00    1.31211   1.33256    0.029
 4808.00    1.36067   1.31171    0.030
 4809.00    1.35420   1.30326    0.030
 4810.00    1.31070   1.30789    0.030
 4811.00    1.31141   1.32086    0.029
 4812.00    1.33818   1.33415    0.029
 4813.00    1.40180   1.34182    0.030
 4814.00    1.48435   1.34472    0.030
 4815.00    1.50185   1.34799    0.030
 4816.00    1.49038   1.35615    0.030
 4817.00    1.46908   1.37022    0.030
 4818.00    1.44400   1.38753    0.030
 4819.00    1.37198   1.40378    0.030
 4820.00    1.28471   1.41323    0.030
 4821.00    1.26433   1.41074    0.031
 4822.00    1.26217   1.39293    0.031
 4823.00    1.27445   1.36147    0.030
 4824.00    1.28995   1.32869    0.030
 4825.00    1.35662   1.31010    0.030
 4826.00    1.43242   1.31152    0.030
 4827.00    1.41399   1.32438    0.030
 4828.00    1.38273   1.33381    0.030
 4829.00    1.38156   1.33328    0.030
 4830.00    1.38332   1.32636    0.031
 4831.00    1.30803   1.31624    0.031
 4832.00    1.22806   1.30495    0.030
 4833.00    1.24000   1.29804    0.030
 4834.00    1.25440   1.30175    0.030
 4835.00    1.27542   1.31659    0.030
 4836.00    1.29427   1.33390    0.030
 4837.00    1.25669   1.34357    0.030
 4838.00    1.23239   1.34095    0.030
 4839.00    1.38932   1.32755    0.030
 4840.00    1.51981   1.30925    0.030
 4841.00    1.41136   1.29373    0.030
 4842.00    1.31592   1.28576    0.029
 4843.00    1.30682   1.28504    0.030
 4844.00    1.30049   1.29109    0.030
 4845.00    1.30851   1.30434    0.030
 4846.00    1.29764   1.32197    0.030
 4847.00    1.20814   1.33450    0.030
 4848.00    1.14413   1.33241    0.000
 4849.00    1.16786   1.31898    0.000
 4850.00    1.18750   1.30737    0.000
 4851.00    1.19530   1.30525    0.000
 4852.00    1.20634   1.30911    0.000
 4853.00    1.22541   1.30784    0.000
 4854.00    1.23264   1.29173    0.000
 4855.00    1.21461   1.26166    0.000
 4856.00    1.19397   1.22888    0.000
 4857.00    1.16850   1.20501    0.000
 4858.00    1.17684   1.18954    0.000
 4859.00    1.23990   1.16795    0.000
 4860.00    1.23129   1.12643    0.000
 4861.00    1.12092   1.07168    0.000
 4862.00    1.07788   1.03054    0.000
 4863.00    1.11897   1.02546    0.000
 4864.00    1.10959   1.05670    0.000
 4865.00    1.04465   1.10725    0.000
 4866.00    1.01315   1.15677    0.000
 4867.00    1.01413   1.19458    0.000
 4868.00    1.07727   1.21795    0.000
 4869.00    1.19366   1.22534    0.000
 4870.00    1.20417   1.21406    0.000
 4871.00    1.13482   1.18637    0.000
 4872.00    1.07150   1.15596    0.000
 4873.00    1.01217   1.14167    0.000
 4874.00    1.05252   1.15307    0.000
 4875.00    1.15073   1.18266   -1.000
 4876.00    1.15701   1.21546   -1.000
 4877.00    1.11680   1.24371   -1.000
 4878.00    1.12186   1.26904   -1.000
 4879.00    1.14675   1.29359   -1.000
 4880.00    1.13959   1.31080   -1.000
 4881.00    1.12040   1.31340   -1.000
 4882.00    1.17531   1.30265   -1.000
 4883.00    1.25385   1.28659   -1.000
 4884.00    1.22259   1.27130    0.070
 4885.00    1.16207   1.25443    0.031
 4886.00    1.17027   1.23248    0.028
 4887.00    1.19346   1.21099    0.029
 4888.00    1.19635   1.19806    0.029
 4889.00    1.19571   1.19205    0.028
 4890.00    1.21272   1.18285    0.028
 4891.00    1.23204   1.16847    0.028
 4892.00    1.25743   1.16534    0.028
 4893.00    1.28339   1.19150    0.028
 4894.00    1.24530   1.24920    0.028
 4895.00    1.20359   1.31989    0.028
 4896.00    1.18926   1.37798    0.028
 4897.00    1.17662   1.41061    0.028
 4898.00    1.28101   1.41781    0.028
 4899.00    1.38283   1.40514    0.028
 4900.00    1.42361   1.38169    0.028
 4901.00    1.45948   1.35734    0.028
 4902.00    1.43202   1.33786    0.028
 4903.00    1.40090   1.32529    0.028
 4904.00    1.33791   1.32069    0.028
 4905.00    1.28752   1.32678    0.028
 4906.00    1.31820   1.34337    0.028
 4907.00    1.33416   1.35942    0.028
 4908.00    1.27600   1.35941    0.027
 4909.00    1.23909   1.33696    0.027
 4910.00    1.28860   1.30189    0.028
 4911.00    1.32916   1.27286    0.028
 4912.00    1.33951   1.26335    0.028
 4913.00    1.36988   1.27507    0.028
 4914.00    1.45726   1.30015    0.028
 4915.00    1.52811   1.32701    0.028
 4916.00    1.55874   1.34316    0.028
 4917.00    1.50693   1.33582    0.028
 4918.00    1.28206   1.29562    0.028
 4919.00    1.12370   1.22707    0.027
 4920.00    1.08670   1.15279    0.027
 4921.00    1.09109   1.10346    0.027
 4922.00    1.16148   1.09785    0.027
 4923.00    1.18096   1.12916    0.027
 4924.00    1.12920   1.17402    0.027
 4925.00    1.12802   1.21364    0.027
 4926.00    1.18911   1.24653    0.027
 4927.00    1.26026   1.27984    0.027
 4928.00    1.34235   1.31745    0.027
 4929.00    1.38534   1.35464    0.027
 4930.00    1.39089   1.38287    0.027
 4931.00    1.38655   1.39673    0.027
 4932.00    1.37387   1.39158    0.027
 4933.00    1.33723   1.36759    0.028
 4934.00    1.28278   1.33527    0.028
 4935.00    1.26525   1.30794    0.027
 4936.00    1.27183   1.28998    0.027
 4937.00    1.25083   1.27300    0.027
 4938.00    1.21408   1.24633    0.027
 4939.00    1.18828   1.21648    0.027
 4940.00    1.16794   1.20487    0.000
 4941.00    1.21298   1.22504    0.000
 4942.00    1.28617   1.26973    0.000
 4943.00    1.30863   1.31910    0.000
 4944.00    1.31237   1.35556    0.000
 4945.00    1.35763   1.37312    0.000
 4946.00    1.41587   1.37637    0.000
 4947.00    1.34569   1.37486    0.000
 4948.00    1.24200   1.37737    0.000
 4949.00    1.18952   1.38683    0.000
 4950.00    1.14795   1.39909    0.000
 4951.00    1.23153   1.40871    0.000
 4952.00    1.33620   1.41103    0.000
 4953.00    1.38091   1.40274    0.000
 4954.00    1.41800   1.38205    0.000
 4955.00    1.35087   1.34837    0.000
 4956.00    1.27449   1.30065    0.000
 4957.00    1.24095   1.24135    0.000
 4958.00    1.20967   1.18871    0.000
 4959.00    1.18898   1.16832    0.000
 4960.00    1.17001   1.19195    0.000
 4961.00    1.26911   1.24387    0.000
 4962.00    1.36393   1.29279    0.000
 4963.00    1.36568   1.31941    0.000
 4964.00    1.36545   1.32120    0.000
 4965.00    1.34071   1.30370    0.000
 4966.00    1.30906   1.27573    0.000
 4967.00    1.21952   1.24859    0.000
 4968.00    1.14968   1.23309    0.000
 4969.00    1.20281   1.23360    0.000
 4970.00    1.24808   1.24589    0.000
 4971.00    1.25482   1.26530    0.000
 4972.00    1.27129   1.28800    0.000
 4973.00    1.32650   1.31024    0.000
 4974.00    1.34779   1.32883    0.000
 4975.00    1.25684   1.33903    0.000
 4976.00    1.20800   1.33809    0.000
 4977.00    1.27684   1.32504    0.000
 4978.00    1.29955   1.30110    0.000
 4979.00    1.21191   1.27156    0.000
 4980.00    1.15509   1.24071    0.000
 4981.00    1.16192   1.20870    0.000
 4982.00    1.15892   1.17325    0.000
 4983.00    1.13827   1.13729    0.000
 4984.00    1.15802   1.11236    0.000
 4985.00    1.24128   1.11061    0.000
 4986.00    1.27205   1.13428    0.000
 4987.00    1.23042   1.17361    0.000
 4988.00    1.21232   1.21379    0.000
 4989.00    1.22276   1.24330    0.000
 4990.00    1.21357   1.25638    0.000
 4991.00    1.18338   1.25638    0.000
 4992.00    1.18750   1.25326    0.000
 4993.00    1.22401   1.25245    0.000
 4994.00    1.24037   1.25481    0.000
 4995.00    1.23995   1.25891    0.000
 4996.00    1.23070   1.26257    0.000
 4997.00    1.21498   1.26472    0.000
 4998.00    1.22314   1.26024    0.000
 4999.00    1.24667   1.24362    0.000
 5000.00    1.27049   1.21729    0.000
 5001.00    1.29447   1.18903    0.000
 5002.00    1.28028   1.16753    0.000
 5003.00    1.24739   1.15569    0.000
 5004.00    1.23715   1.14710    0.000
 5005.00    1.23650   1.13423    0.000
 5006.00    1.19488   1.11760    0.000
 5007.00    1.13841   1.10830    0.000
 5008.00    1.09003   1.11801    0.000
 5009.00    1.04412   1.14543    0.000
 5010.00    1.07371   1.17450    0.000
 5011.00    1.12257   1.18582    0.000
 5012.00    1.11217   1.17122    0.000
 5013.00    1.08946   1.13831    0.000
 5014.00    1.10452   1.10187    0.000
 5015.00    1.12577   1.07854    0.000
 5016.00    1.12547   1.07601    0.000
 5017.00    1.12253   1.08943    0.000
 5018.00    1.13831   1.10846    0.000
 5019.00    1.15568   1.12459    0.000
 5020.00    1.19513   1.13552    0.000
 5021.00    1.23567   1.14152    0.000
 5022.00    1.19852   1.14285    0.000
 5023.00    1.16045   1.14408    0.000
 5024.00    1.13958   1.15122    0.000
 5025.00    1.12022   1.16520    0.000
 5026.00    1.13122   1.17931    0.000
 5027.00    1.14410   1.18448    0.000
 5028.00    1.17885   1.18303    0.000
 5029.00    1.21479   1.18492    0.026
 5030.00    1.26034   1.19805    0.026
 5031.00    1.29745   1.22327    0.026
 5032.00    1.28341   1.25268    0.026
 5033.00    1.27245   1.27758    0.026
 5034.00    1.27622   1.28924    0.026
 5035.00    1.27807   1.27979    0.026
 5036.00    1.27245   1.25062    0.026
 5037.00    1.25647   1.21374    0.026
 5038.00    1.20690   1.17972    0.026
 5039.00    1.17806   1.14895    0.026
 5040.00    1.20614   1.11384    0.026
 5041.00    1.20641   1.07680    0.026
 5042.00    1.14125   1.05778    0.025
 5043.00    1.11241   1.07415    0.025
 5044.00    1.15740   1.12595    0.026
 5045.00    1.19159   1.19376    0.026
 5046.00    1.20667   1.25111    0.026
 5047.00    1.21622   1.28010    0.026
 5048.00    1.21721   1.27451    0.026
 5049.00    1.19869   1.24173    0.026
 5050.00    1.15367   1.20049    0.026
 5051.00    1.13269   1.17017    0.026
 5052.00    1.14048   1.16046    0.026
 5053.00    1.17185   1.17032    0.026
 5054.00    1.22811   1.19361    0.027
 5055.00    1.27552   1.22316    0.027
 5056.00    1.31469   1.25076    0.027
 5057.00    1.34192   1.27115    0.027
 5058.00    1.35933   1.28424    0.027
 5059.00    1.34080   1.29344    0.026
 5060.00    1.29630   1.30257    0.026
 5061.00    1.26798   1.31167    0.026
 5062.00    1.24991   1.31627    0.026
 5063.00    1.28553   1.30863    0.026
 5064.00    1.35091   1.28215    0.027
 5065.00    1.32310   1.24210    0.027
 5066.00    1.25035   1.20385    0.027
 5067.00    1.23934   1.18030    0.027
 5068.00    1.25402   1.17443    0.026
 5069.00    1.20489   1.17927    0.026
 5070.00    1.13303   1.18834    0.027
 5071.00    1.13659   1.19733    0.027
 5072.00    1.16282   1.20223    0.027
 5073.00    1.13770   1.20263    0.027
 5074.00    1.09975   1.20227    0.027
 5075.00    1.13798   1.20475    0.027
 5076.00    1.19164   1.20763    0.027
 5077.00    1.21265   1.20510    0.027
 5078.00    1.22847   1.19228    0.026
 5079.00    1.16736   1.16608    0.027
 5080.00    1.09714   1.13031    0.027
 5081.00    1.04540   1.09758    0.026
 5082.00    0.99515   1.08289    0.026
 5083.00    1.11613   1.08998    0.026
 5084.00    1.24482   1.11064    0.026
 5085.00    1.17352   1.13591    0.026
 5086.00    1.10250   1.16134    0.025
 5087.00    1.16394   1.18396    0.025
 5088.00    1.22807   1.20113    0.025
 5089.00    1.34222   1.21340    0.025
 5090.00    1.43797   1.22342    0.025
 5091.00    1.32872   1.23362    0.025
 5092.00    1.22539   1.24524    0.026
 5093.00    1.16825   1.25736    0.025
 5094.00    1.12381   1.26586    0.025
 5095.00    1.15422   1.26418    0.025
 5096.00    1.19030   1.24767    0.025
 5097.00    1.25285   1.21786    0.025
 5098.00    1.29547   1.18174    0.025
 5099.00    1.26204   1.14932    0.025
 5100.00    1.21936   1.13217    0.025
 5101.00    1.14721   1.13640    0.025
 5102.00    1.08621   1.15781    0.025
 5103.00    1.05530   1.18135    0.024
 5104.00    1.05114   1.19323    0.024
 5105.00    1.10883   1.19073    0.025
 5106.00    1.12866   1.17886    0.025
 5107.00    1.07279   1.16302    0.025
 5108.00    1.06478   1.14704    0.025
 5109.00    1.14017   1.13363    0.025
 5110.00    1.18511   1.12633    0.025
 5111.00    1.18360   1.12905    0.025
 5112.00    1.18498   1.14140    0.025
 5113.00    1.19024   1.16148    0.025
 5114.00    1.19662   1.18497    0.025
 5115.00    1.20432   1.20677    0.025
 5116.00    1.20025   1.22654    0.026
 5117.00    1.18393   1.24446    0.026
 5118.00    1.17296   1.25827    0.026
 5119.00    1.16690   1.26450    0.025
 5120.00    1.19169   1.25822    0.025
 5121.00    1.24144   1.23765    0.025
 5122.00    1.22726   1.20577    0.025
 5123.00    1.16756   1.16741    0.025
 5124.00    1.09482   1.13047    0.025
 5125.00    1.01393   1.10268    0.025
 5126.00    1.01999   1.08879    0.025
 5127.00    1.07351   1.08721    0.025
 5128.00    1.08413   1.09077    0.025
 5129.00    1.07441   1.09520    0.025
 5130.00    1.03772   1.10265    0.025
 5131.00    0.99001   1.11686    0.025
 5132.00    1.04048   1.13755    0.025
 5133.00    1.12528   1.16058    0.025
 5134.00    1.14132   1.18063    0.025
 5135.00    1.13709   1.19492    0.025
 5136.00    1.08783   1.20055    0.025
 5137.00    1.02758   1.19485    0.025
 5138.00    1.10495   1.17693    0.026
 5139.00    1.20951   1.15310    0.026
 5140.00    1.18471   1.13572    0.026
 5141.00    1.13996   1.12875    0.026
 5142.00    1.15818   1.12811    0.026
 5143.00    1.18357   1.12770    0.026
 5144.00    1.14974   1.12435    0.026
 5145.00    1.11140   1.12113    0.026
 5146.00    1.10208   1.11847    0.026
 5147.00    1.09395   1.11312    0.026
 5148.00    1.07760   1.10724    0.026
 5149.00    1.06183   1.10548    0.026
 5150.00    1.07331   1.10714    0.026
 5151.00    1.08588   1.10803    0.026
 5152.00    1.11734   1.10435    0.026
 5153.00    1.14187   1.09849    0.026
 5154.00    1.09280   1.09759    0.026
 5155.00    1.04972   1.10768    0.026
 5156.00    1.05177   1.13009    0.026
 5157.00    1.06615   1.16106    0.026
 5158.00    1.15114   1.19206    0.026
 5159.00    1.21618   1.21481    0.027
 5160.00    1.19034   1.22588    0.026
 5161.00    1.17285   1.22463    0.026
 5162.00    1.18652   1.21197    0.026
 5163.00    1.17317   1.18783    0.026
 5164.00    1.07550   1.14969    0.025
 5165.00    1.00840   1.09581    0.025
 5166.00    1.02224   1.02624    0.025
 5167.00    1.02364   0.94902    0.025
 5168.00    0.99672   0.88423    0.025
 5169.00    0.94618   0.85054    0.025
 5170.00    0.84914   0.84893    0.025
 5171.00    0.80681   0.85849    0.025
 5172.00    0.85836   0.85685    0.025
 5173.00    0.87636   0.84470    0.025
 5174.00    0.84395   0.84609    0.025
 5175.00    0.83624   0.88191    0.025
 5176.00    0.86116   0.94684    0.025
 5177.00    0.89810   1.01587    0.025
 5178.00    0.94900   1.06641    0.025
 5179.00    0.99115   1.09054    0.025
 5180.00    1.02431   1.08817    0.024
 5181.00    1.02155   1.05929    0.024
 5182.00    0.98630   1.00582    0.024
 5183.00    0.96296   0.93856    0.024
 5184.00    0.94910   0.88220    0.024
 5185.00    0.94151   0.86543    0.024
 5186.00    0.93832   0.90121    0.024
 5187.00    0.95224   0.97535    0.023
 5188.00    0.97670   1.05509    0.024
 5189.00    1.00246   1.11479    0.023
 5190.00    1.02891   1.14460    0.000
 5191.00    1.02149   1.14457    0.000
 5192.00    0.99827   1.12168    0.000
 5193.00    1.01505   1.08965    0.000
 5194.00    1.04791   1.06667    0.000
 5195.00    1.06623   1.06427    0.000
 5196.00    1.07956   1.08044    0.000
 5197.00    1.13245   1.10628    0.000
 5198.00    1.19677   1.13568    0.000
 5199.00    1.25483   1.16404    0.000
 5200.00    1.31140   1.18549    0.000
 5201.00    1.30481   1.19549    0.000
 5202.00    1.28607   1.19105    0.000
 5203.00    1.23395   1.17122    0.000
 5204.00    1.17683   1.13586    0.000
 5205.00    1.11379   1.08820    0.000
 5206.00    1.05010   1.03689    0.000
 5207.00    1.00399   0.99341    0.000
 5208.00    0.95915   0.96665    0.000
 5209.00    0.99495   0.96083    0.000
 5210.00    1.03375   0.97650    0.000
 5211.00    1.09319   1.01426    0.025
 5212.00    1.15121   1.06869    0.025
 5213.00    1.15406   1.12496    0.025
 5214.00    1.15822   1.16682    0.025
 5215.00    1.18368   1.18395    0.025
 5216.00    1.20462   1.18046    0.025
 5217.00    1.17966   1.17115    0.026
 5218.00    1.15806   1.17175    0.026
 5219.00    1.16099   1.18776    0.026
 5220.00    1.17889   1.21229    0.026
 5221.00    1.28020   1.23360    0.026
 5222.00    1.34379   1.24114    0.026
 5223.00    1.23955   1.22907    0.026
 5224.00    1.15783   1.19542    0.026
 5225.00    1.15837   1.14441    0.026
 5226.00    1.14901   1.08835    0.026
 5227.00    1.10935   1.04610    0.026
 5228.00    1.07137   1.03608    0.025
 5229.00    1.03777   1.06278    0.025
 5230.00    1.01985   1.11314    0.025
 5231.00    1.03697   1.16249    0.025
 5232.00    1.07780   1.18943    0.025
 5233.00    1.16458   1.19104    0.025
 5234.00    1.20356   1.17980    0.025
 5235.00    1.16175   1.17341    0.025
 5236.00    1.15037   1.18487    0.025
 5237.00    1.18409   1.21209    0.025
 5238.00    1.23591   1.24329    0.025
 5239.00    1.31131   1.26640    0.025
 5240.00    1.33143   1.27641    0.025
 5241.00    1.28814   1.27713    0.024
 5242.00    1.27380   1.27506    0.024
 5243.00    1.28875   1.27478    0.024
 5244.00    1.28393   1.27652    0.024
 5245.00    1.26146   1.27515    0.024
 5246.00    1.24325   1.26275    0.024
 5247.00    1.22839   1.23555    0.024
 5248.00    1.20180   1.20027    0.024
 5249.00    1.16712   1.16911    0.024
 5250.00    1.13248   1.15007    0.024
 5251.00    1.09788   1.14330    0.024
 5252.00    1.14996   1.14533    0.024
 5253.00    1.24793   1.15438    0.024
 5254.00    1.21060   1.16661    0.024
 5255.00    1.11115   1.17788    0.024
 5256.00    1.11777   1.19180    0.024
 5257.00    1.16634   1.21441    0.024
 5258.00    1.21240   1.24600    0.024
 5259.00    1.25761   1.27496    0.024
 5260.00    1.23372   1.28463    0.024
 5261.00    1.19027   1.26630    0.024
 5262.00    1.16522   1.22139    0.024
 5263.00    1.14447   1.15970    0.025
 5264.00    1.10696   1.09422    0.025
 5265.00    1.06631   1.03757    0.025
 5266.00    1.03806   0.99877    0.025
 5267.00    1.01161   0.98064    0.025
 5268.00    0.97199   0.97460    0.025
 5269.00    0.93098   0.96798    0.026
 5270.00    0.96753   0.95833    0.026
 5271.00    1.00937   0.95842    0.026
 5272.00    1.02836   0.98400    0.026
 5273.00    1.04659   1.03351    0.026
 5274.00    1.02337   1.08710    0.026
 5275.00    1.00432   1.12718    0.025
 5276.00    1.12036   1.15528    0.026
 5277.00    1.22805   1.18292    0.026
 5278.00    1.20872   1.21555    0.026
 5279.00    1.19600   1.24638    0.025
 5280.00    1.24777   1.26083    0.025
 5281.00    1.30287   1.25189    0.025
 5282.00    1.38145   1.22578    0.025
 5283.00    1.42900   1.19713    0.025
 5284.00    1.30838   1.18184    0.025
 5285.00    1.21727   1.19057    0.025
 5286.00    1.25443   1.22265    0.025
 5287.00    1.27668   1.26623    0.025
 5288.00    1.24555   1.30447    0.026
 5289.00    1.23392   1.32775    0.026
 5290.00    1.28087   1.33832    0.026
 5291.00    1.33782   1.34279    0.026
 5292.00    1.42032   1.34360    0.025
 5293.00    1.43053   1.33820    0.025
 5294.00    1.28170   1.32429    0.025
 5295.00    1.19373   1.30059    0.025
 5296.00    1.22191   1.26591    0.025
 5297.00    1.21897   1.22156    0.025
 5298.00    1.16421   1.17682    0.025
 5299.00    1.18233   1.14762    0.024
 5300.00    1.30679   1.14369    0.025
 5301.00    1.34022   1.16120    0.025
 5302.00    1.25682   1.18902    0.025
 5303.00    1.22978   1.22005    0.025
 5304.00    1.26648   1.25454    0.024
 5305.00    1.30615   1.29072    0.024
 5306.00    1.34881   1.32082    0.024
 5307.00    1.37026   1.33776    0.024
 5308.00    1.37304   1.34279    0.024
 5309.00    1.34262   1.34374    0.024
 5310.00    1.28647   1.34681    0.024
 5311.00    1.24955   1.35140    0.024
 5312.00    1.22574   1.35228    0.024
 5313.00    1.21979   1.34639    0.024
 5314.00    1.22450   1.33546    0.023
 5315.00    1.24862   1.32295    0.023
 5316.00    1.28286   1.31120    0.023
 5317.00    1.28750   1.30140    0.023
 5318.00    1.27876   1.29415    0.023
 5319.00    1.33122   1.28938    0.023
 5320.00    1.40747   1.28625    0.024
 5321.00    1.36198   1.28184    0.024
 5322.00    1.27624   1.27291    0.023
 5323.00    1.21719   1.25701    0.023
 5324.00    1.16553   1.23381    0.024
 5325.00    1.18504   1.20650    0.024
 5326.00    1.22079   1.17556    0.024
 5327.00    1.21848   1.13798    0.024
 5328.00    1.20921   1.09397    0.024
 5329.00    1.16059   1.05748    0.024
 5330.00    1.10645   1.04921    0.023
 5331.00    1.16604   1.07862    0.024
 5332.00    1.23710   1.13252    0.024
 5333.00    1.23248   1.18749    0.024
 5334.00    1.22301   1.23080    0.025
 5335.00    1.18504   1.26229    0.024
 5336.00    1.14639   1.28471    0.024
 5337.00    1.18242   1.29637    0.024
 5338.00    1.21835   1.29335    0.025
 5339.00    1.25131   1.27422    0.025
 5340.00    1.28526   1.24335    0.025
 5341.00    1.33337   1.21268    0.025
 5342.00    1.37300   1.19664    0.025
 5343.00    1.33325   1.20178    0.025
 5344.00    1.29246   1.22171    0.024
 5345.00    1.24459   1.24048    0.024
 5346.00    1.19736   1.24751    0.025
 5347.00    1.15353   1.24353    0.025
 5348.00    1.13619   1.23359    0.025
 5349.00    1.23130   1.22482    0.025
 5350.00    1.29373   1.22355    0.025
 5351.00    1.24161   1.23451    0.025
 5352.00    1.22231   1.25836    0.025
 5353.00    1.29976   1.28917    0.025
 5354.00    1.33204   1.31982    0.024
 5355.00    1.25081   1.34632    0.024
 5356.00    1.21606   1.36744    0.024
 5357.00    1.28187   1.38273    0.025
 5358.00    1.32102   1.39050    0.025
 5359.00    1.31009   1.39049    0.024
 5360.00    1.30357   1.38323    0.024
 5361.00    1.30427   1.36895    0.024
 5362.00    1.28282   1.34923    0.024
 5363.00    1.22953   1.32730    0.023
 5364.00    1.19870   1.30608    0.023
 5365.00    1.19628   1.28735    0.023
 5366.00    1.19491   1.27173    0.023
 5367.00    1.19469   1.25763    0.023
 5368.00    1.17874   1.24266   -2.000
 5369.00    1.14734   1.22164   -2.000
 5370.00    1.10689   1.19138   -2.000
 5371.00    1.05859   1.15854   -2.000
 5372.00    0.99969   1.13929   -2.000
 5373.00    0.93270   1.14898   -2.000
 5374.00    0.96852   1.18787   -2.000
 5375.00    1.07338   1.24025   -2.000
 5376.00    1.20904   1.28449   -2.000
 5377.00    1.36284   1.30948   -2.000
 5378.00    1.40022   1.31856   -2.000
 5379.00    1.37789   1.31990   -2.000
 5380.00    1.32899   1.31867   -2.000
 5381.00    1.26828   1.31472   -2.000
 5382.00    1.26957   1.30636   -2.000
 5383.00    1.29453   1.29539    0.024
 5384.00    1.33330   1.28734    0.024
 5385.00    1.37655   1.28583    0.024
 5386.00    1.35789   1.28956    0.024
 5387.00    1.32240   1.29321    0.024
 5388.00    1.30348   1.29025    0.024
 5389.00    1.28824   1.27759    0.024
 5390.00    1.28243   1.25751    0.024
 5391.00    1.27829   1.23536    0.024
 5392.00    1.24773   1.21677    0.024
 5393.00    1.21359   1.20448    0.024
 5394.00    1.14570   1.19652    0.024
 5395.00    1.07455   1.18814    0.024
 5396.00    1.10344   1.17468    0.024
 5397.00    1.13833   1.15736    0.025
 5398.00    1.21224   1.14611    0.025
 5399.00    1.28637   1.14960    0.025
 5400.00    1.22920   1.16866    0.025
 5401.00    1.17460   1.19432    0.025
 5402.00    1.18608   1.21268    0.024
 5403.00    1.19429   1.21339    0.024
 5404.00    1.15814   1.19305    0.024
 5405.00    1.13040   1.15635    0.024
 5406.00    1.17822   1.11721    0.023
 5407.00    1.22095   1.09283    0.023
 5408.00    1.23013   1.09001    0.023
 5409.00    1.22999   1.10164    0.024
 5410.00    1.18199   1.11692    0.024
 5411.00    1.13949   1.13336    0.023
 5412.00    1.11982   1.15538    0.023
 5413.00    1.11679   1.18538    0.023
 5414.00    1.17092   1.21800    0.023
 5415.00    1.22285   1.24591    0.023
 5416.00    1.26843   1.26784    0.023
 5417.00    1.30568   1.28566    0.023
 5418.00    1.32238   1.29890    0.023
 5419.00    1.32493   1.30407    0.023
 5420.00    1.29734   1.29899    0.023
 5421.00    1.28152   1.28744    0.023
 5422.00    1.28747   1.27580    0.023
 5423.00    1.29394   1.26648    0.022
 5424.00    1.30124   1.25949    0.022
 5425.00    1.29927   1.25677    0.023
 5426.00    1.28415   1.26036    0.023
 5427.00    1.26994   1.26841    0.023
 5428.00    1.25689   1.27069    0.023
 5429.00    1.25441   1.25586    0.023
 5430.00    1.26357   1.22742    0.023
 5431.00    1.23250   1.19960    0.023
 5432.00    1.16241   1.18220    0.023
 5433.00    1.15308   1.17447    0.023
 5434.00    1.19570   1.16761    0.023
 5435.00    1.22810   1.15902    0.023
 5436.00    1.25282   1.15720    0.023
 5437.00    1.27195   1.17091    0.023
 5438.00    1.28738   1.20254    0.024
 5439.00    1.31856   1.24550    0.024
 5440.00    1.35887   1.28903    0.023
 5441.00    1.33354   1.32354    0.023
 5442.00    1.27509   1.34353    0.023
 5443.00    1.29427   1.34759    0.024
 5444.00    1.34738   1.33453    0.024
 5445.00    1.34828   1.30377    0.024
 5446.00    1.32960   1.25870    0.024
 5447.00    1.28959   1.21182    0.024
 5448.00    1.24279   1.18177    0.024
 5449.00    1.28139   1.17932    0.024
 5450.00    1.34269   1.20078    0.024
 5451.00    1.26404   1.22942    0.024
 5452.00    1.15495   1.24736    0.024
 5453.00    1.12102   1.24601    0.024
 5454.00    1.10009   1.22625    0.024
 5455.00    1.11285   1.19619    0.024
 5456.00    1.13004   1.17036    0.024
 5457.00    1.12261   1.16304    0.023
 5458.00    1.11291   1.17871    0.023
 5459.00    1.16844   1.20864    0.023
 5460.00    1.22763   1.23501    0.023
 5461.00    1.23796   1.24473    0.023
 5462.00    1.24676   1.23681    0.023
 5463.00    1.21008   1.21993    0.023
 5464.00    1.17457   1.20702    0.022
 5465.00    1.16647   1.20525    0.023
 5466.00    1.15943   1.21372    0.023
 5467.00    1.16593   1.22699    0.022
 5468.00    1.17466   1.23778    0.022
 5469.00    1.20264   1.24169    0.022
 5470.00    1.22260   1.23845    0.023
 5471.00    1.19111   1.23021    0.022
 5472.00    1.16543   1.21955    0.022
 5473.00    1.16885   1.20737    0.022
 5474.00    1.17015   1.19388    0.022
 5475.00    1.16285   1.17764    0.022
 5476.00    1.15769   1.15797    0.022
 5477.00    1.15977   1.14079    0.022
 5478.00    1.15854   1.13445   -2.000
 5479.00    1.14792   1.14168   -2.000
 5480.00    1.15103   1.15670   -2.000
 5481.00    1.18744   1.16832   -2.000
 5482.00    1.15604   1.17216   -2.000
 5483.00    0.98259   1.17477   -2.000
 5484.00    0.84542   1.18571   -2.000
 5485.00    0.77433   1.20605   -2.000
 5486.00    0.37826   1.22560   -2.000
 5487.00   -0.53512   1.23369   -2.000
 5488.00   -0.69128   1.22930   -2.000
 5489.00    0.21037   1.21985   -2.000
 5490.00    0.91804   1.21388   -2.000
 5491.00    1.38725   1.21595   -2.000
 5492.00    1.86123   1.22273   -2.000
 5493.00    2.34041   1.22814   -2.000
 5494.00    2.27235   1.23018   -2.000
 5495.00    1.68120   1.22935   -2.000
 5496.00    1.36627   1.22660   -2.000
 5497.00    1.28415   1.22338   -2.000
 5498.00    1.25743   1.22227   -2.000
 5499.00    1.27182   1.22478   -2.000
 5500.00    1.27715   1.22889   -2.000
 5501.00    1.27657   1.22989   -2.000
 5502.00    1.26781   1.22410   -1.000
 5503.00    1.25439   1.21293   -1.000
 5504.00    1.21096   1.20152   -1.000
 5505.00    1.15262   1.19272   -1.000
 5506.00    1.14739   1.18540   -1.000
 5507.00    1.16499   1.18110   -1.000
 5508.00    1.19258   1.18293    0.061
 5509.00    1.22386   1.19022    0.026
 5510.00    1.22326   1.19810    0.023
 5511.00    1.21272   1.19823    0.022
 5512.00    1.17099   1.18632    0.022
 5513.00    1.12113   1.16808    0.022
 5514.00    1.09084   1.15253    0.022
 5515.00    1.06470   1.14732    0.022
 5516.00    1.10067   1.15554    0.022
 5517.00    1.14707   1.17479    0.022
 5518.00    1.19510   1.20113    0.022
 5519.00    1.24334   1.22860    0.022
 5520.00    1.22872   1.25102    0.022
 5521.00    1.20855   1.26473    0.022
 5522.00    1.17998   1.26932    0.022
 5523.00    1.15097   1.26768    0.022
 5524.00    1.12666   1.26265    0.022
 5525.00    1.10295   1.25397    0.022
 5526.00    1.11840   1.23986    0.022
 5527.00    1.13358   1.21970    0.022
 5528.00    1.14309   1.19719    0.022
 5529.00    1.15279   1.18146    0.022
 5530.00    1.16475   1.17966    0.022
 5531.00    1.18218   1.19127    0.022
 5532.00    1.24528   1.20877    0.023
 5533.00    1.29423   1.22231    0.023
 5534.00    1.25524   1.22690    0.023
 5535.00    1.22326   1.22430    0.023
 5536.00    1.22556   1.22007    0.023
 5537.00    1.21864   1.21806    0.023
 5538.00    1.17511   1.22005    0.023
 5539.00    1.15211   1.22732    0.023
 5540.00    1.19685   1.23850    0.023
 5541.00    1.24313   1.25070    0.023
 5542.00    1.29368   1.25959    0.024
 5543.00    1.32127   1.26138    0.024
 5544.00    1.29402   1.25701    0.024
 5545.00    1.27884   1.25043    0.024
 5546.00    1.28855   1.24594    0.023
 5547.00    1.29112   1.24748    0.023
 5548.00    1.28092   1.25598    0.023
 5549.00    1.28067   1.26912    0.023
 5550.00    1.29600   1.28306    0.023
 5551.00    1.30989   1.29264    0.023
 5552.00    1.32178   1.29390    0.023
 5553.00    1.30425   1.28695    0.023
 5554.00    1.25105   1.27485    0.022
 5555.00    1.22588   1.26237    0.022
 5556.00    1.23065   1.25347    0.022
 5557.00    1.23977   1.24897    0.022
 5558.00    1.25299   1.24765    0.022
 5559.00    1.26897   1.24757    0.022
 5560.00    1.28725   1.24660    0.022
 5561.00    1.26200   1.24370    0.022
 5562.00    1.20491   1.23804    0.022
 5563.00    1.20927   1.23008    0.022
 5564.00    1.25310   1.22216    0.022
 5565.00    1.25946   1.21490    0.022
 5566.00    1.24475   1.20810    0.021
 5567.00    1.23212   1.20215    0.021
 5568.00    1.22050   1.19727    0.022
 5569.00    1.22150   1.19451    0.022
 5570.00    1.22784   1.19522    0.022
 5571.00    1.24759   1.19871    0.022
 5572.00    1.27219   1.20142    0.022
 5573.00    1.22269   1.20290    0.022
 5574.00    1.15050   1.20575    0.022
 5575.00    1.16434   1.21062    0.023
 5576.00    1.20009   1.21830    0.023
 5577.00    1.19503   1.22796    0.023
 5578.00    1.18152   1.23546    0.023
 5579.00    1.23315   1.23990    0.023
 5580.00    1.29541   1.24289    0.023
 5581.00    1.30431   1.24334    0.023
 5582.00    1.30670   1.24056    0.023
 5583.00    1.26962   1.23458    0.043
 5584.00    1.22921   1.22327    0.982
 5585.00    1.18381   1.20518   -1.000
 5586.00    1.13816   1.17982   -1.000
 5587.00    1.11780   1.14873   -1.000
 5588.00    1.09817   1.11877   -1.000
 5589.00    1.09927   1.09816   -1.000
 5590.00    1.09876   1.09269   -1.000
 5591.00    1.06625   1.10194   -1.000
 5592.00    1.04052   1.11918    0.575
 5593.00    1.09362   1.13748    0.042
 5594.00    1.13852   1.15311    0.023
 5595.00    1.11756   1.16762    0.023
 5596.00    1.10279   1.18359    0.023
 5597.00    1.12545   1.19718    0.023
 5598.00    1.13829   1.20236    0.023
 5599.00    1.10433   1.19635    0.023
 5600.00    1.08653   1.18048    0.022
 5601.00    1.13148   1.16140    0.022
 5602.00    1.16210   1.14700    0.023
 5603.00    1.14631   1.14242    0.022
 5604.00    1.14680   1.15170    0.022
 5605.00    1.19183   1.17497    0.022
 5606.00    1.23598   1.20688    0.022
 5607.00    1.27809   1.23858    0.022
 5608.00    1.29736   1.26170    0.022
 5609.00    1.27033   1.27375    0.022
 5610.00    1.24830   1.27741    0.022
 5611.00    1.23512   1.27721    0.022
 5612.00    1.23858   1.27500    0.022
 5613.00    1.26779   1.26752    0.021
 5614.00    1.27637   1.24854    0.021
 5615.00    1.25698   1.21621    0.021
 5616.00    1.22654   1.18016    0.022
 5617.00    1.18289   1.15435    0.022
 5618.00    1.15200   1.14635    0.022
 5619.00    1.13458   1.15481    0.022
 5620.00    1.16694   1.17032    0.022
 5621.00    1.24557   1.18413    0.022
 5622.00    1.25182   1.19258    0.022
 5623.00    1.19879   1.19306    0.022
 5624.00    1.18355   1.18361    0.022
 5625.00    1.19556   1.16774    0.022
 5626.00    1.21014   1.15457    0.022
 5627.00    1.22634   1.15233    0.022
 5628.00    1.21276   1.16415    0.022
 5629.00    1.18269   1.18645    0.022
 5630.00    1.19648   1.21088    0.022
 5631.00    1.23136   1.23103    0.022
 5632.00    1.21600   1.24361    0.022
 5633.00    1.17977   1.24687    0.022
 5634.00    1.17577   1.24126    0.022
 5635.00    1.18322   1.22937    0.022
 5636.00    1.18999   1.21439    0.022
 5637.00    1.19655   1.19972    0.022
 5638.00    1.18434   1.18885    0.022
 5639.00    1.16746   1.18334    0.021
 5640.00    1.20335   1.18157    0.021
 5641.00    1.24990   1.18056    0.021
 5642.00    1.26164   1.17923    0.021
 5643.00    1.26786   1.17830    0.021
 5644.00    1.26337   1.17959    0.021
 5645.00    1.25762   1.18486    0.021
 5646.00    1.25534   1.19268    0.021
 5647.00    1.25334   1.20057    0.021
 5648.00    1.23925   1.20677    0.021
 5649.00    1.22461   1.21023    0.021
 5650.00    1.21984   1.21235    0.021
 5651.00    1.21500   1.21553    0.021
 5652.00    1.20116   1.22048    0.021
 5653.00    1.18764   1.22527    0.021
 5654.00    1.17978   1.22579    0.021
 5655.00    1.17410   1.21975    0.021
 5656.00    1.19243   1.20851    0.021
 5657.00    1.20511   1.19245    0.021
 5658.00    1.17409   1.17218    0.021
 5659.00    1.15467   1.15299    0.021
 5660.00    1.20339   1.14045    0.021
 5661.00    1.23867   1.13672    0.021
 5662.00    1.21149   1.14197    0.021
 5663.00    1.18978   1.15304    0.021
 5664.00    1.18889   1.16594    0.021
 5665.00    1.20098   1.17978    0.022
 5666.00    1.25424   1.19319    0.022
 5667.00    1.27396   1.20177    0.022
 5668.00    1.20345   1.20310    0.022
 5669.00    1.16589   1.19983    0.022
 5670.00    1.20436   1.19706    0.022
 5671.00    1.23125   1.19952    0.022
 5672.00    1.23505   1.20922    0.022
 5673.00    1.22852   1.22433    0.022
 5674.00    1.20404   1.24033    0.021
 5675.00    1.17027   1.25328    0.021
 5676.00    1.12236   1.26150    0.021
 5677.00    1.13602   1.26480    0.021
 5678.00    1.23205   1.26381    0.022
 5679.00    1.28102   1.25962    0.021
 5680.00    1.27455   1.25217    0.021
 5681.00    1.26928   1.24099    0.021
 5682.00    1.26528   1.22705    0.021
 5683.00    1.23905   1.21378    0.020
 5684.00    1.19247   1.20447    0.020
 5685.00    1.17398   1.19959    0.020
 5686.00    1.17818   1.19718    0.020
 5687.00    1.19108   1.19413    0.020
 5688.00    1.21019   1.18970    0.020
 5689.00    1.20141   1.18749    0.020
 5690.00    1.17524   1.19260    0.020
 5691.00    1.17828   1.20629    0.020
 5692.00    1.19724   1.22512    0.020
 5693.00    1.21441   1.24278    0.020
 5694.00    1.23075   1.25396    0.020
 5695.00    1.23260   1.25747    0.021
 5696.00    1.22853   1.25454    0.021
 5697.00    1.21952   1.24662    0.021
 5698.00    1.20879   1.23466    0.021
 5699.00    1.17490   1.22016    0.021
 5700.00    1.13420   1.20410    0.021
 5701.00    1.19307   1.18748    0.021
 5702.00    1.27619   1.17426    0.022
 5703.00    1.23961   1.16745    0.021
 5704.00    1.17946   1.16674    0.021
 5705.00    1.14080   1.16900    0.021
 5706.00    1.10544   1.16828    0.021
 5707.00    1.13992   1.16011    0.021
 5708.00    1.18233   1.14433    0.021
 5709.00    1.20375   1.12578    0.021
 5710.00    1.22358   1.11237    0.021
 5711.00    1.21487   1.10771    0.021
 5712.00    1.20501   1.11260    0.021
 5713.00    1.19871   1.12830    0.021
 5714.00    1.19226   1.15125    0.020
 5715.00    1.17849   1.17676    0.020
 5716.00    1.16544   1.20176    0.020
 5717.00    1.16452   1.22127    0.020
 5718.00    1.16639   1.23389    0.020
 5719.00    1.19778   1.24283    0.020
 5720.00    1.22154   1.25029    0.020
 5721.00    1.18806   1.25822    0.020
 5722.00    1.16221   1.26774    0.020
 5723.00    1.17984   1.27684    0.020
 5724.00    1.20108   1.28275    0.020
 5725.00    1.23869   1.28338    0.020
 5726.00    1.26424   1.27680    0.020
 5727.00    1.24492   1.26425    0.020
 5728.00    1.22557   1.25164    0.020
 5729.00    1.20612   1.24354    0.020
 5730.00    1.19965   1.23977    0.020
 5731.00    1.22749   1.23817    0.020
 5732.00    1.24552   1.23747    0.020
 5733.00    1.24128   1.23813    0.020
 5734.00    1.24126   1.24187    0.020
 5735.00    1.24952   1.24943    0.020
 5736.00    1.25908   1.25721    0.020
 5737.00    1.27085   1.26042    0.020
 5738.00    1.27873   1.25893    0.021
 5739.00    1.28079   1.25519    0.021
 5740.00    1.27542   1.25152    0.000
 5741.00    1.26027   1.24914    0.000
 5742.00    1.26716   1.24738    0.000
 5743.00    1.29966   1.24627    0.000
 5744.00    1.30371   1.24746    0.000
 5745.00    1.27862   1.25154    0.000
 5746.00    1.24578   1.25635    0.000
 5747.00    1.20593   1.25788    0.000
 5748.00    1.20246   1.25374    0.000
 5749.00    1.22794   1.24672    0.000
 5750.00    1.24534   1.24128    0.000
 5751.00    1.25708   1.23842    0.000
 5752.00    1.24601   1.23517    0.000
 5753.00    1.22092   1.22697    0.000
 5754.00    1.21809   1.21441    0.000
 5755.00    1.22719   1.20562    0.000
 5756.00    1.21744   1.20825    0.000
 5757.00    1.19891   1.22225    0.000
 5758.00    1.20712   1.24033    0.000
 5759.00    1.22607   1.25155    0.000
 5760.00    1.21732   1.24872    0.000
 5761.00    1.19910   1.23326    0.000
 5762.00    1.20672   1.21261    0.000
 5763.00    1.22179   1.19717    0.000
 5764.00    1.26369   1.19569    0.000
 5765.00    1.31197   1.20897    0.000
 5766.00    1.30912   1.23116    0.000
 5767.00    1.29645   1.25427    0.000
 5768.00    1.30126   1.27056    0.000
 5769.00    1.30868   1.27706    0.000
 5770.00    1.31332   1.27606    0.000
 5771.00    1.31767   1.27029    0.000
 5772.00    1.31330   1.26186    0.000
 5773.00    1.30830   1.25371    0.000
 5774.00    1.29778   1.24738    0.000
 5775.00    1.28706   1.24373    0.000
 5776.00    1.28937   1.24388    0.000
 5777.00    1.29127   1.24582    0.000
 5778.00    1.27651   1.24584    0.000
 5779.00    1.26364   1.23994    0.000
 5780.00    1.28113   1.22342    0.000
 5781.00    1.29558   1.19652    0.000
 5782.00    1.27919   1.16635    0.000
 5783.00    1.26104   1.14052    0.000
 5784.00    1.23012   1.12335    0.000
 5785.00    1.20318   1.11647    0.000
 5786.00    1.19830   1.12000    0.000
 5787.00    1.19192   1.13240    0.000
 5788.00    1.17888   1.15120    0.000
 5789.00    1.17287   1.17372    0.000
 5790.00    1.19248   1.19327    0.000
 5791.00    1.19919   1.20469   -2.000
 5792.00    1.16651   1.21157   -2.000
 5793.00    1.13977   1.21845   -2.000
 5794.00    1.12849   1.22797   -2.000
 5795.00    1.10941   1.24019   -2.000
 5796.00    1.07292   1.24916   -2.000
 5797.00    1.08274   1.25026   -2.000
 5798.00    1.18214   1.24626   -2.000
 5799.00    1.25266   1.24409   -2.000
 5800.00    1.27447   1.24893   -2.000
 5801.00    1.27101   1.26124   -2.000
 5802.00    1.23023   1.27646   -2.000
 5803.00    1.23068   1.28542   -2.000
 5804.00    1.28474   1.28251   -2.000
 5805.00    1.32523   1.27106   -2.000
 5806.00    1.35018   1.25727   -2.000
 5807.00    1.33567   1.24653   -2.000
 5808.00    1.28133   1.24266   -2.000
 5809.00    1.24547   1.24499   -2.000
 5810.00    1.22606   1.25064   -2.000
 5811.00    1.21471   1.25691    0.000
 5812.00    1.20970   1.26142    0.000
 5813.00    1.22658   1.26277    0.000
 5814.00    1.25858   1.25942    0.000
 5815.00    1.28572   1.25088    0.000
 5816.00    1.30990   1.24028    0.000
 5817.00    1.28933   1.23305    0.000
 5818.00    1.24512   1.23383    0.000
 5819.00    1.20899   1.24343    0.000
 5820.00    1.17658   1.25847    0.000
 5821.00    1.21600   1.27281    0.000
 5822.00    1.28378   1.28095    0.000
 5823.00    1.31527   1.28235    0.000
 5824.00    1.33457   1.28012    0.000
 5825.00    1.32070   1.27756    0.000
 5826.00    1.29745   1.27650    0.000
 5827.00    1.27788   1.27716    0.000
 5828.00    1.25917   1.27885    0.000
 5829.00    1.24626   1.28085    0.000
 5830.00    1.23443   1.28256    0.000
 5831.00    1.21385   1.28305    0.000
 5832.00    1.19200   1.28194    0.000
 5833.00    1.22161   1.27858    0.000
 5834.00    1.25660   1.27252    0.000
 5835.00    1.27101   1.26575    0.000
 5836.00    1.28402   1.26082    0.000
 5837.00    1.27514   1.25780    0.000
 5838.00    1.26553   1.25636    0.000
 5839.00    1.25969   1.25765    0.000
 5840.00    1.25333   1.26178    0.000
 5841.00    1.23011   1.26830    0.000
 5842.00    1.20990   1.27701    0.000
 5843.00    1.23502   1.28525    0.000
 5844.00    1.25915   1.28869    0.000
 5845.00    1.27373   1.28521    0.000
 5846.00    1.28360   1.27566    0.000
 5847.00    1.26050   1.26234    0.000
 5848.00    1.24027   1.24910    0.000
 5849.00    1.23555   1.23912    0.000
 5850.00    1.22625   1.23270    0.000
 5851.00    1.19715   1.22795    0.000
 5852.00    1.18008   1.22151    0.000
 5853.00    1.20598   1.21168    0.000
 5854.00    1.22284   1.20056    0.000
 5855.00    1.21264   1.19058    0.000
 5856.00    1.19657   1.18139    0.000
 5857.00    1.16556   1.17179    0.000
 5858.00    1.15930   1.16247    0.000
 5859.00    1.20737   1.15640    0.000
 5860.00    1.22848   1.15704    0.000
 5861.00    1.19825   1.16579    0.000
 5862.00    1.17711   1.17865    0.000
 5863.00    1.17105   1.18974    0.000
 5864.00    1.16953   1.19693    0.000
 5865.00    1.17462   1.20007    0.000
 5866.00    1.17897   1.20017    0.000
 5867.00    1.18239   1.19997    0.000
 5868.00    1.17921   1.20220    0.000
 5869.00    1.16858   1.20782    0.000
 5870.00    1.16085   1.21664    0.000
 5871.00    1.15601   1.22613    0.000
 5872.00    1.15259   1.23177    0.000
 5873.00    1.15042   1.23160    0.000
 5874.00    1.17551   1.22766    0.000
 5875.00    1.22170   1.22276    0.000
 5876.00    1.24181   1.21782    0.000
 5877.00    1.24418   1.21265    0.000
 5878.00    1.24931   1.20616    0.000
 5879.00    1.25609   1.19688    0.000
 5880.00    1.25648   1.18576    0.000
 5881.00    1.25356   1.17613    0.000
 5882.00    1.23745   1.17028    0.000
 5883.00    1.21540   1.16750    0.000
 5884.00    1.17254   1.16596    0.000
 5885.00    1.12160   1.16277    0.000
 5886.00    1.08389   1.15212    0.000
 5887.00    1.05053   1.12711    0.000
 5888.00    1.03683   1.08148    0.000
 5889.00    1.02857   1.01343    0.000
 5890.00    1.02481   0.93543    0.000
 5891.00    1.02208   0.87258    0.000
 5892.00    0.99233   0.84297    0.000
 5893.00    0.95768   0.84777    0.000
 5894.00    0.95257   0.87189    0.000
 5895.00    0.95158   0.89021    0.000
 5896.00    0.98055   0.89225    0.000
 5897.00    1.01252   0.89256    0.000
 5898.00    1.04080   0.90769    0.000
 5899.00    1.06885   0.94420    0.000
 5900.00    1.09905   0.99910    0.000
 5901.00    1.12926   1.05737    0.018
 5902.00    1.13693   1.10412    0.018
 5903.00    1.14431   1.13636    0.018
 5904.00    1.14347   1.15639    0.018
 5905.00    1.14213   1.16637    0.018
 5906.00    1.13363   1.17030    0.018
 5907.00    1.12797   1.17267    0.018
 5908.00    1.14881   1.17582    0.018
 5909.00    1.16526   1.18054    0.018
 5910.00    1.15182   1.18637    0.018
 5911.00    1.13716   1.19157    0.019
 5912.00    1.11602   1.19360    0.018
 5913.00    1.10692   1.19013    0.018
 5914.00    1.14879   1.18099    0.019
 5915.00    1.18369   1.16883    0.019
 5916.00    1.19418   1.15779    0.018
 5917.00    1.20030   1.15261    0.018
 5918.00    1.19359   1.15558    0.019
 5919.00    1.19081   1.16445    0.019
 5920.00    1.19790   1.17542    0.019
 5921.00    1.20562   1.18429    0.019
 5922.00    1.21467   1.18873    0.019
 5923.00    1.22324   1.19036    0.018
 5924.00    1.23089   1.19140    0.019
 5925.00    1.23647   1.19328    0.018
 5926.00    1.23866   1.19661    0.018
 5927.00    1.24714   1.19920    0.018
 5928.00    1.26468   1.19824    0.018
 5929.00    1.27380   1.19321    0.018
 5930.00    1.27230   1.18608    0.018
 5931.00    1.26064   1.18119    0.018
 5932.00    1.23767   1.18102    0.018
 5933.00    1.23431   1.18355    0.018
 5934.00    1.25019   1.18533    0.018
 5935.00    1.25242   1.18472    0.018
 5936.00    1.24282   1.18330    0.018
 5937.00    1.23209   1.18370    0.018
 5938.00    1.22048   1.18759    0.018
 5939.00    1.22671   1.19403    0.018
 5940.00    1.24490   1.19806    0.018
 5941.00    1.24179   1.19639    0.018
 5942.00    1.22618   1.19133    0.018
 5943.00    1.21081   1.18695    0.018
 5944.00    1.19556   1.18665    0.018
 5945.00    1.20011   1.19212    0.018
 5946.00    1.21344   1.20072    0.018
 5947.00    1.21082   1.20701    0.019
 5948.00    1.20211   1.20698    0.019
 5949.00    1.18697   1.20081    0.019
 5950.00    1.16974   1.19259    0.018
 5951.00    1.17311   1.18590    0.018
 5952.00    1.18206   1.18116    0.019
 5953.00    1.19214   1.17793    0.018
 5954.00    1.20246   1.17633    0.018
 5955.00    1.21741   1.17519    0.018
 5956.00    1.23317   1.17354    0.018
 5957.00    1.23844   1.17218    0.018
 5958.00    1.24230   1.17200    0.018
 5959.00    1.24293   1.17406    0.018
 5960.00    1.24325   1.18040    0.018
 5961.00    1.20754   1.19135    0.018
 5962.00    1.16967   1.20373    0.018
 5963.00    1.16878   1.21336    0.018
 5964.00    1.16907   1.21802    0.017
 5965.00    1.20444   1.21732    0.017
 5966.00    1.23918   1.21348    0.017
 5967.00    1.25762   1.21079    0.017
 5968.00    1.27624   1.21154    0.017
 5969.00    1.29738   1.21591    0.017
 5970.00    1.31564   1.22317    0.017
 5971.00    1.30814   1.23068    0.018
 5972.00    1.29526   1.23554    0.018
 5973.00    1.24701   1.23651    0.018
 5974.00    1.21009   1.23278    0.018
 5975.00    1.23134   1.22356    0.018
 5976.00    1.24530   1.20994    0.018
 5977.00    1.22908   1.19524    0.018
 5978.00    1.21051   1.18345    0.018
 5979.00    1.18386   1.17792    0.018
 5980.00    1.16355   1.17961    0.018
 5981.00    1.16151   1.18513    0.018
 5982.00    1.15998   1.18875    0.018
 5983.00    1.15968   1.18599    0.018
 5984.00    1.15828   1.17633    0.018
 5985.00    1.15452   1.16510    0.018
 5986.00    1.16485   1.15886    0.018
 5987.00    1.20119   1.16014    0.018
 5988.00    1.24066   1.16843    0.018
 5989.00    1.28518   1.18035    0.018
 5990.00    1.30451   1.19087    0.018
 5991.00    1.28821   1.19726    0.018
 5992.00    1.27322   1.20075    0.018
 5993.00    1.25986   1.20403    0.018
 5994.00    1.25040   1.20782    0.018
 5995.00    1.24523   1.21099    0.018
 5996.00    1.23331   1.21129    0.018
 5997.00    1.21486   1.20646    0.017
 5998.00    1.20832   1.19740    0.017
 5999.00    1.21194   1.18824    0.017
 6000.00    1.22544   1.18273    0.017
 6001.00    1.24635   1.18166    0.017
 6002.00    1.25280   1.18250    0.017
 6003.00    1.24968   1.18257    0.017
 6004.00    1.22700   1.18153    0.017
 6005.00    1.19300   1.17887    0.018
 6006.00    1.17591   1.17385    0.018
 6007.00    1.16735   1.16673    0.017
 6008.00    1.18036   1.15855    0.018
 6009.00    1.20278   1.15332    0.018
 6010.00    1.21422   1.15497    0.018
 6011.00    1.22155   1.16220    0.018
 6012.00    1.21749   1.17004    0.018
 6013.00    1.20980   1.17368    0.018
 6014.00    1.21002   1.17186    0.018
 6015.00    1.21233   1.16700    0.018
 6016.00    1.22950   1.16193    0.018
 6017.00    1.24989   1.15867    0.019
 6018.00    1.23683   1.15747    0.018
 6019.00    1.21800   1.15614    0.018
 6020.00    1.18086   1.15367    0.018
 6021.00    1.14132   1.15168    0.018
 6022.00    1.14993   1.15154    0.018
 6023.00    1.16297   1.15383    0.017
 6024.00    1.18498   1.15915    0.017
 6025.00    1.20749   1.16765    0.017
 6026.00    1.22713   1.17757    0.017
 6027.00    1.24641   1.18690    0.017
 6028.00    1.23608   1.19581    0.017
 6029.00    1.22568   1.20433    0.017
 6030.00    1.21381   1.21140    0.017
 6031.00    1.20196   1.21702    0.017
 6032.00    1.19045   1.22193    0.017
 6033.00    1.18010   1.22614    0.017
 6034.00    1.17982   1.22957    0.017
 6035.00    1.18227   1.23250    0.017
 6036.00    1.20209   1.23474    0.017
 6037.00    1.21964   1.23568    0.018
 6038.00    1.22587   1.23509    0.018
 6039.00    1.22770   1.23294    0.018
 6040.00    1.21169   1.22949    0.018
 6041.00    1.19733   1.22592    0.018
 6042.00    1.18852   1.22365    0.018
 6043.00    1.18595   1.22439    0.018
 6044.00    1.20106   1.22880    0.018
 6045.00    1.20789   1.23547    0.018
 6046.00    1.19470   1.24255    0.018
 6047.00    1.19641   1.24826    0.018
 6048.00    1.22929   1.25115    0.018
 6049.00    1.26173   1.25134    0.018
 6050.00    1.29334   1.25048    0.018
 6051.00    1.31269   1.24899    0.018
 6052.00    1.31257   1.24602    0.018
 6053.00    1.30635   1.24093    0.018
 6054.00    1.29162   1.23366    0.018
 6055.00    1.28656   1.22456    0.017
 6056.00    1.29338   1.21504    0.018
 6057.00    1.29446   1.20764    0.017
 6058.00    1.28933   1.20443    0.017
 6059.00    1.27407   1.20591    0.017
 6060.00    1.24915   1.21077    0.017
 6061.00    1.24244   1.21593    0.017
 6062.00    1.25106   1.21752    0.017
 6063.00    1.24427   1.21302    0.017
 6064.00    1.22606   1.20276    0.017
 6065.00    1.20451   1.19020    0.017
 6066.00    1.18079   1.18218    0.017
 6067.00    1.17077   1.18461    0.017
 6068.00    1.16857   1.19731    0.017
 6069.00    1.18018   1.21591    0.017
 6070.00    1.19863   1.23500    0.017
 6071.00    1.21645   1.24972    0.017
 6072.00    1.23398   1.25835    0.018
 6073.00    1.25694   1.26236    0.018
 6074.00    1.28188   1.26348    0.018
 6075.00    1.28384   1.26189    0.018
 6076.00    1.27864   1.25683    0.018
 6077.00    1.27931   1.24794    0.018
 6078.00    1.28151   1.23549    0.018
 6079.00    1.26113   1.22132    0.018
 6080.00    1.23597   1.20838    0.017
 6081.00    1.21161   1.19745    0.017
 6082.00    1.18739   1.18857    0.018
 6083.00    1.19204   1.18326    0.017
 6084.00    1.20034   1.18164    0.017
 6085.00    1.21747   1.18202    0.017
 6086.00    1.23538   1.18415    0.017
 6087.00    1.23427   1.18779    0.017
 6088.00    1.23218   1.19090    0.017
 6089.00    1.23491   1.19128    0.017
 6090.00    1.23748   1.18811    0.017
 6091.00    1.22240   1.18284    0.017
 6092.00    1.20806   1.17790    0.017
 6093.00    1.20939   1.17550    0.017
 6094.00    1.21055   1.17808    0.017
 6095.00    1.20974   1.18588    0.017
 6096.00    1.20982   1.19517    0.017
 6097.00    1.21735   1.20257    0.018
 6098.00    1.22399   1.20735    0.018
 6099.00    1.22512   1.20930    0.017
 6100.00    1.22282   1.20737    0.017
 6101.00    1.20389   1.19951    0.017
 6102.00    1.18739   1.18371    0.018
 6103.00    1.18056   1.16372    0.018
 6104.00    1.17837   1.14899    0.018
 6105.00    1.19141   1.14569    0.018
 6106.00    1.20136   1.15387    0.018
 6107.00    1.20271   1.16934    0.018
 6108.00    1.20362   1.18525    0.018
 6109.00    1.20349   1.19687    0.018
 6110.00    1.19645   1.20367    0.017
 6111.00    1.17517   1.20681    0.017
 6112.00    1.16306   1.20883    0.017
 6113.00    1.16737   1.21206    0.017
 6114.00    1.18305   1.21629    0.017
 6115.00    1.21650   1.21983    0.017
 6116.00    1.23058   1.22098    0.017
 6117.00    1.21802   1.21871    0.017
 6118.00    1.18719   1.21263    0.017
 6119.00    1.13426   1.20193    0.017
 6120.00    1.11283   1.18661    0.017
 6121.00    1.12497   1.16815    0.017
 6122.00    1.13679   1.14930    0.017
 6123.00    1.14831   1.13664    0.017
 6124.00    1.16648   1.13598    0.017
 6125.00    1.19018   1.14535    0.017
 6126.00    1.21062   1.15865    0.017
 6127.00    1.22869   1.17037    0.017
 6128.00    1.23031   1.17671    0.017
 6129.00    1.22139   1.17885    0.017
 6130.00    1.21457   1.18205    0.017
 6131.00    1.20891   1.18887    0.017
 6132.00    1.21031   1.19714    0.017
 6133.00    1.21513   1.20231    0.018
 6134.00    1.22096   1.19846    0.018
 6135.00    1.22720   1.18122    0.018
 6136.00    1.20684   1.15148    0.018
 6137.00    1.17687   1.11720    0.018
 6138.00    1.15339   1.09208    0.018
 6139.00    1.13188   1.08683    0.018
 6140.00    1.12515   1.10092    0.017
 6141.00    1.12217   1.12521    0.017
 6142.00    1.13172   1.15055    0.017
 6143.00    1.14386   1.17186    0.017
 6144.00    1.17455   1.18786    0.017
 6145.00    1.20826   1.19988    0.017
 6146.00    1.24226   1.20905    0.017
 6147.00    1.27629   1.21367    0.017
 6148.00    1.28315   1.21103    0.017
 6149.00    1.28773   1.20153    0.017
 6150.00    1.27528   1.18936    0.017
 6151.00    1.26200   1.17925    0.017
 6152.00    1.24677   1.17400    0.017
 6153.00    1.23112   1.17317    0.017
 6154.00    1.19331   1.17361    0.017
 6155.00    1.15759   1.17271    0.017
 6156.00    1.16285   1.16998    0.017
 6157.00    1.16482   1.16511    0.017
 6158.00    1.12887   1.15741    0.017
 6159.00    1.09626   1.14560    0.018
 6160.00    1.09045   1.12600    0.018
 6161.00    1.08765   1.09552    0.018
 6162.00    1.10299   1.05881    0.018
 6163.00    1.11172   1.02724    0.017
 6164.00    1.08907   1.01103    0.017
 6165.00    1.07169   1.01375    0.017
 6166.00    1.07471   1.03153    0.017
 6167.00    1.08285   1.05520    0.018
 6168.00    1.10752   1.07346    0.017
 6169.00    1.12570   1.07897    0.017
 6170.00    1.12615   1.07492    0.017
 6171.00    1.12243   1.07147    0.017
 6172.00    1.10897   1.07456    0.017
 6173.00    1.10408   1.08400    0.017
 6174.00    1.11652   1.09797    0.017
 6175.00    1.11778   1.11235    0.017
 6176.00    1.09934   1.12198    0.017
 6177.00    1.07919   1.12651    0.017
 6178.00    1.05641   1.12996    0.017
 6179.00    1.05273   1.13426    0.017
 6180.00    1.07495   1.13871    0.017
 6181.00    1.08031   1.14378    0.017
 6182.00    1.06556   1.14968    0.017
 6183.00    1.06578   1.15433    0.017
 6184.00    1.08175   1.15623    0.017
 6185.00    1.08847   1.15480    0.017
 6186.00    1.08664   1.14830    0.017
 6187.00    1.09186   1.13644    0.018
 6188.00    1.10284   1.12165    0.018
 6189.00    1.11400   1.10614    0.018
 6190.00    1.12530   1.09038    0.018
 6191.00    1.12359   1.07487    0.018
 6192.00    1.11369   1.06358    0.017
 6193.00    1.12486   1.06201    0.017
 6194.00    1.14768   1.07118    0.017
 6195.00    1.14663   1.08810    0.018
 6196.00    1.13410   1.10874   -2.000
 6197.00    0.89104   1.12687   -2.000
 6198.00    0.55241   1.13575   -2.000
 6199.00    0.29880   1.13384   -2.000
 6200.00    0.07533   1.12572   -2.000
 6201.00    0.32714   1.11861   -2.000
 6202.00    0.72118   1.11748   -2.000
 6203.00    1.12671   1.12303   -2.000
 6204.00    1.53510   1.13297   -2.000
 6205.00    1.58839   1.14349   -2.000
 6206.00    1.57018   1.15107   -2.000
 6207.00    1.40506   1.15455   -2.000
 6208.00    1.21677   1.15490    0.018
 6209.00    1.18793   1.15315    0.018
 6210.00    1.17778   1.14875    0.018
 6211.00    1.18323   1.14045    0.017
 6212.00    1.18992   1.12739    0.017
 6213.00    1.16215   1.10895    0.017
 6214.00    1.13285   1.08665    0.017
 6215.00    1.11723   1.06514    0.017
 6216.00    1.10237   1.04935    0.017
 6217.00    1.11675   1.04207    0.017
 6218.00    1.12852   1.04272    0.017
 6219.00    1.09262   1.04691    0.017
 6220.00    1.05849   1.05061    0.017
 6221.00    1.04383   1.05334    0.017
 6222.00    1.03269   1.05646    0.017
 6223.00    1.04869   1.06094    0.017
 6224.00    1.06237   1.06685    0.017
 6225.00    1.06252   1.07372    0.017
 6226.00    1.05991   1.08015    0.017
 6227.00    1.04450   1.08389    0.017
 6228.00    1.03064   1.08301    0.017
 6229.00    1.02267   1.07584    0.017
 6230.00    1.02441   1.06141    0.017
 6231.00    1.05683   1.04355    0.017
 6232.00    1.08865   1.03031    0.017
 6233.00    1.11885   1.02785    0.017
 6234.00    1.13777   1.03842    0.017
 6235.00    1.13072   1.05939    0.016
 6236.00    1.12378   1.08253    0.016
 6237.00    1.11704   1.09877    0.016
 6238.00    1.11215   1.10366    0.016
 6239.00    1.11048   1.09705    0.017
 6240.00    1.10196   1.08238    0.017
 6241.00    1.08305   1.06591    0.017
 6242.00    1.07054   1.05151    0.017
 6243.00    1.06659   1.03952    0.017
 6244.00    1.06641   1.03139    0.017
 6245.00    1.07067   1.02890    0.017
 6246.00    1.07599   1.03172    0.017
 6247.00    1.08240   1.04041    0.017
 6248.00    1.08282   1.05499    0.017
 6249.00    1.07775   1.07058    0.017
 6250.00    1.08042   1.08119    0.017
 6251.00    1.08932   1.08338    0.017
 6252.00    1.09200   1.07565    0.017
 6253.00    1.09028   1.06058    0.017
 6254.00    1.07821   1.04388    0.017
 6255.00    1.05970   1.02939    0.017
 6256.00    1.04982   1.01740    0.017
 6257.00    1.04463   1.00720    0.017
 6258.00    1.03474   0.99892    0.017
 6259.00    1.02262   0.99512    0.018
 6260.00    0.94866   0.99962    0.018
 6261.00    0.84949   1.01335    0.019
 6262.00    0.84504   1.03426    0.020
 6263.00    0.87356   1.05807    0.021
 6264.00    0.97797   1.07795    0.021
 6265.00    1.10464   1.08876    0.020
 6266.00    1.22526   1.09196    0.019
 6267.00    1.34441   1.09181    0.019
 6268.00    1.32755   1.09043    0.018
 6269.00    1.28399   1.08914    0.017
 6270.00    1.23075   1.08949    0.017
 6271.00    1.17603   1.09160    0.017
 6272.00    1.15933   1.09481    0.017
 6273.00    1.14693   1.09893    0.017
 6274.00    1.13266   1.10323    0.017
 6275.00    1.11826   1.10670    0.017
 6276.00    1.09055   1.10891    0.017
 6277.00    1.06231   1.10959    0.017
 6278.00    1.09377   1.10854    0.017
 6279.00    1.12531   1.10545    0.017
 6280.00    1.14204   1.09992    0.000
 6281.00    1.15806   1.09341    0.000
 6282.00    1.16181   1.08912    0.000
 6283.00    1.16547   1.08944    0.000
 6284.00    1.16830   1.09465    0.000
 6285.00    1.16903   1.10310    0.000
 6286.00    1.15402   1.11285    0.000
 6287.00    1.14346   1.12272    0.000
 6288.00    1.15820   1.13183    0.000
 6289.00    1.17402   1.13903    0.000
 6290.00    1.19472   1.14270    0.000
 6291.00    1.21052   1.14147    0.000
 6292.00    1.20810   1.13563    0.000
 6293.00    1.19979   1.12720    0.000
 6294.00    1.17316   1.11884    0.000
 6295.00    1.15041   1.11158    0.000
 6296.00    1.13788   1.10411    0.000
 6297.00    1.12940   1.09567    0.000
 6298.00    1.13008   1.08784    0.000
 6299.00    1.12975   1.08238    0.000
 6300.00    1.12746   1.07920    0.000
 6301.00    1.13020   1.07712    0.000
 6302.00    1.14155   1.07567    0.000
 6303.00    1.14787   1.07574    0.000
 6304.00    1.14664   1.07830    0.000
 6305.00    1.14938   1.08372    0.000
 6306.00    1.15735   1.09255    0.000
 6307.00    1.16861   1.10478    0.000
 6308.00    1.18367   1.11791    0.000
 6309.00    1.17266   1.12813    0.000
 6310.00    1.13499   1.13265    0.000
 6311.00    1.10967   1.13065    0.000
 6312.00    1.09548   1.12343    0.000
 6313.00    1.09513   1.11381    0.000
 6314.00    1.10579   1.10367    0.000
 6315.00    1.11881   1.09367    0.000
 6316.00    1.13349   1.08478    0.000
 6317.00    1.14883   1.07688    0.000
 6318.00    1.16457   1.06906    0.000
 6319.00    1.16560   1.06350    0.000
 6320.00    1.15874   1.06375    0.000
 6321.00    1.15027   1.06981    0.016
 6322.00    1.14105   1.07950    0.016
 6323.00    1.15476   1.09145    0.016
 6324.00    1.17766   1.10424    0.016
 6325.00    1.18456   1.11556    0.016
 6326.00    1.18601   1.12418    0.016
 6327.00    1.17290   1.13023    0.017
 6328.00    1.15562   1.13446    0.017
 6329.00    1.17052   1.13736    0.017
 6330.00    1.19306   1.13865    0.017
 6331.00    1.20947   1.13882    0.017
 6332.00    1.22470   1.13880    0.017
 6333.00    1.21281   1.13776    0.016
 6334.00    1.19690   1.13296    0.016
 6335.00    1.18775   1.12242    0.016
 6336.00    1.17934   1.10800    0.016
 6337.00    1.16850   1.09482    0.016
 6338.00    1.15750   1.08740    0.017
 6339.00    1.15225   1.08728    0.016
 6340.00    1.14722   1.09378    0.016
 6341.00    1.15594   1.10337    0.016
 6342.00    1.16474   1.11026    0.016
 6343.00    1.17452   1.11080    0.017
 6344.00    1.18376   1.10625    0.017
 6345.00    1.18429   1.10122    0.017
 6346.00    1.18545   1.09970    0.017
 6347.00    1.19284   1.10320    0.017
 6348.00    1.20032   1.11115    0.017
 6349.00    1.20839   1.12123    0.016
 6350.00    1.21504   1.13018    0.016
 6351.00    1.21383   1.13597    0.016
 6352.00    1.21270   1.13811    0.017
 6353.00    1.21197   1.13605    0.017
 6354.00    1.20939   1.12915    0.016
 6355.00    1.20006   1.11850    0.016
 6356.00    1.18984   1.10665    0.016
 6357.00    1.17690   1.09470    0.017
 6358.00    1.16730   1.08178    0.017
 6359.00    1.16635   1.06789    0.017
 6360.00    1.16110   1.05437    0.017
 6361.00    1.14624   1.04208    0.017
 6362.00    1.12732   1.03209    0.017
 6363.00    1.10052   1.02699    0.017
 6364.00    1.08709   1.02891    0.017
 6365.00    1.09617   1.03771    0.017
 6366.00    1.11265   1.05194    0.017
 6367.00    1.14005   1.06984    0.017
 6368.00    1.16950   1.08909    0.017
 6369.00    1.20159   1.10659    0.017
 6370.00    1.22069   1.12013    0.017
 6371.00    1.22492   1.13008    0.017
 6372.00    1.22997   1.13827    0.017
 6373.00    1.23585   1.14559    0.017
 6374.00    1.23885   1.15160    0.017
 6375.00    1.23930   1.15572    0.016
 6376.00    1.23057   1.15762    0.016
 6377.00    1.21465   1.15664    0.016
 6378.00    1.20228   1.15219    0.016
 6379.00    1.19236   1.14534    0.017
 6380.00    1.18677   1.13834    0.017
 6381.00    1.18380   1.13286    0.016
 6382.00    1.17675   1.13003    0.016
 6383.00    1.16755   1.13001    0.016
 6384.00    1.17494   1.13160    0.016
 6385.00    1.18991   1.13393    0.016
 6386.00    1.20610   1.13715    0.017
 6387.00    1.22278   1.14116    0.017
 6388.00    1.23450   1.14511    0.017
 6389.00    1.24455   1.14827    0.017
 6390.00    1.23845   1.14957    0.017
 6391.00    1.22780   1.14688    0.017
 6392.00    1.21425   1.13831    0.017
 6393.00    1.20001   1.12476    0.017
 6394.00    1.18263   1.11145    0.017
 6395.00    1.16466   1.10454    0.017
 6396.00    1.16082   1.10619    0.017
 6397.00    1.15900   1.11370    0.017
 6398.00    1.17641   1.12125    0.017
 6399.00    1.19583   1.12245    0.017
 6400.00    1.20015   1.11579    0.017
 6401.00    1.20346   1.10790    0.017
 6402.00    1.21211   1.10670    0.017
 6403.00    1.22093   1.11424    0.017
 6404.00    1.23494   1.12741    0.017
 6405.00    1.24799   1.14075    0.017
 6406.00    1.23096   1.14858    0.017
 6407.00    1.21484   1.14781    0.017
 6408.00    1.21236   1.14046    0.017
 6409.00    1.21034   1.13217    0.016
 6410.00    1.21270   1.12621    0.016
 6411.00    1.21760   1.12197    0.016
 6412.00    1.24029   1.11905    0.017
 6413.00    1.26021   1.11814    0.017
 6414.00    1.26521   1.11915    0.017
 6415.00    1.26389   1.12185    0.017
 6416.00    1.23527   1.12628    0.017
 6417.00    1.21121   1.13073    0.017
 6418.00    1.20338   1.13199    0.017
 6419.00    1.19796   1.12782    0.016
 6420.00    1.19972   1.11886    0.016
 6421.00    1.20450   1.10900    0.016
 6422.00    1.21693   1.10405    0.016
 6423.00    1.21905   1.10773    0.016
 6424.00    1.19859   1.11854    0.016
 6425.00    1.18045   1.13223    0.016
 6426.00    1.16674   1.14528    0.017
 6427.00    1.15597   1.15511    0.017
 6428.00    1.15009   1.15938    0.017
 6429.00    1.15618   1.15639    0.017
 6430.00    1.17967   1.14608    0.017
 6431.00    1.19963   1.13157    0.017
 6432.00    1.21508   1.11897    0.017
 6433.00    1.22047   1.11350    0.017
 6434.00    1.21454   1.11641    0.017
 6435.00    1.20570   1.12504    0.017
 6436.00    1.19397   1.13444    0.017
 6437.00    1.18153   1.13937    0.017
 6438.00    1.16848   1.13680    0.017
 6439.00    1.17049   1.12911    0.017
 6440.00    1.18414   1.12339    0.017
 6441.00    1.20726   1.12515    0.017
 6442.00    1.23680   1.13466    0.017
 6443.00    1.23373   1.14859    0.017
 6444.00    1.21126   1.16278    0.017
 6445.00    1.19134   1.17369    0.017
 6446.00    1.17276   1.17882    0.017
 6447.00    1.16646   1.17632    0.017
 6448.00    1.16568   1.16432    0.017
 6449.00    1.16275   1.14215    0.017
 6450.00    1.15898   1.11454    0.017
 6451.00    1.15693   1.09155    0.017
 6452.00    1.15545   1.08133    0.017
 6453.00    1.16533   1.08536    0.017
 6454.00    1.17834   1.09896    0.017
 6455.00    1.18938   1.11455    0.016
 6456.00    1.19997   1.12704    0.016
 6457.00    1.19144   1.13611    0.016
 6458.00    1.17944   1.14414    0.016
 6459.00    1.17404   1.15232    0.017
 6460.00    1.16955   1.15881    0.017
 6461.00    1.16147   1.15961    0.017
 6462.00    1.15303   1.15162    0.017
 6463.00    1.14910   1.13740    0.017
 6464.00    1.14545   1.12470    0.017
 6465.00    1.15957   1.11980    0.017
 6466.00    1.17421   1.12410    0.017
 6467.00    1.19311   1.13500    0.017
 6468.00    1.21120   1.14753    0.017
 6469.00    1.20682   1.15638    0.017
 6470.00    1.20074   1.15869    0.017
 6471.00    1.17061   1.15565    0.017
 6472.00    1.14450   1.15093    0.017
 6473.00    1.15563   1.14786    0.017
 6474.00    1.16305   1.14707    0.017
 6475.00    1.14525   1.14753    0.017
 6476.00    1.12962   1.14883    0.017
 6477.00    1.12527   1.15079    0.017
 6478.00    1.12908   1.15226    0.017
 6479.00    1.16732   1.15180    0.017
 6480.00    1.19986   1.14842    0.017
 6481.00    1.21256   1.14086    0.016
 6482.00    1.21540   1.12918    0.016
 6483.00    1.18935   1.11681    0.016
 6484.00    1.17319   1.10871    0.016
 6485.00    1.18178   1.10753    0.016
 6486.00    1.19155   1.11261    0.017
 6487.00    1.20386   1.12134    0.017
 6488.00    1.20244   1.13014    0.017
 6489.00    1.17534   1.13503    0.017
 6490.00    1.15639   1.13332    0.017
 6491.00    1.15074   1.12443    0.017
 6492.00    1.14469   1.10852    0.017
 6493.00    1.13807   1.08493    0.017
 6494.00    1.12612   1.05398    0.017
 6495.00    1.10745   1.02051    0.017
 6496.00    1.08004   0.99255    0.016
 6497.00    1.04290   0.97630    0.016
 6498.00    1.01809   0.97407    0.016
 6499.00    1.00535   0.98418    0.016
 6500.00    1.00795   1.00321    0.016
 6501.00    1.02380   1.02695    0.016
 6502.00    1.04455   1.05116    0.016
 6503.00    1.06903   1.07339    0.016
 6504.00    1.09753   1.09257    0.016
 6505.00    1.12869   1.10828    0.016
 6506.00    1.14856   1.12006    0.017
 6507.00    1.16180   1.12728    0.017
 6508.00    1.15846   1.13000    0.017
 6509.00    1.14665   1.12971    0.017
 6510.00    1.15206   1.12892    0.017
 6511.00    1.16508   1.12938    0.017
 6512.00    1.16867   1.13118    0.017
 6513.00    1.16868   1.13348    0.017
 6514.00    1.19080   1.13486    0.017
 6515.00    1.22007   1.13363    0.017
 6516.00    1.22219   1.12925    0.017
 6517.00    1.21698   1.12276    0.017
 6518.00    1.19848   1.11587    0.017
 6519.00    1.17704   1.11088    0.017
 6520.00    1.16040   1.11025    0.017
 6521.00    1.14461   1.11461    0.017
 6522.00    1.15542   1.12226    0.017
 6523.00    1.16980   1.13058    0.017
 6524.00    1.18657   1.13759    0.017
 6525.00    1.20356   1.14180    0.016
 6526.00    1.18160   1.14193    0.016
 6527.00    1.15733   1.13846    0.016
 6528.00    1.16770   1.13392    0.000
 6529.00    1.17890   1.13070    0.000
 6530.00    1.18481   1.12939    0.000
 6531.00    1.19105   1.12880    0.000
 6532.00    1.20570   1.12749    0.000
 6533.00    1.21865   1.12547    0.000
 6534.00    1.20891   1.12437    0.000
 6535.00    1.20040   1.12593    0.000
 6536.00    1.20276   1.13016    0.000
 6537.00    1.20565   1.13559    0.000
 6538.00    1.21205   1.14105    0.000
 6539.00    1.21895   1.14621    0.000
 6540.00    1.22847   1.15045    0.000
 6541.00    1.23570   1.15239    0.000
 6542.00    1.23350   1.15082    0.000
 6543.00    1.23193   1.14528    0.000
 6544.00    1.23254   1.13609    0.000
 6545.00    1.22729   1.12405    0.000
 6546.00    1.20516   1.11088    0.000
 6547.00    1.18795   1.09994    0.000
 6548.00    1.18286   1.09426    0.000
 6549.00    1.18483   1.09410    0.000
 6550.00    1.20176   1.09697    0.000
 6551.00    1.20680   1.09937    0.000
 6552.00    1.18996   1.09881    0.000
 6553.00    1.16981   1.09420    0.000
 6554.00    1.14433   1.08567    0.000
 6555.00    1.13425   1.07506    0.000
 6556.00    1.14590   1.06533    0.000
 6557.00    1.14486   1.05872    0.000
 6558.00    1.12804   1.05483    0.000
 6559.00    1.12196   1.05044    0.000
 6560.00    1.12764   1.04058    0.000
 6561.00    1.13229   1.01988    0.000
 6562.00    1.13594   0.98597    0.000
 6563.00    1.11791   0.94619    0.000
 6564.00    1.08141   0.91743    0.000
 6565.00    1.07982   0.91301    0.000
 6566.00    1.10442   0.93391    0.000
 6567.00    1.10931   0.97146    0.000
 6568.00    1.10120   1.01230    0.000
 6569.00    1.09105   1.04448    0.000
 6570.00    1.07971   1.06265    0.000
 6571.00    1.08729   1.06849    0.000
 6572.00    1.10437   1.06643    0.000
 6573.00    1.11726   1.06044    0.000
 6574.00    1.12833   1.05394    0.000
 6575.00    1.13317   1.05023    0.000
 6576.00    1.13568   1.05217    0.000
 6577.00    1.13558   1.06052    0.000
 6578.00    1.13465   1.07300    0.000
 6579.00    1.16410   1.08540    0.000
 6580.00    1.20158   1.09364    0.000
 6581.00    1.23347   1.09628    0.000
 6582.00    1.26416   1.09536    0.000
 6583.00    1.29519   1.09418    0.000
 6584.00    1.32628   1.09484    0.000
 6585.00    1.31733   1.09757    0.000
 6586.00    1.30318   1.10147    0.000
 6587.00    1.28950   1.10605    0.000
 6588.00    1.27586   1.11089    0.000
 6589.00    1.25383   1.11468    0.000
 6590.00    1.23133   1.11549    0.000
 6591.00    1.19615   1.11088    0.000
 6592.00    1.16097   1.09895    0.000
 6593.00    1.15181   1.08121    0.000
 6594.00    1.14281   1.06362    0.000
 6595.00    1.13739   1.05280    0.000
 6596.00    1.13244   1.05118    0.000
 6597.00    1.13349   1.05677    0.000
 6598.00    1.13471   1.06576    0.000
 6599.00    1.13746   1.07526    0.000
 6600.00    1.13950   1.08445    0.000
 6601.00    1.13700   1.09325    0.000
 6602.00    1.13784   1.10101    0.000
 6603.00    1.15530   1.10634    0.000
 6604.00    1.16537   1.10766    0.000
 6605.00    1.14560   1.10418    0.000
 6606.00    1.12815   1.09658    0.000
 6607.00    1.11852   1.08649    0.000
 6608.00    1.11437   1.07584    0.000
 6609.00    1.12574   1.06687    0.017
 6610.00    1.13599   1.06260    0.017
 6611.00    1.14352   1.06507    0.017
 6612.00    1.14801   1.07317    0.017
 6613.00    1.14614   1.08349    0.017
 6614.00    1.14800   1.09323    0.017
 6615.00    1.15666   1.10146    0.017
 6616.00    1.16221   1.10774    0.017
 6617.00    1.16281   1.11179    0.017
 6618.00    1.16118   1.11417    0.017
 6619.00    1.15642   1.11588    0.017
 6620.00    1.16413   1.11734    0.017
 6621.00    1.18712   1.11799    0.017
 6622.00    1.20318   1.11647    0.017
 6623.00    1.21175   1.11141    0.017
 6624.00    1.21373   1.10249    0.017
 6625.00    1.20944   1.09171    0.017
 6626.00    1.20540   1.08276    0.017
 6627.00    1.20156   1.07804    0.017
 6628.00    1.18666   1.07721    0.017
 6629.00    1.16358   1.07823    0.017
 6630.00    1.15552   1.07851    0.017
 6631.00    1.15722   1.07614    0.017
 6632.00    1.14174   1.07042    0.017
 6633.00    1.11650   1.06214    0.018
 6634.00    1.10883   1.05401    0.018
 6635.00    1.10984   1.04954    0.018
 6636.00    1.11970   1.05075    0.018
 6637.00    1.13334   1.05696    0.017
 6638.00    1.13877   1.06543    0.017
 6639.00    1.14119   1.07289    0.017
 6640.00    1.13884   1.07747    0.017
 6641.00    1.13502   1.07921    0.017
 6642.00    1.13999   1.07848    0.017
 6643.00    1.14724   1.07540    0.017
 6644.00    1.16853   1.07134    0.017
 6645.00    1.19277   1.06850    0.017
 6646.00    1.20137   1.06788    0.017
 6647.00    1.20736   1.06899    0.017
 6648.00    1.18471   1.07108    0.017
 6649.00    1.15848   1.07355    0.017
 6650.00    1.13240   1.07560    0.017
 6651.00    1.10633   1.07638    0.017
 6652.00    1.10863   1.07575    0.017
 6653.00    1.11239   1.07437    0.017
 6654.00    1.13916   1.07304    0.018
 6655.00    1.16587   1.07228    0.018
 6656.00    1.15942   1.07197    0.018
 6657.00    1.15203   1.07175    0.018
 6658.00    1.12487   1.07140    0.018
 6659.00    1.10017   1.07031    0.018
 6660.00    1.10501   1.06758    0.017
 6661.00    1.10969   1.06275    0.017
 6662.00    1.11302   1.05574    0.017
 6663.00    1.11204   1.04703    0.017
 6664.00    1.08443   1.03855    0.017
 6665.00    1.07097   1.03274    0.017
 6666.00    1.12625   1.03057    0.017
 6667.00    1.16405   1.03184    0.017
 6668.00    1.13282   1.03606    0.017
 6669.00    1.10902   1.04278    0.017
 6670.00    1.10961   1.05136    0.017
 6671.00    1.11521   1.06044    0.017
 6672.00    1.13471   1.06843    0.017
 6673.00    1.14617   1.07415    0.017
 6674.00    1.13847   1.07686    0.017
 6675.00    1.12653   1.07593    0.017
 6676.00    1.10585   1.07051    0.017
 6677.00    1.09786   1.06002    0.018
 6678.00    1.11253   1.04613    0.018
 6679.00    1.12642   1.03356    0.018
 6680.00    1.13907   1.02684    0.018
 6681.00    1.14111   1.02698    0.018
 6682.00    1.12857   1.03253    0.018
 6683.00    1.11816   1.04105    0.018
 6684.00    1.11032   1.04995    0.018
 6685.00    1.11293   1.05735    0.018
 6686.00    1.12665   1.06230    0.018
 6687.00    1.12547   1.06476    0.017
 6688.00    1.11031   1.06540    0.017
 6689.00    1.10478   1.06526    0.017
 6690.00    1.10725   1.06524    0.017
 6691.00    1.10544   1.06558    0.017
 6692.00    1.10052   1.06591    0.017
 6693.00    1.11179   1.06542    0.017
 6694.00    1.13341   1.06313    0.017
 6695.00    1.15303   1.05821    0.018
 6696.00    1.17154   1.05073    0.000
 6697.00    1.16320   1.04256    0.000
 6698.00    1.14179   1.03656    0.000
 6699.00    1.12663   1.03488    0.000
 6700.00    1.11410   1.03798    0.000
 6701.00    1.13702   1.04398    0.000
 6702.00    1.17271   1.04971    0.000
 6703.00    1.16720   1.05262    0.000
 6704.00    1.14915   1.05212    0.000
 6705.00    1.13470   1.04983    0.000
 6706.00    1.12117   1.04811    0.000
 6707.00    1.11879   1.04812    0.000
 6708.00    1.11870   1.04952    0.000
 6709.00    1.12745   1.05103    0.000
 6710.00    1.13763   1.05117    0.000
 6711.00    1.13129   1.04936    0.000
 6712.00    1.12295   1.04576    0.000
 6713.00    1.11527   1.04032    0.000
 6714.00    1.10764   1.03284    0.000
 6715.00    1.12890   1.02337    0.000
 6716.00    1.15154   1.01262    0.000
 6717.00    1.14257   1.00246    0.000
 6718.00    1.13335   0.99581    0.000
 6719.00    1.13518   0.99519    0.000
 6720.00    1.13575   1.00059    0.000
 6721.00    1.11159   1.00958    0.000
 6722.00    1.09066   1.01930    0.000
 6723.00    1.10661   1.02790    0.000
 6724.00    1.11824   1.03439    0.000
 6725.00    1.09543   1.03807    0.000
 6726.00    1.07160   1.03901    0.000
 6727.00    1.04164   1.03855    0.000
 6728.00    1.02819   1.03836    0.000
 6729.00    1.09294   1.03943    0.000
 6730.00    1.15077   1.04196    0.000
 6731.00    1.18180   1.04517    0.000
 6732.00    1.20000   1.04770    0.000
 6733.00    1.17689   1.04856    0.000
 6734.00    1.14976   1.04780    0.000
 6735.00    1.11164   1.04627    0.000
 6736.00    1.08461   1.04456    0.000
 6737.00    1.08348   1.04232    0.000
 6738.00    1.09735   1.03885    0.000
 6739.00    1.14151   1.03443    0.000
 6740.00    1.16527   1.03022    0.000
 6741.00    1.15316   1.02718    0.000
 6742.00    1.14110   1.02526    0.000
 6743.00    1.12912   1.02403    0.000
 6744.00    1.12502   1.02346    0.000
 6745.00    1.13160   1.02341    0.000
 6746.00    1.11740   1.02319    0.000
 6747.00    1.07845   1.02219    0.000
 6748.00    1.05879   1.02033    0.000
 6749.00    1.05937   1.01786    0.000
 6750.00    1.05837   1.01526    0.000
 6751.00    1.05591   1.01333    0.000
 6752.00    1.02534   1.01241    0.000
 6753.00    0.97181   1.01244    0.020
 6754.00    0.95645   1.01394    0.020
 6755.00    0.96852   1.01750    0.020
 6756.00    0.99377   1.02326    0.021
 6757.00    1.02731   1.03107    0.021
 6758.00    1.06791   1.04005    0.021
 6759.00    1.11238   1.04865    0.021
 6760.00    1.18188   1.05550    0.021
 6761.00    1.26337   1.05964    0.022
 6762.00    1.33776   1.06082    0.022
 6763.00    1.40920   1.05975    0.023
 6764.00    1.39015   1.05724    0.023
 6765.00    1.33911   1.05341    0.023
 6766.00    1.28660   1.04798    0.022
 6767.00    1.23367   1.04110    0.022
 6768.00    1.20426   1.03408    0.022
 6769.00    1.18068   1.02856    0.022
 6770.00    1.19564   1.02525    0.022
 6771.00    1.21833   1.02416    0.021
 6772.00    1.18746   1.02560    0.021
 6773.00    1.14818   1.02998    0.020
 6774.00    1.13876   1.03703    0.020
 6775.00    1.13282   1.04562    0.020
 6776.00    1.14647   1.05423    0.020
 6777.00    1.16166   1.06135    0.020
 6778.00    1.18064   1.06632    0.020
 6779.00    1.19978   1.06908    0.020
 6780.00    1.15736   1.06929    0.020
 6781.00    1.11574   1.06610    0.020
 6782.00    1.14157   1.05864    0.020
 6783.00    1.16925   1.04693    0.021
 6784.00    1.23048   1.03279    0.021
 6785.00    1.28184   1.01965    0.021
 6786.00    1.22516   1.01094    0.021
 6787.00    1.17274   1.00861    0.021
 6788.00    1.15315   1.01224    0.021
 6789.00    1.13784   1.01922    0.021
 6790.00    1.14752   1.02652    0.021
 6791.00    1.15518   1.03219    0.021
 6792.00    1.15345   1.03515    0.021
 6793.00    1.15594   1.03507    0.021
 6794.00    1.17435   1.03277    0.021
 6795.00    1.18818   1.02982    0.021
 6796.00    1.18755   1.02756    0.021
 6797.00    1.18456   1.02700    0.021
 6798.00    1.17524   1.02842    0.020
 6799.00    1.17162   1.03125    0.020
 6800.00    1.18108   1.03478    0.020
 6801.00    1.18051   1.03841    0.020
 6802.00    1.16000   1.04149    0.021
 6803.00    1.13229   1.04335    0.020
 6804.00    1.09212   1.04376    0.020
 6805.00    1.07045   1.04313    0.020
 6806.00    1.07684   1.04186    0.020
 6807.00    1.09455   1.04018    0.020
 6808.00    1.12735   1.03858    0.020
 6809.00    1.14861   1.03730    0.020
 6810.00    1.15631   1.03623    0.021
 6811.00    1.14526   1.03554    0.021
 6812.00    1.11481   1.03531    0.021
 6813.00    1.11216   1.03503    0.021
 6814.00    1.13489   1.03422    0.022
 6815.00    1.13699   1.03313    0.022
 6816.00    1.12251   1.03294    0.021
 6817.00    1.15894   1.03453    0.021
 6818.00    1.23143   1.03738    0.021
 6819.00    1.22632   1.04008    0.021
 6820.00    1.17302   1.04172    0.020
 6821.00    1.16913   1.04268    0.020
 6822.00    1.19205   1.04422    0.020
 6823.00    1.18949   1.04716    0.020
 6824.00    1.17492   1.05109    0.020
 6825.00    1.15991   1.05471    0.020
 6826.00    1.14472   1.05649    0.020
 6827.00    1.10294   1.05538    0.020
 6828.00    1.05194   1.05151    0.020
 6829.00    1.08033   1.04657    0.020
 6830.00    1.13196   1.04289    0.021
 6831.00    1.13091   1.04186    0.021
 6832.00    1.11710   1.04327    0.020
 6833.00    1.13904   1.04601    0.020
 6834.00    1.16797   1.04910    0.021
 6835.00    1.16806   1.05176    0.021
 6836.00    1.16376   1.05294    0.021
 6837.00    1.15625   1.05154    0.022
 6838.00    1.14837   1.04685    0.022
 6839.00    1.13158   1.03866    0.022
 6840.00    1.11411   1.02772    0.022
 6841.00    1.06239   1.01601    0.022
 6842.00    1.00931   1.00640    0.021
 6843.00    1.07053   1.00171    0.021
 6844.00    1.13122   1.00341    0.020
 6845.00    1.14014   1.01065    0.020
 6846.00    1.14823   1.02083    0.019
 6847.00    1.14233   1.03104    0.020
 6848.00    1.13371   1.03926    0.020
 6849.00    1.09654   1.04449    0.020
 6850.00    1.06559   1.04673    0.020
 6851.00    1.08090   1.04667    0.020
 6852.00    1.09355   1.04494    0.020
 6853.00    1.09109   1.04163    0.020
 6854.00    1.09071   1.03629    0.020
 6855.00    1.09967   1.02885    0.020
 6856.00    1.10168   1.02078    0.020
 6857.00    1.07796   1.01421    0.021
 6858.00    1.04693   1.01025    0.021
 6859.00    0.99324   1.00875    0.021
 6860.00    0.97709   1.00844    0.021
 6861.00    1.05969   1.00802    0.021
 6862.00    1.11702   1.00790    0.021
 6863.00    1.11724   1.00982    0.021
 6864.00    1.11505   1.01448    0.020
 6865.00    1.10811   1.02032    0.020
 6866.00    1.10820   1.02467    0.021
 6867.00    1.12026   1.02530    0.021
 6868.00    1.13701   1.02205    0.021
 6869.00    1.16077   1.01736    0.021
 6870.00    1.13809   1.01400    0.020
 6871.00    1.05443   1.01271    0.020
 6872.00    1.03832   1.01268    0.020
 6873.00    1.10040   1.01324    0.020
 6874.00    1.11854   1.01434    0.020
 6875.00    1.09183   1.01617    0.020
 6876.00    1.09969   1.01903    0.020
 6877.00    1.13865   1.02323    0.020
 6878.00    1.13758   1.02835    0.021
 6879.00    1.10474   1.03297    0.021
 6880.00    1.11702   1.03546    0.021
 6881.00    1.16077   1.03484    0.021
 6882.00    1.13086   1.03131    0.021
 6883.00    1.05589   1.02668    0.021
 6884.00    1.04746   1.02352    0.021
 6885.00    1.07459   1.02347    0.021
 6886.00    1.06718   1.02648    0.021
 6887.00    1.04376   1.03185    0.020
 6888.00    1.02614   1.03873    0.020
 6889.00    1.01084   1.04597    0.020
 6890.00    1.01916   1.05260    0.020
 6891.00    1.03554   1.05798    0.020
 6892.00    1.07818   1.06134    0.020
 6893.00    1.12836   1.06234    0.020
 6894.00    1.12566   1.06145    0.020
 6895.00    1.11044   1.05936    0.020
 6896.00    1.08118   1.05687    0.020
 6897.00    1.04925   1.05502    0.020
 6898.00    1.07899   1.05439    0.021
 6899.00    1.11784   1.05465    0.021
 6900.00    1.15655   1.05515    0.021
 6901.00    1.19524   1.05594    0.021
 6902.00    1.15993   1.05742    0.021
 6903.00    1.11939   1.05944    0.021
 6904.00    1.15173   1.06143    0.021
 6905.00    1.18668   1.06309    0.021
 6906.00    1.15447   1.06457    0.021
 6907.00    1.12181   1.06624    0.021
 6908.00    1.08118   1.06815    0.021
 6909.00    1.04467   1.06998    0.020
 6910.00    1.07357   1.07103    0.020
 6911.00    1.10074   1.07034    0.020
 6912.00    1.11059   1.06728    0.020
 6913.00    1.11614   1.06202    0.020
 6914.00    1.09080   1.05551    0.020
 6915.00    1.07884   1.04949    0.020
 6916.00    1.14070   1.04556    0.020
 6917.00    1.18367   1.04428    0.020
 6918.00    1.14332   1.04565    0.020
 6919.00    1.10224   1.04933    0.021
 6920.00    1.05857   1.05436    0.021
 6921.00    1.02958   1.05928    0.021
 6922.00    1.04525   1.06239    0.021
 6923.00    1.05150   1.06201    0.021
 6924.00    1.03344   1.05731    0.021
 6925.00    1.04426   1.04930    0.021
 6926.00    1.11929   1.04079    0.021
 6927.00    1.15026   1.03491    0.022
 6928.00    1.09635   1.03336    0.021
 6929.00    1.06728   1.03575    0.021
 6930.00    1.07994   1.04014    0.021
 6931.00    1.07910   1.04423    0.021
 6932.00    1.05840   1.04635    0.021
 6933.00    1.05935   1.04626    0.021
 6934.00    1.08834   1.04532    0.021
 6935.00    1.09019   1.04527    0.021
 6936.00    1.06108   1.04673    0.021
 6937.00    1.03555   1.04924    0.021
 6938.00    1.01364   1.05226    0.021
 6939.00    1.00958   1.05550    0.021
 6940.00    1.02138   1.05874    0.021
 6941.00    1.05863   1.06129    0.021
 6942.00    1.11578   1.06176    0.021
 6943.00    1.12478   1.05890    0.021
 6944.00    1.10066   1.05273    0.021
 6945.00    1.09382   1.04494    0.021
 6946.00    1.09738   1.03859    0.022
 6947.00    1.10175   1.03639    0.022
 6948.00    1.10654   1.03878    0.022
 6949.00    1.11267   1.04390    0.022
 6950.00    1.11943   1.04877    0.022
 6951.00    1.08921   1.05070    0.022
 6952.00    1.04448   1.04892    0.022
 6953.00    1.02429   1.04473    0.021
 6954.00    1.01232   1.04036    0.021
 6955.00    1.02183   1.03807    0.021
 6956.00    1.03738   1.03916    0.021
 6957.00    1.00779   1.04332    0.021
 6958.00    0.96776   1.04904    0.021
 6959.00    0.94808   1.05480    0.021
 6960.00    0.93218   1.05970    0.021
 6961.00    0.98217   1.06358    0.021
 6962.00    1.04160   1.06664    0.022
 6963.00    1.07489   1.06907    0.022
 6964.00    1.10547   1.07083    0.022
 6965.00    1.10403   1.07167    0.022
 6966.00    1.10046   1.07169    0.022
 6967.00    1.06623   1.07183    0.022
 6968.00    1.03103   1.07304    0.023
 6969.00    1.04730   1.07507    0.022
 6970.00    1.06376   1.07676    0.022
 6971.00    1.08602   1.07717    0.022
 6972.00    1.10292   1.07642    0.022
 6973.00    1.04006   1.07510    0.022
 6974.00    0.98670   1.07283    0.021
 6975.00    1.02455   1.06821    0.021
 6976.00    1.05380   1.05998    0.021
 6977.00    1.02326   1.04779    0.021
 6978.00    1.00369   1.03275    0.021
 6979.00    1.04307   1.01843    0.021
 6980.00    1.06039   1.00997    0.021
 6981.00    0.98272   1.01075    0.021
 6982.00    0.92914   1.02052    0.021
 6983.00    0.96107   1.03618    0.021
 6984.00    0.98745   1.05326    0.022
 6985.00    0.99731   1.06770    0.022
 6986.00    1.00715   1.07724    0.022
 6987.00    1.01699   1.08155    0.022
 6988.00    1.03544   1.08145    0.022
 6989.00    1.07273   1.07833    0.023
 6990.00    1.08879   1.07417    0.023
 6991.00    1.06460   1.07115    0.022
 6992.00    1.05273   1.07051    0.022
 6993.00    1.06127   1.07191    0.022
 6994.00    1.06279   1.07400    0.022
 6995.00    1.05411   1.07547    0.022
 6996.00    1.06437   1.07573    0.022
 6997.00    1.09882   1.07463    0.022
 6998.00    1.10790   1.07195    0.022
 6999.00    1.08845   1.06746    0.022
 7000.00    0.97578   1.06171    0.021
 7001.00    0.77064   1.05637    0.021
 7002.00    0.78965   1.05312    0.021
 7003.00    1.00476   1.05209    0.022
 7004.00    1.08675   1.05202    0.023
 7005.00    1.06613   1.05172    0.023
 7006.00    1.04799   1.05100    0.023
 7007.00    1.03155   1.05058    0.024
 7008.00    1.04099   1.05141    0.024
 7009.00    1.06579   1.05390    0.024
 7010.00    1.04309   1.05738    0.024
 7011.00    0.99579   1.06050    0.024
 7012.00    0.98860   1.06223    0.024
 7013.00    0.99942   1.06198    0.024
 7014.00    1.00246   1.05903    0.024
 7015.00    1.00249   1.05262    0.024
 7016.00    0.98183   1.04345    0.024
 7017.00    0.95437   1.03477    0.024
 7018.00    0.93956   1.03105    0.024
 7019.00    0.92822   1.03449    0.023
 7020.00    0.92816   1.04358    0.023
 7021.00    0.93064   1.05428    0.023
 7022.00    0.99343   1.06195    0.023
 7023.00    1.06712   1.06349    0.023
 7024.00    1.06395   1.05920    0.023
 7025.00    1.05013   1.05248    0.023
 7026.00    1.04879   1.04745    0.023
 7027.00    1.04869   1.04652    0.024
 7028.00    0.97474   1.04976    0.024
 7029.00    0.89617   1.05570    0.024
 7030.00    0.99008   1.06231    0.025
 7031.00    1.08830   1.06782    0.025
 7032.00    1.03073   1.07135    0.025
 7033.00    0.97686   1.07301    0.025
 7034.00    1.02452   1.07356    0.025
 7035.00    1.06517   1.07365    0.025
 7036.00    1.00743   1.07330    0.025
 7037.00    0.96410   1.07178    0.024
 7038.00    1.05370   1.06857    0.024
 7039.00    1.12205   1.06537    0.024
 7040.00    1.04722   1.06584    0.024
 7041.00    0.98594   1.07227    0.023
 7042.00    0.99545   1.08352    0.023
 7043.00    1.01215   1.09593    0.023
 7044.00    1.05918   1.10537    0.023
 7045.00    1.09805   1.10966    0.023
 7046.00    1.10854   1.11007    0.023
 7047.00    1.09905   1.10979    0.024
 7048.00    1.03113   1.11117    0.024
 7049.00    0.99252   1.11397    0.024
 7050.00    1.02708   1.11564   -2.000
 7051.00    1.06019   1.11267   -2.000
 7052.00    1.09020   1.10242   -2.000
 7053.00    1.11875   1.08474   -2.000
 7054.00    1.14454   1.06266   -2.000
 7055.00    1.15143   1.04104   -2.000
 7056.00    1.12748   1.02411   -2.000
 7057.00    1.11224   1.01360   -2.000
 7058.00    1.10945   1.00807   -2.000
 7059.00    1.12188   1.00421   -2.000
 7060.00    1.15347   0.99947   -2.000
 7061.00    1.16113   0.99373   -2.000
 7062.00    1.14226   0.98876   -2.000
 7063.00    1.13600   0.98617   -2.000
 7064.00    1.14208   0.98630   -2.000
 7065.00    1.12057   0.98774   -2.000
 7066.00    1.07525   0.98794   -2.000
 7067.00    1.07519   0.98510   -2.000
 7068.00    1.10951   0.97977   -2.000
 7069.00    1.05840   0.97480   -2.000
 7070.00    0.95024   0.97381   -2.000
 7071.00    0.95344   0.97862   -2.000
 7072.00    1.02178   0.98795   -2.000
 7073.00    1.08674   0.99876   -2.000
 7074.00    1.14998   1.00816   -2.000
 7075.00    1.13068   1.01455   -2.000
 7076.00    1.07494   1.01800   -2.000
 7077.00    1.05903   1.01979   -2.000
 7078.00    1.05822   1.02141   -2.000
 7079.00    1.10480   1.02357   -2.000
 7080.00    1.16664   1.02600   -2.000
 7081.00    1.13835   1.02736   -2.000
 7082.00    1.08578   1.02545   -2.000
 7083.00    1.04349   1.01828   -2.000
 7084.00    1.00346   1.00559   -2.000
 7085.00    1.06207   0.98955   -2.000
 7086.00    1.13802   0.97378   -2.000
 7087.00    0.62209   0.96096   -2.000
 7088.00    0.02688   0.95153   -2.000
 7089.00    0.32911   0.94469   -2.000
 7090.00    0.71663   0.93942   -2.000
 7091.00    0.80207   0.93524   -2.000
 7092.00    0.86979   0.93235   -2.000
 7093.00    0.81292   0.93094   -2.000
 7094.00    0.75424   0.93096   -2.000
 7095.00    0.86519   0.93226   -2.000
 7096.00    0.96541   0.93461   -2.000
 7097.00    0.79890   0.93789   -2.000
 7098.00    0.64942   0.94206   -2.000
 7099.00    0.72629   0.94683   -2.000
 7100.00    0.79360   0.95144   -2.000
 7101.00    0.77606   0.95486   -2.000
 7102.00    0.76274   0.95637   -2.000
 7103.00    0.77696   0.95627   -2.000
 7104.00    0.79037   0.95573   -2.000
 7105.00    0.79967   0.95575   -2.000
 7106.00    0.79040   0.95618   -2.000
 7107.00    0.70468   0.95603   -2.000
 7108.00    0.65473   0.95474   -2.000
 7109.00    0.72669   0.95234   -2.000
 7110.00    0.76743   0.94905   -2.000
 7111.00    0.71850   0.94530   -2.000
 7112.00    0.68200   0.94218   -2.000
 7113.00    0.67603   0.94102   -2.000
 7114.00    0.69846   0.94248   -2.000
 7115.00    0.78102   0.94612   -2.000
 7116.00    0.80851   0.95078   -2.000
 7117.00    0.73473   0.95507   -2.000
 7118.00    0.71284   0.95780   -2.000
 7119.00    0.77432   0.95850   -2.000
 7120.00    0.83024   0.95741   -2.000
 7121.00    0.87834   0.95510   -2.000
 7122.00    0.87223   0.95209   -2.000
 7123.00    0.79889   0.94889   -2.000
 7124.00    0.69132   0.94574   -2.000
 7125.00    0.54633   0.94211   -2.000
 7126.00    0.55043   0.93719   -2.000
 7127.00    0.69831   0.93101   -2.000
 7128.00    0.77753   0.92431   -2.000
 7129.00    0.79837   0.91767   -2.000
 7130.00    0.73271   0.91125   -2.000
 7131.00    0.60225   0.90566   -2.000
 7132.00    0.53401   0.90238   -2.000
 7133.00    0.50671   0.90282   -2.000
 7134.00    0.68957   0.90733   -2.000
 7135.00    0.99349   0.91487   -2.000
 7136.00    0.98116   0.92346   -2.000
 7137.00    0.81015   0.93111   -2.000
 7138.00    0.77227   0.93641   -2.000
 7139.00    0.79219   0.93868   -2.000
 7140.00    0.70033   0.93871   -2.000
 7141.00    0.56683   0.93837   -2.000
 7142.00    0.66797   0.93886   -2.000
 7143.00    0.84323   0.94003   -2.000
 7144.00    0.75858   0.94110   -2.000
 7145.00    0.60538   0.94117   -2.000
 7146.00    0.55768   0.93941   -2.000
 7147.00    0.53272   0.93549   -2.000
 7148.00    0.64339   0.92977   -2.000
 7149.00    0.77725   0.92389   -2.000
 7150.00    0.81899   0.92031   -2.000
 7151.00    0.84882   0.92072   -2.000
 7152.00    0.69076   0.92547   -2.000
 7153.00    0.51564   0.93347   -2.000
 7154.00    0.61182   0.94233   -2.000
 7155.00    0.72286   0.94959   -2.000
 7156.00    0.83974   0.95429   -2.000
 7157.00    0.95430   0.95705   -2.000
 7158.00    0.84505   0.95843   -2.000
 7159.00    0.72990   0.95824   -2.000
 7160.00    0.48073   0.95643   -2.000
 7161.00    0.24199   0.95349   -2.000
 7162.00    0.13451   0.94992   -2.000
 7163.00    0.08074   0.94572   -2.000
 7164.00    0.48510   0.94039   -2.000
 7165.00    0.84974   0.93443   -2.000
 7166.00    0.96261   0.93004   -2.000
 7167.00    1.01914   0.92981   -2.000
 7168.00    0.79591   0.93472   -2.000
 7169.00    0.62135   0.94333   -2.000
 7170.00    0.64272   0.95302   -2.000
 7171.00    0.66780   0.96174   -2.000
 7172.00    0.70525   0.96869   -2.000
 7173.00    0.74095   0.97367   -2.000
 7174.00    0.77172   0.97640   -2.000
 7175.00    0.78695   0.97655   -2.000
 7176.00    0.76468   0.97429   -2.000
 7177.00    0.72938   0.97059   -2.000
 7178.00    0.66694   0.96678   -2.000
 7179.00    0.63859   0.96308   -2.000
 7180.00    0.67194   0.95864   -2.000
 7181.00    0.70529   0.95340   -2.000
 7182.00    0.73864   0.94910   -2.000
 7183.00    0.76164   0.94807   -2.000
 7184.00    0.77026   0.95081   -2.000
 7185.00    0.77338   0.95511   -2.000
 7186.00    0.76977   0.95754   -2.000
 7187.00    0.75717   0.95549   -2.000
 7188.00    0.73488   0.94886   -2.000
 7189.00    0.67506   0.94043   -2.000
 7190.00    0.57954   0.93383   -2.000
 7191.00    0.62426   0.93127   -2.000
 7192.00    0.78655   0.93266   -2.000
 7193.00    0.85153   0.93630   -2.000
 7194.00    0.84469   0.94062   -2.000
 7195.00    0.81323   0.94492   -2.000
 7196.00    0.76581   0.94872   -2.000
 7197.00    0.78120   0.95149   -2.000
 7198.00    0.83221   0.95311   -2.000
 7199.00    0.69640   0.95414   -2.000
 7200.00    0.46834   0.95503   -2.000
 7201.00    0.49630   0.95603   -2.000
 7202.00    0.63359   0.95735   -2.000
 7203.00    0.62518   0.95920   -2.000
 7204.00    0.56347   0.96135   -2.000
 7205.00    0.74655   0.96248   -2.000
 7206.00    1.00546   0.96057   -2.000
 7207.00    0.96588   0.95450   -2.000
 7208.00    0.84925   0.94575   -2.000
 7209.00    0.72297   0.93818   -2.000
 7210.00    0.59467   0.93541   -2.000
 7211.00    0.51045   0.93867   -2.000
 7212.00    0.43356   0.94604   -2.000
 7213.00    0.47913   0.95366   -2.000
 7214.00    0.54001   0.95861   -2.000
 7215.00    0.52592   0.96056   -2.000
 7216.00    0.50534   0.96119   -2.000
 7217.00    0.60082   0.96272   -2.000
 7218.00    0.70220   0.96626   -2.000
