###################################################################
## OUTPUT of StarlightChains_v04.for    [Cid@UFSC - 01/Apr/2007] ##
###################################################################

## Some input info
KUG0210-078._60_42.txt                   [arq_obs]
Base.CB07.vall.4m                        [arq_base]
Masks.EmLines.NEW.gm                     [arq_masks]
StCv04.C11.config                        [arq_config]
   66                                    [N_base]
    0                                    [N_YAV_components = # of components with extra extinction!]
    0                                    [i_FitPowerLaw (1/0 = Yes/No)]
-9.99                                    [alpha_PowerLaw]
CCM                                      [red_law_option]
 1.458241                                [q_norm = A(l_norm)/A(V)]

## (Re)Sampling Parameters
 3741.00                                 [l_ini (A)]
 7218.00                                 [l_fin (A)]
    1.00                                 [dl    (A)]     (OBS: dl_cushion =    50.00 A)

## Normalization info
 4020.00                                 [l_norm (A) - for base]
 4010.00                                 [llow_norm (A) - window for f_obs]
 4060.00                                 [lupp_norm (A) - window for f_obs]
6.189819E-18                             [fobs_norm (in input units)]

## S/N
 3691.00                                 [llow_SN (A) - window for S/N]
 7268.00                                 [lupp_SN (A) - window for S/N]
   2.154                                 [S/N in S/N window]
   2.879                                 [S/N in norm. window]
   0.005                                 [S/N_err in S/N window]
   0.007                                 [S/N_err in norm. window]
  1.0000                                 [fscale_chi2]

## etc...
    -2008034                             [idum_orig]
  2427                                   [NOl_eff]
  2406                                   [Nl_eff]
    21    NSIGMA                         [Ntot_cliped & clip_method]
   684180                                [Nglobal_steps]
   7                                     [N_chains]
  35                                     [NEX0s_base = N_base in EX0s-fits]
 0   0   1       21   2.0   1.181E+03    [Clip-Bug, RC-Crash & Burn-In warning-flags, n_censored_weights, wei_nsig_threshold & wei_limit]
    18     17.373     16.730      0.643  [idt_all, wdt_TotTime, wdt_UsrTime & wdt_SysTime (sec)]

## Synthesis Results - Best model ##

 7.86820E-06                             [chi2/Nl_eff]
    45.06868                             [adev (%)]

   130.00000                             [sum-of-x (%)]
 2.10051E-18                             [Flux_tot (units of input spectrum!)]
 2.36628E-14                             [Mini_tot (???)]
 1.28372E-14                             [Mcor_tot (???)]

 475.08                                  [v0_min  (km/s)]
   0.14                                  [vd_min  (km/s)]
-1.0000                                  [AV_min  (mag)]
 0.0000                                  [YAV_min (mag)]

# j     x_j(%)      Mini_j(%)     Mcor_j(%)     age_j(yr)     Z_j      (L/M)_j    YAV?  Mstars   component_j        a/Fe...       SSP_chi2r SSP_adev(%)   SSP_AV   SSP_x(%)
  1      0.0000     0.0000E+00    0.0000E+00    1.000000E+06  0.00400  1.094E-02    0   1.0000   age020_m42            0.0000     8.6872E-06    47.6963   1.7252   111.4256
  2      0.1507     2.5677E-04    4.7325E-04    3.160000E+06  0.00400  4.007E-02    0   0.9999   age045_m42            0.0000     8.2758E-06    46.5902   0.9268   121.1824
  3      0.0000     0.0000E+00    0.0000E+00    5.010000E+06  0.00400  2.539E-02    0   0.9488   age055_m42            0.0000     8.3690E-06    47.1313   1.2816   117.2385
  4      0.0000     0.0000E+00    0.0000E+00    6.610000E+06  0.00400  2.620E-02    0   0.9220   age061_m42            0.0000     8.2711E-06    46.5205   0.8582   121.2056
  5      9.7005     5.0104E-02    8.1847E-02    1.000000E+07  0.00400  1.322E-02    0   0.8862   age070_m42            0.0000     8.3978E-06    47.9914   0.6598   121.1402
  6      0.0000     0.0000E+00    0.0000E+00    1.445000E+07  0.00400  7.883E-03    0   0.8571   age078_m42            0.0000     8.4289E-06    48.0328   0.9917   117.9708
  7      1.6358     2.1271E-02    3.2050E-02    2.512000E+07  0.00400  5.251E-03    0   0.8174   age090_m42            0.0000     8.4010E-06    48.2139   0.5392   121.5382
  8      0.0000     0.0000E+00    0.0000E+00    4.000000E+07  0.00400  3.649E-03    0   0.7851   age104_m42            0.0000     8.3491E-06    47.7736   0.2918   123.1848
  9      0.0000     0.0000E+00    0.0000E+00    5.500000E+07  0.00400  3.098E-03    0   0.7629   age110_m42            0.0000     8.3772E-06    46.9506   0.3993   124.6088
 10      0.0000     0.0000E+00    0.0000E+00    1.015200E+08  0.00400  2.228E-03    0   0.7207   age116_m42            0.0000     8.4250E-06    46.3683   0.3874   125.7915
 11      0.9507     5.9391E-02    7.2779E-02    2.861200E+08  0.00400  1.093E-03    0   0.6648   age125_m42            0.0000     8.4238E-06    46.7016  -0.1722   129.0616
 12      0.0000     0.0000E+00    0.0000E+00    5.088000E+08  0.00400  6.597E-04    0   0.6365   age130_m42            0.0000     8.4804E-06    45.8060  -0.2423   132.0080
 13      0.0000     0.0000E+00    0.0000E+00    1.434000E+09  0.00400  2.132E-04    0   0.5798   age139_m42            0.0000     8.1990E-06    47.2061  -1.0000   131.8728
 14      0.0000     0.0000E+00    0.0000E+00    4.250000E+09  0.00400  5.895E-05    0   0.5377   age158_m42            0.0000     8.9521E-06    56.4607  -1.0000   118.6387
 15      8.4931     1.6522E+01    1.5874E+01    7.500000E+09  0.00400  3.510E-05    0   0.5212   age171_m42            0.0000     9.8082E-06    61.1508  -1.0000   113.6548
 16      0.0000     0.0000E+00    0.0000E+00    1.300000E+10  0.00400  2.005E-05    0   0.5034   age193_m42            0.0000     1.0787E-05    65.1543  -1.0000   109.0190
 17      2.6589     1.1906E+01    1.0900E+01    1.800000E+10  0.00400  1.525E-05    0   0.4967   age213_m42            0.0000     1.0855E-05    65.8587  -1.0000   107.9782
 18      0.0000     0.0000E+00    0.0000E+00    1.000000E+06  0.00800  1.238E-02    0   1.0000   age020_m52            0.0000     8.6707E-06    47.6737   1.7229   111.6502
 19      0.0000     0.0000E+00    0.0000E+00    3.160000E+06  0.00800  3.074E-02    0   0.9966   age045_m52            0.0000     8.5216E-06    47.3447   1.6357   112.9982
 20      0.0000     0.0000E+00    0.0000E+00    5.010000E+06  0.00800  2.668E-02    0   0.9443   age055_m52            0.0000     8.3605E-06    47.0465   1.3748   115.8670
 21      0.0000     0.0000E+00    0.0000E+00    6.610000E+06  0.00800  2.136E-02    0   0.9177   age061_m52            0.0000     8.1833E-06    47.4944   0.1565   122.7289
 22      0.0000     0.0000E+00    0.0000E+00    1.000000E+07  0.00800  1.215E-02    0   0.8827   age070_m52            0.0000     8.4199E-06    48.6594   0.8709   119.9197
 23      0.0000     0.0000E+00    0.0000E+00    1.445000E+07  0.00800  8.717E-03    0   0.8552   age078_m52            0.0000     8.3791E-06    48.0124   0.9573   119.6328
 24      0.0000     0.0000E+00    0.0000E+00    2.512000E+07  0.00800  5.592E-03    0   0.8162   age090_m52            0.0000     8.3863E-06    48.2713   0.6038   122.9269
 25      0.0000     0.0000E+00    0.0000E+00    4.000000E+07  0.00800  3.896E-03    0   0.7841   age104_m52            0.0000     8.3438E-06    47.7453   0.4850   124.7662
 26      1.2954     4.1180E-02    5.4850E-02    1.015200E+08  0.00800  2.148E-03    0   0.7226   age116_m52            0.0000     8.2873E-06    46.6737   0.3768   126.0164
 27      0.0000     0.0000E+00    0.0000E+00    2.861200E+08  0.00800  9.925E-04    0   0.6683   age125_m52            0.0000     8.5219E-06    45.5341  -0.1748   133.0182
 28      0.0000     0.0000E+00    0.0000E+00    9.047900E+08  0.00800  3.141E-04    0   0.6138   age135_m52            0.0000     8.2965E-06    44.2728  -1.0000   140.6849
 29      0.0000     0.0000E+00    0.0000E+00    1.434000E+09  0.00800  1.719E-04    0   0.5853   age139_m52            0.0000     8.7972E-06    54.4506  -1.0000   126.5728
 30      8.2006     7.1134E+00    7.3428E+00    2.500000E+09  0.00800  7.872E-05    0   0.5600   age150_m52            0.0000     9.9015E-06    60.5194  -1.0000   117.4886
 31      0.0000     0.0000E+00    0.0000E+00    4.250000E+09  0.00800  4.336E-05    0   0.5426   age158_m52            0.0000     9.9899E-06    60.6804  -1.0000   115.9857
 32      6.8027     1.4704E+01    1.4417E+01    6.250000E+09  0.00800  3.159E-05    0   0.5319   age166_m52            0.0000     1.1301E-05    65.2287  -1.0000   110.8948
 33      0.0000     0.0000E+00    0.0000E+00    1.300000E+10  0.00800  1.361E-05    0   0.5073   age193_m52            0.0000     1.4974E-05    75.9163  -1.0000    96.8863
 34      1.2620     8.7166E+00    8.0176E+00    1.800000E+10  0.00800  9.886E-06    0   0.4990   age213_m52            0.0000     1.6304E-05    77.5239  -1.0000    93.0781
 35      0.0000     0.0000E+00    0.0000E+00    1.000000E+06  0.02000  1.544E-02    0   1.0000   age020_m62            0.0000     8.6476E-06    47.5618   1.7175   111.9481
 36      0.0000     0.0000E+00    0.0000E+00    3.160000E+06  0.02000  3.762E-02    0   0.9858   age045_m62            0.0000     8.5452E-06    47.3045   1.6475   113.2278
 37      0.0412     8.5457E-05    1.4716E-04    5.010000E+06  0.02000  3.296E-02    0   0.9342   age055_m62            0.0000     8.2925E-06    46.4926   1.2201   119.3184
 38      0.0000     0.0000E+00    0.0000E+00    8.710000E+06  0.02000  1.154E-02    0   0.8861   age067_m62            0.0000     8.8833E-06    52.5658   0.4745   118.4997
 39      0.0000     0.0000E+00    0.0000E+00    1.445000E+07  0.02000  7.663E-03    0   0.8472   age078_m62            0.0000     8.4802E-06    49.6410   0.5549   121.3918
 40      0.0000     0.0000E+00    0.0000E+00    2.512000E+07  0.02000  4.532E-03    0   0.8099   age090_m62            0.0000     8.4977E-06    49.8076   0.5521   120.8401
 41      8.5684     2.1408E-01    2.9971E-01    5.500000E+07  0.02000  2.733E-03    0   0.7595   age110_m62            0.0000     8.3177E-06    47.5803   0.4747   123.6633
 42      0.0000     0.0000E+00    0.0000E+00    1.609000E+08  0.02000  1.369E-03    0   0.6985   age120_m62            0.0000     8.5001E-06    46.1370   0.2369   129.4107
 43      0.0000     0.0000E+00    0.0000E+00    2.861200E+08  0.02000  9.013E-04    0   0.6714   age125_m62            0.0000     8.7569E-06    45.2946  -0.0658   134.7821
 44      0.0000     0.0000E+00    0.0000E+00    5.088000E+08  0.02000  5.028E-04    0   0.6449   age130_m62            0.0000     8.7394E-06    44.0064  -0.5460   141.7285
 45      5.7334     1.6124E+00    1.8365E+00    9.047900E+08  0.02000  2.428E-04    0   0.6179   age135_m62            0.0000     8.2007E-06    44.1387  -1.0000   139.2740
 46      0.0000     0.0000E+00    0.0000E+00    1.434000E+09  0.02000  1.263E-04    0   0.5908   age139_m62            0.0000     8.7631E-06    51.5397  -1.0000   128.5596
 47      0.1494     1.7048E-01    1.7827E-01    2.500000E+09  0.02000  5.985E-05    0   0.5673   age150_m62            0.0000     1.0274E-05    60.1748  -1.0000   118.5009
 48     11.6434     2.4306E+01    2.4499E+01    4.250000E+09  0.02000  3.271E-05    0   0.5468   age158_m62            0.0000     1.2382E-05    67.1231  -1.0000   109.4676
 49      0.0000     0.0000E+00    0.0000E+00    1.000000E+10  0.02000  1.360E-05    0   0.5167   age181_m62            0.0000     1.5653E-05    74.1561  -1.0000    98.6067
 50      0.0414     3.9642E-01    3.6631E-01    1.800000E+10  0.02000  7.124E-06    0   0.5013   age213_m62            0.0000     1.8077E-05    77.6361  -1.0000    91.1824
 51      0.0000     0.0000E+00    0.0000E+00    1.000000E+06  0.05000  2.592E-02    0   0.9998   age020_m72            0.0000     8.6325E-06    47.5633   1.7161   111.8263
 52      0.0000     0.0000E+00    0.0000E+00    3.160000E+06  0.05000  4.845E-02    0   0.9577   age045_m72            0.0000     8.3705E-06    46.7576   1.5018   115.4822
 53     16.2751     3.6176E-02    6.0995E-02    5.010000E+06  0.05000  3.072E-02    0   0.9147   age055_m72            0.0000     8.4513E-06    48.6729   1.1026   117.8554
 54      0.0000     0.0000E+00    0.0000E+00    6.610000E+06  0.05000  1.455E-02    0   0.8877   age061_m72            0.0000     9.2011E-06    54.7688   0.5572   117.7207
 55      9.4298     7.0961E-02    1.1150E-01    1.000000E+07  0.05000  9.074E-03    0   0.8524   age070_m72            0.0000     8.5396E-06    49.1226   1.2794   117.4352
 56      0.0000     0.0000E+00    0.0000E+00    2.512000E+07  0.05000  4.250E-03    0   0.7902   age090_m72            0.0000     8.4295E-06    48.6109   0.9629   120.2248
 57      0.0000     0.0000E+00    0.0000E+00    4.000000E+07  0.05000  3.087E-03    0   0.7618   age104_m72            0.0000     8.4603E-06    48.7261   0.7340   122.1867
 58      2.3414     9.4048E-02    1.2302E-01    1.015200E+08  0.05000  1.700E-03    0   0.7096   age116_m72            0.0000     8.5223E-06    46.7758   0.4093   127.8291
 59      0.4531     4.1901E-02    5.1230E-02    2.861200E+08  0.05000  7.384E-04    0   0.6633   age125_m72            0.0000     8.8105E-06    44.7332  -0.2492   138.3135
 60      0.0000     0.0000E+00    0.0000E+00    5.088000E+08  0.05000  3.819E-04    0   0.6372   age130_m72            0.0000     8.4053E-06    43.5548  -0.8254   143.3939
 61     34.1732     1.3923E+01    1.5681E+01    9.047900E+08  0.05000  1.676E-04    0   0.6110   age135_m72            0.0000     8.7552E-06    49.0799  -1.0000   131.9159
 62      0.0000     0.0000E+00    0.0000E+00    1.434000E+09  0.05000  8.837E-05    0   0.5874   age139_m72            0.0000     1.0408E-05    59.8583  -1.0000   120.2744
 63      0.0000     0.0000E+00    0.0000E+00    2.500000E+09  0.05000  4.233E-05    0   0.5598   age150_m72            0.0000     1.2609E-05    66.7660  -1.0000   110.4538
 64      0.0000     0.0000E+00    0.0000E+00    6.250000E+09  0.05000  1.435E-05    0   0.5249   age166_m72            0.0000     1.6631E-05    76.0036  -1.0000    95.2788
 65      0.0000     0.0000E+00    0.0000E+00    1.300000E+10  0.05000  6.513E-06    0   0.5036   age193_m72            0.0000     1.9965E-05    80.2085  -1.0000    87.0237
 66      0.0000     0.0000E+00    0.0000E+00    1.800000E+10  0.05000  4.527E-06    0   0.4945   age213_m72            0.0000     2.2029E-05    82.2018  -1.0000    81.5274


## Synthesis Results - Average & Chains ##

# j      x_j: min, <> & last-chain-values for 1 ...  7 chains
  1      0.0000      1.8707      0.0000      4.4898      0.6822      0.0000      0.0000      0.0000      4.4221
  2      0.1507      4.5899      4.2035      2.0566      2.6888      7.9300      0.0887      0.7667      7.5539
  3      0.0000      1.9392      0.6018      1.5226      0.6268      8.2603      1.4970      2.7955      0.0000
  4      0.0000      1.6764      0.0000      3.5670      0.7217      0.0000      0.0000      0.3466      0.0000
  5      9.7005      1.7976      1.5727      0.0000      4.1028     11.0147      0.0000      2.3450      0.3244
  6      0.0000      1.6743      3.2157      1.1087      1.4115      0.6937      4.8742      0.0000      0.1140
  7      1.6358      1.6194      1.9591      0.0000      2.3683      2.4958      0.0000      1.0464      0.0000
  8      0.0000      1.6753      0.5797      0.0000      0.5922      0.0000      0.0000      0.2664      0.0000
  9      0.0000      1.7519      0.0000      0.6525      1.0841      1.5171      3.8379      1.5479      7.4384
 10      0.0000      1.3997      2.6760      1.8370      0.0000      0.0000      1.0146      0.1443      0.9814
 11      0.9507      3.7274      4.2434      4.7807      0.0000      2.7575      0.0000      0.0000      0.9396
 12      0.0000     11.0403      1.1550      2.5930      7.8287      0.0000      0.1501      2.8228      1.5018
 13      0.0000      1.4199      3.6999      7.4720      0.7864      0.0000      2.1263     13.1287      3.9969
 14      0.0000      1.7318      0.0000      0.0000      2.4352      0.5859      0.1343      0.0000      7.3957
 15      8.4931      1.6706      0.0000      3.1503      3.1309      1.4766      0.0000      0.0000      0.8203
 16      0.0000      1.3023      1.3544      2.7637      1.6746     11.6347      1.0169      0.0000      1.1368
 17      2.6589      2.1395      9.1242      0.9853      4.3165      7.3141     11.3487      0.0000      1.8574
 18      0.0000      1.9448      0.6658      0.0000      0.5712      0.0000      1.7019      0.0000      1.4630
 19      0.0000      1.2118      0.3433      2.4280      1.7280      1.9758      1.0918      0.5464      0.0000
 20      0.0000      2.7220      1.9016      1.9190      5.6547      0.7899      3.0243      0.7941      4.8938
 21      0.0000      1.6548      0.7321      1.3242      2.5193      0.0000      3.0381      0.0000      0.0000
 22      0.0000      1.8129      0.0000      0.0000      3.0612      0.0000      0.0000      0.7590      0.6568
 23      0.0000      1.5611      0.0000      0.9096      0.0000      0.0000      0.0000      0.0105      1.0088
 24      0.0000      2.0725      1.8981      0.0000      1.4398      0.0000      0.0000      3.4776      3.9485
 25      0.0000      1.3209      0.0000      4.1984      0.0000      0.0000      4.3725      2.2709      0.0000
 26      1.2954      1.7197      5.6011      0.0861      0.0000      2.7402      1.8972     13.4641      8.1648
 27      0.0000      1.6767      0.0000      2.1242      0.0000      0.0000      7.0166      2.8039      0.0000
 28      0.0000      1.8128      1.7699      7.0729      1.6829      0.0000      0.0000      0.7716      2.0711
 29      0.0000      1.8692      1.0929      0.0000      2.0473      0.9333      0.0000      1.1563      2.9095
 30      8.2006      1.9667      5.9929      3.5549      3.4275      1.7576      0.6781     14.7319      0.0000
 31      0.0000      1.3848      0.7180      3.0409      4.8318      0.0000      3.8674      0.7116      0.3029
 32      6.8027      1.8675      1.9902      0.0000      2.6962      1.1602      0.4301      1.1985      0.5985
 33      0.0000      1.6596      0.0000      6.8378      1.8253      0.0000      1.5140      0.0000      6.1919
 34      1.2620      1.6526      2.2414      2.7863      0.1175      1.4761      4.8661      5.6317      5.6420
 35      0.0000      1.6459      0.0000      2.8544      2.3900      0.0000      1.2046      3.6414      1.7077
 36      0.0000      1.7800      0.0000      2.0177      1.5579      0.1237      1.0798      1.9887      0.3403
 37      0.0412      1.4650     11.7760      3.8386      0.0000      3.3952      2.7519      0.7480      0.0000
 38      0.0000      1.1867      0.0000      0.0000      0.0000      0.0000      1.4078      3.7312      0.9158
 39      0.0000      2.2476      4.3942      4.0490      6.2155      0.2684      0.0000      0.0000      0.0000
 40      0.0000      1.5567      1.3419      0.0000      1.0904      0.0000      0.0000      2.8195      2.2606
 41      8.5684      1.6829      3.1034      4.3263      0.4482      1.9006      8.2466      0.1820      0.0000
 42      0.0000      1.4122      7.5894      0.0000      0.3869      3.0187      0.0000      1.0266      0.0000
 43      0.0000      1.6460      5.1419      0.3029      4.0839      0.7899     10.0060      0.0954      1.2618
 44      0.0000      1.5836      2.3960      0.9723      0.2104      0.3365      0.5263      0.0000      0.0000
 45      5.7334      1.6989      0.0000      0.0000      0.0000      4.0851      0.0000      0.0000      0.5338
 46      0.0000      1.6219      0.9934     10.0674      4.8517      0.0000      4.1817      8.2736      2.2423
 47      0.1494      1.4627      4.8597      0.9284      2.7911      7.2400      0.5155      3.8837      1.0022
 48     11.6434      1.9656      2.5200      0.0000      2.8260      3.0157      0.0000      0.6151      5.1691
 49      0.0000      1.5733      0.2115      0.0000      0.7918      0.0000      4.5370      1.8668      0.8024
 50      0.0414      1.4039      1.2985      0.0000      5.1648      2.5369      0.5881      0.0000      0.0000
 51      0.0000      1.4968      0.3674      1.1142      0.0000      0.0000      0.2911      0.0000      0.1224
 52      0.0000      1.2232      5.4514      0.0000      0.7349      0.0000      2.6948      3.7392      0.4692
 53     16.2751      1.7356      0.0000      4.2266      1.7993      1.1375      0.6674      3.4876      1.2293
 54      0.0000      1.7543      1.8136      0.0000      4.0485      4.2919      2.4797      1.3829      0.7043
 55      9.4298      1.6703      2.0574      1.1846      1.4610      3.1473      0.0000      0.0000      0.0583
 56      0.0000      1.9635      0.4189      1.3979      4.0428      0.6612      1.5032      0.6658      0.0953
 57      0.0000      3.2568      0.0000      0.8788      5.0127      1.3491      0.0000      0.0000     12.3485
 58      2.3414      1.5163      0.0000      1.2769      1.7732      0.7146      0.0000      0.0000      8.4262
 59      0.4531      1.9575      0.0408      1.7204      1.0701      1.7708      2.9402      0.0000      1.6712
 60      0.0000      1.7798      0.6838      1.5056      0.0000      0.0000      1.5869      6.6275      0.0000
 61     34.1732      1.7479      0.0000      2.3753      2.1086      3.5140      5.9329      3.3178      4.6916
 62      0.0000      1.6883      1.6810      1.9516      0.5689     12.9900     12.1858      5.0120      2.5795
 63      0.0000      2.0848      7.9972      0.7319      3.4711      5.8666      1.5207      0.0000      4.7346
 64      0.0000      1.7022      3.1031      4.5901      3.2197      1.3329      0.0000      1.1131      0.0000
 65      0.0000      1.8420      1.2696      1.9549      0.3701      0.0000      3.1877      0.4245      0.2990
 66      0.0000      1.9212      0.0000      0.1910      0.0000      0.0000      0.3774      1.8191      0.0000

# j      m_j: min, <> & last-chain-values for 1 ...  7 chains
  1  0.0000E+00  1.5952E-02  0.0000E+00  3.7766E-02  5.2834E-03  0.0000E+00  0.0000E+00  0.0000E+00  4.0444E-02
  2  4.7325E-04  1.0685E-02  9.6249E-03  4.7226E-03  5.6849E-03  1.6331E-02  1.5382E-04  1.9971E-03  1.8860E-02
  3  0.0000E+00  6.7603E-03  2.0635E-03  5.2359E-03  1.9845E-03  2.5475E-02  3.8889E-03  1.0904E-02  0.0000E+00
  4  0.0000E+00  5.5035E-03  0.0000E+00  1.1551E-02  2.1520E-03  0.0000E+00  0.0000E+00  1.2730E-03  0.0000E+00
  5  8.1847E-02  1.1241E-02  9.6733E-03  0.0000E+00  2.3303E-02  6.0937E-02  0.0000E+00  1.6408E-02  2.1759E-03
  6  0.0000E+00  1.6983E-02  3.2082E-02  1.1093E-02  1.3003E-02  6.2246E-03  3.6841E-02  0.0000E+00  1.2402E-03
  7  3.2050E-02  2.3516E-02  2.7983E-02  0.0000E+00  3.1236E-02  3.2063E-02  0.0000E+00  1.7003E-02  0.0000E+00
  8  0.0000E+00  3.3626E-02  1.1446E-02  0.0000E+00  1.0796E-02  0.0000E+00  0.0000E+00  5.9821E-03  0.0000E+00
  9  0.0000E+00  4.0246E-02  0.0000E+00  1.4785E-02  2.2620E-02  3.0833E-02  6.5700E-02  3.9788E-02  1.8328E-01
 10  0.0000E+00  4.2239E-02  7.9426E-02  5.4680E-02  0.0000E+00  0.0000E+00  2.2816E-02  4.8715E-03  3.1762E-02
 11  7.2779E-02  2.1150E-01  2.3682E-01  2.6757E-01  0.0000E+00  1.3842E-01  0.0000E+00  0.0000E+00  5.7182E-02
 12  0.0000E+00  9.9371E-01  1.0225E-01  2.3021E-01  6.3999E-01  0.0000E+00  1.0066E-02  2.8429E-01  1.4498E-01
 13  0.0000E+00  3.6022E-01  9.2326E-01  1.8699E+00  1.8121E-01  0.0000E+00  4.0197E-01  3.7268E+00  1.0876E+00
 14  0.0000E+00  1.4736E+00  0.0000E+00  0.0000E+00  1.8820E+00  4.4108E-01  8.5167E-02  0.0000E+00  6.7495E+00
 15  1.5874E+01  2.3141E+00  0.0000E+00  4.3047E+00  3.9391E+00  1.8095E+00  0.0000E+00  0.0000E+00  1.2187E+00
 16  0.0000E+00  3.0502E+00  3.1202E+00  6.3852E+00  3.5625E+00  2.4108E+01  1.7749E+00  0.0000E+00  2.8558E+00
 17  1.0900E+01  6.5009E+00  2.7269E+01  2.9530E+00  1.1912E+01  1.9660E+01  2.5696E+01  0.0000E+00  6.0529E+00
 18  0.0000E+00  1.4655E-02  4.9348E-03  0.0000E+00  3.9091E-03  0.0000E+00  9.5567E-03  0.0000E+00  1.1824E-02
 19  0.0000E+00  3.6649E-03  1.0214E-03  7.2434E-03  4.7468E-03  5.2864E-03  2.4605E-03  1.8490E-03  0.0000E+00
 20  0.0000E+00  8.9876E-03  6.1756E-03  6.2501E-03  1.6957E-02  2.3071E-03  7.4411E-03  2.9340E-03  1.7331E-02
 21  0.0000E+00  6.6324E-03  2.8863E-03  5.2354E-03  9.1708E-03  0.0000E+00  9.0738E-03  0.0000E+00  0.0000E+00
 22  0.0000E+00  1.2287E-02  0.0000E+00  0.0000E+00  1.8843E-02  0.0000E+00  0.0000E+00  5.7562E-03  4.7744E-03
 23  0.0000E+00  1.4288E-02  0.0000E+00  8.2118E-03  0.0000E+00  0.0000E+00  0.0000E+00  1.0784E-04  9.9030E-03
 24  0.0000E+00  2.8220E-02  2.5421E-02  0.0000E+00  1.7806E-02  0.0000E+00  0.0000E+00  5.2983E-02  5.7664E-02
 25  0.0000E+00  2.4800E-02  0.0000E+00  7.7753E-02  0.0000E+00  0.0000E+00  6.1175E-02  4.7708E-02  0.0000E+00
 26  5.4850E-02  5.3970E-02  1.7289E-01  2.6666E-03  0.0000E+00  7.6076E-02  4.4368E-02  4.7279E-01  2.7482E-01
 27  0.0000E+00  1.0532E-01  0.0000E+00  1.3162E-01  0.0000E+00  0.0000E+00  3.2844E-01  1.9708E-01  0.0000E+00
 28  0.0000E+00  3.3048E-01  3.1735E-01  1.2719E+00  2.7865E-01  0.0000E+00  0.0000E+00  1.5738E-01  4.0495E-01
 29  0.0000E+00  5.9374E-01  3.4144E-01  0.0000E+00  5.9063E-01  2.6226E-01  0.0000E+00  4.1095E-01  9.9119E-01
 30  7.3428E+00  1.3051E+00  3.9119E+00  2.3271E+00  2.0659E+00  1.0319E+00  3.3533E-01  1.0939E+01  0.0000E+00
 31  0.0000E+00  1.6166E+00  8.2448E-01  3.5017E+00  5.1230E+00  0.0000E+00  3.3643E+00  9.2953E-01  3.7931E-01
 32  1.4417E+01  2.9334E+00  3.0748E+00  0.0000E+00  3.8465E+00  1.6122E+00  5.0342E-01  2.1065E+00  1.0083E+00
 33  0.0000E+00  5.7708E+00  0.0000E+00  2.3454E+01  5.7646E+00  0.0000E+00  3.9230E+00  0.0000E+00  2.3092E+01
 34  8.0176E+00  7.7816E+00  1.0381E+01  1.2942E+01  5.0246E-01  6.1490E+00  1.7074E+01  2.9672E+01  2.8494E+01
 35  0.0000E+00  9.9445E-03  0.0000E+00  1.7012E-02  1.3115E-02  0.0000E+00  5.4235E-03  2.4618E-02  1.1066E-02
 36  0.0000E+00  4.3513E-03  0.0000E+00  4.8652E-03  3.4590E-03  2.6752E-04  1.9670E-03  5.4397E-03  8.9221E-04
 37  1.4716E-04  3.8737E-03  3.0626E-02  1.0012E-02  0.0000E+00  7.9419E-03  5.4221E-03  2.2131E-03  0.0000E+00
 38  0.0000E+00  8.5005E-03  0.0000E+00  0.0000E+00  0.0000E+00  0.0000E+00  7.5148E-03  2.9906E-02  7.0362E-03
 39  0.0000E+00  2.3181E-02  4.4577E-02  4.1193E-02  5.8223E-02  2.4494E-03  0.0000E+00  0.0000E+00  0.0000E+00
 40  0.0000E+00  2.5952E-02  2.2004E-02  0.0000E+00  1.6511E-02  0.0000E+00  0.0000E+00  5.2596E-02  4.0421E-02
 41  2.9971E-01  4.3629E-02  7.9135E-02  1.1063E-01  1.0552E-02  4.3590E-02  1.5931E-01  5.2795E-03  0.0000E+00
 42  0.0000E+00  6.7218E-02  3.5532E-01  0.0000E+00  1.6726E-02  1.2711E-01  0.0000E+00  5.4673E-02  0.0000E+00
 43  0.0000E+00  1.1438E-01  3.5147E-01  2.0765E-02  2.5776E-01  4.8562E-02  5.1815E-01  7.4150E-03  9.4043E-02
 44  0.0000E+00  1.8948E-01  2.8198E-01  1.1475E-01  2.2869E-02  3.5620E-02  4.6927E-02  0.0000E+00  0.0000E+00
 45  1.8365E+00  4.0334E-01  0.0000E+00  0.0000E+00  0.0000E+00  8.5798E-01  0.0000E+00  0.0000E+00  1.3592E-01
 46  0.0000E+00  7.0776E-01  4.2640E-01  4.3335E+00  1.9229E+00  0.0000E+00  1.3598E+00  4.0398E+00  1.0495E+00
 47  1.7827E-01  1.2934E+00  4.2267E+00  8.0976E-01  2.2416E+00  5.6636E+00  3.3969E-01  3.8425E+00  9.5045E-01
 48  2.4499E+01  3.0652E+00  3.8653E+00  0.0000E+00  4.0028E+00  4.1604E+00  0.0000E+00  1.0732E+00  8.6457E+00
 49  0.0000E+00  5.5760E+00  7.3716E-01  0.0000E+00  2.5489E+00  0.0000E+00  1.1983E+01  7.4032E+00  3.0501E+00
 50  3.6631E-01  9.2161E+00  8.3843E+00  0.0000E+00  3.0793E+01  1.4732E+01  2.8770E+00  0.0000E+00  0.0000E+00
 51  0.0000E+00  5.3861E-03  1.3005E-03  3.9548E-03  0.0000E+00  0.0000E+00  7.8057E-04  0.0000E+00  4.7252E-04
 52  0.0000E+00  2.2556E-03  9.8876E-03  0.0000E+00  1.2308E-03  0.0000E+00  3.7030E-03  7.7152E-03  9.2806E-04
 53  6.0995E-02  4.8208E-03  0.0000E+00  1.1581E-02  4.5394E-03  2.7951E-03  1.3814E-03  1.0840E-02  3.6624E-03
 54  0.0000E+00  9.9850E-03  1.0153E-02  0.0000E+00  2.0928E-02  2.1610E-02  1.0517E-02  8.8072E-03  4.2995E-03
 55  1.1150E-01  1.4638E-02  1.7734E-02  1.0240E-02  1.1628E-02  2.4400E-02  0.0000E+00  0.0000E+00  5.4828E-04
 56  0.0000E+00  3.4056E-02  7.1460E-03  2.3918E-02  6.3688E-02  1.0145E-02  1.9429E-02  1.2923E-02  1.7722E-03
 57  0.0000E+00  7.4977E-02  0.0000E+00  1.9956E-02  1.0481E-01  2.7475E-02  0.0000E+00  0.0000E+00  3.0490E-01
 58  1.2302E-01  5.9043E-02  0.0000E+00  4.9046E-02  6.2713E-02  2.4615E-02  0.0000E+00  0.0000E+00  3.5191E-01
 59  5.1230E-02  1.6404E-01  3.3623E-03  1.4221E-01  8.1450E-02  1.3128E-01  1.8360E-01  0.0000E+00  1.5021E-01
 60  0.0000E+00  2.7703E-01  1.0469E-01  2.3117E-01  0.0000E+00  0.0000E+00  1.8406E-01  1.1543E+00  0.0000E+00
 61  1.5681E+01  5.9444E-01  0.0000E+00  7.9684E-01  6.5132E-01  1.0572E+00  1.5036E+00  1.2625E+00  1.7113E+00
 62  0.0000E+00  1.0469E+00  1.0253E+00  1.1937E+00  3.2041E-01  7.1259E+00  5.6308E+00  3.4775E+00  1.7156E+00
 63  0.0000E+00  2.5720E+00  9.7044E+00  8.9066E-01  3.8894E+00  6.4029E+00  1.3981E+00  0.0000E+00  6.2649E+00
 64  0.0000E+00  5.8086E+00  1.0415E+01  1.5450E+01  9.9787E+00  4.0236E+00  0.0000E+00  4.2499E+00  0.0000E+00
 65  0.0000E+00  1.3287E+01  9.0080E+00  1.3909E+01  2.4246E+00  0.0000E+00  1.7134E+01  3.4265E+00  2.3134E+00
 66  0.0000E+00  1.9577E+01  0.0000E+00  1.9195E+00  0.0000E+00  0.0000E+00  2.8660E+00  2.0742E+01  0.0000E+00

# AV, chi2 & Mass for <> & i_chain = 1 ...  7 solutions
AV      -1.0000     -0.8101     -0.8566     -0.8544     -0.8798     -1.0000     -1.0000     -0.9336     -0.8353
chi2 7.8682E-06  8.1069E-06  7.9678E-06  7.9848E-06  7.9714E-06  7.9037E-06  7.9285E-06  7.9364E-06  7.9878E-06
Mass 1.2837E-14  2.2353E-14  2.1351E-14  2.1352E-14  2.2411E-14  1.9578E-14  2.3243E-14  1.6924E-14  2.0146E-14
 475.08                                  [v0_min (km/s) before EX0s...]
   0.14                                  [vd_min (km/s) before EX0s...]


## Synthetic spectrum (Best Model) ##l_obs f_obs f_syn wei
 3478    [Nl_obs]
 3741.00    0.50357   0.63186    0.000
 3742.00    0.31827   0.69348    0.000
 3743.00    0.00487   0.77260    0.000
 3744.00    0.09708   0.87259    0.000
 3745.00    0.42563   0.96784   -1.000
 3746.00    0.79711   1.02922   -1.000
 3747.00    1.19039   1.04535   -1.000
 3748.00    0.65855   1.01567   -1.000
 3749.00   -0.28009   0.97172    0.000
 3750.00   -0.12897   0.93917    0.000
 3751.00    0.43357   0.89577   -1.000
 3752.00    0.94691   0.84068   -1.000
 3753.00    1.44449   0.78933   -1.000
 3754.00    1.03797   0.70278   -1.000
 3755.00    0.38918   0.61514   -1.000
 3756.00    0.14383   0.61696    0.034
 3757.00   -0.01296   0.71592    0.000
 3758.00    0.03037   0.83323    0.014
 3759.00    0.10864   0.92492    0.014
 3760.00    0.58713   1.00935    0.014
 3761.00    1.11878   1.07261    0.015
 3762.00    0.83166   1.07349    0.014
 3763.00    0.46761   1.00346    0.014
 3764.00    0.26671   0.93249    0.014
 3765.00    0.07523   0.93215    0.014
 3766.00    0.61119   0.97364    0.014
 3767.00    1.16014   1.00465    0.014
 3768.00    1.18990   1.01982    0.014
 3769.00    1.23473   1.01655    0.014
 3770.00    1.64585   1.01070    0.014
 3771.00    2.01603   1.00724    0.014
 3772.00    1.84991   0.95750    0.014
 3773.00    1.65971   0.88636    0.014
 3774.00    1.25825   0.84713    0.014
 3775.00    0.94189   0.80088    0.014
 3776.00    1.17729   0.73360    0.014
 3777.00    1.32267   0.73762    0.014
 3778.00    1.01241   0.83174    0.014
 3779.00    0.79989   0.92284    0.014
 3780.00    0.98742   0.96625    0.014
 3781.00    1.16432   0.99176    0.014
 3782.00    1.30515   1.02863    0.015
 3783.00    1.43714   1.07086    0.015
 3784.00    1.54380   1.10193    0.015
 3785.00    1.46710   1.13981    0.015
 3786.00    0.94242   1.18404    0.015
 3787.00    0.78945   1.19896    0.015
 3788.00    1.41990   1.19162    0.015
 3789.00    1.94419   1.19773    0.015
 3790.00    2.27403   1.21288    0.015
 3791.00    2.16982   1.17898    0.015
 3792.00    1.37079   1.09777    0.014
 3793.00    0.81943   1.05029    0.014
 3794.00    0.61592   1.03797    0.014
 3795.00    0.46599   1.02297    0.014
 3796.00    0.38226   1.01584    0.013
 3797.00    0.36304   1.02506    0.013
 3798.00    0.41409   1.01394    0.013
 3799.00    0.48369   0.95978    0.014
 3800.00    0.57110   0.88564    0.014
 3801.00    0.48987   0.82221    0.014
 3802.00    0.26575   0.75918    0.014
 3803.00    0.11972   0.67268    0.014
 3804.00    0.03195   0.62047    0.014
 3805.00    0.04044   0.67305    0.014
 3806.00    0.11203   0.79431    0.013
 3807.00    0.25974   0.90243    0.013
 3808.00    0.45114   0.98324    0.013
 3809.00    0.86092   1.05692    0.013
 3810.00    1.37985   1.10076    0.013
 3811.00    1.33044   1.09735    0.014
 3812.00    1.03526   1.06414    0.014
 3813.00    1.11876   1.05301    0.014
 3814.00    1.34270   1.09727    0.014
 3815.00    1.52677   1.16085    0.014
 3816.00    1.69831   1.20336    0.015
 3817.00    1.60843   1.21114    0.014
 3818.00    1.44998   1.17280    0.014
 3819.00    1.04467   1.10246    0.014
 3820.00    0.58647   1.04996    0.014
 3821.00    0.65686   1.02980    0.014
 3822.00    0.81696   1.04128    0.014
 3823.00    0.59417   1.08293    0.014
 3824.00    0.32224   1.08731    0.014
 3825.00    0.56713   1.01037    0.014
 3826.00    0.85840   0.93750    0.014
 3827.00    0.98300   0.96453    0.014
 3828.00    1.09865   1.04649    0.014
 3829.00    1.16878   1.07138    0.014
 3830.00    1.23391   1.01458    0.014
 3831.00    0.95490   0.95562    0.014
 3832.00    0.71193   0.93671    0.014
 3833.00    1.26951   0.93238    0.014
 3834.00    1.79101   0.92207    0.014
 3835.00    1.86397   0.90975    0.014
 3836.00    1.88749   0.89604    0.014
 3837.00    1.49311   0.85242    0.014
 3838.00    1.12963   0.76628    0.014
 3839.00    0.96044   0.68115    0.014
 3840.00    0.78808   0.61619    0.014
 3841.00    0.60010   0.58137    0.014
 3842.00    0.50528   0.60597    0.013
 3843.00    0.78341   0.66303    0.013
 3844.00    0.88300   0.70976    0.014
 3845.00    0.38902   0.75755    0.014
 3846.00   -0.06867   0.81081    0.000
 3847.00   -0.42448   0.87756    0.000
 3848.00   -0.52378   0.95918    0.000
 3849.00   -0.00700   1.01862    0.000
 3850.00    0.19055   1.04904    0.000
 3851.00   -0.27397   1.06002    0.000
 3852.00   -0.33780   1.06940    0.000
 3853.00    0.32106   1.09650    0.000
 3854.00    0.68628   1.11502    0.000
 3855.00    0.58840   1.09271    0.000
 3856.00    0.68108   1.06757    0.000
 3857.00    1.03756   1.09297    0.000
 3858.00    1.20082   1.13543    0.000
 3859.00    1.12863   1.14158    0.000
 3860.00    1.02998   1.12649    0.000
 3861.00    0.90288   1.10116    0.000
 3862.00    1.19742   1.07762    0.000
 3863.00    1.89146   1.08624    0.000
 3864.00    1.67438   1.08187    0.000
 3865.00    0.69613   1.04041    0.000
 3866.00    0.37582   1.02961    0.000
 3867.00    0.53942   1.07789    0.000
 3868.00    0.80275   1.13292    0.000
 3869.00    1.13048   1.15442    0.000
 3870.00    1.21306   1.15217    0.000
 3871.00    1.15710   1.13970    0.000
 3872.00    0.86660   1.12631    0.000
 3873.00    0.46074   1.11977    0.000
 3874.00    0.32070   1.12798    0.000
 3875.00    0.29370   1.13879    0.000
 3876.00    0.36814   1.11972    0.000
 3877.00    0.47953   1.06662    0.000
 3878.00    0.51349   1.01000    0.000
 3879.00    0.52358   1.00728    0.000
 3880.00    0.39868   1.06222    0.000
 3881.00    0.23912   1.11072    0.013
 3882.00    0.35375   1.10905    0.013
 3883.00    0.52570   1.06174    0.013
 3884.00    0.94929   1.00100    0.013
 3885.00    1.41438   0.99409    0.013
 3886.00    1.13779   1.03030    0.013
 3887.00    0.76936   1.02235    0.013
 3888.00    0.79031   0.97336    0.013
 3889.00    0.84458   0.95037    0.013
 3890.00    1.03096   0.94527    0.013
 3891.00    1.22392   0.88999    0.013
 3892.00    1.09819   0.79435    0.013
 3893.00    0.97138   0.71585    0.013
 3894.00    1.11181   0.65308    0.013
 3895.00    1.23993   0.61653    0.013
 3896.00    1.11629   0.66268    0.013
 3897.00    1.00368   0.77053    0.013
 3898.00    1.02168   0.87029    0.013
 3899.00    1.00063   0.92881    0.013
 3900.00    0.66144   0.95415    0.012
 3901.00    0.40607   0.96705    0.012
 3902.00    0.66263   0.99520    0.012
 3903.00    0.88569   1.03665    0.012
 3904.00    0.94751   1.04849    0.012
 3905.00    0.99842   1.03646    0.011
 3906.00    1.00662   1.04710    0.011
 3907.00    0.99038   1.09373    0.012
 3908.00    0.89448   1.11972    0.012
 3909.00    0.81172   1.10526    0.012
 3910.00    0.76521   1.09317    0.012
 3911.00    0.70082   1.07271    0.013
 3912.00    0.59422   1.05116    0.013
 3913.00    0.61603   1.07755    0.013
 3914.00    0.89991   1.13617    0.013
 3915.00    1.03036   1.17947    0.013
 3916.00    0.88830   1.19652    0.013
 3917.00    0.77655   1.20493    0.013
 3918.00    0.71191   1.20680    0.013
 3919.00    0.50033   1.18869    0.013
 3920.00    0.08825   1.16814    0.013
 3921.00    0.22055   1.16480    0.013
 3922.00    1.00677   1.15551    0.013
 3923.00    1.44147   1.13961    0.013
 3924.00    1.50391   1.12018    0.013
 3925.00    1.41827   1.08773    0.013
 3926.00    1.19430   1.05394    0.014
 3927.00    1.10485   1.04561    0.014
 3928.00    1.12619   1.06665    0.013
 3929.00    1.03820   1.08846    0.013
 3930.00    0.87095   1.09821    0.013
 3931.00    0.58164   1.07950    0.013
 3932.00    0.21465   1.03277    0.013
 3933.00    0.24371   0.98515    0.013
 3934.00    0.49318   0.93941    0.013
 3935.00    0.76404   0.89017    0.013
 3936.00    1.04526   0.83817    0.013
 3937.00    0.97311   0.77992    0.013
 3938.00    0.75323   0.71465    0.013
 3939.00    0.70783   0.65287    0.013
 3940.00    0.72485   0.62927    0.014
 3941.00    0.84672   0.66230    0.014
 3942.00    1.00028   0.73057    0.014
 3943.00    1.02731   0.80666    0.013
 3944.00    1.02257   0.87652    0.013
 3945.00    1.06064   0.94148    0.013
 3946.00    1.10744   0.99377    0.014
 3947.00    1.08312   1.01806    0.014
 3948.00    1.04741   1.02212    0.014
 3949.00    1.10795   1.01357    0.014
 3950.00    1.17999   1.00353    0.014
 3951.00    0.61765   1.03110    0.014
 3952.00    0.00366   1.08920    0.014
 3953.00    0.74143   1.11066    0.014
 3954.00    1.54132   1.09006    0.014
 3955.00    1.40608   1.08426    0.014
 3956.00    1.26836   1.10952    0.014
 3957.00    1.62309   1.12635    0.014
 3958.00    1.95171   1.11017    0.014
 3959.00    1.78571   1.09887    0.014
 3960.00    1.63192   1.12354    0.000
 3961.00    1.61563   1.13239    0.000
 3962.00    1.58783   1.09181    0.000
 3963.00    1.46950   1.05663    0.000
 3964.00    1.30575   1.06645    0.000
 3965.00    0.87239   1.08807    0.000
 3966.00    0.40509   1.06575    0.000
 3967.00   -0.22155   0.98619    0.000
 3968.00   -0.60913   0.90482    0.000
 3969.00   -0.08054   0.85883    0.000
 3970.00    0.35326   0.81732    0.000
 3971.00    0.48406   0.75446    0.000
 3972.00    0.54901   0.67254    0.000
 3973.00    0.43563   0.57641    0.000
 3974.00    0.36992   0.48289    0.000
 3975.00    0.41492   0.42065    0.000
 3976.00    0.37670   0.41621    0.000
 3977.00    0.17134   0.47767    0.000
 3978.00    0.14788   0.57502    0.000
 3979.00    0.44260   0.66823    0.000
 3980.00    0.79760   0.75230    0.000
 3981.00    1.24490   0.83541    0.014
 3982.00    1.72467   0.90348    0.014
 3983.00    2.24808   0.95370    0.014
 3984.00    2.38583   1.00482    0.014
 3985.00    2.06684   1.06066    0.014
 3986.00    1.73084   1.10535    0.014
 3987.00    1.37707   1.11557    0.014
 3988.00    1.02744   1.09664    0.014
 3989.00    0.68163   1.08727    0.013
 3990.00    0.48395   1.10534    0.013
 3991.00    0.40654   1.13484    0.013
 3992.00    0.57483   1.15234    0.013
 3993.00    0.91869   1.16273    0.013
 3994.00    1.16685   1.18442    0.013
 3995.00    1.35501   1.19396    0.013
 3996.00    1.32011   1.18377    0.013
 3997.00    1.16298   1.18770    0.013
 3998.00    0.98503   1.21255    0.013
 3999.00    0.79716   1.23307    0.013
 4000.00    0.47495   1.22724    0.013
 4001.00    0.09752   1.20231    0.013
 4002.00    0.64874   1.17548    0.013
 4003.00    1.52612   1.14913    0.013
 4004.00    1.72865   1.14177    0.013
 4005.00    1.73122   1.17960    0.013
 4006.00    1.70626   1.23258    0.013
 4007.00    1.67453   1.25262    0.013
 4008.00    1.99534   1.25259    0.013
 4009.00    2.38624   1.25590    0.013
 4010.00    1.78792   1.23071    0.013
 4011.00    1.03589   1.16139    0.013
 4012.00    0.63939   1.11749    0.013
 4013.00    0.28377   1.14545    0.013
 4014.00    0.11400   1.19334    0.013
 4015.00   -0.04141   1.21128    0.000
 4016.00    0.67007   1.21708    0.014
 4017.00    1.41806   1.23214    0.014
 4018.00    0.93812   1.24287    0.013
 4019.00    0.46070   1.24617    0.013
 4020.00    0.58493   1.25013    0.013
 4021.00    0.73119   1.26102    0.014
 4022.00    1.26575   1.27006    0.014
 4023.00    1.76579   1.25766    0.014
 4024.00    1.89431   1.24835    0.014
 4025.00    1.96276   1.27218    0.014
 4026.00    1.57529   1.29496    0.013
 4027.00    1.17755   1.28396    0.013
 4028.00    0.72058   1.25983    0.013
 4029.00    0.44272   1.23898    0.013
 4030.00    0.98573   1.20610    0.013
 4031.00    1.47574   1.17041    0.013
 4032.00    1.76695   1.17135    0.013
 4033.00    1.85524   1.21346    0.013
 4034.00    1.30738   1.25685    0.013
 4035.00    0.94669   1.25953    0.013
 4036.00    1.08392   1.20771    0.013
 4037.00    1.13262   1.14295    0.013
 4038.00    0.97915   1.11467    0.013
 4039.00    0.83975   1.11642    0.013
 4040.00    0.72814   1.13295    0.013
 4041.00    0.86251   1.16504    0.013
 4042.00    1.42060   1.21551    0.013
 4043.00    1.50257   1.27475    0.013
 4044.00    0.86627   1.31329    0.013
 4045.00    0.58536   1.31298    0.013
 4046.00    0.77552   1.28171    0.013
 4047.00    1.06332   1.25085    0.013
 4048.00    1.46511   1.25295    0.013
 4049.00    1.56215   1.25929    0.013
 4050.00    1.34544   1.21010    0.013
 4051.00    1.15143   1.11576    0.013
 4052.00    0.97804   1.06614    0.013
 4053.00    0.88250   1.12050    0.013
 4054.00    0.84926   1.21080    0.013
 4055.00    1.00000   1.25440    0.013
 4056.00    1.28029   1.26588    0.013
 4057.00    1.24873   1.27144    0.013
 4058.00    1.02454   1.25851    0.013
 4059.00    0.87676   1.22855    0.013
 4060.00    0.77022   1.19730    0.013
 4061.00    0.74705   1.17893    0.013
 4062.00    0.76294   1.18019    0.013
 4063.00    0.75865   1.17824    0.013
 4064.00    0.74620   1.16454    0.013
 4065.00    1.22742   1.17357    0.013
 4066.00    1.87884   1.21317    0.013
 4067.00    1.70814   1.23870    0.013
 4068.00    1.29872   1.20700    0.013
 4069.00    0.89791   1.13028    0.013
 4070.00    0.49917   1.08601    0.013
 4071.00    0.59392   1.12093    0.013
 4072.00    0.78430   1.16852    0.013
 4073.00    1.45266   1.17131    0.014
 4074.00    2.19303   1.17609    0.014
 4075.00    1.57425   1.21316    0.013
 4076.00    0.80513   1.22557    0.013
 4077.00    0.62373   1.17487    0.013
 4078.00    0.48538   1.12289    0.013
 4079.00    0.94904   1.14104    0.013
 4080.00    1.43576   1.18892    0.013
 4081.00    1.21466   1.18565    0.013
 4082.00    1.01132   1.12508    0.013
 4083.00    1.62502   1.05592    0.013
 4084.00    2.18208   1.03174    0.013
 4085.00    1.80568   1.07122    0.013
 4086.00    1.41871   1.14342    0.013
 4087.00    0.92300   1.20627    0.013
 4088.00    0.52259   1.22871    0.012
 4089.00    0.82149   1.20470    0.012
 4090.00    1.07727   1.16432    0.013
 4091.00    1.09117   1.13951    0.013
 4092.00    1.10032   1.14223    0.000
 4093.00    1.08819   1.17228    0.000
 4094.00    1.13328   1.21052    0.000
 4095.00    1.38853   1.22832    0.000
 4096.00    1.52080   1.22034    0.000
 4097.00    1.27482   1.20048    0.000
 4098.00    1.07481   1.17558    0.000
 4099.00    0.99496   1.15800    0.000
 4100.00    0.93345   1.15066    0.000
 4101.00    0.91314   1.11891    0.000
 4102.00    0.94520   1.05578    0.000
 4103.00    1.07916   1.00082    0.000
 4104.00    1.16492   0.96689    0.000
 4105.00    1.16888   0.92900    0.000
 4106.00    1.14367   0.85717    0.000
 4107.00    1.07508   0.75044    0.000
 4108.00    1.18334   0.67680    0.000
 4109.00    1.52266   0.70583    0.000
 4110.00    1.84105   0.80469    0.000
 4111.00    2.13532   0.90349    0.000
 4112.00    1.88622   0.98072    0.000
 4113.00    1.08555   1.03166    0.012
 4114.00    0.88714   1.05546    0.012
 4115.00    1.22794   1.06156    0.012
 4116.00    1.49540   1.05930    0.012
 4117.00    1.70498   1.06295    0.012
 4118.00    1.54006   1.08267    0.012
 4119.00    1.11526   1.11451    0.012
 4120.00    1.05001   1.14657    0.017
 4121.00    1.20356   1.17003    0.066
 4122.00    1.04366   1.18767   -1.000
 4123.00    0.71724   1.19393   -1.000
 4124.00    0.82911   1.16738   -1.000
 4125.00    1.14309   1.12093   -1.000
 4126.00    1.46631   1.10149   -1.000
 4127.00    1.79320   1.11268   -1.000
 4128.00    1.51731   1.12268    0.032
 4129.00    1.03740   1.12808    0.014
 4130.00    1.14528   1.14667    0.012
 4131.00    1.42039   1.17584    0.012
 4132.00    1.54934   1.18668    0.012
 4133.00    1.64397   1.16372    0.012
 4134.00    1.20536   1.12678    0.012
 4135.00    0.66610   1.10888    0.012
 4136.00    0.73024   1.11330    0.012
 4137.00    0.88249   1.10837    0.012
 4138.00    0.82450   1.08168    0.012
 4139.00    0.74416   1.06179    0.012
 4140.00    1.22741   1.07452    0.013
 4141.00    1.74963   1.11571    0.013
 4142.00    1.77366   1.16632    0.013
 4143.00    1.78050   1.19427    0.013
 4144.00    1.15231   1.19928    0.013
 4145.00    0.54362   1.21311    0.013
 4146.00    0.62091   1.22921    0.012
 4147.00    0.72516   1.22054    0.012
 4148.00    1.24647   1.16773    0.013
 4149.00    1.68974   1.07389    0.013
 4150.00    1.36378   1.00754    0.013
 4151.00    1.11309   1.03602    0.012
 4152.00    1.39676   1.11613    0.013
 4153.00    1.62605   1.16679    0.013
 4154.00    1.55843   1.17687    0.013
 4155.00    1.56313   1.16297    0.013
 4156.00    1.88397   1.13993    0.012
 4157.00    2.01127   1.13315    0.012
 4158.00    1.44247   1.14061    0.012
 4159.00    1.02850   1.13680    0.012
 4160.00    1.08177   1.11876    0.012
 4161.00    1.16813   1.10307    0.012
 4162.00    1.33946   1.10050    0.012
 4163.00    1.43277   1.10650    0.012
 4164.00    1.35370   1.12608    0.012
 4165.00    1.37022   1.15725    0.012
 4166.00    1.56985   1.17602    0.012
 4167.00    1.60984   1.17391    0.012
 4168.00    1.38302   1.17214    0.012
 4169.00    1.27648   1.18622    0.012
 4170.00    1.34615   1.19499    0.012
 4171.00    1.30875   1.18895    0.012
 4172.00    1.13344   1.18003    0.012
 4173.00    0.96389   1.16112    0.012
 4174.00    0.80086   1.14088    0.012
 4175.00    0.87910   1.14744    0.012
 4176.00    1.19881   1.16664    0.012
 4177.00    1.52860   1.15151    0.012
 4178.00    1.86727   1.09075    0.012
 4179.00    1.94351   1.02891    0.012
 4180.00    1.81566   1.01758    0.012
 4181.00    1.52323   1.05228    0.012
 4182.00    1.11825   1.08760    0.012
 4183.00    0.94004   1.09228    0.011
 4184.00    0.89775   1.07425    0.011
 4185.00    1.08223   1.07166    0.011
 4186.00    1.38530   1.10229    0.012
 4187.00    1.37069   1.13068    0.012
 4188.00    1.21198   1.12321    0.012
 4189.00    1.05949   1.10575    0.011
 4190.00    0.90943   1.11165    0.011
 4191.00    0.75197   1.13448    0.011
 4192.00    0.59204   1.14739    0.011
 4193.00    0.71749   1.12065    0.011
 4194.00    0.92248   1.08260    0.011
 4195.00    0.89719   1.09272    0.011
 4196.00    0.81908   1.12945    0.011
 4197.00    0.87215   1.13979    0.011
 4198.00    0.94932   1.13808    0.012
 4199.00    0.82486   1.16463    0.012
 4200.00    0.67189   1.19634    0.012
 4201.00    0.67130   1.17966    0.011
 4202.00    0.68624   1.12717    0.011
 4203.00    0.41130   1.08873    0.011
 4204.00    0.11748   1.06572    0.011
 4205.00    0.50816   1.04548    0.011
 4206.00    0.91968   1.05324    0.011
 4207.00    1.21451   1.07544    0.011
 4208.00    1.49972   1.06990    0.011
 4209.00    1.50239   1.06183    0.012
 4210.00    1.50891   1.07911    0.012
 4211.00    1.57135   1.09590    0.012
 4212.00    1.62166   1.10836    0.012
 4213.00    1.55727   1.13303    0.011
 4214.00    1.45541   1.15739    0.011
 4215.00    1.09599   1.16346    0.012
 4216.00    0.79703   1.14948    0.012
 4217.00    0.81937   1.14106    0.011
 4218.00    0.87790   1.15800    0.011
 4219.00    1.09100   1.17615    0.011
 4220.00    1.26572   1.16476    0.011
 4221.00    1.30519   1.11747    0.011
 4222.00    1.26409   1.06527    0.011
 4223.00    0.98439   1.07044    0.011
 4224.00    0.79120   1.13157    0.011
 4225.00    0.81636   1.17744    0.011
 4226.00    0.85498   1.18835    0.011
 4227.00    0.92284   1.19192    0.011
 4228.00    1.01199   1.18695    0.011
 4229.00    1.14126   1.15391    0.011
 4230.00    1.19699   1.10378    0.011
 4231.00    1.13161   1.04156    0.011
 4232.00    1.00574   0.96003    0.011
 4233.00    0.79254   0.89324    0.011
 4234.00    0.86330   0.91353    0.011
 4235.00    1.29458   1.02524    0.011
 4236.00    1.50684   1.12919    0.011
 4237.00    1.47408   1.17271    0.011
 4238.00    1.35782   1.17127    0.011
 4239.00    1.15917   1.12908    0.011
 4240.00    1.11079   1.08477    0.011
 4241.00    1.19316   1.08074    0.011
 4242.00    1.03893   1.08001    0.011
 4243.00    0.70329   1.06681    0.011
 4244.00    0.86619   1.07441    0.011
 4245.00    1.36505   1.08579    0.011
 4246.00    1.49884   1.08917    0.011
 4247.00    1.41708   1.10983    0.011
 4248.00    1.46964   1.13819    0.012
 4249.00    1.59136   1.14633    0.012
 4250.00    1.47017   1.15603    0.012
 4251.00    1.24061   1.18008    0.011
 4252.00    1.07722   1.17303    0.011
 4253.00    0.93921   1.12570    0.012
 4254.00    0.93679   1.08606    0.011
 4255.00    0.97857   1.07828    0.011
 4256.00    1.15840   1.07042    0.011
 4257.00    1.37591   1.05076    0.011
 4258.00    1.05192   1.06534    0.011
 4259.00    0.60659   1.10273    0.011
 4260.00    0.44171   1.09744    0.011
 4261.00    0.32698   1.06635    0.011
 4262.00    0.74570   1.07502    0.011
 4263.00    1.23739   1.12237    0.011
 4264.00    1.37547   1.14515    0.011
 4265.00    1.47900   1.11055    0.011
 4266.00    1.43561   1.05445    0.011
 4267.00    1.38322   1.01900    0.011
 4268.00    1.48311   1.03601    0.011
 4269.00    1.58451   1.10225    0.011
 4270.00    1.17794   1.16097    0.011
 4271.00    0.78274   1.18360    0.011
 4272.00    0.68833   1.18661    0.011
 4273.00    0.62884   1.16727    0.011
 4274.00    1.04951   1.12561    0.011
 4275.00    1.41328   1.09840    0.011
 4276.00    1.26023   1.08196    0.011
 4277.00    1.13960   1.03483    0.011
 4278.00    1.23478   0.97122    0.011
 4279.00    1.31466   0.95858    0.011
 4280.00    1.31527   0.99255    0.011
 4281.00    1.28336   1.00616    0.011
 4282.00    1.11574   1.02045   -2.000
 4283.00    1.07346   1.07394   -2.000
 4284.00    1.46386   1.12913   -2.000
 4285.00    1.78421   1.14825   -2.000
 4286.00    1.90092   1.12752   -2.000
 4287.00    2.02783   1.09170   -2.000
 4288.00    2.18007   1.07755   -2.000
 4289.00    2.26006   1.07707   -2.000
 4290.00    2.18562   1.08031   -2.000
 4291.00    1.88557   1.08259   -2.000
 4292.00    1.16660   1.06701   -2.000
 4293.00    0.83980   1.05505   -2.000
 4294.00    1.14900   1.05108   -2.000
 4295.00    1.36950   1.01847   -2.000
 4296.00    1.46379   0.95625   -2.000
 4297.00    1.34692   0.92942   -2.000
 4298.00    0.96576   0.97932    0.011
 4299.00    0.81626   1.05302    0.011
 4300.00    0.92229   1.07717    0.011
 4301.00    0.95652   1.04906    0.011
 4302.00    0.92090   1.03221    0.011
 4303.00    0.82431   1.03179    0.011
 4304.00    0.67543   1.01169    0.011
 4305.00    0.72376   0.96213    0.011
 4306.00    0.92112   0.89317    0.010
 4307.00    0.95761   0.86297    0.010
 4308.00    0.88728   0.88302    0.011
 4309.00    1.00184   0.89470    0.011
 4310.00    1.22391   0.90235    0.010
 4311.00    1.32431   0.92913    0.010
 4312.00    1.36304   0.93942    0.010
 4313.00    1.23100   0.92400    0.010
 4314.00    1.02402   0.89152    0.010
 4315.00    1.02274   0.85899    0.010
 4316.00    1.09894   0.86947    0.010
 4317.00    1.20884   0.91937    0.010
 4318.00    1.32951   0.96745    0.011
 4319.00    1.33090   0.98742    0.011
 4320.00    1.30041   0.98541    0.011
 4321.00    1.05245   0.98870    0.011
 4322.00    0.75692   1.03835    0.011
 4323.00    0.51378   1.12479    0.010
 4324.00    0.27977   1.17210    0.010
 4325.00    0.51125   1.16672    0.010
 4326.00    0.80430   1.14541    0.011
 4327.00    1.03121   1.11962    0.011
 4328.00    1.25195   1.09820    0.011
 4329.00    1.14840   1.08846    0.011
 4330.00    1.02630   1.04737    0.000
 4331.00    0.75152   0.96442    0.000
 4332.00    0.47842   0.88929    0.000
 4333.00    0.80735   0.89192    0.000
 4334.00    1.12246   0.98530    0.000
 4335.00    1.10583   1.07934    0.000
 4336.00    1.09216   1.10156    0.000
 4337.00    1.11694   1.06904    0.000
 4338.00    1.15519   1.04636    0.000
 4339.00    1.31122   1.05147    0.000
 4340.00    1.47167   1.05184    0.000
 4341.00    1.66062   1.04766    0.000
 4342.00    1.77926   1.03876    0.000
 4343.00    1.54316   0.97909    0.000
 4344.00    1.33217   0.86085    0.000
 4345.00    1.22362   0.75435    0.000
 4346.00    1.15566   0.67681    0.000
 4347.00    1.22498   0.61682    0.000
 4348.00    1.33844   0.64643    0.000
 4349.00    1.57785   0.76146    0.000
 4350.00    1.67124   0.84828    0.000
 4351.00    1.40864   0.89136    0.011
 4352.00    1.21760   0.94444    0.011
 4353.00    1.17708   0.98846    0.011
 4354.00    1.12728   1.00933    0.013
 4355.00    1.06049   1.04337    0.035
 4356.00    0.95535   1.07652   -1.000
 4357.00    0.78895   1.04474   -1.000
 4358.00    0.67333   0.95345   -1.000
 4359.00    0.62891   0.91137   -1.000
 4360.00    0.72834   0.96545   -1.000
 4361.00    1.00527   1.03081   -1.000
 4362.00    1.31693   1.06170    0.045
 4363.00    1.66635   1.09255    0.015
 4364.00    1.61873   1.11158    0.011
 4365.00    1.19022   1.08449    0.011
 4366.00    1.30662   1.04962    0.011
 4367.00    1.88394   1.06595    0.011
 4368.00    1.68519   1.11317    0.011
 4369.00    0.90835   1.13738    0.011
 4370.00    0.70701   1.13974    0.011
 4371.00    0.88224   1.15619    0.011
 4372.00    0.98509   1.17396    0.011
 4373.00    1.04647   1.14813    0.011
 4374.00    0.98187   1.08947    0.011
 4375.00    0.85442   1.05769    0.011
 4376.00    0.90820   1.06734    0.011
 4377.00    1.04018   1.08042    0.011
 4378.00    1.38185   1.09075    0.011
 4379.00    1.80110   1.09694    0.011
 4380.00    1.65323   1.06813    0.011
 4381.00    1.32753   1.00404    0.011
 4382.00    1.24731   0.97219    0.011
 4383.00    1.23130   1.01708    0.011
 4384.00    0.94989   1.09416    0.011
 4385.00    0.61178   1.13405    0.011
 4386.00    0.91249   1.12543    0.011
 4387.00    1.32122   1.10614    0.011
 4388.00    1.11657   1.08897    0.010
 4389.00    0.83355   1.02194    0.010
 4390.00    0.69937   0.89965    0.010
 4391.00    0.57847   0.83063    0.011
 4392.00    0.86795   0.88024    0.010
 4393.00    1.17928   0.97514    0.010
 4394.00    1.12779   1.01435    0.010
 4395.00    1.06671   1.01024    0.010
 4396.00    0.80350   1.01571    0.010
 4397.00    0.55996   1.01838    0.010
 4398.00    0.74871   1.02646    0.010
 4399.00    0.92173   1.05966    0.010
 4400.00    0.90032   1.07372    0.011
 4401.00    0.84677   1.03831    0.011
 4402.00    0.52291   1.00957    0.011
 4403.00    0.29942   1.05103    0.010
 4404.00    0.70509   1.11566    0.010
 4405.00    1.11092   1.12065    0.010
 4406.00    1.51750   1.07274    0.011
 4407.00    1.79904   1.01626    0.011
 4408.00    1.58141   1.01562    0.010
 4409.00    1.37794   1.07296    0.010
 4410.00    1.22146   1.07746    0.010
 4411.00    1.12546   0.99707    0.010
 4412.00    1.19893   0.95619    0.010
 4413.00    1.21239   1.00380    0.010
 4414.00    1.08204   1.03242    0.010
 4415.00    0.90638   1.01056    0.010
 4416.00    0.63694   1.02260    0.010
 4417.00    0.66770   1.07704    0.010
 4418.00    1.23888   1.11436    0.010
 4419.00    1.48563   1.13404    0.010
 4420.00    1.22170   1.13135    0.010
 4421.00    1.13613   1.06273    0.010
 4422.00    1.29702   0.97917    0.010
 4423.00    1.28593   0.97130    0.010
 4424.00    1.06563   1.00761    0.010
 4425.00    1.18999   1.04893    0.010
 4426.00    1.68392   1.10429    0.010
 4427.00    1.93856   1.13543    0.010
 4428.00    1.96689   1.11111    0.010
 4429.00    1.68801   1.06035    0.010
 4430.00    1.15296   1.04526    0.010
 4431.00    1.10961   1.07182    0.010
 4432.00    1.42724   1.08535    0.010
 4433.00    1.54422   1.07565    0.010
 4434.00    1.53184   1.06788    0.010
 4435.00    1.25035   1.08032    0.010
 4436.00    0.81709   1.08406    0.010
 4437.00    0.93405   1.05239    0.010
 4438.00    1.32114   1.04622    0.010
 4439.00    1.57927   1.07284    0.010
 4440.00    1.78269   1.06437    0.010
 4441.00    1.46276   1.01494    0.010
 4442.00    0.95264   0.97555    0.010
 4443.00    1.11466   0.99585    0.010
 4444.00    1.48339   1.06274    0.010
 4445.00    1.66557   1.12243    0.010
 4446.00    1.80000   1.14963    0.010
 4447.00    1.65205   1.13069    0.010
 4448.00    1.44525   1.07218    0.010
 4449.00    1.30965   1.00781    0.010
 4450.00    1.18573   0.97416    0.010
 4451.00    1.25326   1.00137    0.010
 4452.00    1.34438   1.07330    0.010
 4453.00    1.17194   1.11567    0.010
 4454.00    0.97708   1.10403    0.010
 4455.00    1.34277   1.10028    0.010
 4456.00    1.73613   1.10444    0.010
 4457.00    1.68395   1.08199    0.010
 4458.00    1.62050   1.07229    0.010
 4459.00    1.29472   1.08666    0.010
 4460.00    0.97622   1.07662    0.010
 4461.00    0.80505   1.02308    0.000
 4462.00    0.66149   0.96921    0.000
 4463.00    0.84247   0.97203    0.000
 4464.00    1.02087   1.00260    0.000
 4465.00    1.17841   1.00798    0.000
 4466.00    1.33814   0.99767    0.000
 4467.00    1.51117   0.99407    0.000
 4468.00    1.56885   0.97694    0.000
 4469.00    1.07317   0.97025    0.000
 4470.00    0.72003   1.01447    0.000
 4471.00    0.92361   1.05406    0.000
 4472.00    1.09152   1.05414    0.000
 4473.00    1.14343   1.04665    0.000
 4474.00    1.14823   1.04053    0.000
 4475.00    1.02340   1.02150    0.000
 4476.00    0.93396   0.99343    0.000
 4477.00    0.92795   0.98279    0.000
 4478.00    0.95232   0.99283    0.000
 4479.00    1.03857   1.02582    0.000
 4480.00    1.27819   1.07777    0.000
 4481.00    1.78968   1.11411    0.000
 4482.00    1.97822   1.11562    0.010
 4483.00    1.66588   1.11501    0.010
 4484.00    1.38633   1.13772    0.009
 4485.00    1.15144   1.14781    0.009
 4486.00    1.03666   1.10803    0.009
 4487.00    1.06588   1.03079    0.009
 4488.00    1.07982   0.96620    0.009
 4489.00    1.07760   0.96394    0.009
 4490.00    1.03309   1.02478    0.009
 4491.00    0.94916   1.08973    0.009
 4492.00    1.12806   1.12666    0.009
 4493.00    1.52304   1.14071    0.009
 4494.00    1.67790   1.12668    0.009
 4495.00    1.65902   1.07835    0.010
 4496.00    1.54396   1.02569    0.010
 4497.00    1.36782   1.01168    0.009
 4498.00    1.12140   1.04201    0.009
 4499.00    0.83595   1.08268    0.009
 4500.00    0.83263   1.08885    0.009
 4501.00    0.96562   1.05137    0.009
 4502.00    1.12355   1.02180    0.009
 4503.00    1.29188   1.02683    0.009
 4504.00    1.35174   1.05424    0.009
 4505.00    1.37289   1.09204    0.009
 4506.00    1.37981   1.11463    0.009
 4507.00    1.38245   1.10233    0.009
 4508.00    1.36140   1.06789    0.009
 4509.00    1.33442   1.07218    0.009
 4510.00    1.33417   1.12907    0.009
 4511.00    1.33935   1.17255    0.009
 4512.00    1.16666   1.17527    0.009
 4513.00    0.96559   1.15574    0.009
 4514.00    1.01435   1.12794    0.009
 4515.00    1.09280   1.10823    0.009
 4516.00    1.08956   1.11288    0.009
 4517.00    1.07970   1.13573    0.009
 4518.00    0.93233   1.14421    0.009
 4519.00    0.77870   1.12529    0.009
 4520.00    0.87809   1.09849    0.009
 4521.00    0.98318   1.07582    0.009
 4522.00    1.22081   1.06517    0.009
 4523.00    1.44145   1.07437    0.009
 4524.00    1.34306   1.07755    0.009
 4525.00    1.23129   1.06700    0.009
 4526.00    0.96966   1.07242    0.009
 4527.00    0.74546   1.09270    0.009
 4528.00    0.81423   1.10591    0.009
 4529.00    0.87301   1.08467    0.009
 4530.00    0.87262   1.05155    0.009
 4531.00    0.89629   1.04535    0.009
 4532.00    1.03259   1.03800    0.009
 4533.00    1.13309   1.01402    0.009
 4534.00    1.09681   0.98703    0.009
 4535.00    1.07007   0.96124    0.009
 4536.00    1.07377   0.94958    0.009
 4537.00    1.10259   0.96330    0.009
 4538.00    1.19925   0.98974    0.009
 4539.00    1.26028   1.01611    0.009
 4540.00    1.23873   1.00776    0.009
 4541.00    1.21224   0.96732    0.009
 4542.00    1.17584   0.94911    0.009
 4543.00    1.18011   0.98773    0.009
 4544.00    1.25536   1.06421    0.009
 4545.00    1.21629   1.10923    0.009
 4546.00    1.00252   1.09741    0.009
 4547.00    0.78554   1.06157    0.009
 4548.00    0.56427   1.03693    0.009
 4549.00    0.42865   1.04687    0.009
 4550.00    0.39427   1.07004    0.000
 4551.00    0.60917   1.06154    0.000
 4552.00    1.08391   1.03669    0.000
 4553.00    1.26322   1.03602    0.000
 4554.00    1.17091   1.04768    0.000
 4555.00    1.16184   1.03404    0.000
 4556.00    1.22024   0.99121    0.000
 4557.00    1.14393   0.97737    0.000
 4558.00    0.97153   1.01193    0.000
 4559.00    0.80311   1.02947    0.000
 4560.00    0.63718   1.01260    0.000
 4561.00    0.68630   0.98694    0.000
 4562.00    0.85304   0.97286    0.000
 4563.00    0.89650   0.99290    0.000
 4564.00    0.88135   1.04130    0.000
 4565.00    0.83638   1.07460    0.000
 4566.00    0.77919   1.08185    0.000
 4567.00    0.81407   1.08438    0.000
 4568.00    0.88120   1.09158    0.000
 4569.00    1.06408   1.09125    0.000
 4570.00    1.28115   1.06107    0.000
 4571.00    1.19313   1.01746    0.000
 4572.00    1.03036   0.99970    0.000
 4573.00    0.59219   1.02018    0.000
 4574.00    0.09943   1.06178    0.000
 4575.00    0.44665   1.09072    0.000
 4576.00    0.92390   1.09662    0.000
 4577.00    1.07850   1.08227    0.000
 4578.00    1.19619   1.03960    0.000
 4579.00    1.02530   1.01330    0.000
 4580.00    0.83226   1.04531    0.000
 4581.00    0.82182   1.08075    0.000
 4582.00    0.81897   1.07937    0.000
 4583.00    1.24851   1.07104    0.000
 4584.00    1.66178   1.07230    0.000
 4585.00    1.21574   1.06630    0.000
 4586.00    0.78180   1.03871    0.000
 4587.00    0.55925   1.00366    0.000
 4588.00    0.38151   0.98911    0.000
 4589.00    0.68323   0.99594    0.000
 4590.00    0.96733   0.99812    0.000
 4591.00    1.11825   0.99423    0.000
 4592.00    1.24786   0.99965    0.000
 4593.00    1.25498   1.00890    0.000
 4594.00    1.23618   1.02479    0.000
 4595.00    1.09896   1.04709    0.000
 4596.00    1.06913   1.06224    0.000
 4597.00    1.44107   1.05842    0.000
 4598.00    1.65865   1.03524    0.000
 4599.00    1.39348   1.01067    0.000
 4600.00    1.21181   1.00607    0.000
 4601.00    1.25178   1.01417    0.000
 4602.00    1.31427   1.01375    0.000
 4603.00    1.42811   1.01101    0.000
 4604.00    1.41765   1.01621    0.000
 4605.00    1.16196   1.02639    0.000
 4606.00    0.99376   1.03405    0.000
 4607.00    0.97602   1.02253    0.000
 4608.00    1.00486   1.00632    0.000
 4609.00    1.10386   1.01077    0.000
 4610.00    1.17133   1.02315    0.000
 4611.00    1.19709   1.02795    0.000
 4612.00    1.15044   1.02285    0.000
 4613.00    1.01941   1.02187    0.000
 4614.00    0.97669   1.03824    0.000
 4615.00    1.02473   1.06880    0.000
 4616.00    1.15915   1.09495    0.000
 4617.00    1.37187   1.09574    0.000
 4618.00    1.35817   1.07611    0.000
 4619.00    1.16359   1.05757    0.000
 4620.00    1.06017   1.04571    0.000
 4621.00    1.02084   1.04750    0.000
 4622.00    1.11432   1.05963    0.000
 4623.00    1.28969   1.05955    0.000
 4624.00    1.25765   1.05640    0.000
 4625.00    1.11391   1.05185    0.000
 4626.00    1.16709   1.03323    0.000
 4627.00    1.31236   1.02776    0.000
 4628.00    1.41966   1.05008    0.000
 4629.00    1.51165   1.06759    0.000
 4630.00    1.34883   1.07101    0.000
 4631.00    1.09835   1.07101    0.000
 4632.00    1.03475   1.06178    0.000
 4633.00    1.02527   1.05022    0.000
 4634.00    1.23968   1.05167    0.000
 4635.00    1.50773   1.05116    0.000
 4636.00    1.34610   1.03289    0.000
 4637.00    1.10148   1.02544    0.000
 4638.00    1.12343   1.04852    0.000
 4639.00    1.18538   1.06379    0.000
 4640.00    1.09870   1.04468    0.000
 4641.00    0.99566   1.02062    0.000
 4642.00    0.73294   1.01644    0.000
 4643.00    0.45860   1.02124    0.000
 4644.00    0.63609   1.01521    0.000
 4645.00    0.83066   1.00136    0.000
 4646.00    1.11119   0.99385    0.000
 4647.00    1.37938   0.99535    0.000
 4648.00    1.17455   1.01031    0.000
 4649.00    0.98404   1.02967    0.000
 4650.00    1.02766   1.03276    0.000
 4651.00    1.06664   1.02253    0.000
 4652.00    1.05814   1.00469    0.000
 4653.00    0.99978   0.97148    0.000
 4654.00    0.57703   0.93965    0.000
 4655.00    0.26276   0.93421    0.000
 4656.00    0.55488   0.95431    0.000
 4657.00    0.82319   0.98433    0.000
 4658.00    0.98528   1.00746    0.000
 4659.00    1.06772   1.02121    0.000
 4660.00    0.85843   1.02829    0.000
 4661.00    0.69276   1.01379    0.000
 4662.00    0.66089   0.98481    0.000
 4663.00    0.69365   0.96853    0.000
 4664.00    0.89494   0.97667    0.000
 4665.00    0.93774   1.01233    0.000
 4666.00    0.62530   1.05774    0.000
 4667.00    0.46459   1.08013    0.000
 4668.00    0.59856   1.06798    0.000
 4669.00    0.71383   1.03579    0.000
 4670.00    0.79744   1.00554    0.000
 4671.00    0.85846   0.99439    0.000
 4672.00    0.88597   0.99323    0.000
 4673.00    0.99704   0.96617    0.000
 4674.00    1.21710   0.91135    0.000
 4675.00    1.21178   0.88038    0.000
 4676.00    0.94750   0.90064    0.000
 4677.00    0.81735   0.94492    0.000
 4678.00    0.82309   0.98479    0.000
 4679.00    0.80262   1.00478    0.000
 4680.00    0.75873   1.00129    0.000
 4681.00    0.80522   0.99344    0.000
 4682.00    0.92289   0.99971    0.000
 4683.00    1.01614   1.01919    0.000
 4684.00    1.09248   1.03043    0.000
 4685.00    1.04661   1.01569    0.000
 4686.00    0.92652   0.98870    0.000
 4687.00    0.91835   0.97118    0.000
 4688.00    0.96951   0.96384    0.000
 4689.00    0.96432   0.96553    0.000
 4690.00    0.93321   0.98228    0.000
 4691.00    0.93138   1.00248    0.000
 4692.00    0.94117   1.00888    0.000
 4693.00    1.03017   1.00580    0.000
 4694.00    1.14592   1.00073    0.000
 4695.00    1.13460   0.99560    0.000
 4696.00    1.08722   0.99517    0.000
 4697.00    0.93147   0.99415    0.000
 4698.00    0.75035   0.98503    0.000
 4699.00    0.74868   0.98030    0.000
 4700.00    0.78077   0.98853    0.000
 4701.00    0.79421   1.00067    0.000
 4702.00    0.80494   1.01364    0.000
 4703.00    0.76161   1.02570    0.000
 4704.00    0.71257   1.02150    0.000
 4705.00    0.87023   0.99083    0.000
 4706.00    1.04208   0.95762    0.000
 4707.00    0.90784   0.95175    0.000
 4708.00    0.76319   0.95985    0.000
 4709.00    0.73352   0.95250    0.000
 4710.00    0.71028   0.93456    0.000
 4711.00    0.89007   0.93613    0.000
 4712.00    1.05770   0.95988    0.000
 4713.00    1.03876   0.97375    0.000
 4714.00    1.00131   0.96134    0.000
 4715.00    0.78233   0.93952    0.000
 4716.00    0.60621   0.92926    0.000
 4717.00    0.73307   0.94068    0.000
 4718.00    0.88390   0.97120    0.000
 4719.00    1.16507   0.99265    0.000
 4720.00    1.36246   0.98293    0.000
 4721.00    1.19472   0.95638    0.000
 4722.00    1.08227   0.94466    0.000
 4723.00    1.16818   0.96394    0.000
 4724.00    1.22193   0.99512    0.000
 4725.00    1.17887   1.01303    0.000
 4726.00    1.14342   1.02121    0.000
 4727.00    1.12748   1.02939    0.000
 4728.00    1.05924   1.03100    0.000
 4729.00    0.87572   1.02096    0.000
 4730.00    0.83173   1.01207    0.000
 4731.00    1.05450   1.01932    0.000
 4732.00    1.13617   1.03431    0.000
 4733.00    0.98249   1.03170    0.000
 4734.00    0.92516   0.99752    0.000
 4735.00    1.00869   0.95192    0.000
 4736.00    1.02600   0.92932    0.000
 4737.00    0.95816   0.93081    0.000
 4738.00    0.83823   0.93676    0.000
 4739.00    0.65929   0.94738    0.000
 4740.00    0.68136   0.96491    0.000
 4741.00    0.90427   0.97933    0.000
 4742.00    0.95707   0.98734    0.000
 4743.00    0.85997   0.98023    0.000
 4744.00    0.91043   0.96236    0.000
 4745.00    1.07544   0.96779    0.000
 4746.00    1.07273   0.99233    0.000
 4747.00    0.95553   0.99708    0.000
 4748.00    0.85087   0.98326    0.000
 4749.00    0.75371   0.97942    0.000
 4750.00    0.71850   0.99117    0.000
 4751.00    0.71563   0.99995    0.000
 4752.00    0.97839   0.99569    0.000
 4753.00    1.36139   0.99457    0.000
 4754.00    1.40863   1.00447    0.000
 4755.00    1.32513   1.00843    0.000
 4756.00    1.22768   1.00440    0.000
 4757.00    1.12561   1.00547    0.000
 4758.00    1.10525   1.00714    0.000
 4759.00    1.10761   0.99790    0.000
 4760.00    1.03182   0.98245    0.000
 4761.00    0.93815   0.96966    0.008
 4762.00    1.01366   0.96178    0.008
 4763.00    1.12015   0.95877    0.008
 4764.00    1.05933   0.96045    0.008
 4765.00    0.97496   0.96796    0.008
 4766.00    0.84656   0.97966    0.008
 4767.00    0.71370   0.98982    0.008
 4768.00    0.91397   0.98405    0.008
 4769.00    1.13578   0.95495    0.008
 4770.00    0.93755   0.92470    0.008
 4771.00    0.72731   0.91272    0.008
 4772.00    0.86089   0.90808    0.008
 4773.00    0.99369   0.90363    0.008
 4774.00    1.10378   0.91113    0.008
 4775.00    1.18503   0.93328    0.008
 4776.00    0.84962   0.95913    0.008
 4777.00    0.58893   0.97756    0.008
 4778.00    1.03117   0.97482    0.008
 4779.00    1.36046   0.95573    0.008
 4780.00    0.91628   0.95052    0.008
 4781.00    0.58174   0.97047    0.008
 4782.00    0.82799   0.99241    0.008
 4783.00    1.00724   0.99548    0.008
 4784.00    0.90109   0.99248    0.008
 4785.00    0.82096   0.99599    0.008
 4786.00    0.83223   0.99133    0.008
 4787.00    0.89868   0.97711    0.008
 4788.00    1.12820   0.97175    0.008
 4789.00    1.22294   0.97107    0.008
 4790.00    0.97831   0.95778    0.008
 4791.00    0.79723   0.94541    0.008
 4792.00    0.75395   0.95049    0.008
 4793.00    0.78760   0.94924    0.008
 4794.00    0.96605   0.93483    0.008
 4795.00    1.08348   0.93429    0.008
 4796.00    1.10064   0.93969    0.008
 4797.00    1.09237   0.93756    0.008
 4798.00    1.04744   0.94217    0.008
 4799.00    0.97232   0.95361    0.008
 4800.00    0.85894   0.96803    0.008
 4801.00    0.80536   0.99087    0.008
 4802.00    0.81859   1.01145    0.008
 4803.00    0.77150   1.01362    0.008
 4804.00    0.66502   0.99837    0.008
 4805.00    0.64321   0.97490    0.008
 4806.00    0.69495   0.95052    0.008
 4807.00    0.84226   0.93767    0.008
 4808.00    1.06269   0.94642    0.008
 4809.00    1.10192   0.97009    0.008
 4810.00    1.01926   0.98790    0.008
 4811.00    1.00121   0.98317    0.008
 4812.00    1.02122   0.96044    0.008
 4813.00    1.03793   0.94301    0.008
 4814.00    1.05295   0.94128    0.008
 4815.00    0.98781   0.94019    0.008
 4816.00    0.88699   0.93995    0.008
 4817.00    0.89551   0.94823    0.008
 4818.00    0.94586   0.95561    0.008
 4819.00    0.96078   0.95582    0.008
 4820.00    0.96417   0.95456    0.008
 4821.00    0.90798   0.95704    0.008
 4822.00    0.83556   0.96252    0.008
 4823.00    0.89600   0.96920    0.008
 4824.00    0.98611   0.97738    0.008
 4825.00    0.75047   0.98462    0.008
 4826.00    0.45678   0.98864    0.008
 4827.00    0.70885   0.98961    0.008
 4828.00    1.03529   0.98592    0.008
 4829.00    1.16231   0.97442    0.008
 4830.00    1.26995   0.94410    0.008
 4831.00    1.20571   0.90596    0.008
 4832.00    1.13104   0.90292    0.008
 4833.00    1.04289   0.93476    0.008
 4834.00    0.95446   0.95779    0.008
 4835.00    0.88124   0.95485    0.008
 4836.00    0.81010   0.94126    0.008
 4837.00    0.79344   0.93673    0.008
 4838.00    0.78398   0.93777    0.008
 4839.00    0.87285   0.92697    0.008
 4840.00    0.94471   0.91790    0.008
 4841.00    0.86281   0.92981    0.008
 4842.00    0.79315   0.94511    0.008
 4843.00    0.80472   0.94557    0.008
 4844.00    0.81255   0.94102    0.008
 4845.00    0.80100   0.93973    0.008
 4846.00    0.77790   0.92819    0.008
 4847.00    0.70675   0.90777    0.008
 4848.00    0.70127   0.90094    0.000
 4849.00    0.92187   0.90997    0.000
 4850.00    1.02606   0.91145    0.000
 4851.00    0.79266   0.90528    0.000
 4852.00    0.65565   0.91496    0.000
 4853.00    0.75720   0.93290    0.000
 4854.00    0.89047   0.93157    0.000
 4855.00    1.09141   0.90572    0.000
 4856.00    1.12590   0.87767    0.000
 4857.00    0.85192   0.87672    0.000
 4858.00    0.76192   0.89451    0.000
 4859.00    0.96974   0.89846    0.000
 4860.00    1.03388   0.88824    0.000
 4861.00    0.89398   0.86859    0.000
 4862.00    0.90775   0.82683    0.000
 4863.00    1.11349   0.78412    0.000
 4864.00    1.15719   0.77828    0.000
 4865.00    1.02245   0.78833    0.000
 4866.00    0.84294   0.76316    0.000
 4867.00    0.61995   0.69002    0.000
 4868.00    0.61069   0.59512    0.000
 4869.00    0.78449   0.54468    0.000
 4870.00    0.80733   0.58995    0.000
 4871.00    0.71631   0.67610    0.000
 4872.00    0.70125   0.73156    0.000
 4873.00    0.73654   0.76826    0.000
 4874.00    0.75034   0.80184    0.000
 4875.00    0.75166   0.82383    0.008
 4876.00    0.80657   0.83711    0.008
 4877.00    0.88859   0.84074    0.008
 4878.00    0.87074   0.81526    0.008
 4879.00    0.80915   0.77843    0.008
 4880.00    0.78085   0.78346    0.008
 4881.00    0.76507   0.82443    0.008
 4882.00    0.97176   0.85152    0.008
 4883.00    1.24939   0.85710    0.008
 4884.00    1.05009   0.86295    0.008
 4885.00    0.72365   0.87361    0.008
 4886.00    0.68048   0.88956    0.008
 4887.00    0.69910   0.91436    0.008
 4888.00    0.71607   0.91784    0.008
 4889.00    0.73275   0.89332    0.008
 4890.00    0.80377   0.88073    0.008
 4891.00    0.88196   0.88399    0.008
 4892.00    0.76726   0.87435    0.008
 4893.00    0.63464   0.85482    0.008
 4894.00    0.73583   0.84862    0.008
 4895.00    0.85027   0.85992    0.008
 4896.00    0.87469   0.86958    0.008
 4897.00    0.89715   0.85943    0.008
 4898.00    0.93123   0.82799    0.008
 4899.00    0.95801   0.81076    0.008
 4900.00    0.81153   0.85001    0.008
 4901.00    0.67465   0.91082    0.008
 4902.00    0.66202   0.94873    0.008
 4903.00    0.64786   0.96642    0.008
 4904.00    0.62044   0.96890    0.008
 4905.00    0.60027   0.96349    0.008
 4906.00    0.62673   0.95038    0.008
 4907.00    0.65953   0.92333    0.008
 4908.00    0.72423   0.90536    0.008
 4909.00    0.78464   0.91361    0.008
 4910.00    0.82760   0.91549    0.008
 4911.00    0.85507   0.90107    0.008
 4912.00    0.83025   0.90456    0.008
 4913.00    0.84061   0.93271    0.008
 4914.00    0.95114   0.95242    0.008
 4915.00    1.05590   0.94310    0.008
 4916.00    1.14663   0.91596    0.008
 4917.00    1.10178   0.88314    0.008
 4918.00    0.77234   0.85786    0.008
 4919.00    0.61530   0.86247    0.008
 4920.00    0.77285   0.88957    0.008
 4921.00    0.84831   0.91099    0.008
 4922.00    0.79287   0.92555    0.008
 4923.00    0.82061   0.94084    0.008
 4924.00    0.96475   0.93906    0.008
 4925.00    1.04245   0.90375    0.008
 4926.00    1.03833   0.84414    0.008
 4927.00    1.07234   0.78969    0.008
 4928.00    1.14776   0.76590    0.008
 4929.00    1.15871   0.78195    0.008
 4930.00    1.10791   0.82172    0.008
 4931.00    0.92371   0.83976    0.008
 4932.00    0.62687   0.83694    0.007
 4933.00    0.47992   0.85503    0.007
 4934.00    0.44441   0.89658    0.008
 4935.00    0.53951   0.92138    0.008
 4936.00    0.71992   0.93203    0.007
 4937.00    0.86750   0.94464    0.008
 4938.00    0.99629   0.94694    0.008
 4939.00    0.98377   0.93924    0.008
 4940.00    0.90090   0.91499    0.000
 4941.00    1.00700   0.87030    0.000
 4942.00    1.19447   0.85314    0.000
 4943.00    1.08997   0.88134    0.000
 4944.00    0.87768   0.89536    0.000
 4945.00    0.81665   0.86587    0.000
 4946.00    0.80293   0.82576    0.000
 4947.00    0.73381   0.82015    0.000
 4948.00    0.65023   0.86150    0.000
 4949.00    0.70448   0.90703    0.000
 4950.00    0.78808   0.92270    0.000
 4951.00    0.98111   0.92993    0.000
 4952.00    1.19259   0.93414    0.000
 4953.00    1.06750   0.92031    0.000
 4954.00    0.89961   0.90768    0.000
 4955.00    0.97553   0.91832    0.000
 4956.00    1.07307   0.93275    0.000
 4957.00    1.03937   0.93611    0.000
 4958.00    0.99874   0.93762    0.000
 4959.00    0.94289   0.94023    0.000
 4960.00    0.88819   0.93125    0.000
 4961.00    0.94629   0.91725    0.000
 4962.00    1.00251   0.91252    0.000
 4963.00    1.01779   0.90405    0.000
 4964.00    1.04077   0.86038    0.000
 4965.00    1.15830   0.79263    0.000
 4966.00    1.22972   0.78914    0.000
 4967.00    0.91503   0.86021    0.000
 4968.00    0.65646   0.91375    0.000
 4969.00    0.74839   0.91943    0.000
 4970.00    0.81948   0.91235    0.000
 4971.00    0.78841   0.91371    0.000
 4972.00    0.77585   0.90457    0.000
 4973.00    0.83699   0.87651    0.000
 4974.00    0.88121   0.85839    0.000
 4975.00    0.86944   0.86017    0.000
 4976.00    0.87166   0.86369    0.000
 4977.00    0.91299   0.86713    0.000
 4978.00    0.94541   0.87228    0.000
 4979.00    0.95651   0.88380    0.000
 4980.00    0.95866   0.89875    0.000
 4981.00    0.94235   0.90744    0.000
 4982.00    0.91718   0.91481    0.000
 4983.00    0.87609   0.91500    0.000
 4984.00    0.88833   0.90591    0.000
 4985.00    0.98437   0.89223    0.000
 4986.00    0.96415   0.87181    0.000
 4987.00    0.78355   0.85846    0.000
 4988.00    0.77225   0.85217    0.000
 4989.00    0.96650   0.82679    0.000
 4990.00    1.03642   0.78263    0.000
 4991.00    0.97326   0.76069    0.000
 4992.00    0.92368   0.77670    0.000
 4993.00    0.88692   0.80489    0.000
 4994.00    0.80818   0.83645    0.000
 4995.00    0.69449   0.87082    0.000
 4996.00    0.74711   0.88363    0.000
 4997.00    0.92159   0.87252    0.000
 4998.00    0.89941   0.85551    0.000
 4999.00    0.75066   0.84610    0.000
 5000.00    0.83149   0.85549    0.000
 5001.00    1.04157   0.85812    0.000
 5002.00    0.96661   0.85292    0.000
 5003.00    0.75199   0.86667    0.000
 5004.00    0.82202   0.87976    0.000
 5005.00    1.01257   0.87786    0.000
 5006.00    1.03856   0.86567    0.000
 5007.00    1.00487   0.83830    0.000
 5008.00    1.02694   0.81204    0.000
 5009.00    1.06611   0.80382    0.000
 5010.00    0.99555   0.80966    0.000
 5011.00    0.89698   0.82272    0.000
 5012.00    0.77874   0.82056    0.000
 5013.00    0.65640   0.79019    0.000
 5014.00    0.61383   0.76377    0.000
 5015.00    0.58432   0.78345    0.000
 5016.00    0.72798   0.83198    0.000
 5017.00    0.89289   0.85672    0.000
 5018.00    0.82030   0.84907    0.000
 5019.00    0.72763   0.82674    0.000
 5020.00    0.92205   0.79265    0.000
 5021.00    1.13049   0.76410    0.000
 5022.00    0.97662   0.75339    0.000
 5023.00    0.81857   0.76730    0.000
 5024.00    0.74699   0.79132    0.000
 5025.00    0.68316   0.78805    0.000
 5026.00    0.77479   0.77055    0.000
 5027.00    0.86048   0.78111    0.000
 5028.00    0.87662   0.80905    0.000
 5029.00    0.87368   0.81440    0.007
 5030.00    0.71673   0.80126    0.007
 5031.00    0.58888   0.80834    0.007
 5032.00    0.63754   0.83313    0.007
 5033.00    0.65145   0.84405    0.007
 5034.00    0.49922   0.83672    0.007
 5035.00    0.38951   0.81311    0.007
 5036.00    0.44538   0.80757    0.007
 5037.00    0.50813   0.83278    0.007
 5038.00    0.59321   0.84750    0.007
 5039.00    0.67476   0.85085    0.007
 5040.00    0.74658   0.86654    0.007
 5041.00    0.81327   0.88563    0.007
 5042.00    0.86791   0.87816    0.007
 5043.00    0.88701   0.83513    0.007
 5044.00    0.83386   0.80033    0.007
 5045.00    0.79354   0.81095    0.007
 5046.00    0.77590   0.81937    0.007
 5047.00    0.84189   0.79142    0.007
 5048.00    1.03735   0.74157    0.007
 5049.00    1.04325   0.70538    0.007
 5050.00    0.79146   0.73678    0.007
 5051.00    0.68720   0.80850    0.007
 5052.00    0.75950   0.85067    0.007
 5053.00    0.75890   0.87355    0.007
 5054.00    0.68135   0.88792    0.007
 5055.00    0.66808   0.87121    0.007
 5056.00    0.71466   0.82802    0.007
 5057.00    0.75761   0.79696    0.007
 5058.00    0.79757   0.79453    0.007
 5059.00    0.84922   0.79761    0.007
 5060.00    0.90930   0.80234    0.007
 5061.00    0.91147   0.82401    0.007
 5062.00    0.87693   0.84979    0.007
 5063.00    0.79302   0.85759    0.007
 5064.00    0.68175   0.85308    0.007
 5065.00    0.66104   0.85478    0.007
 5066.00    0.68400   0.86554    0.007
 5067.00    0.70934   0.86884    0.007
 5068.00    0.73568   0.87170    0.007
 5069.00    0.76010   0.88189    0.007
 5070.00    0.78383   0.88592    0.007
 5071.00    0.75831   0.86827    0.007
 5072.00    0.71797   0.82376    0.007
 5073.00    0.72844   0.79086    0.007
 5074.00    0.75159   0.80374    0.007
 5075.00    0.58680   0.81864    0.007
 5076.00    0.38393   0.81086    0.007
 5077.00    0.51979   0.81290    0.007
 5078.00    0.70949   0.83355    0.008
 5079.00    0.81937   0.83212    0.007
 5080.00    0.91980   0.80739    0.007
 5081.00    0.72649   0.80698    0.007
 5082.00    0.50955   0.82237    0.007
 5083.00    0.59342   0.81975    0.007
 5084.00    0.69082   0.81668    0.007
 5085.00    0.79725   0.82727    0.007
 5086.00    0.90043   0.81679    0.007
 5087.00    0.83662   0.76465    0.007
 5088.00    0.77952   0.73042    0.007
 5089.00    0.84719   0.74898    0.007
 5090.00    0.90840   0.77725    0.007
 5091.00    0.89763   0.78314    0.007
 5092.00    0.89230   0.79087    0.007
 5093.00    0.92942   0.81311    0.007
 5094.00    0.92867   0.82580    0.007
 5095.00    0.70475   0.82102    0.007
 5096.00    0.53725   0.81938    0.007
 5097.00    0.63298   0.82817    0.007
 5098.00    0.71585   0.83198    0.007
 5099.00    0.74971   0.83117    0.007
 5100.00    0.76504   0.84024    0.007
 5101.00    0.72141   0.85421    0.007
 5102.00    0.66799   0.85642    0.007
 5103.00    0.58821   0.84343    0.007
 5104.00    0.56130   0.82282    0.007
 5105.00    0.65665   0.79717    0.007
 5106.00    0.70321   0.76706    0.007
 5107.00    0.65216   0.74611    0.007
 5108.00    0.66783   0.76214    0.007
 5109.00    0.79976   0.80095    0.007
 5110.00    0.85556   0.82407    0.007
 5111.00    0.79522   0.82287    0.007
 5112.00    0.82125   0.81334    0.007
 5113.00    0.96300   0.80806    0.007
 5114.00    0.96577   0.80098    0.008
 5115.00    0.80457   0.78320    0.008
 5116.00    0.74015   0.77422    0.008
 5117.00    0.77647   0.77696    0.008
 5118.00    0.81191   0.77364    0.008
 5119.00    0.84656   0.78435    0.008
 5120.00    0.85504   0.80761    0.007
 5121.00    0.84235   0.81797    0.007
 5122.00    0.82465   0.82147    0.007
 5123.00    0.80339   0.82378    0.007
 5124.00    0.80105   0.82842    0.007
 5125.00    0.81053   0.84104    0.007
 5126.00    0.76290   0.84820    0.007
 5127.00    0.68409   0.84127    0.007
 5128.00    0.61541   0.82648    0.007
 5129.00    0.55152   0.80945    0.007
 5130.00    0.49986   0.79107    0.007
 5131.00    0.45319   0.76510    0.007
 5132.00    0.56451   0.74677    0.007
 5133.00    0.73107   0.75157    0.007
 5134.00    0.67185   0.76283    0.007
 5135.00    0.54607   0.76510    0.007
 5136.00    0.59635   0.76097    0.007
 5137.00    0.68963   0.75700    0.007
 5138.00    0.88796   0.76230    0.007
 5139.00    1.10704   0.77797    0.007
 5140.00    0.89423   0.78797    0.007
 5141.00    0.61482   0.78752    0.007
 5142.00    0.66832   0.79353    0.007
 5143.00    0.75973   0.81194    0.007
 5144.00    0.80160   0.81071    0.007
 5145.00    0.83969   0.78644    0.007
 5146.00    0.68850   0.76498    0.007
 5147.00    0.52953   0.74927    0.007
 5148.00    0.65273   0.75968    0.007
 5149.00    0.77432   0.77887    0.007
 5150.00    0.73007   0.76096    0.007
 5151.00    0.68175   0.74601    0.007
 5152.00    0.56280   0.76569    0.007
 5153.00    0.46715   0.77642    0.007
 5154.00    0.61940   0.76387    0.007
 5155.00    0.75733   0.75306    0.007
 5156.00    0.78748   0.75609    0.007
 5157.00    0.81848   0.77093    0.007
 5158.00    0.85428   0.77475    0.007
 5159.00    0.85555   0.76150    0.007
 5160.00    0.69953   0.75116    0.007
 5161.00    0.59584   0.74641    0.007
 5162.00    0.68738   0.74465    0.007
 5163.00    0.74975   0.75680    0.007
 5164.00    0.72109   0.78027    0.007
 5165.00    0.69232   0.80289    0.007
 5166.00    0.66325   0.81488    0.007
 5167.00    0.62742   0.81281    0.007
 5168.00    0.57622   0.81171    0.007
 5169.00    0.53185   0.80816    0.007
 5170.00    0.50096   0.79147    0.007
 5171.00    0.45928   0.78098    0.007
 5172.00    0.39907   0.77569    0.007
 5173.00    0.48516   0.74534    0.007
 5174.00    0.79114   0.68520    0.007
 5175.00    0.95647   0.62016    0.007
 5176.00    0.93603   0.59368    0.007
 5177.00    0.91518   0.62661    0.007
 5178.00    0.89386   0.67989    0.007
 5179.00    0.82419   0.67944    0.007
 5180.00    0.70492   0.61951    0.007
 5181.00    0.59204   0.59444    0.007
 5182.00    0.48495   0.65395    0.007
 5183.00    0.57406   0.73176    0.007
 5184.00    0.81964   0.76678    0.007
 5185.00    0.84934   0.77499    0.007
 5186.00    0.72757   0.78160    0.007
 5187.00    0.68026   0.78148    0.007
 5188.00    0.67877   0.77193    0.007
 5189.00    0.74184   0.75214    0.007
 5190.00    0.83961   0.70329    0.000
 5191.00    0.93538   0.62436    0.000
 5192.00    1.03022   0.58723    0.000
 5193.00    0.94358   0.63957    0.000
 5194.00    0.78393   0.71882    0.000
 5195.00    0.69978   0.76078    0.000
 5196.00    0.64156   0.76274    0.000
 5197.00    0.68449   0.76431    0.000
 5198.00    0.75664   0.77800    0.000
 5199.00    0.69275   0.75785    0.000
 5200.00    0.59636   0.71166    0.000
 5201.00    0.75579   0.70373    0.000
 5202.00    0.96447   0.72812    0.000
 5203.00    0.90556   0.73569    0.000
 5204.00    0.80665   0.73543    0.000
 5205.00    0.71717   0.74619    0.000
 5206.00    0.62871   0.75995    0.000
 5207.00    0.77371   0.77502    0.000
 5208.00    0.93557   0.78547    0.000
 5209.00    0.82943   0.78433    0.000
 5210.00    0.71328   0.77593    0.000
 5211.00    0.73684   0.76749    0.007
 5212.00    0.76448   0.74442    0.007
 5213.00    0.91707   0.70593    0.007
 5214.00    1.05414   0.68685    0.007
 5215.00    0.93953   0.69308    0.007
 5216.00    0.82042   0.69045    0.007
 5217.00    0.65551   0.68844    0.007
 5218.00    0.52279   0.70913    0.007
 5219.00    0.62428   0.73912    0.007
 5220.00    0.71576   0.76954    0.007
 5221.00    0.75149   0.79329    0.007
 5222.00    0.78187   0.79542    0.007
 5223.00    0.78849   0.77088    0.007
 5224.00    0.80355   0.74414    0.007
 5225.00    0.84941   0.74223    0.007
 5226.00    0.87792   0.76379    0.007
 5227.00    0.85331   0.78890    0.007
 5228.00    0.80287   0.80293    0.007
 5229.00    0.68524   0.80903    0.007
 5230.00    0.65466   0.80832    0.007
 5231.00    0.81880   0.79514    0.007
 5232.00    0.98490   0.76840    0.007
 5233.00    1.15481   0.73081    0.007
 5234.00    1.14683   0.68455    0.007
 5235.00    0.83815   0.65649    0.007
 5236.00    0.69752   0.68569    0.007
 5237.00    0.80577   0.74318    0.007
 5238.00    0.89994   0.77747    0.007
 5239.00    0.97577   0.78890    0.007
 5240.00    0.93752   0.77679    0.007
 5241.00    0.76844   0.74589    0.007
 5242.00    0.66568   0.72878    0.007
 5243.00    0.63000   0.73715    0.007
 5244.00    0.65064   0.76179    0.007
 5245.00    0.72152   0.78714    0.007
 5246.00    0.75598   0.79939    0.007
 5247.00    0.76181   0.79906    0.007
 5248.00    0.81599   0.79658    0.007
 5249.00    0.90358   0.79882    0.007
 5250.00    0.86626   0.79724    0.007
 5251.00    0.75322   0.79221    0.007
 5252.00    0.79641   0.79953    0.007
 5253.00    0.92228   0.81081    0.007
 5254.00    0.80476   0.79551    0.007
 5255.00    0.57547   0.76100    0.007
 5256.00    0.57072   0.74803    0.007
 5257.00    0.65474   0.75328    0.007
 5258.00    0.79848   0.74540    0.007
 5259.00    0.96235   0.73791    0.008
 5260.00    0.98480   0.75116    0.008
 5261.00    0.96722   0.76729    0.008
 5262.00    0.81207   0.76413    0.008
 5263.00    0.62480   0.74943    0.008
 5264.00    0.59254   0.75604    0.008
 5265.00    0.58933   0.78689    0.008
 5266.00    0.52934   0.81269    0.008
 5267.00    0.46112   0.81833    0.008
 5268.00    0.58022   0.80568    0.008
 5269.00    0.71902   0.77775    0.008
 5270.00    0.76129   0.73962    0.008
 5271.00    0.79697   0.70225    0.008
 5272.00    0.75158   0.67412    0.008
 5273.00    0.70346   0.65455    0.008
 5274.00    0.75551   0.65028    0.008
 5275.00    0.80417   0.67589    0.008
 5276.00    0.74070   0.69792    0.007
 5277.00    0.69014   0.66624    0.007
 5278.00    0.83590   0.62481    0.007
 5279.00    0.95294   0.64821    0.007
 5280.00    0.78985   0.70719    0.007
 5281.00    0.64102   0.73611    0.007
 5282.00    0.59259   0.73403    0.007
 5283.00    0.56872   0.72080    0.007
 5284.00    0.67800   0.71892    0.007
 5285.00    0.76831   0.75028    0.007
 5286.00    0.77617   0.78978    0.007
 5287.00    0.76144   0.80136    0.007
 5288.00    0.66591   0.78621    0.007
 5289.00    0.63001   0.76424    0.007
 5290.00    0.77321   0.74651    0.007
 5291.00    0.90232   0.73080    0.007
 5292.00    0.99540   0.72384    0.007
 5293.00    1.00246   0.74735    0.007
 5294.00    0.82032   0.79069    0.007
 5295.00    0.73644   0.81622    0.007
 5296.00    0.84004   0.81454    0.007
 5297.00    0.87124   0.80771    0.007
 5298.00    0.78190   0.81132    0.007
 5299.00    0.73845   0.81776    0.007
 5300.00    0.76198   0.81421    0.007
 5301.00    0.74800   0.80295    0.007
 5302.00    0.68586   0.79692    0.007
 5303.00    0.62936   0.79378    0.007
 5304.00    0.57923   0.77495    0.007
 5305.00    0.61713   0.73634    0.007
 5306.00    0.74282   0.70643    0.007
 5307.00    0.77355   0.71573    0.007
 5308.00    0.72074   0.74644    0.007
 5309.00    0.69758   0.75847    0.007
 5310.00    0.69738   0.75451    0.007
 5311.00    0.67206   0.76292    0.007
 5312.00    0.62962   0.78751    0.007
 5313.00    0.71235   0.80726    0.007
 5314.00    0.86984   0.80701    0.007
 5315.00    0.79157   0.79351    0.007
 5316.00    0.59047   0.78678    0.007
 5317.00    0.52499   0.79579    0.007
 5318.00    0.52077   0.80787    0.007
 5319.00    0.65010   0.81045    0.007
 5320.00    0.83131   0.80499    0.007
 5321.00    0.94883   0.79658    0.007
 5322.00    1.04529   0.79080    0.007
 5323.00    0.88935   0.78543    0.007
 5324.00    0.66342   0.77086    0.007
 5325.00    0.75182   0.75727    0.007
 5326.00    0.91192   0.76231    0.007
 5327.00    0.86616   0.77560    0.007
 5328.00    0.78284   0.78037    0.007
 5329.00    0.85160   0.77967    0.007
 5330.00    0.94170   0.77711    0.007
 5331.00    0.87891   0.76506    0.007
 5332.00    0.80070   0.74238    0.007
 5333.00    0.84614   0.73136    0.007
 5334.00    0.89951   0.73636    0.007
 5335.00    0.79082   0.71684    0.007
 5336.00    0.67780   0.66138    0.007
 5337.00    0.76877   0.63479    0.007
 5338.00    0.85166   0.67621    0.007
 5339.00    0.70375   0.73546    0.007
 5340.00    0.58154   0.76032    0.007
 5341.00    0.82809   0.75837    0.007
 5342.00    1.03638   0.76188    0.007
 5343.00    0.88653   0.77507    0.007
 5344.00    0.75041   0.77859    0.007
 5345.00    0.70789   0.77060    0.007
 5346.00    0.66768   0.76508    0.007
 5347.00    0.63974   0.75601    0.007
 5348.00    0.62650   0.73013    0.007
 5349.00    0.67564   0.71058    0.007
 5350.00    0.71973   0.72576    0.007
 5351.00    0.74608   0.75666    0.007
 5352.00    0.77199   0.77244    0.007
 5353.00    0.79665   0.76716    0.007
 5354.00    0.82367   0.75404    0.007
 5355.00    0.85662   0.75080    0.007
 5356.00    0.85121   0.75049    0.007
 5357.00    0.76280   0.74034    0.007
 5358.00    0.73804   0.73785    0.007
 5359.00    0.83286   0.75709    0.007
 5360.00    0.84229   0.77870    0.007
 5361.00    0.71169   0.78496    0.007
 5362.00    0.63121   0.78781    0.007
 5363.00    0.62282   0.79951    0.007
 5364.00    0.66975   0.81002    0.007
 5365.00    0.78665   0.81201    0.007
 5366.00    0.79100   0.81122    0.007
 5367.00    0.66989   0.81090    0.007
 5368.00    0.70204   0.80770   -2.000
 5369.00    0.88488   0.79586   -2.000
 5370.00    1.05245   0.77661   -2.000
 5371.00    1.20677   0.76248   -2.000
 5372.00    1.20109   0.75695   -2.000
 5373.00    1.07319   0.75111   -2.000
 5374.00    1.02536   0.74740   -2.000
 5375.00    1.03129   0.74951   -2.000
 5376.00    0.93345   0.75051   -2.000
 5377.00    0.77457   0.74162   -2.000
 5378.00    0.64061   0.71546   -2.000
 5379.00    0.51942   0.68479   -2.000
 5380.00    0.47266   0.68304   -2.000
 5381.00    0.45896   0.71950   -2.000
 5382.00    0.55768   0.76246   -2.000
 5383.00    0.69931   0.78545    0.007
 5384.00    0.76134   0.78923    0.007
 5385.00    0.79755   0.78249    0.007
 5386.00    0.84895   0.77794    0.007
 5387.00    0.90448   0.77865    0.007
 5388.00    0.78232   0.77350    0.007
 5389.00    0.62057   0.76274    0.007
 5390.00    0.64732   0.75559    0.007
 5391.00    0.70754   0.75078    0.007
 5392.00    0.70899   0.75087    0.007
 5393.00    0.70247   0.76246    0.007
 5394.00    0.68507   0.77408    0.007
 5395.00    0.66662   0.77504    0.007
 5396.00    0.73486   0.76963    0.007
 5397.00    0.80832   0.75967    0.007
 5398.00    0.75222   0.74618    0.007
 5399.00    0.69318   0.73641    0.007
 5400.00    0.70578   0.73258    0.007
 5401.00    0.72054   0.73065    0.007
 5402.00    0.79113   0.73050    0.007
 5403.00    0.85164   0.73156    0.007
 5404.00    0.77565   0.72125    0.007
 5405.00    0.70479   0.69616    0.007
 5406.00    0.68014   0.68837    0.007
 5407.00    0.65088   0.71318    0.007
 5408.00    0.59122   0.73594    0.007
 5409.00    0.55827   0.73963    0.007
 5410.00    0.66263   0.74208    0.007
 5411.00    0.75265   0.74004    0.007
 5412.00    0.78310   0.71495    0.007
 5413.00    0.81954   0.67772    0.007
 5414.00    0.87654   0.65924    0.007
 5415.00    0.89493   0.67420    0.007
 5416.00    0.80162   0.70293    0.007
 5417.00    0.73823   0.71102    0.007
 5418.00    0.74870   0.69719    0.007
 5419.00    0.71044   0.69560    0.007
 5420.00    0.56843   0.72032    0.007
 5421.00    0.52912   0.74525    0.007
 5422.00    0.67978   0.74900    0.007
 5423.00    0.73697   0.74140    0.007
 5424.00    0.64315   0.74417    0.007
 5425.00    0.65384   0.75935    0.007
 5426.00    0.81265   0.76783    0.007
 5427.00    0.81256   0.76144    0.007
 5428.00    0.61430   0.74918    0.007
 5429.00    0.52720   0.74221    0.007
 5430.00    0.56228   0.74638    0.007
 5431.00    0.69039   0.74844    0.007
 5432.00    0.90870   0.73255    0.007
 5433.00    0.92518   0.71947    0.007
 5434.00    0.76910   0.73486    0.007
 5435.00    0.69689   0.76196    0.007
 5436.00    0.68784   0.76624    0.007
 5437.00    0.74448   0.73339    0.007
 5438.00    0.84458   0.69577    0.007
 5439.00    0.83863   0.69897    0.007
 5440.00    0.77124   0.72277    0.007
 5441.00    0.67238   0.72168    0.007
 5442.00    0.55763   0.70258    0.007
 5443.00    0.61580   0.69115    0.007
 5444.00    0.74954   0.69653    0.007
 5445.00    0.80910   0.71521    0.007
 5446.00    0.84086   0.74012    0.007
 5447.00    0.76407   0.76313    0.007
 5448.00    0.65276   0.77605    0.007
 5449.00    0.73614   0.77921    0.007
 5450.00    0.87127   0.77820    0.007
 5451.00    0.87565   0.77700    0.007
 5452.00    0.85159   0.77025    0.007
 5453.00    0.84773   0.74781    0.007
 5454.00    0.84736   0.71035    0.007
 5455.00    0.79137   0.67816    0.007
 5456.00    0.72808   0.68205    0.007
 5457.00    0.59303   0.71825    0.007
 5458.00    0.45134   0.74793    0.007
 5459.00    0.49915   0.75599    0.007
 5460.00    0.55761   0.75281    0.006
 5461.00    0.57155   0.74500    0.007
 5462.00    0.58537   0.72845    0.007
 5463.00    0.68995   0.69895    0.007
 5464.00    0.79188   0.67566    0.007
 5465.00    0.83183   0.68938    0.007
 5466.00    0.86390   0.72801    0.007
 5467.00    0.79459   0.75351    0.007
 5468.00    0.72953   0.75496    0.007
 5469.00    0.70126   0.74341    0.007
 5470.00    0.66460   0.72692    0.007
 5471.00    0.57417   0.70749    0.007
 5472.00    0.52002   0.70000    0.007
 5473.00    0.64776   0.71511    0.007
 5474.00    0.72412   0.73038    0.007
 5475.00    0.59188   0.73161    0.007
 5476.00    0.52311   0.73406    0.007
 5477.00    0.66798   0.73961    0.007
 5478.00    0.78728   0.73599   -2.000
 5479.00    0.83396   0.72791   -2.000
 5480.00    0.84573   0.72533   -2.000
 5481.00    0.77273   0.72034   -2.000
 5482.00    0.73929   0.70989   -2.000
 5483.00    0.78871   0.70432   -2.000
 5484.00    1.04563   0.69075   -2.000
 5485.00    1.68043   0.66361   -2.000
 5486.00    2.26708   0.66219   -2.000
 5487.00    2.77711   0.69630   -2.000
 5488.00    3.19661   0.72022   -2.000
 5489.00    3.48962   0.71008   -2.000
 5490.00    2.90556   0.69253   -2.000
 5491.00    1.24323   0.69637   -2.000
 5492.00    0.16069   0.71572   -2.000
 5493.00   -0.29355   0.73547   -2.000
 5494.00   -0.29285   0.74374   -2.000
 5495.00    0.14273   0.73132   -2.000
 5496.00    0.41300   0.71153   -2.000
 5497.00    0.54395   0.70834   -2.000
 5498.00    0.63466   0.71743   -2.000
 5499.00    0.69551   0.72312   -2.000
 5500.00    0.75143   0.72791   -2.000
 5501.00    0.80415   0.72834   -2.000
 5502.00    0.77083   0.72124    0.007
 5503.00    0.68843   0.72104    0.006
 5504.00    0.66173   0.72652    0.006
 5505.00    0.66271   0.71941    0.006
 5506.00    0.71224   0.70780    0.006
 5507.00    0.78264   0.71707    0.006
 5508.00    0.79470   0.73427    0.006
 5509.00    0.78527   0.72756    0.006
 5510.00    0.71714   0.70581    0.006
 5511.00    0.63069   0.69788    0.006
 5512.00    0.73662   0.70637    0.006
 5513.00    0.89261   0.71327    0.006
 5514.00    0.81601   0.70462    0.006
 5515.00    0.69004   0.68979    0.006
 5516.00    0.76329   0.69431    0.006
 5517.00    0.87000   0.71152    0.007
 5518.00    0.93405   0.71593    0.007
 5519.00    0.99271   0.70942    0.007
 5520.00    0.86704   0.69762    0.007
 5521.00    0.72512   0.68407    0.007
 5522.00    0.68676   0.68171    0.007
 5523.00    0.65381   0.69117    0.007
 5524.00    0.57823   0.70276    0.007
 5525.00    0.50237   0.71211    0.007
 5526.00    0.46508   0.72226    0.007
 5527.00    0.43817   0.73503    0.007
 5528.00    0.63439   0.74017    0.007
 5529.00    0.81497   0.73590    0.007
 5530.00    0.80462   0.73142    0.007
 5531.00    0.78668   0.73040    0.007
 5532.00    0.70535   0.73022    0.007
 5533.00    0.63598   0.72584    0.007
 5534.00    0.64093   0.71428    0.007
 5535.00    0.66279   0.69767    0.007
 5536.00    0.76728   0.67824    0.007
 5537.00    0.84405   0.66894    0.007
 5538.00    0.81071   0.68624    0.007
 5539.00    0.80179   0.71352    0.007
 5540.00    0.87341   0.72447    0.007
 5541.00    0.91665   0.72045    0.007
 5542.00    0.88074   0.71216    0.007
 5543.00    0.81003   0.70185    0.007
 5544.00    0.65629   0.69678    0.006
 5545.00    0.55993   0.70548    0.006
 5546.00    0.58185   0.71483    0.006
 5547.00    0.58091   0.71722    0.006
 5548.00    0.53897   0.72367    0.006
 5549.00    0.48077   0.73319    0.006
 5550.00    0.39709   0.73537    0.006
 5551.00    0.43093   0.72528    0.006
 5552.00    0.62656   0.71204    0.006
 5553.00    0.81422   0.70904    0.006
 5554.00    0.99220   0.71140    0.006
 5555.00    1.01950   0.71233    0.006
 5556.00    0.88580   0.72011    0.006
 5557.00    0.83010   0.73293    0.006
 5558.00    0.84793   0.73916    0.006
 5559.00    0.80995   0.73907    0.006
 5560.00    0.72559   0.73625    0.006
 5561.00    0.71940   0.72916    0.006
 5562.00    0.77040   0.71794    0.006
 5563.00    0.78098   0.70966    0.006
 5564.00    0.76559   0.71156    0.006
 5565.00    0.72716   0.71750    0.006
 5566.00    0.67578   0.71759    0.006
 5567.00    0.70010   0.71632    0.006
 5568.00    0.76143   0.71820    0.006
 5569.00    0.75045   0.71787    0.006
 5570.00    0.70891   0.71304    0.006
 5571.00    0.77897   0.70408    0.006
 5572.00    0.88941   0.69763    0.007
 5573.00    0.92213   0.69867    0.007
 5574.00    0.93106   0.69691    0.007
 5575.00    0.83508   0.69220    0.007
 5576.00    0.71238   0.69354    0.007
 5577.00    0.74118   0.69466    0.007
 5578.00    0.80137   0.69056    0.007
 5579.00    0.76272   0.69464    0.007
 5580.00    0.70796   0.70239    0.007
 5581.00    0.67048   0.69170    0.007
 5582.00    0.63511   0.68390    0.006
 5583.00    0.66926   0.69871    0.006
 5584.00    0.70924   0.70756    0.007
 5585.00    0.72005   0.70430    0.006
 5586.00    0.72946   0.70766    0.006
 5587.00    0.79315   0.71102    0.006
 5588.00    0.85642   0.71138    0.006
 5589.00    0.84578   0.71399    0.006
 5590.00    0.83527   0.71000    0.006
 5591.00    0.82727   0.70347    0.006
 5592.00    0.82198   0.70534    0.006
 5593.00    0.84813   0.70433    0.006
 5594.00    0.87994   0.69042    0.006
 5595.00    0.95716   0.66502    0.006
 5596.00    1.01465   0.64158    0.007
 5597.00    0.95296   0.63452    0.007
 5598.00    0.87331   0.64221    0.006
 5599.00    0.70804   0.65974    0.006
 5600.00    0.56903   0.67634    0.006
 5601.00    0.53202   0.68065    0.006
 5602.00    0.49657   0.67545    0.006
 5603.00    0.46614   0.67068    0.006
 5604.00    0.47073   0.68397    0.006
 5605.00    0.57120   0.70588    0.006
 5606.00    0.64704   0.70205    0.006
 5607.00    0.66509   0.67889    0.006
 5608.00    0.67632   0.66973    0.006
 5609.00    0.67371   0.67027    0.006
 5610.00    0.70643   0.66133    0.006
 5611.00    0.80153   0.65205    0.006
 5612.00    0.86118   0.65941    0.006
 5613.00    0.86602   0.68633    0.006
 5614.00    0.86847   0.71119    0.006
 5615.00    0.86770   0.72260    0.006
 5616.00    0.85975   0.72407    0.006
 5617.00    0.84323   0.72151    0.006
 5618.00    0.80604   0.71874    0.006
 5619.00    0.74709   0.71802    0.006
 5620.00    0.75214   0.72111    0.006
 5621.00    0.81669   0.72495    0.006
 5622.00    0.84853   0.71759    0.006
 5623.00    0.85358   0.68511    0.006
 5624.00    0.87304   0.64415    0.006
 5625.00    0.90288   0.64148    0.006
 5626.00    0.85352   0.67182    0.006
 5627.00    0.75403   0.68885    0.006
 5628.00    0.71435   0.68708    0.006
 5629.00    0.70777   0.68722    0.006
 5630.00    0.68656   0.69657    0.006
 5631.00    0.65831   0.70296    0.006
 5632.00    0.74007   0.68959    0.006
 5633.00    0.86753   0.66210    0.006
 5634.00    0.88167   0.65294    0.006
 5635.00    0.85557   0.66979    0.006
 5636.00    0.85224   0.68548    0.006
 5637.00    0.85574   0.69290    0.006
 5638.00    0.76468   0.70306    0.006
 5639.00    0.65008   0.71135    0.006
 5640.00    0.62674   0.71262    0.006
 5641.00    0.62185   0.70945    0.006
 5642.00    0.68879   0.70275    0.006
 5643.00    0.76710   0.69547    0.006
 5644.00    0.80633   0.68978    0.006
 5645.00    0.84095   0.68231    0.006
 5646.00    0.82698   0.67387    0.006
 5647.00    0.80913   0.67387    0.006
 5648.00    0.69862   0.68079    0.006
 5649.00    0.58399   0.67907    0.006
 5650.00    0.67968   0.66970    0.006
 5651.00    0.77610   0.67175    0.006
 5652.00    0.79149   0.68024    0.006
 5653.00    0.80837   0.68376    0.006
 5654.00    0.85272   0.68629    0.006
 5655.00    0.88986   0.68965    0.006
 5656.00    0.84724   0.69340    0.006
 5657.00    0.79252   0.69361    0.006
 5658.00    0.64392   0.68812    0.006
 5659.00    0.50922   0.68527    0.006
 5660.00    0.45617   0.69235    0.006
 5661.00    0.43197   0.70108    0.006
 5662.00    0.54196   0.69930    0.006
 5663.00    0.61847   0.68484    0.006
 5664.00    0.56767   0.67484    0.006
 5665.00    0.52934   0.67862    0.006
 5666.00    0.53056   0.66514    0.006
 5667.00    0.55151   0.63087    0.006
 5668.00    0.62555   0.62788    0.006
 5669.00    0.71148   0.65935    0.006
 5670.00    0.82483   0.67078    0.006
 5671.00    0.88254   0.65688    0.006
 5672.00    0.82914   0.65491    0.006
 5673.00    0.77390   0.67319    0.006
 5674.00    0.71548   0.68762    0.006
 5675.00    0.66575   0.68510    0.006
 5676.00    0.62925   0.67278    0.006
 5677.00    0.59243   0.66643    0.006
 5678.00    0.55516   0.67057    0.006
 5679.00    0.59954   0.67666    0.006
 5680.00    0.74007   0.68228    0.006
 5681.00    0.78435   0.69283    0.006
 5682.00    0.72865   0.70434    0.006
 5683.00    0.67660   0.70466    0.006
 5684.00    0.62790   0.69580    0.006
 5685.00    0.63446   0.69582    0.006
 5686.00    0.68564   0.70232    0.006
 5687.00    0.68932   0.69876    0.006
 5688.00    0.65926   0.69050    0.006
 5689.00    0.66451   0.68953    0.006
 5690.00    0.69177   0.68589    0.006
 5691.00    0.70979   0.66969    0.006
 5692.00    0.72279   0.65948    0.006
 5693.00    0.70321   0.66673    0.006
 5694.00    0.66821   0.67593    0.006
 5695.00    0.70003   0.67258    0.006
 5696.00    0.75912   0.66077    0.006
 5697.00    0.80159   0.65628    0.006
 5698.00    0.83826   0.66503    0.006
 5699.00    0.79207   0.67897    0.006
 5700.00    0.72152   0.68797    0.006
 5701.00    0.62334   0.69519    0.006
 5702.00    0.51843   0.69762    0.006
 5703.00    0.59329   0.69280    0.006
 5704.00    0.70354   0.68928    0.006
 5705.00    0.71499   0.69088    0.006
 5706.00    0.71127   0.68857    0.006
 5707.00    0.72614   0.67719    0.006
 5708.00    0.74312   0.67153    0.006
 5709.00    0.79024   0.66795    0.006
 5710.00    0.83964   0.65746    0.006
 5711.00    0.85030   0.65322    0.006
 5712.00    0.85940   0.66277    0.006
 5713.00    0.73163   0.67377    0.006
 5714.00    0.60698   0.67101    0.006
 5715.00    0.65464   0.65707    0.006
 5716.00    0.70189   0.64606    0.006
 5717.00    0.74206   0.63549    0.006
 5718.00    0.78103   0.62531    0.006
 5719.00    0.80743   0.62881    0.006
 5720.00    0.82174   0.63394    0.006
 5721.00    0.74545   0.63868    0.006
 5722.00    0.66729   0.65850    0.006
 5723.00    0.57845   0.67533    0.006
 5724.00    0.51463   0.67968    0.006
 5725.00    0.56443   0.68326    0.006
 5726.00    0.60219   0.68400    0.006
 5727.00    0.59512   0.68221    0.006
 5728.00    0.60070   0.68626    0.006
 5729.00    0.64561   0.69105    0.006
 5730.00    0.68684   0.69402    0.006
 5731.00    0.71832   0.69884    0.006
 5732.00    0.73732   0.70143    0.006
 5733.00    0.72800   0.70022    0.006
 5734.00    0.72247   0.69729    0.006
 5735.00    0.72440   0.68775    0.006
 5736.00    0.71564   0.67528    0.006
 5737.00    0.68858   0.67622    0.006
 5738.00    0.68971   0.68794    0.006
 5739.00    0.73311   0.68903    0.006
 5740.00    0.73864   0.67588    0.000
 5741.00    0.69422   0.67035    0.000
 5742.00    0.69169   0.68100    0.000
 5743.00    0.73779   0.69167    0.000
 5744.00    0.74286   0.69474    0.000
 5745.00    0.70591   0.69166    0.000
 5746.00    0.70414   0.68708    0.000
 5747.00    0.73415   0.68480    0.000
 5748.00    0.79485   0.68396    0.000
 5749.00    0.87998   0.68402    0.000
 5750.00    0.91036   0.68389    0.000
 5751.00    0.90239   0.68137    0.000
 5752.00    0.88407   0.67808    0.000
 5753.00    0.85939   0.68190    0.000
 5754.00    0.80539   0.69146    0.000
 5755.00    0.73566   0.69459    0.000
 5756.00    0.75656   0.68258    0.000
 5757.00    0.81967   0.66779    0.000
 5758.00    0.86209   0.67060    0.000
 5759.00    0.89620   0.68433    0.000
 5760.00    0.87064   0.68775    0.000
 5761.00    0.82464   0.67386    0.000
 5762.00    0.74526   0.65313    0.000
 5763.00    0.65625   0.64346    0.000
 5764.00    0.62521   0.65518    0.000
 5765.00    0.60797   0.67626    0.000
 5766.00    0.67406   0.68926    0.000
 5767.00    0.75615   0.69238    0.000
 5768.00    0.83195   0.68684    0.000
 5769.00    0.90681   0.67503    0.000
 5770.00    0.91555   0.66094    0.000
 5771.00    0.91709   0.64787    0.000
 5772.00    0.90819   0.64608    0.000
 5773.00    0.89855   0.66408    0.000
 5774.00    0.76331   0.68357    0.000
 5775.00    0.62344   0.69042    0.000
 5776.00    0.60702   0.69077    0.000
 5777.00    0.59330   0.68971    0.000
 5778.00    0.65751   0.68714    0.000
 5779.00    0.72358   0.68447    0.000
 5780.00    0.81943   0.68052    0.000
 5781.00    0.90362   0.67519    0.000
 5782.00    0.86980   0.67317    0.000
 5783.00    0.83045   0.67178    0.000
 5784.00    0.75113   0.67053    0.000
 5785.00    0.69628   0.67504    0.000
 5786.00    0.77725   0.68039    0.000
 5787.00    0.84218   0.68054    0.000
 5788.00    0.83600   0.67344    0.000
 5789.00    0.82287   0.65531    0.000
 5790.00    0.78443   0.63340    0.000
 5791.00    0.78098   0.62674   -2.000
 5792.00    0.88439   0.63426   -2.000
 5793.00    0.96719   0.63617   -2.000
 5794.00    0.99649   0.62956   -2.000
 5795.00    1.00577   0.63369   -2.000
 5796.00    0.97039   0.65061   -2.000
 5797.00    0.91811   0.66349   -2.000
 5798.00    0.83314   0.66913   -2.000
 5799.00    0.74883   0.66470   -2.000
 5800.00    0.66562   0.65553   -2.000
 5801.00    0.62750   0.65700   -2.000
 5802.00    0.65603   0.66558   -2.000
 5803.00    0.70073   0.67367   -2.000
 5804.00    0.76645   0.68020   -2.000
 5805.00    0.80481   0.67878   -2.000
 5806.00    0.81185   0.66580   -2.000
 5807.00    0.77305   0.65601   -2.000
 5808.00    0.68798   0.66457   -2.000
 5809.00    0.64992   0.68066   -2.000
 5810.00    0.65371   0.68958   -2.000
 5811.00    0.71718   0.69206    0.000
 5812.00    0.82747   0.68691    0.000
 5813.00    0.86866   0.67333    0.000
 5814.00    0.86214   0.66314    0.000
 5815.00    0.80249   0.66227    0.000
 5816.00    0.71069   0.66671    0.000
 5817.00    0.65861   0.67061    0.000
 5818.00    0.62751   0.67226    0.000
 5819.00    0.61216   0.67481    0.000
 5820.00    0.60401   0.67820    0.000
 5821.00    0.57005   0.67904    0.000
 5822.00    0.52590   0.67751    0.000
 5823.00    0.54748   0.67323    0.000
 5824.00    0.59114   0.66421    0.000
 5825.00    0.62384   0.65493    0.000
 5826.00    0.65343   0.65677    0.000
 5827.00    0.68031   0.66996    0.000
 5828.00    0.70655   0.68068    0.000
 5829.00    0.71896   0.68410    0.000
 5830.00    0.72878   0.68386    0.000
 5831.00    0.77571   0.68096    0.000
 5832.00    0.82800   0.67704    0.000
 5833.00    0.84724   0.67614    0.000
 5834.00    0.86302   0.67874    0.000
 5835.00    0.84185   0.68013    0.000
 5836.00    0.81818   0.67910    0.000
 5837.00    0.78525   0.67864    0.000
 5838.00    0.75202   0.68057    0.000
 5839.00    0.72519   0.68185    0.000
 5840.00    0.70020   0.68029    0.000
 5841.00    0.73280   0.67891    0.000
 5842.00    0.76222   0.67738    0.000
 5843.00    0.74347   0.67240    0.000
 5844.00    0.72349   0.66827    0.000
 5845.00    0.69151   0.67118    0.000
 5846.00    0.66328   0.67432    0.000
 5847.00    0.66137   0.67080    0.000
 5848.00    0.66506   0.66874    0.000
 5849.00    0.69902   0.67378    0.000
 5850.00    0.71602   0.68044    0.000
 5851.00    0.65949   0.68338    0.000
 5852.00    0.60661   0.68320    0.000
 5853.00    0.56677   0.68037    0.000
 5854.00    0.56199   0.67538    0.000
 5855.00    0.66226   0.66875    0.000
 5856.00    0.73331   0.66147    0.000
 5857.00    0.72977   0.65826    0.000
 5858.00    0.71477   0.66041    0.000
 5859.00    0.67458   0.66362    0.000
 5860.00    0.64164   0.66246    0.000
 5861.00    0.62251   0.65298    0.000
 5862.00    0.63850   0.63920    0.000
 5863.00    0.71285   0.63530    0.000
 5864.00    0.78159   0.64259    0.000
 5865.00    0.84215   0.64294    0.000
 5866.00    0.86300   0.62831    0.000
 5867.00    0.83296   0.61735    0.000
 5868.00    0.80010   0.62424    0.000
 5869.00    0.76407   0.63885    0.000
 5870.00    0.73597   0.64860    0.000
 5871.00    0.71577   0.64813    0.000
 5872.00    0.69330   0.64567    0.000
 5873.00    0.66883   0.65024    0.000
 5874.00    0.63151   0.65501    0.000
 5875.00    0.58425   0.65065    0.000
 5876.00    0.57316   0.64429    0.000
 5877.00    0.58667   0.64773    0.000
 5878.00    0.57504   0.65713    0.000
 5879.00    0.54844   0.66361    0.000
 5880.00    0.54062   0.66471    0.000
 5881.00    0.54257   0.66098    0.000
 5882.00    0.59535   0.65629    0.000
 5883.00    0.67105   0.65370    0.000
 5884.00    0.67526   0.65172    0.000
 5885.00    0.65175   0.64860    0.000
 5886.00    0.61788   0.64684    0.000
 5887.00    0.58059   0.64749    0.000
 5888.00    0.53807   0.64455    0.000
 5889.00    0.49411   0.63801    0.000
 5890.00    0.56041   0.63643    0.000
 5891.00    0.65178   0.64101    0.000
 5892.00    0.68262   0.64174    0.000
 5893.00    0.70246   0.63696    0.000
 5894.00    0.71840   0.63574    0.000
 5895.00    0.73380   0.63877    0.000
 5896.00    0.78247   0.63494    0.000
 5897.00    0.83448   0.60704    0.000
 5898.00    0.76520   0.54471    0.000
 5899.00    0.68820   0.48509    0.000
 5900.00    0.68261   0.48780    0.000
 5901.00    0.67905   0.53818    0.006
 5902.00    0.65374   0.57830    0.006
 5903.00    0.62794   0.58589    0.005
 5904.00    0.58811   0.55443    0.005
 5905.00    0.55079   0.51275    0.005
 5906.00    0.54934   0.51938    0.005
 5907.00    0.54524   0.56567    0.005
 5908.00    0.51644   0.59985    0.005
 5909.00    0.49807   0.61491    0.005
 5910.00    0.55049   0.62588    0.005
 5911.00    0.60631   0.63290    0.005
 5912.00    0.68000   0.63570    0.006
 5913.00    0.73511   0.63713    0.006
 5914.00    0.71156   0.63516    0.006
 5915.00    0.69059   0.63176    0.006
 5916.00    0.67868   0.63314    0.006
 5917.00    0.67175   0.63845    0.006
 5918.00    0.67947   0.64069    0.006
 5919.00    0.68157   0.64022    0.006
 5920.00    0.66955   0.64271    0.006
 5921.00    0.65385   0.64489    0.006
 5922.00    0.63022   0.63783    0.006
 5923.00    0.60541   0.62361    0.006
 5924.00    0.57841   0.61530    0.006
 5925.00    0.55665   0.61673    0.006
 5926.00    0.54347   0.62405    0.006
 5927.00    0.52736   0.63187    0.006
 5928.00    0.50704   0.63645    0.005
 5929.00    0.52274   0.63973    0.005
 5930.00    0.58390   0.64021    0.005
 5931.00    0.65021   0.63638    0.005
 5932.00    0.72224   0.63423    0.005
 5933.00    0.69942   0.63681    0.005
 5934.00    0.58352   0.64072    0.005
 5935.00    0.52248   0.64362    0.005
 5936.00    0.50894   0.64289    0.005
 5937.00    0.53742   0.63726    0.005
 5938.00    0.59793   0.62824    0.005
 5939.00    0.60344   0.62037    0.005
 5940.00    0.57210   0.62306    0.005
 5941.00    0.51706   0.63479    0.005
 5942.00    0.44810   0.64033    0.005
 5943.00    0.44474   0.63319    0.005
 5944.00    0.47496   0.62514    0.005
 5945.00    0.54786   0.62829    0.005
 5946.00    0.63968   0.63673    0.005
 5947.00    0.62620   0.64142    0.005
 5948.00    0.57261   0.64336    0.005
 5949.00    0.54932   0.64059    0.005
 5950.00    0.53583   0.63139    0.005
 5951.00    0.50312   0.62489    0.006
 5952.00    0.46519   0.62689    0.006
 5953.00    0.51170   0.63274    0.006
 5954.00    0.57696   0.63861    0.006
 5955.00    0.62849   0.64284    0.006
 5956.00    0.67759   0.64130    0.006
 5957.00    0.73261   0.63127    0.006
 5958.00    0.78842   0.62036    0.006
 5959.00    0.76441   0.62112    0.005
 5960.00    0.73272   0.62987    0.005
 5961.00    0.66327   0.62992    0.005
 5962.00    0.59158   0.62164    0.005
 5963.00    0.59747   0.62167    0.005
 5964.00    0.60534   0.62962    0.005
 5965.00    0.61149   0.63006    0.005
 5966.00    0.61723   0.62271    0.005
 5967.00    0.61262   0.61954    0.005
 5968.00    0.61143   0.62432    0.005
 5969.00    0.65621   0.63259    0.005
 5970.00    0.69087   0.63942    0.005
 5971.00    0.63501   0.64277    0.005
 5972.00    0.58071   0.64296    0.005
 5973.00    0.53661   0.64154    0.005
 5974.00    0.50456   0.63766    0.005
 5975.00    0.53424   0.63238    0.005
 5976.00    0.55474   0.63224    0.005
 5977.00    0.53726   0.63697    0.005
 5978.00    0.51971   0.64086    0.005
 5979.00    0.50195   0.64339    0.005
 5980.00    0.50150   0.64552    0.005
 5981.00    0.55100   0.64588    0.005
 5982.00    0.57981   0.64468    0.005
 5983.00    0.55761   0.64205    0.005
 5984.00    0.55026   0.63520    0.005
 5985.00    0.57445   0.62490    0.005
 5986.00    0.61236   0.61712    0.005
 5987.00    0.67560   0.61512    0.005
 5988.00    0.72562   0.61886    0.005
 5989.00    0.75433   0.62731    0.005
 5990.00    0.77716   0.63489    0.006
 5991.00    0.79166   0.63510    0.006
 5992.00    0.81044   0.62541    0.006
 5993.00    0.83455   0.60998    0.006
 5994.00    0.81303   0.60265    0.005
 5995.00    0.74147   0.60968    0.005
 5996.00    0.66440   0.61892    0.005
 5997.00    0.58201   0.62294    0.005
 5998.00    0.56846   0.62656    0.005
 5999.00    0.61366   0.62958    0.005
 6000.00    0.63611   0.62666    0.005
 6001.00    0.64147   0.62222    0.005
 6002.00    0.64059   0.62615    0.005
 6003.00    0.63558   0.63532    0.005
 6004.00    0.62656   0.63916    0.005
 6005.00    0.61521   0.63474    0.005
 6006.00    0.64121   0.62538    0.005
 6007.00    0.68602   0.61753    0.005
 6008.00    0.71253   0.61686    0.005
 6009.00    0.73105   0.62190    0.005
 6010.00    0.75083   0.62649    0.005
 6011.00    0.77108   0.62444    0.005
 6012.00    0.78376   0.61730    0.005
 6013.00    0.79405   0.61619    0.005
 6014.00    0.77221   0.62149    0.006
 6015.00    0.74186   0.62168    0.006
 6016.00    0.75141   0.61292    0.006
 6017.00    0.76960   0.60070    0.006
 6018.00    0.85710   0.59804    0.006
 6019.00    0.95652   0.61150    0.006
 6020.00    0.86198   0.62582    0.006
 6021.00    0.74211   0.62547    0.006
 6022.00    0.65948   0.61472    0.006
 6023.00    0.58027   0.60854    0.006
 6024.00    0.62448   0.61201    0.005
 6025.00    0.67556   0.61407    0.005
 6026.00    0.76298   0.61060    0.005
 6027.00    0.84970   0.61086    0.005
 6028.00    0.78757   0.61278    0.005
 6029.00    0.72435   0.60749    0.005
 6030.00    0.63570   0.60119    0.005
 6031.00    0.55974   0.60231    0.005
 6032.00    0.64577   0.60674    0.005
 6033.00    0.72007   0.60885    0.005
 6034.00    0.69335   0.61221    0.005
 6035.00    0.66322   0.61836    0.005
 6036.00    0.61132   0.62010    0.005
 6037.00    0.57293   0.61996    0.005
 6038.00    0.60208   0.62451    0.005
 6039.00    0.64175   0.62867    0.005
 6040.00    0.72401   0.62853    0.005
 6041.00    0.77825   0.62856    0.005
 6042.00    0.73846   0.63140    0.005
 6043.00    0.70489   0.63331    0.005
 6044.00    0.68898   0.63259    0.005
 6045.00    0.68934   0.63177    0.005
 6046.00    0.72915   0.63213    0.005
 6047.00    0.76106   0.63261    0.005
 6048.00    0.77642   0.63124    0.005
 6049.00    0.76136   0.62755    0.005
 6050.00    0.69102   0.62432    0.005
 6051.00    0.63181   0.62276    0.005
 6052.00    0.59029   0.62413    0.005
 6053.00    0.58441   0.62921    0.005
 6054.00    0.62822   0.63285    0.005
 6055.00    0.64353   0.63313    0.006
 6056.00    0.62387   0.63347    0.006
 6057.00    0.60172   0.63413    0.005
 6058.00    0.57688   0.63325    0.005
 6059.00    0.57514   0.63300    0.005
 6060.00    0.59547   0.63436    0.005
 6061.00    0.61738   0.63316    0.005
 6062.00    0.64063   0.62793    0.005
 6063.00    0.63227   0.62248    0.005
 6064.00    0.60050   0.61911    0.005
 6065.00    0.60734   0.61560    0.005
 6066.00    0.63930   0.61323    0.005
 6067.00    0.67028   0.61587    0.005
 6068.00    0.70070   0.62161    0.005
 6069.00    0.70253   0.62684    0.005
 6070.00    0.69018   0.62900    0.005
 6071.00    0.69132   0.62709    0.005
 6072.00    0.69823   0.62158    0.005
 6073.00    0.69999   0.61332    0.005
 6074.00    0.69985   0.60171    0.005
 6075.00    0.65873   0.59459    0.005
 6076.00    0.60484   0.60462    0.005
 6077.00    0.54519   0.62296    0.005
 6078.00    0.48405   0.63270    0.005
 6079.00    0.50647   0.63392    0.005
 6080.00    0.54657   0.63339    0.005
 6081.00    0.58599   0.63392    0.005
 6082.00    0.62529   0.63489    0.005
 6083.00    0.63082   0.63495    0.005
 6084.00    0.63209   0.63405    0.005
 6085.00    0.68080   0.63172    0.005
 6086.00    0.73368   0.62670    0.005
 6087.00    0.72578   0.61780    0.005
 6088.00    0.71474   0.60854    0.005
 6089.00    0.64821   0.60755    0.005
 6090.00    0.58126   0.61136    0.005
 6091.00    0.55783   0.60876    0.005
 6092.00    0.53612   0.60376    0.005
 6093.00    0.55105   0.60468    0.005
 6094.00    0.56201   0.60690    0.005
 6095.00    0.52491   0.60626    0.005
 6096.00    0.48451   0.60778    0.005
 6097.00    0.41673   0.61258    0.005
 6098.00    0.36578   0.61433    0.005
 6099.00    0.41911   0.60826    0.005
 6100.00    0.47611   0.60104    0.005
 6101.00    0.55096   0.60064    0.005
 6102.00    0.60528   0.60330    0.005
 6103.00    0.57828   0.60591    0.005
 6104.00    0.55808   0.61252    0.005
 6105.00    0.56024   0.61885    0.005
 6106.00    0.56847   0.61734    0.005
 6107.00    0.59360   0.61342    0.005
 6108.00    0.61187   0.61508    0.005
 6109.00    0.61378   0.61960    0.005
 6110.00    0.60080   0.61735    0.005
 6111.00    0.55716   0.59793    0.005
 6112.00    0.53111   0.56986    0.005
 6113.00    0.53656   0.56540    0.005
 6114.00    0.57046   0.58951    0.005
 6115.00    0.64891   0.61001    0.005
 6116.00    0.70151   0.61310    0.005
 6117.00    0.71858   0.60810    0.005
 6118.00    0.72661   0.60708    0.005
 6119.00    0.72370   0.61311    0.005
 6120.00    0.73065   0.61475    0.005
 6121.00    0.74810   0.60882    0.005
 6122.00    0.74108   0.60764    0.005
 6123.00    0.71105   0.61413    0.005
 6124.00    0.67111   0.61879    0.005
 6125.00    0.62295   0.61531    0.005
 6126.00    0.60428   0.60860    0.005
 6127.00    0.60714   0.60902    0.005
 6128.00    0.58210   0.61203    0.005
 6129.00    0.53917   0.60614    0.005
 6130.00    0.52294   0.59267    0.005
 6131.00    0.52168   0.57587    0.005
 6132.00    0.56669   0.56716    0.005
 6133.00    0.63428   0.58125    0.005
 6134.00    0.66106   0.60184    0.005
 6135.00    0.67064   0.60650    0.005
 6136.00    0.63130   0.60176    0.005
 6137.00    0.57429   0.59708    0.005
 6138.00    0.53269   0.59432    0.005
 6139.00    0.49579   0.59743    0.005
 6140.00    0.52692   0.60536    0.005
 6141.00    0.57534   0.61065    0.005
 6142.00    0.57335   0.61194    0.005
 6143.00    0.56096   0.61095    0.005
 6144.00    0.54343   0.60203    0.005
 6145.00    0.52507   0.57919    0.005
 6146.00    0.57411   0.54758    0.005
 6147.00    0.63136   0.53215    0.005
 6148.00    0.63608   0.55411    0.005
 6149.00    0.63641   0.58908    0.005
 6150.00    0.61706   0.59839    0.005
 6151.00    0.59676   0.58414    0.005
 6152.00    0.54062   0.57896    0.005
 6153.00    0.48403   0.59447    0.005
 6154.00    0.43238   0.60953    0.005
 6155.00    0.38740   0.61235    0.005
 6156.00    0.47352   0.60839    0.005
 6157.00    0.55294   0.60103    0.005
 6158.00    0.55505   0.59161    0.005
 6159.00    0.55592   0.58574    0.005
 6160.00    0.54685   0.58626    0.005
 6161.00    0.54140   0.59262    0.005
 6162.00    0.55770   0.59998    0.005
 6163.00    0.57463   0.60166    0.005
 6164.00    0.59458   0.59414    0.005
 6165.00    0.62307   0.58755    0.005
 6166.00    0.68463   0.58895    0.005
 6167.00    0.72840   0.59040    0.005
 6168.00    0.71477   0.58987    0.005
 6169.00    0.68674   0.58617    0.005
 6170.00    0.61936   0.56748    0.005
 6171.00    0.56289   0.53492    0.005
 6172.00    0.53195   0.51525    0.005
 6173.00    0.50524   0.52475    0.005
 6174.00    0.48705   0.54837    0.005
 6175.00    0.49173   0.56537    0.005
 6176.00    0.53670   0.57235    0.005
 6177.00    0.55932   0.57576    0.005
 6178.00    0.54748   0.56651    0.005
 6179.00    0.55975   0.54486    0.005
 6180.00    0.60469   0.54020    0.005
 6181.00    0.68444   0.56096    0.005
 6182.00    0.80573   0.57809    0.005
 6183.00    0.85244   0.57861    0.005
 6184.00    0.82073   0.57726    0.005
 6185.00    0.77671   0.57825    0.005
 6186.00    0.72128   0.57653    0.005
 6187.00    0.68940   0.57688    0.005
 6188.00    0.67677   0.58312    0.005
 6189.00    0.67962   0.58571    0.005
 6190.00    0.69360   0.58321    0.005
 6191.00    0.73594   0.58633    0.005
 6192.00    0.79620   0.59172    0.005
 6193.00    0.86789   0.59218    0.005
 6194.00    0.94589   0.59048    0.005
 6195.00    1.20446   0.58688    0.005
 6196.00    1.54973   0.57843   -2.000
 6197.00    1.91000   0.57127   -2.000
 6198.00    2.27649   0.56974   -2.000
 6199.00    2.12029   0.56912   -2.000
 6200.00    1.77884   0.55858   -2.000
 6201.00    1.16290   0.54058   -2.000
 6202.00    0.46481   0.54257   -2.000
 6203.00    0.16431   0.56551   -2.000
 6204.00   -0.03743   0.58075   -2.000
 6205.00    0.07178   0.58397   -2.000
 6206.00    0.24361   0.58657   -2.000
 6207.00    0.40754   0.58884   -2.000
 6208.00    0.57024   0.58279    0.006
 6209.00    0.58016   0.56861    0.005
 6210.00    0.57218   0.56147    0.005
 6211.00    0.58759   0.57023    0.005
 6212.00    0.60485   0.58315    0.005
 6213.00    0.59977   0.58831    0.005
 6214.00    0.59371   0.58713    0.005
 6215.00    0.58208   0.58613    0.005
 6216.00    0.57103   0.58768    0.005
 6217.00    0.59027   0.58857    0.005
 6218.00    0.60706   0.58819    0.005
 6219.00    0.57909   0.58673    0.005
 6220.00    0.55375   0.58301    0.005
 6221.00    0.55747   0.57889    0.005
 6222.00    0.56552   0.57162    0.005
 6223.00    0.60698   0.55660    0.005
 6224.00    0.64134   0.54382    0.005
 6225.00    0.63419   0.54167    0.005
 6226.00    0.62871   0.54824    0.005
 6227.00    0.63100   0.55963    0.005
 6228.00    0.63520   0.56311    0.005
 6229.00    0.64669   0.55368    0.005
 6230.00    0.64810   0.54726    0.005
 6231.00    0.61763   0.55233    0.005
 6232.00    0.58362   0.56196    0.005
 6233.00    0.54009   0.56612    0.005
 6234.00    0.48343   0.56366    0.005
 6235.00    0.39653   0.56392    0.005
 6236.00    0.35255   0.56742    0.005
 6237.00    0.39408   0.56852    0.005
 6238.00    0.44246   0.56608    0.005
 6239.00    0.50272   0.55321    0.005
 6240.00    0.54202   0.53213    0.005
 6241.00    0.54946   0.52384    0.005
 6242.00    0.57961   0.53427    0.005
 6243.00    0.64010   0.54879    0.005
 6244.00    0.67488   0.56497    0.005
 6245.00    0.67945   0.57664    0.005
 6246.00    0.66798   0.57551    0.005
 6247.00    0.63989   0.56564    0.005
 6248.00    0.58753   0.55503    0.005
 6249.00    0.51296   0.54674    0.005
 6250.00    0.47125   0.54313    0.005
 6251.00    0.45602   0.54852    0.005
 6252.00    0.46925   0.54966    0.005
 6253.00    0.50266   0.53915    0.005
 6254.00    0.51302   0.53521    0.005
 6255.00    0.50903   0.53720    0.005
 6256.00    0.53363   0.53603    0.005
 6257.00    0.57376   0.54282    0.005
 6258.00    0.61617   0.55738    0.005
 6259.00    0.65964   0.56632    0.006
 6260.00    0.67310   0.56643    0.006
 6261.00    0.67433   0.55682    0.006
 6262.00    0.63249   0.53928    0.007
 6263.00    0.57566   0.52947    0.007
 6264.00    0.44114   0.53181    0.007
 6265.00    0.28382   0.53631    0.006
 6266.00    0.26452   0.53396    0.006
 6267.00    0.27874   0.52636    0.006
 6268.00    0.38906   0.52068    0.005
 6269.00    0.51823   0.52666    0.005
 6270.00    0.57136   0.54191    0.005
 6271.00    0.61284   0.55056    0.005
 6272.00    0.57842   0.55825    0.005
 6273.00    0.53543   0.56783    0.005
 6274.00    0.51229   0.56485    0.005
 6275.00    0.49064   0.55293    0.005
 6276.00    0.48720   0.55245    0.005
 6277.00    0.48449   0.56135    0.005
 6278.00    0.47151   0.56294    0.005
 6279.00    0.46034   0.55750    0.005
 6280.00    0.52578   0.55463    0.000
 6281.00    0.59042   0.55722    0.000
 6282.00    0.64139   0.56286    0.000
 6283.00    0.69007   0.56651    0.000
 6284.00    0.71483   0.56530    0.000
 6285.00    0.73818   0.56438    0.000
 6286.00    0.75106   0.56526    0.000
 6287.00    0.75039   0.56450    0.000
 6288.00    0.67266   0.56184    0.000
 6289.00    0.59761   0.55572    0.000
 6290.00    0.53473   0.54630    0.000
 6291.00    0.48919   0.54487    0.000
 6292.00    0.50802   0.55172    0.000
 6293.00    0.51769   0.55955    0.000
 6294.00    0.49892   0.56509    0.000
 6295.00    0.48192   0.56424    0.000
 6296.00    0.46961   0.56457    0.000
 6297.00    0.46546   0.57006    0.000
 6298.00    0.47977   0.57536    0.000
 6299.00    0.49425   0.57668    0.000
 6300.00    0.50907   0.57053    0.000
 6301.00    0.52752   0.56237    0.000
 6302.00    0.55218   0.55875    0.000
 6303.00    0.56680   0.55898    0.000
 6304.00    0.56642   0.56290    0.000
 6305.00    0.53885   0.56359    0.000
 6306.00    0.47549   0.55375    0.000
 6307.00    0.41655   0.54382    0.000
 6308.00    0.36271   0.54439    0.000
 6309.00    0.35045   0.55132    0.000
 6310.00    0.38069   0.55097    0.000
 6311.00    0.43237   0.54054    0.000
 6312.00    0.50339   0.53442    0.000
 6313.00    0.52850   0.54278    0.000
 6314.00    0.51714   0.55444    0.000
 6315.00    0.50149   0.55694    0.000
 6316.00    0.48286   0.55791    0.000
 6317.00    0.49384   0.56616    0.000
 6318.00    0.52296   0.57263    0.000
 6319.00    0.49562   0.57025    0.000
 6320.00    0.43806   0.56245    0.000
 6321.00    0.37893   0.55525    0.005
 6322.00    0.31906   0.55436    0.005
 6323.00    0.30314   0.55778    0.005
 6324.00    0.30482   0.55205    0.005
 6325.00    0.31969   0.54100    0.005
 6326.00    0.33907   0.54156    0.005
 6327.00    0.35933   0.54211    0.005
 6328.00    0.37985   0.53155    0.005
 6329.00    0.43884   0.53134    0.005
 6330.00    0.50697   0.54502    0.005
 6331.00    0.51045   0.55346    0.005
 6332.00    0.50156   0.55266    0.005
 6333.00    0.48689   0.55442    0.005
 6334.00    0.47136   0.56212    0.005
 6335.00    0.48393   0.56678    0.005
 6336.00    0.49954   0.56646    0.005
 6337.00    0.50373   0.56290    0.005
 6338.00    0.50711   0.56313    0.005
 6339.00    0.51566   0.56567    0.005
 6340.00    0.52440   0.56181    0.005
 6341.00    0.49669   0.55964    0.005
 6342.00    0.46901   0.56511    0.005
 6343.00    0.44777   0.57016    0.005
 6344.00    0.42874   0.56323    0.005
 6345.00    0.44484   0.54285    0.005
 6346.00    0.45954   0.52921    0.005
 6347.00    0.46010   0.53491    0.005
 6348.00    0.46090   0.54630    0.005
 6349.00    0.46336   0.55109    0.005
 6350.00    0.46213   0.55725    0.005
 6351.00    0.44048   0.56378    0.005
 6352.00    0.42068   0.56093    0.005
 6353.00    0.40904   0.54982    0.005
 6354.00    0.39913   0.54018    0.005
 6355.00    0.39556   0.54170    0.005
 6356.00    0.39477   0.54553    0.005
 6357.00    0.40247   0.54667    0.005
 6358.00    0.41935   0.55197    0.005
 6359.00    0.46000   0.56008    0.005
 6360.00    0.49899   0.56333    0.005
 6361.00    0.53426   0.56353    0.005
 6362.00    0.56076   0.56351    0.005
 6363.00    0.57034   0.55974    0.005
 6364.00    0.56824   0.55002    0.005
 6365.00    0.54644   0.54242    0.005
 6366.00    0.50661   0.54551    0.005
 6367.00    0.44017   0.54797    0.005
 6368.00    0.39090   0.53874    0.005
 6369.00    0.36389   0.52941    0.005
 6370.00    0.37686   0.52950    0.005
 6371.00    0.43550   0.52867    0.005
 6372.00    0.46485   0.52336    0.005
 6373.00    0.46469   0.52287    0.005
 6374.00    0.48184   0.52976    0.005
 6375.00    0.51438   0.53793    0.005
 6376.00    0.53505   0.54384    0.005
 6377.00    0.54641   0.54954    0.005
 6378.00    0.53242   0.55566    0.005
 6379.00    0.50096   0.55579    0.005
 6380.00    0.48499   0.54960    0.005
 6381.00    0.47836   0.54695    0.005
 6382.00    0.45187   0.55337    0.005
 6383.00    0.41492   0.56219    0.005
 6384.00    0.41140   0.56473    0.005
 6385.00    0.42317   0.56273    0.005
 6386.00    0.43967   0.56257    0.005
 6387.00    0.45804   0.56177    0.005
 6388.00    0.46650   0.55580    0.005
 6389.00    0.47163   0.55013    0.005
 6390.00    0.47891   0.54836    0.005
 6391.00    0.48680   0.54892    0.005
 6392.00    0.48876   0.55275    0.005
 6393.00    0.48934   0.55552    0.005
 6394.00    0.44649   0.55263    0.005
 6395.00    0.39554   0.55083    0.005
 6396.00    0.34693   0.55474    0.005
 6397.00    0.29866   0.55902    0.005
 6398.00    0.37167   0.55927    0.005
 6399.00    0.45730   0.55872    0.005
 6400.00    0.49162   0.55910    0.005
 6401.00    0.52248   0.55715    0.005
 6402.00    0.46427   0.54630    0.005
 6403.00    0.40314   0.52871    0.005
 6404.00    0.35987   0.52433    0.005
 6405.00    0.31790   0.53946    0.005
 6406.00    0.31635   0.55521    0.005
 6407.00    0.31775   0.56210    0.005
 6408.00    0.36317   0.55899    0.005
 6409.00    0.40750   0.54071    0.005
 6410.00    0.44135   0.51960    0.005
 6411.00    0.47459   0.52486    0.005
 6412.00    0.50359   0.54784    0.005
 6413.00    0.52840   0.56117    0.005
 6414.00    0.53067   0.56419    0.005
 6415.00    0.52809   0.56258    0.005
 6416.00    0.50454   0.55631    0.005
 6417.00    0.47394   0.54500    0.005
 6418.00    0.41824   0.53677    0.005
 6419.00    0.36297   0.54303    0.005
 6420.00    0.30898   0.55060    0.005
 6421.00    0.28598   0.54328    0.005
 6422.00    0.34188   0.53659    0.005
 6423.00    0.41164   0.54128    0.005
 6424.00    0.51177   0.54610    0.005
 6425.00    0.57723   0.54706    0.005
 6426.00    0.57678   0.54892    0.005
 6427.00    0.56444   0.55007    0.005
 6428.00    0.53239   0.54906    0.005
 6429.00    0.50751   0.54291    0.005
 6430.00    0.49307   0.53062    0.005
 6431.00    0.46661   0.52323    0.005
 6432.00    0.42478   0.53249    0.005
 6433.00    0.37390   0.55079    0.005
 6434.00    0.31283   0.55928    0.005
 6435.00    0.27390   0.55779    0.005
 6436.00    0.25697   0.55762    0.005
 6437.00    0.28472   0.56117    0.005
 6438.00    0.35162   0.56273    0.005
 6439.00    0.40086   0.55637    0.005
 6440.00    0.43645   0.53979    0.005
 6441.00    0.44446   0.52500    0.005
 6442.00    0.43374   0.52687    0.005
 6443.00    0.41602   0.53883    0.005
 6444.00    0.39415   0.54938    0.005
 6445.00    0.37886   0.55567    0.005
 6446.00    0.36699   0.55806    0.005
 6447.00    0.37678   0.55396    0.005
 6448.00    0.39633   0.53816    0.005
 6449.00    0.38488   0.52292    0.005
 6450.00    0.36145   0.52930    0.005
 6451.00    0.33279   0.54882    0.005
 6452.00    0.30243   0.56043    0.005
 6453.00    0.33670   0.56258    0.005
 6454.00    0.38880   0.56176    0.005
 6455.00    0.43657   0.56195    0.005
 6456.00    0.48335   0.56362    0.005
 6457.00    0.45891   0.56336    0.005
 6458.00    0.42154   0.55330    0.005
 6459.00    0.38659   0.52801    0.005
 6460.00    0.35197   0.50637    0.005
 6461.00    0.35052   0.51227    0.005
 6462.00    0.35238   0.53338    0.005
 6463.00    0.37114   0.54859    0.005
 6464.00    0.39098   0.55110    0.005
 6465.00    0.40764   0.54009    0.005
 6466.00    0.42418   0.52787    0.005
 6467.00    0.42769   0.53096    0.005
 6468.00    0.43186   0.54568    0.005
 6469.00    0.45422   0.55770    0.005
 6470.00    0.47498   0.56099    0.005
 6471.00    0.47295   0.55121    0.005
 6472.00    0.47258   0.52718    0.005
 6473.00    0.48774   0.51168    0.005
 6474.00    0.49891   0.52213    0.005
 6475.00    0.48312   0.53997    0.005
 6476.00    0.46772   0.54998    0.005
 6477.00    0.45431   0.55428    0.005
 6478.00    0.44664   0.55450    0.005
 6479.00    0.46319   0.55001    0.005
 6480.00    0.48044   0.54423    0.005
 6481.00    0.50010   0.53820    0.005
 6482.00    0.51247   0.53603    0.005
 6483.00    0.50346   0.54191    0.005
 6484.00    0.48885   0.54541    0.005
 6485.00    0.46025   0.54118    0.005
 6486.00    0.44167   0.53923    0.005
 6487.00    0.44466   0.54424    0.005
 6488.00    0.44369   0.54802    0.005
 6489.00    0.43534   0.54805    0.005
 6490.00    0.41595   0.54584    0.005
 6491.00    0.37851   0.53665    0.005
 6492.00    0.35050   0.52298    0.005
 6493.00    0.33601   0.51809    0.005
 6494.00    0.34058   0.52552    0.005
 6495.00    0.36920   0.53514    0.005
 6496.00    0.41550   0.54008    0.005
 6497.00    0.48147   0.54221    0.005
 6498.00    0.50323   0.54349    0.005
 6499.00    0.48169   0.54191    0.005
 6500.00    0.46791   0.53600    0.005
 6501.00    0.46085   0.52888    0.005
 6502.00    0.46354   0.52271    0.005
 6503.00    0.47364   0.50960    0.005
 6504.00    0.49250   0.48481    0.005
 6505.00    0.51720   0.46481    0.005
 6506.00    0.54198   0.46233    0.005
 6507.00    0.56679   0.47266    0.005
 6508.00    0.53338   0.48770    0.005
 6509.00    0.47023   0.49781    0.005
 6510.00    0.43110   0.50597    0.005
 6511.00    0.40260   0.51690    0.005
 6512.00    0.42839   0.52575    0.005
 6513.00    0.47481   0.53077    0.005
 6514.00    0.47366   0.53363    0.005
 6515.00    0.45716   0.53601    0.005
 6516.00    0.44615   0.53845    0.005
 6517.00    0.43663   0.53848    0.005
 6518.00    0.43319   0.53445    0.005
 6519.00    0.43109   0.53122    0.005
 6520.00    0.43600   0.53312    0.005
 6521.00    0.44215   0.53679    0.005
 6522.00    0.48768   0.53785    0.005
 6523.00    0.53850   0.53738    0.005
 6524.00    0.50851   0.53556    0.005
 6525.00    0.47080   0.52946    0.005
 6526.00    0.47421   0.52178    0.005
 6527.00    0.48005   0.51806    0.005
 6528.00    0.44702   0.51647    0.000
 6529.00    0.41260   0.51694    0.000
 6530.00    0.31915   0.52373    0.000
 6531.00    0.22987   0.53232    0.000
 6532.00    0.24529   0.53594    0.000
 6533.00    0.26546   0.53545    0.000
 6534.00    0.34894   0.53552    0.000
 6535.00    0.42784   0.53601    0.000
 6536.00    0.46596   0.53175    0.000
 6537.00    0.49814   0.52463    0.000
 6538.00    0.49137   0.52314    0.000
 6539.00    0.48155   0.52812    0.000
 6540.00    0.45614   0.53272    0.000
 6541.00    0.41731   0.53182    0.000
 6542.00    0.32311   0.52612    0.000
 6543.00    0.24181   0.52097    0.000
 6544.00    0.20457   0.52142    0.000
 6545.00    0.20210   0.52725    0.000
 6546.00    0.29978   0.53212    0.000
 6547.00    0.37117   0.53115    0.000
 6548.00    0.37793   0.52863    0.000
 6549.00    0.38420   0.53044    0.000
 6550.00    0.38944   0.53432    0.000
 6551.00    0.38617   0.53438    0.000
 6552.00    0.36724   0.52971    0.000
 6553.00    0.36353   0.52424    0.000
 6554.00    0.38434   0.52019    0.000
 6555.00    0.38747   0.51359    0.000
 6556.00    0.36564   0.50309    0.000
 6557.00    0.33882   0.49891    0.000
 6558.00    0.30579   0.50544    0.000
 6559.00    0.30242   0.51328    0.000
 6560.00    0.33152   0.51470    0.000
 6561.00    0.39982   0.51060    0.000
 6562.00    0.50599   0.50581    0.000
 6563.00    0.53839   0.50177    0.000
 6564.00    0.50794   0.49518    0.000
 6565.00    0.47889   0.48607    0.000
 6566.00    0.45087   0.47998    0.000
 6567.00    0.45455   0.47987    0.000
 6568.00    0.47913   0.48057    0.000
 6569.00    0.47052   0.47584    0.000
 6570.00    0.44275   0.46351    0.000
 6571.00    0.41381   0.43357    0.000
 6572.00    0.38427   0.37485    0.000
 6573.00    0.35273   0.32357    0.000
 6574.00    0.32032   0.33737    0.000
 6575.00    0.30143   0.39988    0.000
 6576.00    0.28758   0.45158    0.000
 6577.00    0.33579   0.47608    0.000
 6578.00    0.40364   0.48489    0.000
 6579.00    0.46597   0.48443    0.000
 6580.00    0.52684   0.48372    0.000
 6581.00    0.57796   0.48800    0.000
 6582.00    0.62697   0.49040    0.000
 6583.00    0.65777   0.48694    0.000
 6584.00    0.68546   0.48247    0.000
 6585.00    0.62120   0.48274    0.000
 6586.00    0.54498   0.49110    0.000
 6587.00    0.40545   0.50350    0.000
 6588.00    0.26014   0.51228    0.000
 6589.00    0.21295   0.51454    0.000
 6590.00    0.17117   0.51136    0.000
 6591.00    0.19007   0.50599    0.000
 6592.00    0.21114   0.50458    0.000
 6593.00    0.31513   0.50880    0.000
 6594.00    0.41686   0.51293    0.000
 6595.00    0.46649   0.51340    0.000
 6596.00    0.51072   0.51094    0.000
 6597.00    0.48650   0.51035    0.000
 6598.00    0.46773   0.51467    0.000
 6599.00    0.49559   0.51958    0.000
 6600.00    0.52283   0.52168    0.000
 6601.00    0.54612   0.51863    0.000
 6602.00    0.56375   0.50537    0.000
 6603.00    0.55316   0.48599    0.000
 6604.00    0.53602   0.47906    0.000
 6605.00    0.49241   0.49124    0.000
 6606.00    0.45741   0.50624    0.000
 6607.00    0.45122   0.51111    0.000
 6608.00    0.44634   0.50822    0.000
 6609.00    0.44519   0.50607    0.005
 6610.00    0.45299   0.51037    0.005
 6611.00    0.48246   0.51805    0.005
 6612.00    0.51499   0.52220    0.005
 6613.00    0.55392   0.52083    0.005
 6614.00    0.56880   0.51568    0.005
 6615.00    0.54005   0.50984    0.005
 6616.00    0.53512   0.50661    0.005
 6617.00    0.56795   0.50534    0.005
 6618.00    0.58185   0.50200    0.005
 6619.00    0.56939   0.49648    0.005
 6620.00    0.52955   0.49690    0.005
 6621.00    0.45615   0.50686    0.005
 6622.00    0.42532   0.51608    0.005
 6623.00    0.44043   0.51608    0.005
 6624.00    0.47911   0.51225    0.005
 6625.00    0.54024   0.51363    0.005
 6626.00    0.52858   0.51848    0.005
 6627.00    0.45582   0.51972    0.005
 6628.00    0.39711   0.51790    0.005
 6629.00    0.34880   0.51766    0.005
 6630.00    0.34818   0.51959    0.005
 6631.00    0.37852   0.52124    0.005
 6632.00    0.41402   0.52083    0.005
 6633.00    0.45244   0.51712    0.005
 6634.00    0.44945   0.50965    0.005
 6635.00    0.42596   0.50263    0.005
 6636.00    0.42147   0.50262    0.005
 6637.00    0.42511   0.50768    0.005
 6638.00    0.41885   0.51083    0.005
 6639.00    0.40896   0.51105    0.005
 6640.00    0.40383   0.50986    0.005
 6641.00    0.40017   0.50777    0.005
 6642.00    0.40339   0.50393    0.005
 6643.00    0.40839   0.49677    0.005
 6644.00    0.37617   0.48975    0.005
 6645.00    0.33611   0.49058    0.005
 6646.00    0.35256   0.49921    0.005
 6647.00    0.37842   0.50756    0.005
 6648.00    0.38203   0.51089    0.005
 6649.00    0.38285   0.50941    0.005
 6650.00    0.37963   0.50676    0.005
 6651.00    0.37606   0.50784    0.005
 6652.00    0.44513   0.50958    0.005
 6653.00    0.51793   0.50368    0.005
 6654.00    0.50610   0.49501    0.005
 6655.00    0.49263   0.49591    0.005
 6656.00    0.46992   0.50349    0.005
 6657.00    0.44710   0.50682    0.005
 6658.00    0.42194   0.50584    0.005
 6659.00    0.39308   0.50634    0.005
 6660.00    0.31954   0.50806    0.005
 6661.00    0.25729   0.50755    0.005
 6662.00    0.28820   0.50539    0.005
 6663.00    0.31308   0.50407    0.005
 6664.00    0.30074   0.50398    0.005
 6665.00    0.28414   0.50466    0.005
 6666.00    0.24687   0.50512    0.005
 6667.00    0.19628   0.50465    0.005
 6668.00    0.09308   0.50480    0.005
 6669.00    0.01935   0.50525    0.005
 6670.00    0.04240   0.50396    0.005
 6671.00    0.07432   0.50126    0.005
 6672.00    0.13089   0.49696    0.005
 6673.00    0.18813   0.48923    0.005
 6674.00    0.24696   0.48347    0.005
 6675.00    0.30784   0.48671    0.005
 6676.00    0.37288   0.49285    0.005
 6677.00    0.41706   0.49439    0.005
 6678.00    0.42395   0.49404    0.005
 6679.00    0.42513   0.49640    0.005
 6680.00    0.41737   0.50133    0.005
 6681.00    0.42748   0.50533    0.005
 6682.00    0.46213   0.50612    0.005
 6683.00    0.48267   0.50529    0.005
 6684.00    0.48618   0.50517    0.005
 6685.00    0.48003   0.50554    0.005
 6686.00    0.46360   0.50339    0.005
 6687.00    0.45276   0.49254    0.005
 6688.00    0.44717   0.47529    0.005
 6689.00    0.45373   0.46850    0.005
 6690.00    0.47037   0.47896    0.005
 6691.00    0.49536   0.49171    0.005
 6692.00    0.52643   0.49620    0.005
 6693.00    0.52107   0.49738    0.005
 6694.00    0.49238   0.49936    0.005
 6695.00    0.45561   0.50105    0.005
 6696.00    0.41431   0.50136    0.000
 6697.00    0.40326   0.50046    0.000
 6698.00    0.40693   0.49897    0.000
 6699.00    0.46182   0.49841    0.000
 6700.00    0.53825   0.49962    0.000
 6701.00    0.59142   0.50084    0.000
 6702.00    0.63621   0.50086    0.000
 6703.00    0.63725   0.50030    0.000
 6704.00    0.62497   0.49979    0.000
 6705.00    0.58701   0.49729    0.000
 6706.00    0.54255   0.49118    0.000
 6707.00    0.47527   0.48561    0.000
 6708.00    0.40330   0.48565    0.000
 6709.00    0.44710   0.48955    0.000
 6710.00    0.50963   0.49458    0.000
 6711.00    0.46283   0.49905    0.000
 6712.00    0.40278   0.49982    0.000
 6713.00    0.33297   0.49629    0.000
 6714.00    0.26234   0.49073    0.000
 6715.00    0.30222   0.48770    0.000
 6716.00    0.34734   0.48971    0.000
 6717.00    0.40218   0.49333    0.000
 6718.00    0.45591   0.49467    0.000
 6719.00    0.43906   0.49433    0.000
 6720.00    0.42137   0.49324    0.000
 6721.00    0.38712   0.49150    0.000
 6722.00    0.35796   0.49106    0.000
 6723.00    0.38720   0.49022    0.000
 6724.00    0.41089   0.48689    0.000
 6725.00    0.39035   0.48282    0.000
 6726.00    0.37325   0.47776    0.000
 6727.00    0.37667   0.47030    0.000
 6728.00    0.37431   0.46490    0.000
 6729.00    0.34452   0.46949    0.000
 6730.00    0.32348   0.48090    0.000
 6731.00    0.33624   0.48682    0.000
 6732.00    0.35648   0.48603    0.000
 6733.00    0.40082   0.48609    0.000
 6734.00    0.43179   0.48946    0.000
 6735.00    0.42626   0.49073    0.000
 6736.00    0.42842   0.48717    0.000
 6737.00    0.44854   0.48384    0.000
 6738.00    0.46147   0.48498    0.000
 6739.00    0.45983   0.48826    0.000
 6740.00    0.45279   0.49083    0.000
 6741.00    0.43624   0.49230    0.000
 6742.00    0.43102   0.49198    0.000
 6743.00    0.44325   0.48969    0.000
 6744.00    0.46562   0.48760    0.000
 6745.00    0.50171   0.48790    0.000
 6746.00    0.50494   0.48965    0.000
 6747.00    0.46905   0.49000    0.000
 6748.00    0.45821   0.48664    0.000
 6749.00    0.47366   0.48166    0.000
 6750.00    0.46992   0.47981    0.000
 6751.00    0.44841   0.48238    0.000
 6752.00    0.44353   0.48406    0.000
 6753.00    0.45224   0.48117    0.006
 6754.00    0.43769   0.47858    0.006
 6755.00    0.40642   0.48077    0.006
 6756.00    0.35623   0.48336    0.006
 6757.00    0.29412   0.48251    0.006
 6758.00    0.24797   0.47997    0.006
 6759.00    0.21062   0.47687    0.006
 6760.00    0.31866   0.47390    0.006
 6761.00    0.49637   0.47348    0.006
 6762.00    0.57346   0.47619    0.006
 6763.00    0.60892   0.47684    0.007
 6764.00    0.56076   0.47622    0.007
 6765.00    0.48303   0.47928    0.006
 6766.00    0.44332   0.48247    0.006
 6767.00    0.41497   0.48429    0.006
 6768.00    0.50873   0.48655    0.006
 6769.00    0.63275   0.48929    0.006
 6770.00    0.62586   0.49111    0.006
 6771.00    0.59269   0.49142    0.006
 6772.00    0.56452   0.49011    0.006
 6773.00    0.53714   0.48846    0.006
 6774.00    0.45534   0.48878    0.006
 6775.00    0.36720   0.48889    0.006
 6776.00    0.34576   0.48605    0.006
 6777.00    0.32958   0.47989    0.006
 6778.00    0.33480   0.47409    0.006
 6779.00    0.34094   0.47472    0.006
 6780.00    0.36806   0.47911    0.006
 6781.00    0.39454   0.47919    0.006
 6782.00    0.38141   0.47642    0.006
 6783.00    0.37069   0.47784    0.006
 6784.00    0.40356   0.48337    0.006
 6785.00    0.44161   0.48867    0.006
 6786.00    0.53631   0.49135    0.006
 6787.00    0.61576   0.49164    0.006
 6788.00    0.57807   0.49040    0.006
 6789.00    0.54041   0.49060    0.006
 6790.00    0.50293   0.49210    0.006
 6791.00    0.46620   0.49135    0.006
 6792.00    0.43293   0.48704    0.006
 6793.00    0.39824   0.48018    0.006
 6794.00    0.35822   0.47250    0.006
 6795.00    0.34342   0.46812    0.006
 6796.00    0.40822   0.46875    0.006
 6797.00    0.50371   0.47193    0.006
 6798.00    0.68136   0.47663    0.006
 6799.00    0.78334   0.48085    0.006
 6800.00    0.71143   0.48154    0.006
 6801.00    0.63320   0.48073    0.006
 6802.00    0.54239   0.48137    0.006
 6803.00    0.48656   0.48063    0.006
 6804.00    0.49133   0.47680    0.006
 6805.00    0.45858   0.47433    0.006
 6806.00    0.36891   0.47509    0.006
 6807.00    0.30449   0.47657    0.006
 6808.00    0.27371   0.47827    0.006
 6809.00    0.30819   0.47920    0.006
 6810.00    0.41928   0.47972    0.006
 6811.00    0.48802   0.48119    0.006
 6812.00    0.51294   0.48288    0.006
 6813.00    0.54381   0.48296    0.006
 6814.00    0.58013   0.48068    0.006
 6815.00    0.55469   0.47841    0.006
 6816.00    0.47957   0.47865    0.006
 6817.00    0.48578   0.47821    0.006
 6818.00    0.54958   0.47726    0.006
 6819.00    0.58151   0.47830    0.006
 6820.00    0.59367   0.47760    0.006
 6821.00    0.53765   0.47563    0.006
 6822.00    0.44464   0.47682    0.006
 6823.00    0.41547   0.47882    0.006
 6824.00    0.41641   0.47783    0.006
 6825.00    0.47707   0.47390    0.006
 6826.00    0.56200   0.47192    0.006
 6827.00    0.55318   0.47596    0.006
 6828.00    0.51180   0.48111    0.006
 6829.00    0.50406   0.48121    0.006
 6830.00    0.50615   0.47732    0.006
 6831.00    0.46592   0.47406    0.006
 6832.00    0.41545   0.47583    0.006
 6833.00    0.36495   0.48059    0.006
 6834.00    0.31446   0.48366    0.006
 6835.00    0.41808   0.48427    0.006
 6836.00    0.54519   0.48371    0.006
 6837.00    0.56199   0.48201    0.006
 6838.00    0.56641   0.47660    0.007
 6839.00    0.50946   0.47067    0.006
 6840.00    0.44792   0.47103    0.006
 6841.00    0.48719   0.47645    0.006
 6842.00    0.53046   0.48013    0.006
 6843.00    0.49185   0.47922    0.006
 6844.00    0.45546   0.47782    0.006
 6845.00    0.53034   0.47939    0.006
 6846.00    0.59313   0.48145    0.006
 6847.00    0.45172   0.48034    0.006
 6848.00    0.32271   0.47669    0.006
 6849.00    0.32339   0.47210    0.006
 6850.00    0.33237   0.46648    0.006
 6851.00    0.40302   0.46073    0.006
 6852.00    0.46103   0.45548    0.006
 6853.00    0.44740   0.45441    0.006
 6854.00    0.44071   0.45951    0.006
 6855.00    0.46528   0.46803    0.006
 6856.00    0.48379   0.47486    0.006
 6857.00    0.47985   0.47699    0.006
 6858.00    0.46616   0.47669    0.006
 6859.00    0.42229   0.47662    0.006
 6860.00    0.34350   0.47612    0.006
 6861.00    0.17287   0.47516    0.006
 6862.00    0.11681   0.47481    0.006
 6863.00    0.31965   0.47558    0.006
 6864.00    0.46254   0.47478    0.006
 6865.00    0.48808   0.46771    0.006
 6866.00    0.50232   0.45929    0.006
 6867.00    0.49728   0.45890    0.006
 6868.00    0.50436   0.46290    0.006
 6869.00    0.52954   0.46548    0.006
 6870.00    0.51052   0.46739    0.006
 6871.00    0.43345   0.46531    0.006
 6872.00    0.41185   0.45900    0.006
 6873.00    0.45443   0.45860    0.006
 6874.00    0.46833   0.46720    0.006
 6875.00    0.45295   0.47542    0.006
 6876.00    0.45126   0.47614    0.006
 6877.00    0.46187   0.47105    0.006
 6878.00    0.46256   0.46397    0.006
 6879.00    0.45536   0.45977    0.006
 6880.00    0.45759   0.46243    0.006
 6881.00    0.46639   0.46722    0.006
 6882.00    0.47642   0.46688    0.006
 6883.00    0.48720   0.46274    0.006
 6884.00    0.53597   0.46273    0.006
 6885.00    0.60505   0.46545    0.006
 6886.00    0.57324   0.46581    0.006
 6887.00    0.49463   0.46675    0.006
 6888.00    0.44949   0.47073    0.006
 6889.00    0.41771   0.47419    0.006
 6890.00    0.40638   0.47404    0.006
 6891.00    0.40202   0.47142    0.006
 6892.00    0.37119   0.46587    0.006
 6893.00    0.33277   0.45985    0.006
 6894.00    0.39864   0.45911    0.006
 6895.00    0.48921   0.46443    0.006
 6896.00    0.54876   0.46787    0.006
 6897.00    0.60239   0.46657    0.006
 6898.00    0.57942   0.46803    0.007
 6899.00    0.54513   0.47241    0.007
 6900.00    0.45086   0.47499    0.007
 6901.00    0.35011   0.47637    0.006
 6902.00    0.28405   0.47724    0.006
 6903.00    0.22044   0.47607    0.006
 6904.00    0.22832   0.47398    0.006
 6905.00    0.23876   0.47267    0.006
 6906.00    0.25494   0.47059    0.006
 6907.00    0.27252   0.46938    0.006
 6908.00    0.33821   0.47106    0.006
 6909.00    0.40108   0.47303    0.006
 6910.00    0.41940   0.47199    0.006
 6911.00    0.43900   0.46925    0.006
 6912.00    0.47144   0.47014    0.006
 6913.00    0.50156   0.47376    0.006
 6914.00    0.51496   0.47529    0.006
 6915.00    0.50275   0.47370    0.006
 6916.00    0.34922   0.47205    0.006
 6917.00    0.23358   0.47286    0.006
 6918.00    0.28503   0.47606    0.006
 6919.00    0.33219   0.47755    0.006
 6920.00    0.36382   0.47754    0.006
 6921.00    0.35019   0.47622    0.006
 6922.00    0.19903   0.47317    0.006
 6923.00    0.12221   0.47069    0.006
 6924.00    0.23755   0.46665    0.006
 6925.00    0.33861   0.46109    0.006
 6926.00    0.40794   0.46091    0.006
 6927.00    0.46942   0.46371    0.006
 6928.00    0.51576   0.46425    0.006
 6929.00    0.51907   0.46623    0.006
 6930.00    0.45004   0.46966    0.006
 6931.00    0.44119   0.47249    0.006
 6932.00    0.52095   0.47506    0.006
 6933.00    0.56659   0.47536    0.006
 6934.00    0.56804   0.47127    0.006
 6935.00    0.46116   0.46292    0.006
 6936.00    0.23068   0.45674    0.006
 6937.00    0.18390   0.45742    0.006
 6938.00    0.32196   0.46396    0.006
 6939.00    0.39733   0.46949    0.006
 6940.00    0.41706   0.47060    0.006
 6941.00    0.47925   0.47027    0.006
 6942.00    0.57463   0.46914    0.007
 6943.00    0.52904   0.46624    0.007
 6944.00    0.38652   0.46179    0.006
 6945.00    0.22594   0.46293    0.006
 6946.00    0.05448   0.46807    0.006
 6947.00    0.09705   0.46956    0.006
 6948.00    0.25221   0.46800    0.006
 6949.00    0.27815   0.46740    0.006
 6950.00    0.24512   0.46936    0.006
 6951.00    0.34234   0.47213    0.006
 6952.00    0.49072   0.47348    0.006
 6953.00    0.47285   0.47140    0.006
 6954.00    0.39938   0.46642    0.006
 6955.00    0.33347   0.45921    0.006
 6956.00    0.26968   0.45278    0.006
 6957.00    0.24368   0.45567    0.006
 6958.00    0.22643   0.46395    0.006
 6959.00    0.24666   0.46892    0.006
 6960.00    0.27385   0.47065    0.006
 6961.00    0.24462   0.46876    0.006
 6962.00    0.20732   0.46244    0.006
 6963.00    0.21380   0.45891    0.006
 6964.00    0.22482   0.45901    0.006
 6965.00    0.41846   0.45914    0.007
 6966.00    0.62427   0.46101    0.007
 6967.00    0.51897   0.46537    0.007
 6968.00    0.40370   0.46842    0.007
 6969.00    0.36516   0.46856    0.007
 6970.00    0.32498   0.46784    0.007
 6971.00    0.23423   0.46753    0.006
 6972.00    0.15809   0.46877    0.006
 6973.00    0.29944   0.47001    0.006
 6974.00    0.42310   0.47067    0.006
 6975.00    0.37681   0.47100    0.006
 6976.00    0.33177   0.46847    0.006
 6977.00    0.29548   0.46524    0.006
 6978.00    0.26139   0.46732    0.006
 6979.00    0.23909   0.47239    0.006
 6980.00    0.22547   0.47380    0.006
 6981.00    0.24927   0.47071    0.006
 6982.00    0.30122   0.46621    0.006
 6983.00    0.45311   0.46650    0.006
 6984.00    0.53462   0.47049    0.007
 6985.00    0.40620   0.46981    0.006
 6986.00    0.31736   0.46368    0.006
 6987.00    0.32906   0.45732    0.006
 6988.00    0.31298   0.44934    0.006
 6989.00    0.23617   0.43707    0.006
 6990.00    0.24202   0.43177    0.007
 6991.00    0.40467   0.44271    0.007
 6992.00    0.45643   0.45731    0.006
 6993.00    0.32459   0.46546    0.006
 6994.00    0.27426   0.46976    0.006
 6995.00    0.34223   0.47111    0.006
 6996.00    0.40294   0.47023    0.006
 6997.00    0.45438   0.46948    0.006
 6998.00    0.45983   0.46874    0.006
 6999.00    0.41355   0.46594    0.006
 7000.00    0.42117   0.46147    0.006
 7001.00    0.48226   0.46055    0.006
 7002.00    0.46053   0.46424    0.006
 7003.00    0.36634   0.46850    0.006
 7004.00    0.30685   0.46915    0.006
 7005.00    0.27410   0.46667    0.006
 7006.00    0.22484   0.46511    0.006
 7007.00    0.16439   0.46630    0.006
 7008.00    0.22188   0.46739    0.006
 7009.00    0.34939   0.46494    0.007
 7010.00    0.37062   0.45765    0.007
 7011.00    0.33680   0.45194    0.007
 7012.00    0.41278   0.45461    0.007
 7013.00    0.53804   0.46135    0.007
 7014.00    0.54853   0.46230    0.007
 7015.00    0.51471   0.45653    0.007
 7016.00    0.48949   0.45194    0.006
 7017.00    0.46708   0.45218    0.006
 7018.00    0.47969   0.45539    0.006
 7019.00    0.50194   0.45938    0.006
 7020.00    0.47579   0.46313    0.006
 7021.00    0.43870   0.46391    0.006
 7022.00    0.38605   0.46102    0.006
 7023.00    0.33058   0.45973    0.006
 7024.00    0.43145   0.46212    0.006
 7025.00    0.55397   0.46209    0.006
 7026.00    0.48003   0.45272    0.006
 7027.00    0.38660   0.43795    0.006
 7028.00    0.40639   0.43512    0.006
 7029.00    0.43328   0.44813    0.007
 7030.00    0.30390   0.46145    0.007
 7031.00    0.17073   0.46699    0.007
 7032.00    0.20769   0.46758    0.007
 7033.00    0.23999   0.46302    0.007
 7034.00    0.14447   0.45345    0.007
 7035.00    0.06297   0.44592    0.007
 7036.00    0.17838   0.44695    0.007
 7037.00    0.28801   0.45373    0.006
 7038.00    0.34431   0.45841    0.006
 7039.00    0.37923   0.45965    0.006
 7040.00    0.27002   0.46075    0.006
 7041.00    0.20329   0.46223    0.006
 7042.00    0.35863   0.46289    0.006
 7043.00    0.49295   0.46164    0.006
 7044.00    0.53874   0.46001    0.006
 7045.00    0.56383   0.45883    0.006
 7046.00    0.51696   0.45949    0.006
 7047.00    0.45741   0.46254    0.006
 7048.00    0.36078   0.46028    0.006
 7049.00    0.31936   0.44976    0.006
 7050.00    0.41576   0.44643   -2.000
 7051.00    0.48447   0.45769   -2.000
 7052.00    0.49362   0.47096   -2.000
 7053.00    0.45544   0.47730   -2.000
 7054.00    0.32885   0.47763   -2.000
 7055.00    0.26441   0.47267   -2.000
 7056.00    0.30133   0.46627   -2.000
 7057.00    0.32035   0.46538   -2.000
 7058.00    0.31377   0.47004   -2.000
 7059.00    0.25549   0.47515   -2.000
 7060.00    0.13218   0.47710   -2.000
 7061.00    0.17960   0.47571   -2.000
 7062.00    0.41635   0.47121   -2.000
 7063.00    0.48214   0.46149   -2.000
 7064.00    0.38069   0.44966   -2.000
 7065.00    0.30481   0.44256   -2.000
 7066.00    0.25098   0.44160   -2.000
 7067.00    0.26984   0.44568   -2.000
 7068.00    0.34393   0.45127   -2.000
 7069.00    0.35921   0.45288   -2.000
 7070.00    0.33522   0.44766   -2.000
 7071.00    0.43383   0.43994   -2.000
 7072.00    0.60413   0.43768   -2.000
 7073.00    0.62630   0.44074   -2.000
 7074.00    0.57295   0.44434   -2.000
 7075.00    0.45278   0.44817   -2.000
 7076.00    0.30310   0.45012   -2.000
 7077.00    0.23213   0.44601   -2.000
 7078.00    0.19099   0.43848   -2.000
 7079.00    0.26901   0.43126   -2.000
 7080.00    0.38540   0.43040   -2.000
 7081.00    0.31241   0.43834   -2.000
 7082.00    0.18841   0.44701   -2.000
 7083.00    0.18958   0.45027   -2.000
 7084.00    0.21839   0.45078   -2.000
 7085.00    0.20476   0.45105   -2.000
 7086.00    0.18368   0.45030   -2.000
 7087.00    0.23289   0.44890   -2.000
 7088.00    0.29151   0.44864   -2.000
 7089.00    0.37080   0.44995   -2.000
 7090.00    0.45205   0.45122   -2.000
 7091.00    0.43586   0.45270   -2.000
 7092.00    0.41396   0.45390   -2.000
 7093.00    0.28131   0.45140   -2.000
 7094.00    0.14778   0.44290   -2.000
 7095.00    0.26446   0.43074   -2.000
 7096.00    0.37439   0.42340   -2.000
 7097.00    0.31627   0.42548   -2.000
 7098.00    0.25964   0.42809   -2.000
 7099.00    0.22285   0.42613   -2.000
 7100.00    0.19156   0.42308   -2.000
 7101.00    0.20892   0.42036   -2.000
 7102.00    0.22603   0.41990   -2.000
 7103.00    0.24148   0.42217   -2.000
 7104.00    0.26817   0.42264   -2.000
 7105.00    0.35208   0.42249   -2.000
 7106.00    0.42192   0.42262   -2.000
 7107.00    0.43381   0.42248   -2.000
 7108.00    0.44163   0.42294   -2.000
 7109.00    0.43557   0.42521   -2.000
 7110.00    0.41420   0.43084   -2.000
 7111.00    0.34886   0.43432   -2.000
 7112.00    0.34001   0.43370   -2.000
 7113.00    0.46978   0.43046   -2.000
 7114.00    0.52570   0.42834   -2.000
 7115.00    0.42536   0.43046   -2.000
 7116.00    0.32978   0.43459   -2.000
 7117.00    0.24294   0.43520   -2.000
 7118.00    0.26744   0.43180   -2.000
 7119.00    0.47081   0.42992   -2.000
 7120.00    0.61730   0.43072   -2.000
 7121.00    0.68362   0.42883   -2.000
 7122.00    0.73483   0.42347   -2.000
 7123.00    0.76728   0.42088   -2.000
 7124.00    0.81830   0.42380   -2.000
 7125.00    0.88960   0.42816   -2.000
 7126.00    0.81987   0.43027   -2.000
 7127.00    0.61414   0.43164   -2.000
 7128.00    0.51760   0.43231   -2.000
 7129.00    0.51391   0.43197   -2.000
 7130.00    0.36389   0.43101   -2.000
 7131.00    0.10429   0.42997   -2.000
 7132.00    0.13419   0.42811   -2.000
 7133.00    0.35457   0.42499   -2.000
 7134.00    0.41182   0.42540   -2.000
 7135.00    0.37511   0.42935   -2.000
 7136.00    0.43785   0.42887   -2.000
 7137.00    0.55048   0.42347   -2.000
 7138.00    0.48119   0.42017   -2.000
 7139.00    0.33290   0.42130   -2.000
 7140.00    0.18518   0.42128   -2.000
 7141.00    0.03768   0.41530   -2.000
 7142.00    0.19656   0.40898   -2.000
 7143.00    0.45223   0.41031   -2.000
 7144.00    0.52685   0.41683   -2.000
 7145.00    0.55373   0.42317   -2.000
 7146.00    0.48463   0.42654   -2.000
 7147.00    0.39485   0.42744   -2.000
 7148.00    0.61108   0.42908   -2.000
 7149.00    0.87960   0.42928   -2.000
 7150.00   -0.49974   0.42565   -2.000
 7151.00   -2.09239   0.42314   -2.000
 7152.00   -0.97831   0.42550   -2.000
 7153.00    0.38154   0.42804   -2.000
 7154.00    0.51385   0.42788   -2.000
 7155.00    0.57898   0.42719   -2.000
 7156.00    0.50369   0.42655   -2.000
 7157.00    0.42848   0.42583   -2.000
 7158.00    0.62972   0.42132   -2.000
 7159.00    0.82601   0.41205   -2.000
 7160.00    0.90989   0.40881   -2.000
 7161.00    1.00205   0.41480   -2.000
 7162.00    1.19857   0.42147   -2.000
 7163.00    1.32755   0.42657   -2.000
 7164.00    0.88039   0.43153   -2.000
 7165.00    0.43202   0.43297   -2.000
 7166.00   -0.02407   0.42959   -2.000
 7167.00   -0.33259   0.42795   -2.000
 7168.00    0.09156   0.43215   -2.000
 7169.00    0.47076   0.43482   -2.000
 7170.00    0.66903   0.43181   -2.000
 7171.00    0.78206   0.42731   -2.000
 7172.00    0.61033   0.42623   -2.000
 7173.00    0.46164   0.42860   -2.000
 7174.00    0.37792   0.42730   -2.000
 7175.00    0.32960   0.41747   -2.000
 7176.00    0.36669   0.40703   -2.000
 7177.00    0.40215   0.40786   -2.000
 7178.00    0.43422   0.41860   -2.000
 7179.00    0.48460   0.42850   -2.000
 7180.00    0.56816   0.43149   -2.000
 7181.00    0.55797   0.43009   -2.000
 7182.00    0.39939   0.42998   -2.000
 7183.00    0.29723   0.43294   -2.000
 7184.00    0.27348   0.43584   -2.000
 7185.00    0.25343   0.43576   -2.000
 7186.00    0.23791   0.43177   -2.000
 7187.00    0.28615   0.42605   -2.000
 7188.00    0.40314   0.42470   -2.000
 7189.00    0.44138   0.42905   -2.000
 7190.00    0.40473   0.43063   -2.000
 7191.00    0.36667   0.42358   -2.000
 7192.00    0.32743   0.41384   -2.000
 7193.00    0.29301   0.41194   -2.000
 7194.00    0.26214   0.42042   -2.000
 7195.00    0.27852   0.42979   -2.000
 7196.00    0.32551   0.43204   -2.000
 7197.00    0.35521   0.42698   -2.000
 7198.00    0.37510   0.41690   -2.000
 7199.00    0.51577   0.40854   -2.000
 7200.00    0.71609   0.40750   -2.000
 7201.00    0.88136   0.41231   -2.000
 7202.00    1.03167   0.41902   -2.000
 7203.00    0.83724   0.42182   -2.000
 7204.00    0.51668   0.41952   -2.000
 7205.00    0.25956   0.41843   -2.000
 7206.00    0.02210   0.42219   -2.000
 7207.00   -0.00242   0.42486   -2.000
 7208.00    0.02802   0.42215   -2.000
 7209.00    0.19645   0.42017   -2.000
 7210.00    0.39390   0.42300   -2.000
 7211.00    0.48780   0.42598   -2.000
 7212.00    0.56449   0.42430   -2.000
 7213.00    0.61271   0.41946   -2.000
 7214.00    0.65737   0.41891   -2.000
 7215.00    0.70783   0.42499   -2.000
 7216.00    0.75879   0.42994   -2.000
 7217.00    0.51170   0.42524   -2.000
 7218.00    0.24947   0.41187   -2.000
