###################################################################
## OUTPUT of StarlightChains_v04.for    [Cid@UFSC - 01/Apr/2007] ##
###################################################################

## Some input info
KUG0210-078._47_38.txt                   [arq_obs]
Base.CB07.vall.4m                        [arq_base]
Masks.EmLines.NEW.gm                     [arq_masks]
StCv04.C11.config                        [arq_config]
   66                                    [N_base]
    0                                    [N_YAV_components = # of components with extra extinction!]
    0                                    [i_FitPowerLaw (1/0 = Yes/No)]
-9.99                                    [alpha_PowerLaw]
CCM                                      [red_law_option]
 1.458241                                [q_norm = A(l_norm)/A(V)]

## (Re)Sampling Parameters
 3741.00                                 [l_ini (A)]
 7218.00                                 [l_fin (A)]
    1.00                                 [dl    (A)]     (OBS: dl_cushion =    50.00 A)

## Normalization info
 4020.00                                 [l_norm (A) - for base]
 4010.00                                 [llow_norm (A) - window for f_obs]
 4060.00                                 [lupp_norm (A) - window for f_obs]
1.147772E-17                             [fobs_norm (in input units)]

## S/N
 3691.00                                 [llow_SN (A) - window for S/N]
 7268.00                                 [lupp_SN (A) - window for S/N]
   2.970                                 [S/N in S/N window]
   3.950                                 [S/N in norm. window]
   0.011                                 [S/N_err in S/N window]
   0.015                                 [S/N_err in norm. window]
  1.0000                                 [fscale_chi2]

## etc...
    -2007910                             [idum_orig]
  2409                                   [NOl_eff]
  2397                                   [Nl_eff]
    12    NSIGMA                         [Ntot_cliped & clip_method]
   961170                                [Nglobal_steps]
   7                                     [N_chains]
  45                                     [NEX0s_base = N_base in EX0s-fits]
 0   0   1       12   2.0   1.647E+03    [Clip-Bug, RC-Crash & Burn-In warning-flags, n_censored_weights, wei_nsig_threshold & wei_limit]
    31     30.275     29.614      0.661  [idt_all, wdt_TotTime, wdt_UsrTime & wdt_SysTime (sec)]

## Synthesis Results - Best model ##

 2.08341E-05                             [chi2/Nl_eff]
    23.48906                             [adev (%)]

   108.14533                             [sum-of-x (%)]
 3.94222E-18                             [Flux_tot (units of input spectrum!)]
 6.27844E-14                             [Mini_tot (???)]
 3.41813E-14                             [Mcor_tot (???)]

-313.48                                  [v0_min  (km/s)]
 234.85                                  [vd_min  (km/s)]
-0.8540                                  [AV_min  (mag)]
 0.0000                                  [YAV_min (mag)]

# j     x_j(%)      Mini_j(%)     Mcor_j(%)     age_j(yr)     Z_j      (L/M)_j    YAV?  Mstars   component_j        a/Fe...       SSP_chi2r SSP_adev(%)   SSP_AV   SSP_x(%)
  1      0.0000     0.0000E+00    0.0000E+00    1.000000E+06  0.00400  1.094E-02    0   1.0000   age020_m42            0.0000     2.6947E-05    29.4136   2.5306    87.4599
  2      0.0211     3.0506E-05    5.6027E-05    3.160000E+06  0.00400  4.007E-02    0   0.9999   age045_m42            0.0000     2.5244E-05    28.3455   1.7503    95.0843
  3      0.0000     0.0000E+00    0.0000E+00    5.010000E+06  0.00400  2.539E-02    0   0.9488   age055_m42            0.0000     2.6063E-05    29.0027   2.0998    91.8915
  4      0.0000     0.0000E+00    0.0000E+00    6.610000E+06  0.00400  2.620E-02    0   0.9220   age061_m42            0.0000     2.5512E-05    28.6223   1.6868    95.0075
  5      0.6515     2.8615E-03    4.6579E-03    1.000000E+07  0.00400  1.322E-02    0   0.8862   age070_m42            0.0000     2.6567E-05    30.4779   1.4699    95.1219
  6      0.0000     0.0000E+00    0.0000E+00    1.445000E+07  0.00400  7.883E-03    0   0.8571   age078_m42            0.0000     2.6840E-05    30.5947   1.8042    92.5216
  7      0.0000     0.0000E+00    0.0000E+00    2.512000E+07  0.00400  5.251E-03    0   0.8174   age090_m42            0.0000     2.6655E-05    30.7607   1.3474    95.4561
  8      0.0065     1.0285E-04    1.4832E-04    4.000000E+07  0.00400  3.649E-03    0   0.7851   age104_m42            0.0000     2.6215E-05    30.3156   1.1044    96.7387
  9      0.0000     0.0000E+00    0.0000E+00    5.500000E+07  0.00400  3.098E-03    0   0.7629   age110_m42            0.0000     2.5786E-05    29.3175   1.2195    97.8939
 10      0.0000     0.0000E+00    0.0000E+00    1.015200E+08  0.00400  2.228E-03    0   0.7207   age116_m42            0.0000     2.5629E-05    28.6701   1.2145    98.8179
 11      0.0000     0.0000E+00    0.0000E+00    2.861200E+08  0.00400  1.093E-03    0   0.6648   age125_m42            0.0000     2.5538E-05    28.9206   0.6532   101.4379
 12      0.0005     4.7333E-05    5.5338E-05    5.088000E+08  0.00400  6.597E-04    0   0.6365   age130_m42            0.0000     2.5064E-05    27.7326   0.5979   103.7022
 13      0.0000     0.0000E+00    0.0000E+00    1.434000E+09  0.00400  2.132E-04    0   0.5798   age139_m42            0.0000     2.3154E-05    26.2482  -0.4087   106.8696
 14      7.1764     7.0682E+00    6.9809E+00    4.250000E+09  0.00400  5.895E-05    0   0.5377   age158_m42            0.0000     2.1527E-05    24.7245  -0.8792   103.5240
 15      0.3486     5.7667E-01    5.5207E-01    7.500000E+09  0.00400  3.510E-05    0   0.5212   age171_m42            0.0000     2.1256E-05    25.1294  -1.0000   101.7553
 16      0.0000     0.0000E+00    0.0000E+00    1.300000E+10  0.00400  2.005E-05    0   0.5034   age193_m42            0.0000     2.1759E-05    27.3259  -1.0000    97.9892
 17      0.1013     3.8553E-01    3.5173E-01    1.800000E+10  0.00400  1.525E-05    0   0.4967   age213_m42            0.0000     2.1880E-05    27.8220  -1.0000    97.0192
 18      0.0000     0.0000E+00    0.0000E+00    1.000000E+06  0.00800  1.238E-02    0   1.0000   age020_m52            0.0000     2.6893E-05    29.4124   2.5264    87.6601
 19      0.3251     6.1406E-04    1.1241E-03    3.160000E+06  0.00800  3.074E-02    0   0.9966   age045_m52            0.0000     2.6675E-05    29.2755   2.4428    88.6247
 20      0.0000     0.0000E+00    0.0000E+00    5.010000E+06  0.00800  2.668E-02    0   0.9443   age055_m52            0.0000     2.6286E-05    29.2293   2.1929    90.7917
 21      0.0000     0.0000E+00    0.0000E+00    6.610000E+06  0.00800  2.136E-02    0   0.9177   age061_m52            0.0000     2.5715E-05    29.9662   0.9691    96.2532
 22      0.0000     0.0000E+00    0.0000E+00    1.000000E+07  0.00800  1.215E-02    0   0.8827   age070_m52            0.0000     2.7011E-05    31.2380   1.6740    94.2163
 23      0.0000     0.0000E+00    0.0000E+00    1.445000E+07  0.00800  8.717E-03    0   0.8552   age078_m52            0.0000     2.6658E-05    30.5310   1.7649    93.9456
 24      1.5104     1.5682E-02    2.3511E-02    2.512000E+07  0.00800  5.592E-03    0   0.8162   age090_m52            0.0000     2.6554E-05    30.8602   1.4118    96.6179
 25      1.4525     2.1646E-02    3.1175E-02    4.000000E+07  0.00800  3.896E-03    0   0.7841   age104_m52            0.0000     2.6022E-05    30.2047   1.2994    98.1015
 26      0.1087     2.9374E-03    3.8987E-03    1.015200E+08  0.00800  2.148E-03    0   0.7226   age116_m52            0.0000     2.5433E-05    29.0711   1.1995    99.0879
 27      0.9884     5.7819E-02    7.0975E-02    2.861200E+08  0.00800  9.925E-04    0   0.6683   age125_m52            0.0000     2.5081E-05    27.8020   0.6647   104.6551
 28      3.8623     7.1393E-01    8.0491E-01    9.047900E+08  0.00800  3.141E-04    0   0.6138   age135_m52            0.0000     2.2541E-05    25.1525  -0.2194   111.7934
 29      5.3256     1.7988E+00    1.9338E+00    1.434000E+09  0.00800  1.719E-04    0   0.5853   age139_m52            0.0000     2.1725E-05    25.0654  -0.7886   108.9879
 30      0.5703     4.2064E-01    4.3268E-01    2.500000E+09  0.00800  7.872E-05    0   0.5600   age150_m52            0.0000     2.1089E-05    24.7524  -1.0000   105.3608
 31      0.0000     0.0000E+00    0.0000E+00    4.250000E+09  0.00800  4.336E-05    0   0.5426   age158_m52            0.0000     2.1023E-05    24.8254  -1.0000   104.0506
 32      4.5592     8.3795E+00    8.1868E+00    6.250000E+09  0.00800  3.159E-05    0   0.5319   age166_m52            0.0000     2.1871E-05    27.5147  -1.0000   100.0318
 33      0.0000     0.0000E+00    0.0000E+00    1.300000E+10  0.00800  1.361E-05    0   0.5073   age193_m52            0.0000     2.7740E-05    35.7998  -1.0000    88.3730
 34      0.0000     0.0000E+00    0.0000E+00    1.800000E+10  0.00800  9.886E-06    0   0.4990   age213_m52            0.0000     3.0274E-05    37.3865  -1.0000    85.2287
 35      0.0000     0.0000E+00    0.0000E+00    1.000000E+06  0.02000  1.544E-02    0   1.0000   age020_m62            0.0000     2.6909E-05    29.4104   2.5218    87.8670
 36      0.0000     0.0000E+00    0.0000E+00    3.160000E+06  0.02000  3.762E-02    0   0.9858   age045_m62            0.0000     2.6898E-05    29.3990   2.4597    88.6820
 37      0.0000     0.0000E+00    0.0000E+00    5.010000E+06  0.02000  3.296E-02    0   0.9342   age055_m62            0.0000     2.5787E-05    28.6691   2.0436    93.5303
 38      0.0000     0.0000E+00    0.0000E+00    8.710000E+06  0.02000  1.154E-02    0   0.8861   age067_m62            0.0000     3.0101E-05    35.3762   1.2447    93.1926
 39      0.0000     0.0000E+00    0.0000E+00    1.445000E+07  0.02000  7.663E-03    0   0.8472   age078_m62            0.0000     2.7446E-05    32.2808   1.3516    95.3875
 40      0.0000     0.0000E+00    0.0000E+00    2.512000E+07  0.02000  4.532E-03    0   0.8099   age090_m62            0.0000     2.7661E-05    32.5463   1.3483    94.9819
 41      0.7675     1.6305E-02    2.2746E-02    5.500000E+07  0.02000  2.733E-03    0   0.7595   age110_m62            0.0000     2.6181E-05    30.3027   1.2881    97.1697
 42      0.0000     0.0000E+00    0.0000E+00    1.609000E+08  0.02000  1.369E-03    0   0.6985   age120_m62            0.0000     2.5675E-05    28.7036   1.0634   101.8402
 43      0.0000     0.0000E+00    0.0000E+00    2.861200E+08  0.02000  9.013E-04    0   0.6714   age125_m62            0.0000     2.5469E-05    27.6634   0.7709   106.1667
 44      0.3415     3.9437E-02    4.6715E-02    5.088000E+08  0.02000  5.028E-04    0   0.6449   age130_m62            0.0000     2.3923E-05    25.4516   0.3131   111.6317
 45      0.0000     0.0000E+00    0.0000E+00    9.047900E+08  0.02000  2.428E-04    0   0.6179   age135_m62            0.0000     2.1618E-05    24.1585  -0.3031   111.8372
 46     16.9629     7.7979E+00    8.4621E+00    1.434000E+09  0.02000  1.263E-04    0   0.5908   age139_m62            0.0000     2.0878E-05    23.6856  -0.7511   110.1983
 47      6.4551     6.2621E+00    6.5253E+00    2.500000E+09  0.02000  5.985E-05    0   0.5673   age150_m62            0.0000     2.0799E-05    24.4288  -1.0000   106.6043
 48      0.0000     0.0000E+00    0.0000E+00    4.250000E+09  0.02000  3.271E-05    0   0.5468   age158_m62            0.0000     2.3014E-05    28.8486  -1.0000    99.1518
 49      0.0000     0.0000E+00    0.0000E+00    1.000000E+10  0.02000  1.360E-05    0   0.5167   age181_m62            0.0000     2.8604E-05    34.7150  -1.0000    90.1768
 50      0.0000     0.0000E+00    0.0000E+00    1.800000E+10  0.02000  7.124E-06    0   0.5013   age213_m62            0.0000     3.3648E-05    38.1089  -1.0000    83.9223
 51      0.0000     0.0000E+00    0.0000E+00    1.000000E+06  0.05000  2.592E-02    0   0.9998   age020_m72            0.0000     2.6961E-05    29.5484   2.5196    87.7494
 52      0.0000     0.0000E+00    0.0000E+00    3.160000E+06  0.05000  4.845E-02    0   0.9577   age045_m72            0.0000     2.6357E-05    29.0321   2.3236    90.4043
 53      0.0000     0.0000E+00    0.0000E+00    5.010000E+06  0.05000  3.072E-02    0   0.9147   age055_m72            0.0000     2.7191E-05    31.2541   1.9084    92.4880
 54      0.0000     0.0000E+00    0.0000E+00    6.610000E+06  0.05000  1.455E-02    0   0.8877   age061_m72            0.0000     3.1904E-05    37.0352   1.3246    92.6577
 55      0.0000     0.0000E+00    0.0000E+00    1.000000E+07  0.05000  9.074E-03    0   0.8524   age070_m72            0.0000     2.7468E-05    31.4048   2.0842    92.2165
 56      0.0000     0.0000E+00    0.0000E+00    2.512000E+07  0.05000  4.250E-03    0   0.7902   age090_m72            0.0000     2.6883E-05    31.0674   1.7695    94.5545
 57      0.0000     0.0000E+00    0.0000E+00    4.000000E+07  0.05000  3.087E-03    0   0.7618   age104_m72            0.0000     2.6916E-05    31.2212   1.5425    96.1417
 58      0.0000     0.0000E+00    0.0000E+00    1.015200E+08  0.05000  1.700E-03    0   0.7096   age116_m72            0.0000     2.6024E-05    29.4325   1.2269   100.7391
 59      0.0000     0.0000E+00    0.0000E+00    2.861200E+08  0.05000  7.384E-04    0   0.6633   age125_m72            0.0000     2.4696E-05    26.5367   0.5956   109.0343
 60      0.0000     0.0000E+00    0.0000E+00    5.088000E+08  0.05000  3.819E-04    0   0.6372   age130_m72            0.0000     2.2450E-05    24.6151   0.0406   112.8949
 61     27.2598     9.4434E+00    1.0598E+01    9.047900E+08  0.05000  1.676E-04    0   0.6110   age135_m72            0.0000     2.0379E-05    22.7015  -0.7156   112.6765
 62     25.4964     1.6752E+01    1.8074E+01    1.434000E+09  0.05000  8.837E-05    0   0.5874   age139_m72            0.0000     2.0499E-05    24.3266  -1.0000   108.4313
 63      0.0406     5.5712E-02    5.7285E-02    2.500000E+09  0.05000  4.233E-05    0   0.5598   age150_m72            0.0000     2.3143E-05    28.6613  -1.0000   100.1408
 64      0.0000     0.0000E+00    0.0000E+00    6.250000E+09  0.05000  1.435E-05    0   0.5249   age166_m72            0.0000     3.0594E-05    36.3985  -1.0000    87.2887
 65      2.2283     1.9865E+01    1.8375E+01    1.300000E+10  0.05000  6.513E-06    0   0.5036   age193_m72            0.0000     3.7984E-05    40.8579  -1.0000    80.4384
 66      1.5847     2.0324E+01    1.8460E+01    1.800000E+10  0.05000  4.527E-06    0   0.4945   age213_m72            0.0000     4.2845E-05    43.2991  -1.0000    75.7820


## Synthesis Results - Average & Chains ##

# j      x_j: min, <> & last-chain-values for 1 ...  7 chains
  1      0.0000      2.3625      5.6968      1.0273      4.2236      3.4926      1.3274      1.4639      0.0000
  2      0.0211      1.1637      4.3798      3.4572      1.4136      2.7153      3.2645      0.6495      2.1377
  3      0.0000      1.7184      4.9043      0.0000      0.6157      0.0000      1.1929      0.6484      0.3223
  4      0.0000      1.4697      5.9709      0.4946      0.0000      0.0000      1.7747      0.2451      2.2153
  5      0.6515      1.3780      1.1863      2.7055      1.2079      3.6279      4.8123      0.9224      0.2967
  6      0.0000      1.3256      0.0000      0.0000      0.7474      0.0000      0.0000      0.9474      1.4133
  7      0.0000      1.6129      0.6677      0.1791      2.5148      1.8013      0.0000      0.0667      2.6046
  8      0.0065      1.5260      1.6543      0.0000      0.1431      0.0000      0.0000      1.8437      2.7859
  9      0.0000      1.2943      0.0000      2.6738      0.6911      0.0000      2.7651      1.2451      4.4040
 10      0.0000      1.2669      3.8202      0.1469      0.0000      0.5516      0.0000      1.0275      0.5560
 11      0.0000      1.7354      1.3706      0.0000      0.0000      2.0080      4.2982      1.3272      1.4962
 12      0.0005      1.3864      1.1017      0.5255      1.6352      0.0000      2.7947      1.4631      2.9500
 13      0.0000      1.2095      0.0000      3.8919      1.7191      0.0000      0.3750      1.6503      0.0000
 14      7.1764      2.4928      1.5425      0.8344      0.1918      5.0949      2.9056      3.1021      1.0529
 15      0.3486      1.3022      0.5148      0.7982      1.1085      1.8410      0.0000      0.0021      1.7194
 16      0.0000      1.4375      0.0000      1.5813      1.2710      1.7946      5.7206      0.0000      0.0000
 17      0.1013      1.3488      0.6364      0.3867      0.0000      2.8231      0.0000      0.0000      1.4931
 18      0.0000      1.8285      0.3043      0.9630      0.0000      0.4631      2.3870      0.5758      5.8452
 19      0.3251      1.4359      1.5502      0.0000      0.3211      1.8809      0.0000      1.2699      1.6547
 20      0.0000      1.1945      0.2090      1.3932      0.0000      0.0000      2.6148      0.0464      0.0000
 21      0.0000      2.0558      0.1898      2.5425      2.2906      0.9793      2.4255      0.3075      1.3599
 22      0.0000      2.0348      5.1592      1.7087      1.7153      0.5332      1.7105      2.8563      0.6337
 23      0.0000      1.5951      0.4488      1.5034      1.2112      1.2962      0.0000      1.1521      1.8526
 24      1.5104      1.2881      0.4864      3.6792      1.3178      3.6201      2.9266      0.7596      1.3552
 25      1.4525      1.4908      1.5338      0.9767      2.8605      1.2420      3.4382      0.0392      2.2738
 26      0.1087      1.8603      2.3578      2.7983      3.3122      3.9401      0.0000      0.0422      0.5583
 27      0.9884      4.7359      8.2218      1.9485      7.2403      3.5307      3.1859     16.0943      2.1477
 28      3.8623      1.9151      4.4448      2.9846      0.0000      9.6525      2.0726      0.2844      3.0257
 29      5.3256      1.2655      1.9849      0.9438      0.5490      0.3183      0.1198      0.0729     11.4410
 30      0.5703      1.8004      1.8844      0.2910      0.0192      0.0000      4.8264      0.5455      1.2890
 31      0.0000      1.5862      0.0000      0.1574      0.0000      0.6682      0.6442      0.0000      0.5824
 32      4.5592      1.4978      0.6317      0.0000      0.5622      2.3178      1.8259      0.5194      0.7222
 33      0.0000      1.0230      0.0000      3.4117      0.0353      3.2460      0.0233      0.3771      0.6238
 34      0.0000      1.2501      0.4230      0.0000      0.2251      0.0000      0.0000      0.0000      5.6272
 35      0.0000      1.1422      0.6959      0.0964      1.1897      0.0000      0.9560      0.2192      0.0878
 36      0.0000      1.7375      0.5061      4.6191      2.4129      2.3851      1.4212      0.5355      0.3497
 37      0.0000      1.4813      0.0000      1.0511      0.0070      0.6801      1.3189      0.3369      0.0000
 38      0.0000      1.8175      0.0000      8.2880      0.1440      0.7486      0.0742      4.9462      0.9335
 39      0.0000      2.1909      0.0000      0.9690      2.3137      0.4552      0.2440      0.7302      2.1201
 40      0.0000      1.5475      0.0843      0.0000      1.4965      6.0990      0.4556      0.3981      0.9069
 41      0.7675      1.9823      1.6000      0.0000      4.2094      3.8562      0.0000      0.4240      0.0000
 42      0.0000      1.2636      0.4608      5.2335      1.2011      0.1970      1.9755      0.3740      4.7125
 43      0.0000      2.3857      2.4624      0.2474      6.2027      4.3472      0.0000      6.0082      0.6148
 44      0.3415      1.7617      0.8956      4.0680      0.0000      0.1359      0.0000      0.0000      0.4451
 45      0.0000      1.4496      0.0000      2.9667      0.3712      0.6725      0.0000      0.3508      2.5976
 46     16.9629      1.7465      2.3169      3.6840      1.5663      2.3522      3.2537      0.2789      2.8164
 47      6.4551      1.4977      0.8659      4.5506      0.0000      0.0000      3.0288      0.8882      1.6188
 48      0.0000      1.4328      0.0000      4.1967      0.0000      0.0000      0.3164      0.0070      1.9414
 49      0.0000      1.3690      0.4064      0.7466      0.0000      4.7570      1.0925      0.4450      2.6091
 50      0.0000      2.3340      1.6309      2.0569      0.1970      0.0000      2.2689      0.6965      2.1761
 51      0.0000      1.4415      2.0746      2.3396      2.7141      0.5692      0.4220      0.3811      0.0000
 52      0.0000      1.3662      0.0000      4.5888      0.5597      3.8392      0.0000      0.0000      1.3141
 53      0.0000      2.2047      0.3557      0.8860      0.0000     11.6027      4.0491      1.9672      6.5318
 54      0.0000      1.6470      2.5481      0.3875      0.6668      0.0000      2.5285      0.5454      0.4094
 55      0.0000      2.1324      1.4715      2.3918      1.5249      0.0000      8.6523      2.0281      1.6891
 56      0.0000      2.4790      0.7290      0.5084      3.1358      2.9694      3.9407      0.9900      3.9863
 57      0.0000      1.5541      0.0000      0.1706      0.7198      2.4362      0.4523      0.0000      1.6336
 58      0.0000      4.1989      4.9096      6.1017      5.5346      1.7341      2.6389      7.9550      3.9984
 59      0.0000      4.3957      9.5190      7.4855      9.6671      2.9664      2.4115     13.6247      0.0000
 60      0.0000      1.9583      3.2605      4.0479      2.7640      2.5696      3.0586      1.8104      5.7777
 61     27.2598      4.1532      2.8751      2.6854     11.9924      1.3573      7.4098     16.6562      1.3284
 62     25.4964      6.1770     12.2033      2.4253     17.4587      1.0272      1.1317     19.6115      0.7348
 63      0.0406      1.5946      0.9368      1.6909      2.8685      0.0000      1.0295      0.3105      0.0000
 64      0.0000      1.3093      0.0000      0.0000      0.2758      0.0000      1.7238      0.2125      0.5713
 65      2.2283      2.0950      2.3733      0.0000      1.3054      2.7216      0.0000      0.0000      0.0000
 66      1.5847      1.2758      1.0450      0.2328      0.0000      1.1093      5.6747      0.3678      0.0000

# j      m_j: min, <> & last-chain-values for 1 ...  7 chains
  1  0.0000E+00  2.1362E-02  7.5866E-02  1.4714E-02  8.7063E-02  3.3317E-02  9.6832E-03  3.1898E-02  0.0000E+00
  2  5.6027E-05  2.8727E-03  1.5923E-02  1.3518E-02  7.9546E-03  7.0711E-03  6.5011E-03  3.8635E-03  6.3414E-03
  3  0.0000E+00  6.3522E-03  2.6701E-02  0.0000E+00  5.1888E-03  0.0000E+00  3.5575E-03  5.7762E-03  1.4319E-03
  4  0.0000E+00  5.1165E-03  3.0613E-02  2.7274E-03  0.0000E+00  0.0000E+00  4.9840E-03  2.0556E-03  9.2675E-03
  5  4.6579E-03  9.1377E-03  1.1586E-02  2.8419E-02  1.8261E-02  2.5380E-02  2.5744E-02  1.4739E-02  2.3640E-03
  6  0.0000E+00  1.4258E-02  0.0000E+00  0.0000E+00  1.8325E-02  0.0000E+00  0.0000E+00  2.4554E-02  1.8267E-02
  7  0.0000E+00  2.4838E-02  1.5142E-02  4.3692E-03  8.8279E-02  2.9263E-02  0.0000E+00  2.4747E-03  4.8197E-02
  8  1.4832E-04  3.2479E-02  5.1857E-02  0.0000E+00  6.9411E-03  0.0000E+00  0.0000E+00  9.4560E-02  7.1255E-02
  9  0.0000E+00  3.1529E-02  0.0000E+00  1.0317E-01  3.8378E-02  0.0000E+00  5.4341E-02  7.3091E-02  1.2892E-01
 10  0.0000E+00  4.0539E-02  1.8004E-01  7.4440E-03  0.0000E+00  1.8620E-02  0.0000E+00  7.9231E-02  2.1379E-02
 11  0.0000E+00  1.0442E-01  1.2146E-01  0.0000E+00  0.0000E+00  1.2746E-01  2.0864E-01  1.9242E-01  1.0818E-01
 12  5.5338E-05  1.3232E-01  1.5487E-01  7.9443E-02  3.5580E-01  0.0000E+00  2.1519E-01  3.3649E-01  3.3835E-01
 13  0.0000E+00  3.2538E-01  0.0000E+00  1.6585E+00  1.0543E+00  0.0000E+00  8.1380E-02  1.0699E+00  0.0000E+00
 14  6.9809E+00  2.2493E+00  2.0499E+00  1.1925E+00  3.9450E-01  4.8499E+00  2.1151E+00  6.7448E+00  1.1417E+00
 15  5.5207E-01  1.9128E+00  1.1138E+00  1.8573E+00  3.7119E+00  2.8529E+00  0.0000E+00  7.3237E-03  3.0351E+00
 16  0.0000E+00  3.5702E+00  0.0000E+00  6.2212E+00  7.1966E+00  4.7022E+00  1.1462E+01  0.0000E+00  0.0000E+00
 17  3.5173E-01  4.3458E+00  3.0197E+00  1.9738E+00  0.0000E+00  9.5959E+00  0.0000E+00  0.0000E+00  5.7811E+00
 18  0.0000E+00  1.4611E-02  3.5813E-03  1.2188E-02  0.0000E+00  3.9042E-03  1.5387E-02  1.1087E-02  5.6127E-02
 19  1.1241E-03  4.6051E-03  7.3224E-03  0.0000E+00  2.3476E-03  6.3637E-03  0.0000E+00  9.8141E-03  6.3772E-03
 20  0.0000E+00  4.1823E-03  1.0776E-03  7.7269E-03  0.0000E+00  0.0000E+00  7.3858E-03  3.9117E-04  0.0000E+00
 21  0.0000E+00  8.7375E-03  1.1878E-03  1.7116E-02  2.2193E-02  4.3907E-03  8.3164E-03  3.1488E-03  6.9452E-03
 22  0.0000E+00  1.4624E-02  5.4608E-02  1.9452E-02  2.8103E-02  4.0427E-03  9.9171E-03  4.9465E-02  5.4729E-03
 23  0.0000E+00  1.5481E-02  6.4154E-03  2.3112E-02  2.6797E-02  1.3272E-02  0.0000E+00  2.6943E-02  2.1606E-02
 24  2.3511E-02  1.8598E-02  1.0343E-02  8.4146E-02  4.3374E-02  5.5142E-02  3.4090E-02  2.6428E-02  2.3514E-02
 25  3.1175E-02  2.9681E-02  4.4972E-02  3.0800E-02  1.2983E-01  2.6087E-02  5.5222E-02  1.8811E-03  5.4399E-02
 26  3.8987E-03  6.1908E-02  1.1556E-01  1.4751E-01  2.5127E-01  1.3833E-01  0.0000E+00  3.3838E-03  2.2328E-02
 27  7.0975E-02  3.1546E-01  8.0658E-01  2.0559E-01  1.0994E+00  2.4811E-01  1.7120E-01  2.5833E+00  1.7191E-01
 28  8.0491E-01  3.7021E-01  1.2655E+00  9.1391E-01  0.0000E+00  1.9685E+00  3.2322E-01  1.3248E-01  7.0288E-01
 29  1.9338E+00  4.2624E-01  9.8464E-01  5.0354E-01  4.2157E-01  1.1310E-01  3.2542E-02  5.9182E-02  4.6308E+00
 30  4.3268E-01  1.2670E+00  1.9531E+00  3.2439E-01  3.0755E-02  0.0000E+00  2.7400E+00  9.2503E-01  1.0900E+00
 31  0.0000E+00  1.9635E+00  0.0000E+00  3.0871E-01  0.0000E+00  8.7258E-01  6.4329E-01  0.0000E+00  8.6640E-01
 32  8.1868E+00  2.4948E+00  1.5496E+00  0.0000E+00  2.1349E+00  4.0728E+00  2.4535E+00  2.0848E+00  1.4455E+00
 33  0.0000E+00  3.7723E+00  0.0000E+00  1.9927E+01  2.9657E-01  1.2627E+01  6.9245E-02  3.3507E+00  2.7639E+00
 34  0.0000E+00  6.2420E+00  3.1104E+00  0.0000E+00  2.5621E+00  0.0000E+00  0.0000E+00  0.0000E+00  3.3765E+01
 35  0.0000E+00  7.3182E-03  6.5666E-03  9.7845E-04  1.7376E-02  0.0000E+00  4.9415E-03  3.3844E-03  6.7578E-04
 36  0.0000E+00  4.5039E-03  1.9320E-03  1.8966E-02  1.4258E-02  6.5225E-03  2.9721E-03  3.3447E-03  1.0893E-03
 37  0.0000E+00  4.1533E-03  0.0000E+00  4.6683E-03  4.4768E-05  2.0118E-03  2.9834E-03  2.2762E-03  0.0000E+00
 38  0.0000E+00  1.3806E-02  0.0000E+00  9.9719E-02  2.4937E-03  5.9984E-03  4.5453E-04  9.0534E-02  8.5208E-03
 39  0.0000E+00  2.3961E-02  0.0000E+00  1.6787E-02  5.7684E-02  5.2518E-03  2.1528E-03  1.9242E-02  2.7863E-02
 40  0.0000E+00  2.7358E-02  2.1942E-03  0.0000E+00  6.0309E-02  1.1375E-01  6.4970E-03  1.6958E-02  1.9266E-02
 41  2.2746E-02  5.4495E-02  6.4781E-02  0.0000E+00  2.6380E-01  1.1184E-01  0.0000E+00  2.8089E-02  0.0000E+00
 42  0.0000E+00  6.3777E-02  3.4251E-02  4.1841E-01  1.3820E-01  1.0488E-02  8.0441E-02  4.5490E-02  2.8583E-01
 43  0.0000E+00  1.7580E-01  2.6724E-01  2.8879E-02  1.0420E+00  3.3796E-01  0.0000E+00  1.0669E+00  5.4447E-02
 44  4.6715E-02  2.2352E-01  1.6736E-01  8.1759E-01  0.0000E+00  1.8196E-02  0.0000E+00  0.0000E+00  6.7867E-02
 45  0.0000E+00  3.6493E-01  0.0000E+00  1.1830E+00  2.1304E-01  1.7859E-01  0.0000E+00  2.1279E-01  7.8583E-01
 46  8.4621E+00  8.0815E-01  1.5790E+00  2.7003E+00  1.6522E+00  1.1483E+00  1.2146E+00  3.1093E-01  1.5661E+00
 47  6.5253E+00  1.4044E+00  1.1957E+00  6.7588E+00  0.0000E+00  0.0000E+00  2.2911E+00  2.0068E+00  1.8241E+00
 48  0.0000E+00  2.3694E+00  0.0000E+00  1.0993E+01  0.0000E+00  0.0000E+00  4.2205E-01  2.7991E-02  3.8579E+00
 49  0.0000E+00  5.1452E+00  2.2496E+00  4.4447E+00  0.0000E+00  1.8861E+01  3.3124E+00  4.0301E+00  1.1784E+01
 50  0.0000E+00  1.6247E+01  1.6720E+01  2.2679E+01  3.1265E+00  0.0000E+00  1.2742E+01  1.1683E+01  1.8203E+01
 51  0.0000E+00  5.5002E-03  1.1659E-02  1.4141E-02  2.3608E-02  2.2914E-03  1.2991E-03  3.5037E-03  0.0000E+00
 52  0.0000E+00  2.6715E-03  0.0000E+00  1.4213E-02  2.4949E-03  7.9198E-03  0.0000E+00  0.0000E+00  3.0879E-03
 53  0.0000E+00  6.4940E-03  1.5430E-03  4.1340E-03  0.0000E+00  3.6054E-02  9.6217E-03  1.3962E-02  2.3120E-02
 54  0.0000E+00  9.9405E-03  2.2649E-02  3.7043E-03  9.1739E-03  0.0000E+00  1.2311E-02  7.9316E-03  2.9689E-03
 55  0.0000E+00  1.9816E-02  2.0139E-02  3.5207E-02  3.2303E-02  0.0000E+00  6.4864E-02  4.5415E-02  1.8863E-02
 56  0.0000E+00  4.5595E-02  1.9747E-02  1.4811E-02  1.3148E-01  5.7617E-02  5.8473E-02  4.3875E-02  8.8108E-02
 57  0.0000E+00  3.7939E-02  0.0000E+00  6.5980E-03  4.0060E-02  6.2741E-02  8.9079E-03  0.0000E+00  4.7923E-02
 58  0.0000E+00  1.7338E-01  2.9857E-01  3.9909E-01  5.2098E-01  7.5540E-02  8.7905E-02  7.9153E-01  1.9840E-01
 59  0.0000E+00  3.9061E-01  1.2458E+00  1.0536E+00  1.9583E+00  2.7809E-01  1.7288E-01  2.9174E+00  0.0000E+00
 60  0.0000E+00  3.2322E-01  7.9258E-01  1.0583E+00  1.0400E+00  4.4744E-01  4.0726E-01  7.2003E-01  1.1460E+00
 61  1.0598E+01  1.4978E+00  1.5270E+00  1.5340E+00  9.8592E+00  5.1638E-01  2.1558E+00  1.4474E+01  5.7571E-01
 62  1.8074E+01  4.0617E+00  1.1818E+01  2.5261E+00  2.6170E+01  7.1258E-01  6.0034E-01  3.1074E+01  5.8065E-01
 63  5.7285E-02  2.0861E+00  1.8050E+00  3.5040E+00  8.5546E+00  0.0000E+00  1.0865E+00  9.7872E-01  0.0000E+00
 64  0.0000E+00  4.7378E+00  0.0000E+00  0.0000E+00  2.2753E+00  0.0000E+00  5.0321E+00  1.8531E+00  2.4841E+00
 65  1.8375E+01  1.6025E+01  2.6736E+01  0.0000E+00  2.2762E+01  2.1962E+01  0.0000E+00  0.0000E+00  0.0000E+00
 66  1.8460E+01  1.3786E+01  1.6630E+01  3.9853E+00  0.0000E+00  1.2646E+01  4.9468E+01  9.5774E+00  0.0000E+00

# AV, chi2 & Mass for <> & i_chain = 1 ...  7 solutions
AV      -0.8540      0.0348     -0.0253     -0.1666     -0.0587     -0.2031     -0.3714     -0.0645     -0.0942
chi2 2.0834E-05  3.3099E-05  2.7937E-05  2.9688E-05  2.8116E-05  2.9806E-05  2.8858E-05  2.9121E-05  2.8157E-05
Mass 3.4181E-14  1.2157E-13  7.6153E-14  5.8561E-14  4.7040E-14  8.3720E-14  8.7337E-14  4.4155E-14  8.5075E-14
-313.48                                  [v0_min (km/s) before EX0s...]
 234.85                                  [vd_min (km/s) before EX0s...]


## Synthetic spectrum (Best Model) ##l_obs f_obs f_syn wei
 3478    [Nl_obs]
 3741.00    1.28500   0.54870    0.000
 3742.00    0.90067   0.52413    0.000
 3743.00   -0.20933   0.50298    0.000
 3744.00   -0.18070   0.48917    0.000
 3745.00    0.51134   0.48774    0.046
 3746.00    0.58628   0.50134    0.046
 3747.00    0.34787   0.52719    0.045
 3748.00    0.25822   0.55933    0.045
 3749.00    0.23399   0.59212    0.045
 3750.00    0.37436   0.62047    0.045
 3751.00    0.57687   0.63947    0.045
 3752.00    0.64204   0.64619    0.044
 3753.00    0.66320   0.64268    0.043
 3754.00    0.49421   0.63556    0.042
 3755.00    0.27427   0.63033    0.041
 3756.00    0.33056   0.62817    0.040
 3757.00    0.44748   0.62830    0.039
 3758.00    0.32534   0.62951    0.038
 3759.00    0.16147   0.63007    0.038
 3760.00   -0.12201   0.62873    0.000
 3761.00   -0.42137   0.62407    0.000
 3762.00   -0.34132   0.61537    0.000
 3763.00   -0.22561   0.60557    0.000
 3764.00   -0.21791   0.59814    0.000
 3765.00   -0.21644   0.59414    0.000
 3766.00   -0.51337   0.59561    0.000
 3767.00   -0.81174   0.60542    0.000
 3768.00   -0.42597   0.62257    0.000
 3769.00   -0.02668   0.64329    0.000
 3770.00    0.70121   0.66537    0.037
 3771.00    1.34541   0.68860    0.037
 3772.00    0.89303   0.71299    0.037
 3773.00    0.54113   0.73746    0.037
 3774.00    1.07137   0.76051    0.037
 3775.00    1.52550   0.78106    0.038
 3776.00    1.48610   0.79723    0.038
 3777.00    1.35115   0.80666    0.038
 3778.00    0.73256   0.80891    0.038
 3779.00    0.19093   0.80455    0.038
 3780.00   -0.03576   0.79302    0.000
 3781.00   -0.15186   0.77349    0.000
 3782.00    0.10710   0.74883    0.038
 3783.00    0.36872   0.72464    0.038
 3784.00    0.63795   0.70290    0.038
 3785.00    0.89629   0.68326    0.037
 3786.00    1.12803   0.66585    0.037
 3787.00    1.10845   0.64919    0.037
 3788.00    0.55913   0.63047    0.036
 3789.00    0.51969   0.60900    0.036
 3790.00    1.41421   0.58689    0.036
 3791.00    1.56721   0.56708    0.036
 3792.00    0.53322   0.55203    0.034
 3793.00   -0.10154   0.54422    0.000
 3794.00   -0.17552   0.54772    0.000
 3795.00    0.27825   0.56509    0.033
 3796.00    1.38430   0.59344    0.033
 3797.00    1.62241   0.62697    0.034
 3798.00    0.91491   0.66149    0.033
 3799.00    0.33854   0.69391    0.033
 3800.00   -0.11181   0.72082    0.000
 3801.00   -0.28585   0.74090    0.000
 3802.00   -0.22575   0.75496    0.000
 3803.00    0.13643   0.76549    0.035
 3804.00    0.72405   0.77465    0.035
 3805.00    0.66587   0.78107    0.035
 3806.00    0.18434   0.78185    0.034
 3807.00    0.05689   0.77600    0.034
 3808.00    0.13262   0.76377    0.034
 3809.00    0.03323   0.74737    0.033
 3810.00   -0.15369   0.73116    0.000
 3811.00   -0.30214   0.71801    0.000
 3812.00   -0.43395   0.70917    0.000
 3813.00   -0.04306   0.70425    0.000
 3814.00    0.54166   0.69914    0.034
 3815.00    0.65890   0.69086    0.033
 3816.00    0.62918   0.68092    0.033
 3817.00    0.86900   0.67250    0.033
 3818.00    1.17952   0.66458    0.033
 3819.00    1.26897   0.65236    0.033
 3820.00    1.31106   0.63513    0.033
 3821.00    0.85419   0.61747    0.032
 3822.00    0.31265   0.60163    0.032
 3823.00    0.38163   0.58638    0.032
 3824.00    0.52895   0.57023    0.032
 3825.00    0.46644   0.55263    0.031
 3826.00    0.38509   0.53379    0.030
 3827.00    0.39800   0.51329    0.031
 3828.00    0.41598   0.49178    0.032
 3829.00    0.49346   0.47310    0.032
 3830.00    0.56976   0.46045    0.032
 3831.00    0.44589   0.45570    0.031
 3832.00    0.34526   0.46033    0.031
 3833.00    0.76097   0.47332    0.031
 3834.00    1.14346   0.49295    0.032
 3835.00    1.11288   0.51877    0.032
 3836.00    1.11599   0.54950    0.032
 3837.00    1.40395   0.58364    0.033
 3838.00    1.66058   0.61898    0.034
 3839.00    1.72012   0.65115    0.033
 3840.00    1.62750   0.67811    0.033
 3841.00    0.78406   0.70012    0.032
 3842.00    0.19099   0.71810    0.032
 3843.00    0.60015   0.73315    0.032
 3844.00    0.82851   0.74424    0.033
 3845.00    0.45577   0.75044    0.033
 3846.00    0.23900   0.75463    0.033
 3847.00    0.46025   0.75970    0.000
 3848.00    0.49380   0.76366    0.000
 3849.00    0.07654   0.76340    0.000
 3850.00   -0.03341   0.75938    0.000
 3851.00    0.49399   0.75338    0.000
 3852.00    0.86059   0.74770    0.000
 3853.00    0.93716   0.74438    0.000
 3854.00    1.02891   0.74241    0.000
 3855.00    1.14461   0.74239    0.000
 3856.00    1.33235   0.74808    0.000
 3857.00    1.61981   0.75967    0.000
 3858.00    1.60743   0.77307    0.000
 3859.00    1.22973   0.78452    0.000
 3860.00    0.82928   0.79237    0.000
 3861.00    0.40439   0.79621    0.000
 3862.00    0.24741   0.79618    0.000
 3863.00    0.34425   0.79259    0.000
 3864.00    0.39495   0.78603    0.000
 3865.00    0.40708   0.77729    0.000
 3866.00    0.49271   0.76697    0.000
 3867.00    0.63240   0.75608    0.000
 3868.00    0.68420   0.74611    0.000
 3869.00    0.67924   0.73973    0.000
 3870.00    0.51655   0.73808    0.000
 3871.00    0.26471   0.73784    0.000
 3872.00    0.38213   0.73453    0.000
 3873.00    0.68119   0.72671    0.000
 3874.00    0.77599   0.71651    0.000
 3875.00    0.78394   0.70765    0.000
 3876.00    0.54835   0.69876    0.000
 3877.00    0.22405   0.68466    0.000
 3878.00    0.16381   0.66528    0.000
 3879.00    0.18496   0.64425    0.000
 3880.00    0.26262   0.62265    0.000
 3881.00    0.35479   0.59978    0.028
 3882.00    0.45733   0.57826    0.028
 3883.00    0.56204   0.56339    0.029
 3884.00    0.34380   0.55776    0.029
 3885.00    0.07230   0.56185    0.029
 3886.00    0.48016   0.57615    0.029
 3887.00    0.97215   0.59877    0.029
 3888.00    0.49175   0.62517    0.029
 3889.00   -0.07188   0.65048    0.000
 3890.00    0.42259   0.67238    0.029
 3891.00    0.96980   0.69138    0.030
 3892.00    0.51717   0.70907    0.029
 3893.00    0.05739   0.72486    0.028
 3894.00    0.19305   0.73677    0.028
 3895.00    0.32752   0.74550    0.028
 3896.00    0.43742   0.75322    0.028
 3897.00    0.53799   0.76085    0.027
 3898.00    0.52823   0.76679    0.026
 3899.00    0.51584   0.77035    0.026
 3900.00    0.48207   0.77437    0.025
 3901.00    0.43158   0.78049    0.025
 3902.00    0.27895   0.78960    0.024
 3903.00    0.16322   0.80332    0.023
 3904.00    0.22504   0.81996    0.023
 3905.00    0.27508   0.83578    0.023
 3906.00    0.27895   0.84833    0.023
 3907.00    0.26488   0.85625    0.023
 3908.00    0.19233   0.85897    0.023
 3909.00    0.17222   0.85585    0.024
 3910.00    0.29673   0.84773    0.024
 3911.00    0.41378   0.83684    0.025
 3912.00    0.51317   0.82397    0.026
 3913.00    0.58396   0.81021    0.026
 3914.00    0.59635   0.79704    0.026
 3915.00    0.58458   0.78469    0.026
 3916.00    0.52993   0.77278    0.027
 3917.00    0.49152   0.76107    0.027
 3918.00    0.47837   0.74876    0.028
 3919.00    0.54291   0.73355    0.028
 3920.00    0.71348   0.71275    0.028
 3921.00    0.74351   0.68401    0.027
 3922.00    0.60471   0.64677    0.027
 3923.00    0.63664   0.60246    0.027
 3924.00    0.84936   0.55304    0.028
 3925.00    0.71225   0.50175    0.028
 3926.00    0.24834   0.45318    0.028
 3927.00    0.10371   0.41186    0.028
 3928.00    0.22205   0.38186    0.027
 3929.00    0.37923   0.36648    0.027
 3930.00    0.56458   0.36806    0.027
 3931.00    0.52136   0.38689    0.027
 3932.00    0.33267   0.41993    0.027
 3933.00    0.18926   0.46208    0.027
 3934.00    0.07107   0.50808    0.027
 3935.00    0.06454   0.55371    0.027
 3936.00    0.11206   0.59602    0.027
 3937.00    0.07158   0.63306    0.027
 3938.00   -0.00570   0.66399    0.000
 3939.00    0.12331   0.68905    0.027
 3940.00    0.32611   0.71008    0.026
 3941.00    0.65726   0.73030    0.026
 3942.00    1.02721   0.75027    0.027
 3943.00    1.09658   0.76641    0.027
 3944.00    1.09045   0.77743    0.026
 3945.00    1.13925   0.78712    0.026
 3946.00    1.19924   0.79741    0.027
 3947.00    1.08213   0.80503    0.026
 3948.00    0.93665   0.80733    0.026
 3949.00    0.73008   0.80669    0.026
 3950.00    0.51621   0.80602    0.026
 3951.00    0.34908   0.80226    0.026
 3952.00    0.18575   0.79062    0.026
 3953.00    0.52322   0.77241    0.026
 3954.00    0.88370   0.75137    0.026
 3955.00    0.98594   0.72650    0.027
 3956.00    1.08220   0.69354    0.027
 3957.00    1.03790   0.65101    0.027
 3958.00    0.99858   0.60242    0.027
 3959.00    1.05349   0.55237    0.027
 3960.00    1.08515   0.50257    0.000
 3961.00    0.85477   0.45423    0.000
 3962.00    0.65831   0.41093    0.000
 3963.00    0.72839   0.37760    0.000
 3964.00    0.78965   0.35842    0.000
 3965.00    0.79851   0.35589    0.000
 3966.00    0.82608   0.37076    0.000
 3967.00    0.94146   0.40147    0.000
 3968.00    1.00223   0.44402    0.000
 3969.00    0.85371   0.49389    0.000
 3970.00    0.68821   0.54764    0.000
 3971.00    0.46840   0.60249    0.000
 3972.00    0.41188   0.65473    0.000
 3973.00    0.79758   0.70083    0.000
 3974.00    1.02563   0.74033    0.000
 3975.00    0.88761   0.77422    0.000
 3976.00    0.84030   0.80210    0.000
 3977.00    0.97516   0.82308    0.000
 3978.00    1.03965   0.83797    0.000
 3979.00    0.98104   0.85061    0.000
 3980.00    0.89927   0.86383    0.000
 3981.00    0.78206   0.87666    0.026
 3982.00    0.82292   0.88809    0.026
 3983.00    1.07637   0.89897    0.026
 3984.00    1.06891   0.91040    0.026
 3985.00    0.75247   0.92105    0.026
 3986.00    0.59412   0.92834    0.025
 3987.00    0.60084   0.93306    0.025
 3988.00    0.63788   0.93649    0.025
 3989.00    0.70285   0.93771    0.025
 3990.00    0.82084   0.93669    0.025
 3991.00    0.98189   0.93531    0.025
 3992.00    0.98512   0.93504    0.024
 3993.00    0.87559   0.93618    0.024
 3994.00    0.72758   0.93999    0.024
 3995.00    0.55545   0.94749    0.024
 3996.00    0.70430   0.95532    0.024
 3997.00    1.02905   0.95829    0.025
 3998.00    1.12554   0.95734    0.025
 3999.00    1.11330   0.95652    0.025
 4000.00    0.85506   0.95539    0.025
 4001.00    0.49571   0.95204    0.024
 4002.00    0.38681   0.95026    0.024
 4003.00    0.36588   0.95576    0.025
 4004.00    0.58397   0.96694    0.025
 4005.00    0.87287   0.97831    0.025
 4006.00    0.65813   0.98808    0.025
 4007.00    0.31967   0.99773    0.025
 4008.00    0.34748   1.00675    0.025
 4009.00    0.44811   1.01305    0.025
 4010.00    0.91533   1.01795    0.025
 4011.00    1.43951   1.02348    0.026
 4012.00    1.28580   1.02865    0.026
 4013.00    1.05414   1.03127    0.025
 4014.00    0.87461   1.03182    0.026
 4015.00    0.69910   1.03288    0.026
 4016.00    1.00000   1.03328    0.026
 4017.00    1.32096   1.03066    0.026
 4018.00    1.14637   1.02707    0.026
 4019.00    0.96934   1.02458    0.026
 4020.00    0.88356   1.02200    0.026
 4021.00    0.79922   1.01727    0.025
 4022.00    0.74014   1.01029    0.025
 4023.00    0.70847   1.00177    0.025
 4024.00    0.97172   0.99029    0.025
 4025.00    1.18260   0.97511    0.025
 4026.00    0.99585   0.95860    0.025
 4027.00    0.83119   0.94480    0.025
 4028.00    0.79392   0.93930    0.025
 4029.00    0.74911   0.94397    0.024
 4030.00    0.66977   0.95590    0.024
 4031.00    0.60836   0.97246    0.024
 4032.00    0.61416   0.99064    0.024
 4033.00    0.68345   1.00771    0.024
 4034.00    0.95176   1.02092    0.024
 4035.00    1.12581   1.02625    0.024
 4036.00    1.04910   1.02098    0.023
 4037.00    0.93403   1.00690    0.023
 4038.00    0.73136   0.99114    0.023
 4039.00    0.70375   0.97934    0.024
 4040.00    1.02220   0.96914    0.024
 4041.00    1.17757   0.95899    0.024
 4042.00    1.05202   0.95482    0.024
 4043.00    0.90447   0.96181    0.024
 4044.00    0.72372   0.97546    0.024
 4045.00    0.72988   0.98566    0.024
 4046.00    0.98378   0.98994    0.024
 4047.00    1.11052   0.99164    0.025
 4048.00    1.08881   0.99050    0.025
 4049.00    1.11337   0.98442    0.025
 4050.00    1.18558   0.97513    0.025
 4051.00    1.25986   0.96691    0.025
 4052.00    1.33603   0.96254    0.025
 4053.00    1.30673   0.96042    0.025
 4054.00    1.19303   0.95625    0.025
 4055.00    1.30003   0.95010    0.025
 4056.00    1.56243   0.94614    0.025
 4057.00    1.47836   0.94471    0.025
 4058.00    1.18027   0.94120    0.025
 4059.00    1.22351   0.93389    0.025
 4060.00    1.45091   0.92905    0.025
 4061.00    1.29012   0.93344    0.025
 4062.00    0.94740   0.94257    0.025
 4063.00    0.83280   0.94647    0.025
 4064.00    0.81037   0.94663    0.025
 4065.00    0.66583   0.95020    0.025
 4066.00    0.47917   0.95415    0.024
 4067.00    0.41958   0.94991    0.024
 4068.00    0.39689   0.93804    0.024
 4069.00    0.72249   0.92692    0.025
 4070.00    1.13174   0.91999    0.026
 4071.00    1.08339   0.91380    0.026
 4072.00    0.94639   0.90788    0.025
 4073.00    1.09734   0.90556    0.025
 4074.00    1.29168   0.90936    0.026
 4075.00    1.14777   0.91944    0.025
 4076.00    0.96644   0.93292    0.025
 4077.00    1.12073   0.94631    0.025
 4078.00    1.29959   0.95785    0.025
 4079.00    1.15460   0.96661    0.024
 4080.00    0.99721   0.97365    0.024
 4081.00    0.90523   0.98063    0.024
 4082.00    0.81964   0.98714    0.024
 4083.00    0.96098   0.99276    0.024
 4084.00    1.09553   0.99712    0.024
 4085.00    1.11824   0.99843    0.024
 4086.00    1.13644   0.99462    0.024
 4087.00    1.10830   0.98448    0.024
 4088.00    1.04133   0.96784    0.024
 4089.00    0.68944   0.94585    0.023
 4090.00    0.41156   0.92070    0.023
 4091.00    0.54892   0.89189    0.023
 4092.00    0.72239   0.85767    0.000
 4093.00    1.05739   0.82124    0.000
 4094.00    1.25623   0.78799    0.000
 4095.00    0.95496   0.76159    0.000
 4096.00    0.74272   0.74350    0.000
 4097.00    0.80428   0.73350    0.000
 4098.00    0.91015   0.73335    0.000
 4099.00    1.13183   0.74641    0.000
 4100.00    1.29413   0.77001    0.000
 4101.00    1.32306   0.79676    0.000
 4102.00    1.38366   0.82272    0.000
 4103.00    1.50589   0.84697    0.000
 4104.00    1.48963   0.86834    0.000
 4105.00    1.23837   0.88669    0.000
 4106.00    1.04575   0.90244    0.000
 4107.00    0.94029   0.91660    0.000
 4108.00    0.94015   0.93049    0.000
 4109.00    1.07761   0.94374    0.000
 4110.00    1.17435   0.95401    0.000
 4111.00    1.22424   0.95952    0.000
 4112.00    1.18132   0.96202    0.000
 4113.00    1.04419   0.96342    0.024
 4114.00    0.89543   0.96147    0.023
 4115.00    0.73625   0.95555    0.023
 4116.00    0.72767   0.95114    0.023
 4117.00    0.83790   0.95167    0.024
 4118.00    0.85549   0.95275    0.034
 4119.00    0.80879   0.95097    0.125
 4120.00    0.98701   0.94837   -1.000
 4121.00    1.30208   0.94664   -1.000
 4122.00    1.29037   0.94397   -1.000
 4123.00    1.10504   0.93796   -1.000
 4124.00    0.99235   0.92937   -1.000
 4125.00    0.91315   0.92111   -1.000
 4126.00    0.90277   0.91686    0.062
 4127.00    0.91970   0.91708    0.026
 4128.00    0.77639   0.92079    0.023
 4129.00    0.57884   0.92787    0.022
 4130.00    0.58360   0.93905    0.023
 4131.00    0.64592   0.95377    0.024
 4132.00    0.83349   0.96934    0.024
 4133.00    1.05046   0.98146    0.024
 4134.00    0.95267   0.98652    0.024
 4135.00    0.79547   0.98494    0.024
 4136.00    0.60589   0.97848    0.024
 4137.00    0.41157   0.96997    0.024
 4138.00    0.71147   0.96150    0.024
 4139.00    1.06389   0.95226    0.025
 4140.00    1.24040   0.94452    0.025
 4141.00    1.40474   0.94299    0.025
 4142.00    1.40803   0.94633    0.025
 4143.00    1.40576   0.94909    0.025
 4144.00    1.24690   0.95007    0.024
 4145.00    1.09010   0.94976    0.024
 4146.00    1.01175   0.94724    0.024
 4147.00    0.92849   0.94314    0.024
 4148.00    0.76908   0.93979    0.023
 4149.00    0.63024   0.93721    0.023
 4150.00    0.69419   0.93557    0.023
 4151.00    0.76173   0.93696    0.023
 4152.00    0.85482   0.94229    0.023
 4153.00    0.93252   0.94958    0.024
 4154.00    0.92624   0.95796    0.024
 4155.00    0.94507   0.96907    0.024
 4156.00    1.07366   0.98025    0.023
 4157.00    1.12238   0.98782    0.023
 4158.00    0.88380   0.99271    0.023
 4159.00    0.78610   0.99616    0.022
 4160.00    1.11349   0.99569    0.023
 4161.00    1.28454   0.99101    0.023
 4162.00    1.05410   0.98487    0.023
 4163.00    0.94721   0.97571    0.023
 4164.00    1.11325   0.96125    0.023
 4165.00    1.25739   0.94428    0.023
 4166.00    1.35958   0.92880    0.023
 4167.00    1.33294   0.91483    0.023
 4168.00    1.09098   0.90142    0.023
 4169.00    0.97260   0.89006    0.022
 4170.00    1.03523   0.88338    0.022
 4171.00    1.06594   0.88263    0.022
 4172.00    1.05553   0.88725    0.022
 4173.00    0.93417   0.89455    0.022
 4174.00    0.68692   0.90102    0.022
 4175.00    0.65773   0.90687    0.022
 4176.00    0.84680   0.91485    0.022
 4177.00    0.96237   0.92403    0.022
 4178.00    1.01307   0.93143    0.022
 4179.00    1.05855   0.93516    0.022
 4180.00    1.09998   0.93650    0.022
 4181.00    1.12372   0.94010    0.022
 4182.00    1.13535   0.94720    0.022
 4183.00    1.16951   0.95217    0.022
 4184.00    1.21717   0.95310    0.022
 4185.00    1.19623   0.95748    0.022
 4186.00    1.13941   0.96688    0.022
 4187.00    1.14792   0.97176    0.022
 4188.00    1.18606   0.96837    0.022
 4189.00    1.31669   0.96333    0.023
 4190.00    1.48341   0.95829    0.023
 4191.00    1.34772   0.94710    0.022
 4192.00    1.11157   0.93177    0.022
 4193.00    0.97430   0.91997    0.022
 4194.00    0.86459   0.91123    0.022
 4195.00    0.97792   0.90322    0.022
 4196.00    1.14243   0.90072    0.022
 4197.00    1.07226   0.90516    0.022
 4198.00    0.95895   0.91119    0.022
 4199.00    1.09476   0.91863    0.022
 4200.00    1.26579   0.93050    0.023
 4201.00    1.22774   0.94417    0.022
 4202.00    1.16836   0.95541    0.022
 4203.00    1.10362   0.96485    0.022
 4204.00    1.03853   0.97373    0.022
 4205.00    0.77250   0.98058    0.022
 4206.00    0.50120   0.98363    0.022
 4207.00    0.80941   0.98301    0.022
 4208.00    1.11338   0.98001    0.022
 4209.00    1.29244   0.97745    0.022
 4210.00    1.45314   0.97787    0.023
 4211.00    1.34652   0.97906    0.023
 4212.00    1.24291   0.97866    0.023
 4213.00    1.16783   0.97982    0.023
 4214.00    1.07992   0.98362    0.023
 4215.00    0.90378   0.98246    0.022
 4216.00    0.79647   0.97214    0.022
 4217.00    1.05499   0.95652    0.022
 4218.00    1.18695   0.93742    0.022
 4219.00    0.77840   0.91339    0.022
 4220.00    0.48554   0.89000    0.022
 4221.00    0.60033   0.87633    0.022
 4222.00    0.63452   0.87224    0.022
 4223.00    0.43006   0.87424    0.022
 4224.00    0.37162   0.88418    0.022
 4225.00    0.68168   0.90128    0.022
 4226.00    0.89233   0.91760    0.022
 4227.00    0.88693   0.92949    0.022
 4228.00    1.01266   0.93755    0.022
 4229.00    1.38567   0.94009    0.022
 4230.00    1.43787   0.93929    0.022
 4231.00    0.96192   0.93998    0.021
 4232.00    0.65903   0.94167    0.021
 4233.00    0.60595   0.94429    0.021
 4234.00    0.59417   0.95175    0.021
 4235.00    0.63481   0.96186    0.021
 4236.00    0.76500   0.97043    0.021
 4237.00    0.99539   0.97954    0.021
 4238.00    1.10474   0.98886    0.021
 4239.00    1.09467   0.99182    0.021
 4240.00    1.03125   0.98796    0.021
 4241.00    0.92140   0.98341    0.021
 4242.00    0.97999   0.97760    0.021
 4243.00    1.16771   0.96615    0.022
 4244.00    1.25930   0.95367    0.022
 4245.00    1.28609   0.94784    0.022
 4246.00    1.21621   0.94583    0.023
 4247.00    1.08924   0.94169    0.023
 4248.00    1.06437   0.93936    0.023
 4249.00    1.09206   0.94337    0.023
 4250.00    1.27827   0.94814    0.024
 4251.00    1.53521   0.94836    0.024
 4252.00    1.47300   0.94757    0.023
 4253.00    1.28842   0.94921    0.023
 4254.00    1.25902   0.95181    0.022
 4255.00    1.28020   0.95540    0.022
 4256.00    1.02719   0.96199    0.022
 4257.00    0.69933   0.97076    0.022
 4258.00    0.83854   0.98100    0.022
 4259.00    1.08243   0.99235    0.022
 4260.00    1.21624   0.99968    0.022
 4261.00    1.33037   0.99856    0.022
 4262.00    1.05400   0.99119    0.022
 4263.00    0.72420   0.97887    0.022
 4264.00    0.78659   0.95889    0.022
 4265.00    0.88729   0.93553    0.022
 4266.00    0.85812   0.91763    0.022
 4267.00    0.82102   0.90530    0.022
 4268.00    0.82359   0.89584    0.022
 4269.00    0.82654   0.89495    0.021
 4270.00    0.69662   0.90537    0.021
 4271.00    0.56883   0.91940    0.021
 4272.00    0.49753   0.93209    0.021
 4273.00    0.45646   0.94476    0.021
 4274.00    0.83100   0.95615    0.022
 4275.00    1.17545   0.96235    0.022
 4276.00    1.24668   0.96262    0.022
 4277.00    1.30230   0.95915    0.022
 4278.00    1.25402   0.95293    0.022
 4279.00    1.20520   0.94312    0.022
 4280.00    1.15353   0.93136    0.022
 4281.00    1.13895   0.91983    0.022
 4282.00    1.27920   0.90674   -2.000
 4283.00    1.30517   0.89233   -2.000
 4284.00    0.93661   0.88175   -2.000
 4285.00    0.64109   0.87737   -2.000
 4286.00    0.55785   0.87492   -2.000
 4287.00    0.59735   0.87219   -2.000
 4288.00    0.94125   0.87159   -2.000
 4289.00    1.21694   0.87226   -2.000
 4290.00    1.34680   0.86870   -2.000
 4291.00    1.38734   0.85817   -2.000
 4292.00    1.26205   0.84269   -2.000
 4293.00    1.13841   0.82488   -2.000
 4294.00    1.01745   0.80758   -2.000
 4295.00    0.98461   0.79127   -2.000
 4296.00    1.07713   0.77559   -2.000
 4297.00    1.13663   0.76475   -2.000
 4298.00    1.15481   0.76062    0.022
 4299.00    1.20154   0.75867    0.022
 4300.00    1.27976   0.75765    0.022
 4301.00    1.27308   0.75962    0.022
 4302.00    1.18380   0.76366    0.022
 4303.00    1.01772   0.77007    0.022
 4304.00    0.78577   0.78051    0.022
 4305.00    0.68051   0.79499    0.022
 4306.00    0.67099   0.81379    0.022
 4307.00    0.75099   0.83676    0.021
 4308.00    0.89044   0.86267    0.021
 4309.00    1.01981   0.89124    0.022
 4310.00    1.14331   0.92047    0.022
 4311.00    1.08858   0.94545    0.022
 4312.00    0.94351   0.96568    0.021
 4313.00    0.86961   0.98152    0.021
 4314.00    0.82694   0.98819    0.021
 4315.00    0.77649   0.98415    0.021
 4316.00    0.72311   0.97410    0.021
 4317.00    0.98733   0.95957    0.022
 4318.00    1.35309   0.94050    0.022
 4319.00    1.30521   0.92202    0.022
 4320.00    1.14679   0.90997    0.022
 4321.00    1.03105   0.90583    0.022
 4322.00    0.92465   0.90747    0.022
 4323.00    0.89900   0.91316    0.022
 4324.00    0.88741   0.92302    0.022
 4325.00    0.95164   0.93532    0.022
 4326.00    1.02591   0.94352    0.022
 4327.00    1.24918   0.94232    0.022
 4328.00    1.48637   0.93443    0.022
 4329.00    1.35940   0.92115    0.022
 4330.00    1.21161   0.89703    0.000
 4331.00    1.06682   0.86362    0.000
 4332.00    0.92407   0.83054    0.000
 4333.00    1.00622   0.79922    0.000
 4334.00    1.07663   0.76880    0.000
 4335.00    0.86534   0.74996    0.000
 4336.00    0.68623   0.74782    0.000
 4337.00    0.92593   0.75455    0.000
 4338.00    1.13181   0.77003    0.000
 4339.00    1.04219   0.79840    0.000
 4340.00    0.97305   0.83002    0.000
 4341.00    1.03615   0.85551    0.000
 4342.00    1.11160   0.87910    0.000
 4343.00    1.24937   0.90117    0.000
 4344.00    1.34002   0.91321    0.000
 4345.00    1.23835   0.91576    0.000
 4346.00    1.04009   0.91936    0.000
 4347.00    0.51502   0.92599    0.000
 4348.00    0.21288   0.92948    0.000
 4349.00    0.54688   0.93309    0.000
 4350.00    0.86758   0.94472    0.000
 4351.00    1.15585   0.96008    0.023
 4352.00    1.30693   0.97141    0.028
 4353.00    1.16942   0.98200    0.072
 4354.00    1.06064   0.99670   -1.000
 4355.00    1.00435   1.01101   -1.000
 4356.00    0.99041   1.02051   -1.000
 4357.00    1.04411   1.02825   -1.000
 4358.00    1.16286   1.03705   -1.000
 4359.00    1.37279   1.04302   -1.000
 4360.00    1.39021   1.04211    0.101
 4361.00    1.17012   1.03652    0.031
 4362.00    1.09427   1.03044    0.023
 4363.00    1.17530   1.02280    0.023
 4364.00    1.13194   1.01096    0.023
 4365.00    0.96925   0.99892    0.023
 4366.00    0.83009   0.99070    0.023
 4367.00    0.71082   0.98325    0.023
 4368.00    0.69070   0.97438    0.023
 4369.00    0.74442   0.96866    0.023
 4370.00    0.88199   0.96833    0.023
 4371.00    1.07444   0.96942    0.023
 4372.00    1.19000   0.96848    0.023
 4373.00    1.26154   0.96511    0.024
 4374.00    1.14289   0.95959    0.023
 4375.00    0.92937   0.95092    0.022
 4376.00    0.81511   0.93596    0.022
 4377.00    0.74369   0.91500    0.023
 4378.00    0.82967   0.89631    0.023
 4379.00    0.97391   0.88563    0.023
 4380.00    1.03880   0.87997    0.023
 4381.00    1.07881   0.87768    0.022
 4382.00    0.98174   0.88350    0.022
 4383.00    0.84880   0.89689    0.022
 4384.00    0.90516   0.90975    0.023
 4385.00    1.00196   0.92046    0.023
 4386.00    0.92085   0.93327    0.023
 4387.00    0.80967   0.94523    0.023
 4388.00    0.84696   0.95150    0.022
 4389.00    0.90322   0.95616    0.022
 4390.00    1.18143   0.96360    0.023
 4391.00    1.47944   0.96924    0.023
 4392.00    1.40010   0.97017    0.023
 4393.00    1.30066   0.96985    0.022
 4394.00    1.26867   0.96710    0.022
 4395.00    1.23512   0.96193    0.022
 4396.00    0.96660   0.95834    0.023
 4397.00    0.71665   0.95248    0.023
 4398.00    0.87483   0.94144    0.022
 4399.00    1.03438   0.93522    0.022
 4400.00    1.21089   0.93764    0.022
 4401.00    1.33853   0.93818    0.023
 4402.00    1.05508   0.93736    0.023
 4403.00    0.85989   0.94590    0.023
 4404.00    1.21786   0.95903    0.023
 4405.00    1.49752   0.96614    0.023
 4406.00    1.39206   0.97184    0.023
 4407.00    1.23324   0.97970    0.023
 4408.00    0.86137   0.98087    0.022
 4409.00    0.57986   0.97619    0.022
 4410.00    0.59803   0.97581    0.022
 4411.00    0.67522   0.97678    0.022
 4412.00    0.91779   0.97527    0.022
 4413.00    1.11968   0.97813    0.022
 4414.00    1.22405   0.98547    0.023
 4415.00    1.35117   0.99019    0.023
 4416.00    1.52537   0.99223    0.023
 4417.00    1.50165   0.99572    0.023
 4418.00    1.12165   0.99923    0.022
 4419.00    0.87343   0.99920    0.022
 4420.00    0.83268   0.99701    0.022
 4421.00    0.90966   0.99541    0.022
 4422.00    1.14936   0.99522    0.022
 4423.00    1.23986   0.99349    0.022
 4424.00    1.14888   0.98794    0.022
 4425.00    1.15732   0.98350    0.022
 4426.00    1.27237   0.98173    0.022
 4427.00    1.31417   0.97808    0.022
 4428.00    1.28669   0.97330    0.022
 4429.00    1.13441   0.97217    0.022
 4430.00    0.87807   0.97562    0.022
 4431.00    0.88275   0.98062    0.022
 4432.00    1.07908   0.98537    0.022
 4433.00    1.14265   0.99034    0.022
 4434.00    1.12062   0.99424    0.022
 4435.00    1.16588   0.99548    0.023
 4436.00    1.24911   0.99442    0.023
 4437.00    1.20589   0.99220    0.023
 4438.00    1.10059   0.99141    0.023
 4439.00    1.07229   0.99471    0.023
 4440.00    1.07666   0.99890    0.023
 4441.00    1.01890   1.00151    0.022
 4442.00    0.93856   1.00715    0.022
 4443.00    0.95995   1.01329    0.022
 4444.00    1.01262   1.01210    0.022
 4445.00    1.07460   1.00646    0.022
 4446.00    1.13897   1.00076    0.022
 4447.00    1.09379   0.99111    0.022
 4448.00    1.02579   0.97565    0.022
 4449.00    1.06345   0.95973    0.022
 4450.00    1.11848   0.94771    0.022
 4451.00    1.19617   0.93721    0.022
 4452.00    1.27665   0.92605    0.022
 4453.00    1.22530   0.91894    0.021
 4454.00    1.16272   0.91888    0.021
 4455.00    0.97993   0.91957    0.021
 4456.00    0.79121   0.92037    0.020
 4457.00    0.80217   0.92750    0.021
 4458.00    0.81792   0.93644    0.021
 4459.00    0.93484   0.94168    0.021
 4460.00    1.03537   0.94774    0.021
 4461.00    0.80386   0.95625    0.000
 4462.00    0.61123   0.96231    0.000
 4463.00    0.87545   0.96675    0.000
 4464.00    1.11241   0.97482    0.000
 4465.00    1.12831   0.98525    0.000
 4466.00    1.13004   0.99543    0.000
 4467.00    1.04552   1.00729    0.000
 4468.00    0.95807   1.02106    0.000
 4469.00    0.85656   1.03200    0.000
 4470.00    0.84708   1.03873    0.000
 4471.00    1.19696   1.04309    0.000
 4472.00    1.48411   1.04294    0.000
 4473.00    1.56727   1.03703    0.000
 4474.00    1.59945   1.02917    0.000
 4475.00    1.49136   1.02159    0.000
 4476.00    1.43266   1.01497    0.000
 4477.00    1.49034   1.01203    0.000
 4478.00    1.45134   1.01244    0.000
 4479.00    1.21542   1.01399    0.000
 4480.00    1.01749   1.01697    0.000
 4481.00    0.88691   1.02018    0.000
 4482.00    0.81605   1.02027    0.021
 4483.00    0.83782   1.01759    0.021
 4484.00    0.85078   1.01416    0.021
 4485.00    0.85176   1.00975    0.021
 4486.00    0.93140   1.00567    0.021
 4487.00    1.10534   1.00295    0.021
 4488.00    1.17602   1.00103    0.021
 4489.00    1.13752   1.00189    0.021
 4490.00    1.09188   1.00608    0.021
 4491.00    1.03959   1.01109    0.021
 4492.00    1.01144   1.01701    0.021
 4493.00    1.00313   1.02655    0.021
 4494.00    1.10986   1.03797    0.021
 4495.00    1.29984   1.04768    0.021
 4496.00    1.28855   1.05840    0.021
 4497.00    1.14941   1.07134    0.021
 4498.00    1.05337   1.08166    0.021
 4499.00    0.98125   1.08844    0.020
 4500.00    1.09994   1.09508    0.020
 4501.00    1.31082   1.10011    0.021
 4502.00    1.31238   1.10034    0.021
 4503.00    1.22663   1.09824    0.021
 4504.00    1.18555   1.09583    0.021
 4505.00    1.16042   1.09084    0.021
 4506.00    1.10524   1.08353    0.021
 4507.00    1.04101   1.07679    0.021
 4508.00    1.07067   1.06969    0.021
 4509.00    1.12384   1.06133    0.021
 4510.00    1.12466   1.05472    0.021
 4511.00    1.11483   1.04988    0.020
 4512.00    0.87797   1.04498    0.020
 4513.00    0.60490   1.04045    0.020
 4514.00    0.66006   1.03701    0.020
 4515.00    0.75424   1.03336    0.021
 4516.00    0.87863   1.02647    0.021
 4517.00    1.00546   1.01702    0.020
 4518.00    1.04204   1.00707    0.020
 4519.00    1.07452   0.99478    0.021
 4520.00    1.23302   0.97967    0.021
 4521.00    1.38708   0.96566    0.021
 4522.00    1.23527   0.95390    0.021
 4523.00    1.07926   0.94355    0.020
 4524.00    0.84445   0.93601    0.021
 4525.00    0.63837   0.93198    0.021
 4526.00    0.75416   0.93163    0.021
 4527.00    0.88453   0.93513    0.021
 4528.00    1.12893   0.94165    0.021
 4529.00    1.32466   0.95004    0.021
 4530.00    1.23266   0.96102    0.021
 4531.00    1.11278   0.97372    0.021
 4532.00    0.86244   0.98538    0.021
 4533.00    0.72330   0.99589    0.021
 4534.00    1.00913   1.00538    0.021
 4535.00    1.22748   1.01131    0.021
 4536.00    1.23064   1.01318    0.021
 4537.00    1.18114   1.01367    0.021
 4538.00    0.98934   1.01197    0.021
 4539.00    0.88452   1.00682    0.021
 4540.00    0.98122   1.00082    0.020
 4541.00    1.01782   0.99564    0.020
 4542.00    0.93396   0.98982    0.021
 4543.00    0.87332   0.98240    0.021
 4544.00    0.85323   0.97653    0.021
 4545.00    0.86275   0.97380    0.021
 4546.00    0.91754   0.97117    0.021
 4547.00    0.95756   0.96916    0.021
 4548.00    0.97776   0.97187    0.021
 4549.00    1.10514   0.97720    0.021
 4550.00    1.35922   0.98281    0.000
 4551.00    1.51328   0.99161    0.000
 4552.00    1.56308   1.00204    0.000
 4553.00    1.39260   1.01103    0.000
 4554.00    1.01959   1.01897    0.000
 4555.00    0.81601   1.02520    0.000
 4556.00    0.74975   1.02838    0.000
 4557.00    0.81314   1.02921    0.000
 4558.00    0.96897   1.02878    0.000
 4559.00    1.06905   1.02768    0.000
 4560.00    1.13424   1.02738    0.000
 4561.00    1.09173   1.02858    0.000
 4562.00    0.99030   1.02960    0.000
 4563.00    1.06286   1.03068    0.000
 4564.00    1.21814   1.03403    0.000
 4565.00    1.25870   1.03636    0.000
 4566.00    1.25222   1.03527    0.000
 4567.00    1.31718   1.03590    0.000
 4568.00    1.40718   1.03749    0.000
 4569.00    1.22871   1.03462    0.000
 4570.00    0.97090   1.03071    0.000
 4571.00    0.87731   1.02780    0.000
 4572.00    0.82395   1.02153    0.000
 4573.00    0.89791   1.01281    0.000
 4574.00    0.99710   1.00395    0.000
 4575.00    1.01405   0.99529    0.000
 4576.00    1.01826   0.98830    0.000
 4577.00    1.02530   0.98283    0.000
 4578.00    1.03265   0.97952    0.000
 4579.00    0.94328   0.98030    0.000
 4580.00    0.84649   0.98344    0.000
 4581.00    0.93660   0.98698    0.000
 4582.00    1.03450   0.99171    0.000
 4583.00    1.14173   0.99624    0.000
 4584.00    1.24132   0.99896    0.000
 4585.00    1.00913   1.00040    0.000
 4586.00    0.79090   0.99993    0.000
 4587.00    0.81692   0.99833    0.000
 4588.00    0.84541   0.99686    0.000
 4589.00    0.90035   0.99473    0.000
 4590.00    0.95893   0.99306    0.000
 4591.00    1.04495   0.99280    0.000
 4592.00    1.13205   0.99265    0.000
 4593.00    1.22533   0.99310    0.000
 4594.00    1.28981   0.99454    0.000
 4595.00    1.22271   0.99566    0.000
 4596.00    1.15477   0.99788    0.000
 4597.00    1.08373   1.00184    0.000
 4598.00    1.01748   1.00577    0.000
 4599.00    0.96621   1.01125    0.000
 4600.00    0.96337   1.01885    0.000
 4601.00    1.08910   1.02639    0.000
 4602.00    1.15885   1.03393    0.000
 4603.00    1.10104   1.04140    0.000
 4604.00    1.04189   1.04706    0.000
 4605.00    0.98012   1.05044    0.000
 4606.00    0.97287   1.05271    0.000
 4607.00    1.05938   1.05284    0.000
 4608.00    1.16177   1.05083    0.000
 4609.00    1.28807   1.04972    0.000
 4610.00    1.36631   1.04800    0.000
 4611.00    1.38096   1.04500    0.000
 4612.00    1.34204   1.04511    0.000
 4613.00    1.24067   1.04551    0.000
 4614.00    1.16284   1.04391    0.000
 4615.00    1.10920   1.04575    0.000
 4616.00    1.08410   1.04821    0.000
 4617.00    1.08487   1.04715    0.000
 4618.00    1.26412   1.04775    0.000
 4619.00    1.58596   1.04927    0.000
 4620.00    1.57328   1.04682    0.000
 4621.00    1.32549   1.04414    0.000
 4622.00    1.08119   1.04350    0.000
 4623.00    0.83904   1.04068    0.000
 4624.00    0.85894   1.03617    0.000
 4625.00    1.01997   1.03375    0.000
 4626.00    0.98416   1.03133    0.000
 4627.00    0.85629   1.02619    0.000
 4628.00    0.85334   1.02109    0.000
 4629.00    0.90077   1.01742    0.000
 4630.00    0.90931   1.01283    0.000
 4631.00    0.90449   1.00747    0.000
 4632.00    0.89404   1.00349    0.000
 4633.00    0.88196   1.00117    0.000
 4634.00    0.92134   0.99848    0.000
 4635.00    0.97305   0.99510    0.000
 4636.00    0.86804   0.99299    0.000
 4637.00    0.73276   0.98986    0.000
 4638.00    0.76750   0.98405    0.000
 4639.00    0.82776   0.97925    0.000
 4640.00    0.97425   0.97475    0.000
 4641.00    1.13022   0.96942    0.000
 4642.00    1.14718   0.96698    0.000
 4643.00    1.15404   0.96727    0.000
 4644.00    1.07045   0.96896    0.000
 4645.00    0.98344   0.97292    0.000
 4646.00    0.87595   0.97755    0.000
 4647.00    0.77361   0.98270    0.000
 4648.00    0.86578   0.98826    0.000
 4649.00    0.96545   0.99230    0.000
 4650.00    1.18774   0.99708    0.000
 4651.00    1.38468   1.00265    0.000
 4652.00    1.32210   1.00658    0.000
 4653.00    1.24281   1.01060    0.000
 4654.00    1.04138   1.01324    0.000
 4655.00    0.88420   1.01160    0.000
 4656.00    0.97441   1.00737    0.000
 4657.00    1.04306   0.99969    0.000
 4658.00    1.01554   0.98722    0.000
 4659.00    0.93539   0.97370    0.000
 4660.00    0.66248   0.96136    0.000
 4661.00    0.51669   0.94910    0.000
 4662.00    0.76096   0.94021    0.000
 4663.00    1.01246   0.93805    0.000
 4664.00    1.28281   0.93941    0.000
 4665.00    1.38913   0.94362    0.000
 4666.00    1.12786   0.95267    0.000
 4667.00    0.95482   0.96284    0.000
 4668.00    0.95314   0.97169    0.000
 4669.00    0.99856   0.97977    0.000
 4670.00    1.12377   0.98538    0.000
 4671.00    1.18903   0.98847    0.000
 4672.00    1.16534   0.98938    0.000
 4673.00    1.06468   0.98772    0.000
 4674.00    0.86361   0.98601    0.000
 4675.00    0.78044   0.98490    0.000
 4676.00    0.83273   0.98298    0.000
 4677.00    0.83230   0.98247    0.000
 4678.00    0.77844   0.98436    0.000
 4679.00    0.84030   0.98550    0.000
 4680.00    1.00559   0.98634    0.000
 4681.00    1.09369   0.98867    0.000
 4682.00    1.12099   0.98957    0.000
 4683.00    1.01756   0.98901    0.000
 4684.00    0.82358   0.98990    0.000
 4685.00    0.81750   0.99023    0.000
 4686.00    0.92555   0.98940    0.000
 4687.00    1.02604   0.99003    0.000
 4688.00    1.12252   0.99056    0.000
 4689.00    1.12810   0.98902    0.000
 4690.00    1.09185   0.98684    0.000
 4691.00    0.93313   0.98394    0.000
 4692.00    0.72588   0.97885    0.000
 4693.00    0.81323   0.97201    0.000
 4694.00    1.00005   0.96523    0.000
 4695.00    1.10562   0.95882    0.000
 4696.00    1.18813   0.95262    0.000
 4697.00    1.30622   0.94764    0.000
 4698.00    1.43264   0.94422    0.000
 4699.00    1.18579   0.94260    0.000
 4700.00    0.86872   0.94232    0.000
 4701.00    0.92749   0.94232    0.000
 4702.00    1.04093   0.94396    0.000
 4703.00    1.07016   0.94729    0.000
 4704.00    1.09050   0.95039    0.000
 4705.00    1.06595   0.95449    0.000
 4706.00    1.03833   0.95994    0.000
 4707.00    1.03289   0.96538    0.000
 4708.00    1.02820   0.97186    0.000
 4709.00    1.07568   0.97868    0.000
 4710.00    1.11758   0.98560    0.000
 4711.00    0.97574   0.99409    0.000
 4712.00    0.84081   1.00184    0.000
 4713.00    0.81185   1.00847    0.000
 4714.00    0.79085   1.01538    0.000
 4715.00    0.84780   1.02022    0.000
 4716.00    0.90213   1.02204    0.000
 4717.00    0.93796   1.02181    0.000
 4718.00    0.96766   1.01909    0.000
 4719.00    0.96398   1.01301    0.000
 4720.00    0.94315   1.00477    0.000
 4721.00    0.84758   0.99585    0.000
 4722.00    0.85047   0.98545    0.000
 4723.00    1.20659   0.97562    0.000
 4724.00    1.46748   0.96929    0.000
 4725.00    1.44168   0.96390    0.000
 4726.00    1.38420   0.96056    0.000
 4727.00    1.24557   0.96251    0.000
 4728.00    1.08881   0.96474    0.000
 4729.00    0.89210   0.96695    0.000
 4730.00    0.80989   0.97323    0.000
 4731.00    0.94662   0.97781    0.000
 4732.00    1.00744   0.98051    0.000
 4733.00    0.94160   0.98639    0.000
 4734.00    0.87587   0.99065    0.000
 4735.00    0.81029   0.99302    0.000
 4736.00    0.86121   0.99728    0.000
 4737.00    1.06194   1.00070    0.000
 4738.00    1.04931   1.00352    0.000
 4739.00    0.79499   1.00645    0.000
 4740.00    0.85312   1.00795    0.000
 4741.00    1.22342   1.00983    0.000
 4742.00    1.25939   1.01102    0.000
 4743.00    1.00076   1.00940    0.000
 4744.00    0.93716   1.00760    0.000
 4745.00    1.02496   1.00545    0.000
 4746.00    0.94666   1.00082    0.000
 4747.00    0.75499   0.99579    0.000
 4748.00    0.88128   0.99149    0.000
 4749.00    1.19781   0.98681    0.000
 4750.00    1.24773   0.98231    0.000
 4751.00    1.15846   0.97845    0.000
 4752.00    1.00911   0.97505    0.000
 4753.00    0.83255   0.97095    0.000
 4754.00    0.96389   0.96550    0.000
 4755.00    1.21512   0.96040    0.000
 4756.00    1.31984   0.95447    0.000
 4757.00    1.37602   0.94700    0.000
 4758.00    1.21311   0.94183    0.000
 4759.00    0.98930   0.93893    0.000
 4760.00    0.92793   0.93640    0.000
 4761.00    0.90373   0.93742    0.021
 4762.00    1.03182   0.94232    0.021
 4763.00    1.18781   0.94741    0.021
 4764.00    1.06471   0.95380    0.021
 4765.00    0.90232   0.96227    0.021
 4766.00    1.05312   0.96983    0.021
 4767.00    1.23568   0.97634    0.021
 4768.00    1.25357   0.98266    0.021
 4769.00    1.26081   0.98849    0.020
 4770.00    1.26422   0.99252    0.020
 4771.00    1.26705   0.99397    0.020
 4772.00    1.03417   0.99488    0.020
 4773.00    0.82075   0.99491    0.020
 4774.00    1.17125   0.99140    0.020
 4775.00    1.49159   0.98611    0.021
 4776.00    1.37612   0.98257    0.020
 4777.00    1.27209   0.97786    0.020
 4778.00    1.27558   0.97007    0.020
 4779.00    1.27144   0.96627    0.020
 4780.00    1.21503   0.96503    0.020
 4781.00    1.15515   0.96029    0.020
 4782.00    1.07692   0.96004    0.020
 4783.00    1.01568   0.96459    0.020
 4784.00    1.02680   0.96617    0.020
 4785.00    1.00081   0.97086    0.019
 4786.00    0.84446   0.97938    0.019
 4787.00    0.79644   0.98473    0.019
 4788.00    1.06850   0.98997    0.020
 4789.00    1.27258   0.99589    0.020
 4790.00    1.30546   0.99812    0.020
 4791.00    1.24472   0.99818    0.020
 4792.00    0.98096   0.99784    0.020
 4793.00    0.87139   0.99560    0.020
 4794.00    1.05204   0.99233    0.019
 4795.00    1.12875   0.98985    0.019
 4796.00    1.03463   0.98712    0.019
 4797.00    0.95776   0.98397    0.019
 4798.00    0.90575   0.98205    0.019
 4799.00    0.90889   0.97963    0.019
 4800.00    0.98193   0.97627    0.019
 4801.00    1.11781   0.97505    0.019
 4802.00    1.32386   0.97394    0.020
 4803.00    1.36099   0.97232    0.020
 4804.00    1.23174   0.97355    0.019
 4805.00    1.15227   0.97579    0.019
 4806.00    1.11606   0.97788    0.020
 4807.00    1.02592   0.98165    0.020
 4808.00    0.89452   0.98614    0.019
 4809.00    0.94335   0.99010    0.019
 4810.00    1.11342   0.99368    0.019
 4811.00    1.09542   0.99689    0.019
 4812.00    0.96660   0.99810    0.019
 4813.00    1.03084   0.99728    0.019
 4814.00    1.19429   0.99565    0.019
 4815.00    1.16515   0.99094    0.019
 4816.00    1.05027   0.98484    0.019
 4817.00    0.91997   0.98011    0.019
 4818.00    0.78378   0.97347    0.019
 4819.00    0.98443   0.96764    0.019
 4820.00    1.29459   0.96516    0.019
 4821.00    1.38175   0.96185    0.020
 4822.00    1.40819   0.95974    0.020
 4823.00    1.29648   0.95955    0.020
 4824.00    1.15390   0.95817    0.019
 4825.00    0.99784   0.95777    0.019
 4826.00    0.83939   0.95778    0.019
 4827.00    0.95928   0.95635    0.019
 4828.00    1.11710   0.95578    0.019
 4829.00    1.07966   0.95551    0.019
 4830.00    1.02325   0.95374    0.019
 4831.00    0.98353   0.95152    0.019
 4832.00    0.94482   0.94970    0.019
 4833.00    1.17871   0.94738    0.019
 4834.00    1.41757   0.94418    0.019
 4835.00    1.25298   0.94131    0.019
 4836.00    1.09034   0.93973    0.018
 4837.00    0.97864   0.93800    0.019
 4838.00    0.88426   0.93549    0.019
 4839.00    1.02657   0.93428    0.019
 4840.00    1.14833   0.93265    0.019
 4841.00    1.08436   0.92887    0.019
 4842.00    1.01924   0.92548    0.019
 4843.00    0.94651   0.92045    0.019
 4844.00    0.89685   0.91259    0.019
 4845.00    0.96628   0.90482    0.019
 4846.00    1.02391   0.89411    0.019
 4847.00    1.03244   0.87939    0.019
 4848.00    1.05644   0.86457    0.000
 4849.00    1.13372   0.84712    0.000
 4850.00    1.16249   0.82521    0.000
 4851.00    1.05057   0.80421    0.000
 4852.00    0.96999   0.78416    0.000
 4853.00    0.96700   0.76257    0.000
 4854.00    1.02240   0.74573    0.000
 4855.00    1.20241   0.73560    0.000
 4856.00    1.38086   0.72832    0.000
 4857.00    1.55641   0.72894    0.000
 4858.00    1.74373   0.73796    0.000
 4859.00    1.95010   0.74868    0.000
 4860.00    2.05921   0.76296    0.000
 4861.00    2.03021   0.78039    0.000
 4862.00    1.86849   0.79487    0.000
 4863.00    1.54097   0.80646    0.000
 4864.00    1.25861   0.81767    0.000
 4865.00    1.02599   0.82686    0.000
 4866.00    0.95363   0.83296    0.000
 4867.00    1.03693   0.84000    0.000
 4868.00    1.03793   0.84901    0.000
 4869.00    0.96846   0.85718    0.000
 4870.00    0.93594   0.86565    0.000
 4871.00    0.93128   0.87612    0.000
 4872.00    0.99300   0.88562    0.000
 4873.00    1.09870   0.89172    0.000
 4874.00    1.14205   0.89738    0.000
 4875.00    1.14919   0.90146    0.019
 4876.00    1.11596   0.90042    0.019
 4877.00    1.06230   0.89828    0.019
 4878.00    0.99497   0.89581    0.020
 4879.00    0.92165   0.89051    0.020
 4880.00    0.92087   0.88527    0.020
 4881.00    0.94735   0.88193    0.020
 4882.00    0.95872   0.87983    0.020
 4883.00    0.96526   0.87898    0.020
 4884.00    0.92860   0.88200    0.020
 4885.00    0.88043   0.88887    0.020
 4886.00    0.92493   0.89655    0.020
 4887.00    0.98966   0.90816    0.020
 4888.00    1.07729   0.92192    0.020
 4889.00    1.16888   0.93289    0.020
 4890.00    1.05840   0.94449    0.020
 4891.00    0.92130   0.95421    0.020
 4892.00    1.03870   0.95857    0.020
 4893.00    1.17974   0.96180    0.020
 4894.00    1.07007   0.96261    0.020
 4895.00    0.94617   0.96007    0.021
 4896.00    0.96949   0.95842    0.021
 4897.00    0.99556   0.95641    0.021
 4898.00    0.95631   0.95304    0.020
 4899.00    0.91685   0.95095    0.020
 4900.00    0.87275   0.94896    0.020
 4901.00    0.83327   0.94576    0.020
 4902.00    0.85364   0.94216    0.020
 4903.00    0.86646   0.93882    0.020
 4904.00    0.81375   0.93576    0.020
 4905.00    0.77362   0.93211    0.020
 4906.00    0.81452   0.92908    0.020
 4907.00    0.86508   0.92695    0.020
 4908.00    0.96424   0.92326    0.020
 4909.00    1.04039   0.91816    0.021
 4910.00    1.02288   0.91203    0.020
 4911.00    1.00394   0.90343    0.020
 4912.00    0.98017   0.89337    0.020
 4913.00    0.99669   0.88340    0.020
 4914.00    1.12793   0.87476    0.020
 4915.00    1.17257   0.86905    0.020
 4916.00    1.00655   0.86695    0.020
 4917.00    0.90731   0.86955    0.020
 4918.00    0.94824   0.87671    0.020
 4919.00    1.01142   0.88639    0.020
 4920.00    1.11519   0.89825    0.019
 4921.00    1.14603   0.91157    0.019
 4922.00    1.06057   0.92245    0.019
 4923.00    1.00233   0.93051    0.019
 4924.00    0.98221   0.93732    0.019
 4925.00    0.92039   0.93910    0.019
 4926.00    0.80720   0.93640    0.019
 4927.00    0.71017   0.93336    0.019
 4928.00    0.63071   0.92711    0.019
 4929.00    0.70766   0.91912    0.019
 4930.00    0.93441   0.91432    0.019
 4931.00    1.02802   0.90969    0.019
 4932.00    1.00922   0.90633    0.019
 4933.00    0.99100   0.90813    0.019
 4934.00    0.97321   0.91176    0.019
 4935.00    1.06315   0.91703    0.019
 4936.00    1.22345   0.92536    0.019
 4937.00    1.18578   0.93365    0.019
 4938.00    1.03495   0.94195    0.019
 4939.00    0.99055   0.95041    0.018
 4940.00    0.99915   0.95640    0.000
 4941.00    0.99702   0.96093    0.000
 4942.00    0.99028   0.96482    0.000
 4943.00    0.92215   0.96604    0.000
 4944.00    0.83135   0.96458    0.000
 4945.00    0.92095   0.96205    0.000
 4946.00    1.06698   0.95766    0.000
 4947.00    1.10036   0.94990    0.000
 4948.00    1.10434   0.94147    0.000
 4949.00    1.03761   0.93322    0.000
 4950.00    0.95584   0.92416    0.000
 4951.00    0.93785   0.91747    0.000
 4952.00    0.93062   0.91260    0.000
 4953.00    0.93639   0.91020    0.000
 4954.00    0.94382   0.91180    0.000
 4955.00    1.10155   0.91286    0.000
 4956.00    1.27261   0.91493    0.000
 4957.00    1.19052   0.91856    0.000
 4958.00    1.09508   0.91960    0.000
 4959.00    1.04946   0.91963    0.000
 4960.00    1.00649   0.91910    0.000
 4961.00    1.09674   0.91831    0.000
 4962.00    1.18112   0.91835    0.000
 4963.00    1.13783   0.91808    0.000
 4964.00    1.08265   0.91960    0.000
 4965.00    0.88153   0.92236    0.000
 4966.00    0.69945   0.92447    0.000
 4967.00    0.67678   0.92701    0.000
 4968.00    0.67245   0.92764    0.000
 4969.00    0.78254   0.92605    0.000
 4970.00    0.89104   0.92273    0.000
 4971.00    0.99172   0.91565    0.000
 4972.00    1.05755   0.90625    0.000
 4973.00    0.98465   0.89537    0.000
 4974.00    0.91947   0.88329    0.000
 4975.00    0.87983   0.87180    0.000
 4976.00    0.85173   0.86194    0.000
 4977.00    0.85583   0.85486    0.000
 4978.00    0.88969   0.85123    0.000
 4979.00    0.99471   0.85159    0.000
 4980.00    1.05650   0.85468    0.000
 4981.00    1.02900   0.85954    0.000
 4982.00    1.05716   0.86730    0.000
 4983.00    1.18534   0.87426    0.000
 4984.00    1.22111   0.87953    0.000
 4985.00    1.11172   0.88590    0.000
 4986.00    1.06811   0.88937    0.000
 4987.00    1.11524   0.89100    0.000
 4988.00    1.05798   0.89284    0.000
 4989.00    0.87397   0.89131    0.000
 4990.00    0.75071   0.88939    0.000
 4991.00    0.69245   0.88657    0.000
 4992.00    0.72820   0.88039    0.000
 4993.00    0.85270   0.87477    0.000
 4994.00    0.93102   0.86819    0.000
 4995.00    0.97091   0.85991    0.000
 4996.00    1.05272   0.85299    0.000
 4997.00    1.16527   0.84678    0.000
 4998.00    1.15947   0.84152    0.000
 4999.00    1.07751   0.83778    0.000
 5000.00    1.04240   0.83521    0.000
 5001.00    1.03367   0.83393    0.000
 5002.00    1.10095   0.83299    0.000
 5003.00    1.20548   0.83207    0.000
 5004.00    1.24734   0.83017    0.000
 5005.00    1.26267   0.82757    0.000
 5006.00    1.20334   0.82525    0.000
 5007.00    1.11693   0.82089    0.000
 5008.00    0.99264   0.81643    0.000
 5009.00    0.85671   0.81417    0.000
 5010.00    0.97761   0.81208    0.000
 5011.00    1.16408   0.81134    0.000
 5012.00    0.99022   0.81244    0.000
 5013.00    0.74149   0.81518    0.000
 5014.00    0.70252   0.81984    0.000
 5015.00    0.69789   0.82459    0.000
 5016.00    0.77194   0.83014    0.000
 5017.00    0.85564   0.83606    0.000
 5018.00    0.85700   0.84192    0.000
 5019.00    0.85141   0.84846    0.000
 5020.00    0.82250   0.85318    0.000
 5021.00    0.79245   0.85833    0.000
 5022.00    0.80165   0.86436    0.000
 5023.00    0.81315   0.86842    0.000
 5024.00    0.92813   0.87280    0.000
 5025.00    1.03212   0.87551    0.000
 5026.00    0.91580   0.87588    0.000
 5027.00    0.80691   0.87654    0.000
 5028.00    0.78473   0.87316    0.000
 5029.00    0.78107   0.86668    0.018
 5030.00    0.92697   0.86020    0.018
 5031.00    1.04878   0.85099    0.019
 5032.00    1.02456   0.84281    0.018
 5033.00    1.00937   0.83654    0.018
 5034.00    1.03743   0.83036    0.018
 5035.00    1.05722   0.82963    0.018
 5036.00    1.04479   0.83226    0.018
 5037.00    1.03023   0.83577    0.018
 5038.00    1.00881   0.84250    0.018
 5039.00    1.01001   0.84926    0.018
 5040.00    1.07334   0.85553    0.018
 5041.00    1.07068   0.86087    0.018
 5042.00    0.91284   0.86314    0.018
 5043.00    0.84165   0.86488    0.018
 5044.00    0.94659   0.86631    0.018
 5045.00    1.04861   0.86703    0.018
 5046.00    1.14546   0.86885    0.018
 5047.00    1.18984   0.87216    0.018
 5048.00    1.15299   0.87732    0.018
 5049.00    1.06533   0.88306    0.018
 5050.00    0.90857   0.88894    0.018
 5051.00    0.82309   0.89543    0.018
 5052.00    0.82292   0.90040    0.018
 5053.00    0.84288   0.90356    0.018
 5054.00    0.88410   0.90454    0.018
 5055.00    0.89327   0.90301    0.018
 5056.00    0.87260   0.90043    0.018
 5057.00    0.80289   0.89490    0.018
 5058.00    0.69293   0.88765    0.017
 5059.00    0.70392   0.88158    0.018
 5060.00    0.80225   0.87516    0.018
 5061.00    0.85239   0.86886    0.018
 5062.00    0.87199   0.86367    0.018
 5063.00    0.92770   0.86028    0.018
 5064.00    1.00344   0.85817    0.019
 5065.00    0.96373   0.85545    0.019
 5066.00    0.86835   0.85346    0.018
 5067.00    0.80172   0.85199    0.018
 5068.00    0.74705   0.84943    0.019
 5069.00    0.85981   0.84544    0.019
 5070.00    1.03218   0.84088    0.019
 5071.00    1.09492   0.83667    0.019
 5072.00    1.12468   0.83125    0.019
 5073.00    0.88679   0.82572    0.019
 5074.00    0.58205   0.82251    0.018
 5075.00    0.65707   0.82130    0.019
 5076.00    0.80905   0.82140    0.019
 5077.00    0.98253   0.82332    0.019
 5078.00    1.15943   0.82808    0.019
 5079.00    1.09109   0.83479    0.019
 5080.00    0.99375   0.84162    0.019
 5081.00    0.82761   0.84858    0.019
 5082.00    0.65595   0.85609    0.019
 5083.00    0.68796   0.86274    0.019
 5084.00    0.72915   0.86751    0.018
 5085.00    0.85383   0.87089    0.018
 5086.00    0.97477   0.87263    0.018
 5087.00    0.85969   0.87219    0.018
 5088.00    0.76171   0.86949    0.018
 5089.00    0.98164   0.86477    0.018
 5090.00    1.16841   0.85943    0.018
 5091.00    0.98595   0.85361    0.018
 5092.00    0.83036   0.84715    0.018
 5093.00    0.88412   0.84259    0.018
 5094.00    0.94108   0.83970    0.018
 5095.00    1.01689   0.83747    0.018
 5096.00    1.05433   0.83663    0.018
 5097.00    0.91274   0.83597    0.019
 5098.00    0.78572   0.83592    0.018
 5099.00    0.71428   0.83647    0.018
 5100.00    0.67422   0.83520    0.018
 5101.00    0.73399   0.83471    0.018
 5102.00    0.75301   0.83553    0.017
 5103.00    0.66213   0.83533    0.017
 5104.00    0.64353   0.83761    0.017
 5105.00    0.79205   0.84120    0.017
 5106.00    0.88238   0.84475    0.018
 5107.00    0.85630   0.85052    0.018
 5108.00    0.80284   0.85532    0.018
 5109.00    0.70164   0.85942    0.018
 5110.00    0.68087   0.86366    0.018
 5111.00    0.78276   0.86471    0.018
 5112.00    0.83298   0.86373    0.018
 5113.00    0.81396   0.86070    0.018
 5114.00    0.83968   0.85484    0.018
 5115.00    0.91821   0.84812    0.018
 5116.00    1.00039   0.83955    0.017
 5117.00    1.08636   0.83046    0.018
 5118.00    1.06633   0.82299    0.018
 5119.00    0.94901   0.81624    0.018
 5120.00    0.86160   0.81118    0.018
 5121.00    0.79838   0.80815    0.018
 5122.00    0.78390   0.80667    0.018
 5123.00    0.80411   0.80765    0.017
 5124.00    0.77503   0.81004    0.017
 5125.00    0.71516   0.81291    0.017
 5126.00    0.75000   0.81602    0.018
 5127.00    0.83655   0.81840    0.018
 5128.00    0.86992   0.82140    0.018
 5129.00    0.87806   0.82238    0.017
 5130.00    0.90533   0.82098    0.017
 5131.00    0.94042   0.82026    0.018
 5132.00    0.96950   0.81687    0.018
 5133.00    0.99647   0.81430    0.018
 5134.00    0.91945   0.81293    0.018
 5135.00    0.81177   0.80795    0.018
 5136.00    0.77767   0.80553    0.018
 5137.00    0.76155   0.80532    0.018
 5138.00    0.86914   0.80316    0.018
 5139.00    1.00117   0.80225    0.018
 5140.00    1.03754   0.80142    0.018
 5141.00    1.05916   0.80042    0.018
 5142.00    0.93073   0.80148    0.018
 5143.00    0.78522   0.80136    0.018
 5144.00    0.80798   0.80063    0.018
 5145.00    0.84358   0.80240    0.018
 5146.00    0.84277   0.80426    0.018
 5147.00    0.84045   0.80636    0.018
 5148.00    0.80914   0.81064    0.018
 5149.00    0.77720   0.81497    0.018
 5150.00    0.72878   0.81959    0.018
 5151.00    0.68806   0.82404    0.018
 5152.00    0.78075   0.82582    0.018
 5153.00    0.87176   0.82633    0.018
 5154.00    0.94498   0.82389    0.019
 5155.00    0.99151   0.81607    0.019
 5156.00    0.83721   0.80581    0.019
 5157.00    0.71109   0.79235    0.019
 5158.00    0.74636   0.77516    0.019
 5159.00    0.75931   0.75658    0.019
 5160.00    0.67055   0.73664    0.018
 5161.00    0.64492   0.71896    0.018
 5162.00    0.85487   0.70559    0.018
 5163.00    1.01678   0.69590    0.019
 5164.00    1.02886   0.68984    0.019
 5165.00    0.96500   0.68730    0.019
 5166.00    0.70005   0.69113    0.018
 5167.00    0.54980   0.70088    0.018
 5168.00    0.66035   0.71210    0.018
 5169.00    0.72864   0.72347    0.018
 5170.00    0.71372   0.73493    0.018
 5171.00    0.68253   0.74480    0.018
 5172.00    0.62345   0.75163    0.018
 5173.00    0.64509   0.75453    0.018
 5174.00    0.78808   0.75371    0.018
 5175.00    0.88674   0.75088    0.018
 5176.00    0.92684   0.74527    0.018
 5177.00    0.86518   0.74053    0.018
 5178.00    0.68513   0.74021    0.017
 5179.00    0.64478   0.74029    0.017
 5180.00    0.74776   0.74262    0.017
 5181.00    0.74917   0.74740    0.017
 5182.00    0.65867   0.75309    0.017
 5183.00    0.61096   0.76089    0.017
 5184.00    0.59737   0.76566    0.017
 5185.00    0.66712   0.76846    0.016
 5186.00    0.79533   0.77319    0.016
 5187.00    0.78288   0.77687    0.016
 5188.00    0.68388   0.77884    0.017
 5189.00    0.65246   0.78171    0.017
 5190.00    0.65737   0.78508    0.000
 5191.00    0.79997   0.78861    0.000
 5192.00    1.00684   0.79221    0.000
 5193.00    0.96421   0.79354    0.000
 5194.00    0.82121   0.79386    0.000
 5195.00    0.85045   0.79286    0.000
 5196.00    0.93880   0.78893    0.000
 5197.00    0.90649   0.78355    0.000
 5198.00    0.83932   0.77671    0.000
 5199.00    0.79840   0.77037    0.000
 5200.00    0.76375   0.76618    0.000
 5201.00    0.69047   0.76234    0.000
 5202.00    0.60976   0.76168    0.000
 5203.00    0.63019   0.76463    0.000
 5204.00    0.66573   0.76912    0.000
 5205.00    0.62708   0.77669    0.000
 5206.00    0.58031   0.78492    0.000
 5207.00    0.77602   0.79311    0.000
 5208.00    0.98924   0.80131    0.000
 5209.00    0.83043   0.80823    0.000
 5210.00    0.65773   0.81464    0.000
 5211.00    0.69732   0.81964    0.018
 5212.00    0.73737   0.82305    0.017
 5213.00    0.75797   0.82461    0.018
 5214.00    0.77929   0.82426    0.018
 5215.00    0.81215   0.82196    0.018
 5216.00    0.82982   0.81779    0.018
 5217.00    0.69282   0.81178    0.018
 5218.00    0.59788   0.80440    0.018
 5219.00    0.80896   0.79748    0.018
 5220.00    0.97514   0.79087    0.018
 5221.00    0.89115   0.78714    0.018
 5222.00    0.83348   0.78594    0.018
 5223.00    0.89281   0.78541    0.018
 5224.00    0.91738   0.78874    0.018
 5225.00    0.81491   0.79305    0.018
 5226.00    0.76376   0.79750    0.019
 5227.00    0.86966   0.80419    0.019
 5228.00    0.88867   0.80983    0.019
 5229.00    0.68158   0.81626    0.018
 5230.00    0.52981   0.82323    0.018
 5231.00    0.50176   0.82878    0.018
 5232.00    0.54781   0.83524    0.018
 5233.00    0.73750   0.84057    0.018
 5234.00    0.84705   0.84451    0.018
 5235.00    0.82116   0.84736    0.018
 5236.00    0.74502   0.84837    0.018
 5237.00    0.59446   0.84840    0.018
 5238.00    0.55161   0.84626    0.017
 5239.00    0.64898   0.84256    0.017
 5240.00    0.66499   0.83809    0.017
 5241.00    0.58766   0.83352    0.017
 5242.00    0.56772   0.82909    0.017
 5243.00    0.60581   0.82415    0.017
 5244.00    0.68946   0.82128    0.017
 5245.00    0.81374   0.82021    0.017
 5246.00    0.88096   0.81962    0.017
 5247.00    0.90333   0.82075    0.017
 5248.00    0.93762   0.82211    0.017
 5249.00    0.98015   0.82426    0.017
 5250.00    0.90848   0.82608    0.017
 5251.00    0.76759   0.82505    0.017
 5252.00    0.63284   0.82228    0.017
 5253.00    0.50133   0.81664    0.017
 5254.00    0.51491   0.80781    0.017
 5255.00    0.59510   0.79642    0.017
 5256.00    0.65296   0.78255    0.017
 5257.00    0.70200   0.76741    0.017
 5258.00    0.79884   0.75307    0.017
 5259.00    0.91179   0.74042    0.017
 5260.00    0.91170   0.72991    0.017
 5261.00    0.87962   0.72251    0.017
 5262.00    0.74943   0.71817    0.017
 5263.00    0.59634   0.71822    0.017
 5264.00    0.57747   0.72267    0.017
 5265.00    0.58377   0.72910    0.018
 5266.00    0.55641   0.73698    0.018
 5267.00    0.52417   0.74774    0.018
 5268.00    0.67327   0.75977    0.018
 5269.00    0.84144   0.77150    0.018
 5270.00    0.88074   0.78310    0.018
 5271.00    0.91127   0.79233    0.017
 5272.00    0.83896   0.80044    0.018
 5273.00    0.76320   0.80825    0.018
 5274.00    0.45686   0.81373    0.018
 5275.00    0.17410   0.81834    0.018
 5276.00    0.65508   0.82274    0.018
 5277.00    1.08982   0.82710    0.018
 5278.00    0.82042   0.83291    0.018
 5279.00    0.59858   0.83904    0.018
 5280.00    0.84052   0.84500    0.018
 5281.00    1.03930   0.85174    0.019
 5282.00    0.93423   0.85788    0.018
 5283.00    0.85754   0.86245    0.018
 5284.00    0.93481   0.86467    0.018
 5285.00    0.99476   0.86447    0.018
 5286.00    0.97947   0.86232    0.017
 5287.00    0.94981   0.85812    0.017
 5288.00    0.86870   0.85183    0.017
 5289.00    0.82548   0.84417    0.018
 5290.00    0.89604   0.83729    0.018
 5291.00    0.95829   0.83155    0.018
 5292.00    0.99930   0.82723    0.018
 5293.00    0.98619   0.82479    0.018
 5294.00    0.85404   0.82444    0.018
 5295.00    0.76100   0.82751    0.017
 5296.00    0.74260   0.83264    0.018
 5297.00    0.71616   0.83842    0.018
 5298.00    0.67633   0.84458    0.017
 5299.00    0.72629   0.85079    0.017
 5300.00    0.90728   0.85709    0.017
 5301.00    0.97473   0.86232    0.017
 5302.00    0.89648   0.86587    0.017
 5303.00    0.89642   0.86786    0.017
 5304.00    0.98480   0.86846    0.017
 5305.00    1.00888   0.86825    0.017
 5306.00    0.96886   0.86686    0.017
 5307.00    0.90511   0.86387    0.016
 5308.00    0.82050   0.86043    0.016
 5309.00    0.75136   0.85653    0.016
 5310.00    0.69420   0.85228    0.016
 5311.00    0.60489   0.84831    0.016
 5312.00    0.49366   0.84336    0.016
 5313.00    0.50433   0.83812    0.016
 5314.00    0.58780   0.83252    0.016
 5315.00    0.71772   0.82542    0.016
 5316.00    0.87183   0.81818    0.016
 5317.00    0.90138   0.81026    0.016
 5318.00    0.87468   0.80145    0.017
 5319.00    0.84533   0.79233    0.017
 5320.00    0.81496   0.78464    0.017
 5321.00    0.77494   0.77984    0.016
 5322.00    0.73174   0.77788    0.016
 5323.00    0.83242   0.77805    0.016
 5324.00    0.97301   0.77957    0.017
 5325.00    0.95313   0.78474    0.017
 5326.00    0.89665   0.79204    0.016
 5327.00    0.91208   0.79946    0.017
 5328.00    0.94062   0.80605    0.017
 5329.00    0.90197   0.81088    0.017
 5330.00    0.85389   0.81479    0.017
 5331.00    0.91315   0.81673    0.017
 5332.00    0.98324   0.81734    0.018
 5333.00    0.90095   0.81753    0.017
 5334.00    0.80888   0.81705    0.017
 5335.00    0.81050   0.81689    0.017
 5336.00    0.81467   0.81615    0.017
 5337.00    0.71753   0.81612    0.017
 5338.00    0.62386   0.81806    0.017
 5339.00    0.62938   0.81948    0.017
 5340.00    0.64281   0.82153    0.017
 5341.00    0.76967   0.82414    0.017
 5342.00    0.88066   0.82736    0.017
 5343.00    0.84305   0.83240    0.017
 5344.00    0.81673   0.83730    0.017
 5345.00    0.86743   0.84298    0.017
 5346.00    0.89742   0.84977    0.017
 5347.00    0.81813   0.85645    0.017
 5348.00    0.74233   0.86290    0.016
 5349.00    0.68137   0.86792    0.016
 5350.00    0.65192   0.87168    0.016
 5351.00    0.73285   0.87391    0.016
 5352.00    0.77742   0.87377    0.016
 5353.00    0.71485   0.87138    0.016
 5354.00    0.72606   0.86730    0.016
 5355.00    0.92267   0.86161    0.016
 5356.00    1.03612   0.85425    0.016
 5357.00    0.96960   0.84644    0.016
 5358.00    0.92066   0.83783    0.016
 5359.00    0.90473   0.82990    0.016
 5360.00    0.86915   0.82245    0.016
 5361.00    0.80133   0.81487    0.016
 5362.00    0.71023   0.80931    0.016
 5363.00    0.58565   0.80580    0.016
 5364.00    0.56965   0.80517    0.015
 5365.00    0.69103   0.80621    0.016
 5366.00    0.79588   0.80857    0.016
 5367.00    0.88231   0.81261    0.016
 5368.00    0.90060   0.81812   -2.000
 5369.00    0.85189   0.82497   -2.000
 5370.00    0.85554   0.83093   -2.000
 5371.00    0.90458   0.83550   -2.000
 5372.00    0.89552   0.83870   -2.000
 5373.00    0.84208   0.84068   -2.000
 5374.00    0.80864   0.84158   -2.000
 5375.00    0.78861   0.84179   -2.000
 5376.00    0.75266   0.84126   -2.000
 5377.00    0.70734   0.83993   -2.000
 5378.00    0.65359   0.83846   -2.000
 5379.00    0.59551   0.83637   -2.000
 5380.00    0.66188   0.83390   -2.000
 5381.00    0.78354   0.83117   -2.000
 5382.00    0.83759   0.82744   -2.000
 5383.00    0.86583   0.82298    0.017
 5384.00    0.95899   0.81818    0.017
 5385.00    1.07321   0.81274    0.017
 5386.00    0.96318   0.80752    0.017
 5387.00    0.79227   0.80214    0.016
 5388.00    0.76626   0.79665    0.016
 5389.00    0.77253   0.79297    0.016
 5390.00    0.81897   0.78992    0.016
 5391.00    0.87254   0.78720    0.016
 5392.00    0.79767   0.78466    0.016
 5393.00    0.70537   0.78213    0.016
 5394.00    0.75349   0.78039    0.016
 5395.00    0.81517   0.77812    0.016
 5396.00    0.84609   0.77497    0.016
 5397.00    0.87515   0.77195    0.016
 5398.00    0.94805   0.76987    0.016
 5399.00    1.02071   0.76794    0.017
 5400.00    0.86201   0.76603    0.016
 5401.00    0.70898   0.76547    0.016
 5402.00    0.70227   0.76764    0.016
 5403.00    0.69868   0.77231    0.017
 5404.00    0.73752   0.77784    0.016
 5405.00    0.78213   0.78352    0.016
 5406.00    0.87864   0.78958    0.016
 5407.00    0.96133   0.79711    0.016
 5408.00    0.95274   0.80462    0.016
 5409.00    0.92985   0.81055    0.015
 5410.00    0.83344   0.81499    0.015
 5411.00    0.76609   0.81815    0.016
 5412.00    0.81935   0.82072    0.016
 5413.00    0.83211   0.82239    0.016
 5414.00    0.70574   0.82220    0.015
 5415.00    0.65319   0.82065    0.015
 5416.00    0.81419   0.81913    0.015
 5417.00    0.93132   0.81745    0.015
 5418.00    0.94009   0.81562    0.015
 5419.00    0.91777   0.81279    0.015
 5420.00    0.82925   0.80840    0.015
 5421.00    0.77210   0.80506    0.015
 5422.00    0.77300   0.80291    0.015
 5423.00    0.80881   0.79979    0.015
 5424.00    0.90102   0.79650    0.015
 5425.00    0.93450   0.79292    0.016
 5426.00    0.88474   0.79123    0.015
 5427.00    0.84728   0.79306    0.015
 5428.00    0.82514   0.79505    0.015
 5429.00    0.83207   0.79845    0.015
 5430.00    0.87097   0.80293    0.015
 5431.00    0.88150   0.80829    0.016
 5432.00    0.86453   0.81463    0.016
 5433.00    0.83048   0.81986    0.016
 5434.00    0.78182   0.82419    0.016
 5435.00    0.83054   0.82609    0.016
 5436.00    0.95258   0.82583    0.016
 5437.00    1.00044   0.82387    0.016
 5438.00    0.99924   0.82046    0.016
 5439.00    0.95682   0.81723    0.016
 5440.00    0.89052   0.81323    0.016
 5441.00    0.76871   0.80926    0.016
 5442.00    0.61887   0.80574    0.016
 5443.00    0.66429   0.80306    0.016
 5444.00    0.79503   0.80228    0.016
 5445.00    0.88299   0.80154    0.016
 5446.00    0.95491   0.80032    0.016
 5447.00    0.92855   0.79932    0.016
 5448.00    0.87092   0.79893    0.016
 5449.00    0.83654   0.79866    0.016
 5450.00    0.80835   0.79847    0.016
 5451.00    0.81541   0.79781    0.016
 5452.00    0.83015   0.79796    0.015
 5453.00    0.71133   0.79962    0.015
 5454.00    0.56945   0.80047    0.015
 5455.00    0.54124   0.80118    0.015
 5456.00    0.52793   0.80149    0.015
 5457.00    0.66783   0.80151    0.015
 5458.00    0.82188   0.80178    0.015
 5459.00    0.84025   0.80150    0.015
 5460.00    0.85100   0.80178    0.015
 5461.00    0.93532   0.80193    0.015
 5462.00    1.01991   0.80056    0.015
 5463.00    0.96104   0.79885    0.015
 5464.00    0.90207   0.79641    0.014
 5465.00    0.84080   0.79273    0.014
 5466.00    0.78092   0.78855    0.015
 5467.00    0.73883   0.78394    0.015
 5468.00    0.70585   0.77993    0.015
 5469.00    0.75172   0.77615    0.015
 5470.00    0.79452   0.77307    0.015
 5471.00    0.81764   0.77171    0.015
 5472.00    0.83700   0.77048    0.015
 5473.00    0.83757   0.77112    0.015
 5474.00    0.84243   0.77432    0.015
 5475.00    0.86471   0.77795    0.015
 5476.00    0.87602   0.78131    0.015
 5477.00    0.85036   0.78408    0.015
 5478.00    0.84069   0.78752   -2.000
 5479.00    0.87646   0.79099   -2.000
 5480.00    0.91248   0.79399   -2.000
 5481.00    0.94909   0.79622   -2.000
 5482.00    0.90285   0.79737   -2.000
 5483.00    0.68305   0.79790   -2.000
 5484.00    0.61007   0.79833   -2.000
 5485.00    0.80446   0.79914   -2.000
 5486.00    0.88489   0.79912   -2.000
 5487.00    0.78393   0.79901   -2.000
 5488.00    0.86705   0.79894   -2.000
 5489.00    1.20732   0.79807   -2.000
 5490.00    1.30276   0.79717   -2.000
 5491.00    1.09720   0.79618   -2.000
 5492.00    0.85628   0.79483   -2.000
 5493.00    0.57703   0.79285   -2.000
 5494.00    0.56427   0.79106   -2.000
 5495.00    0.80623   0.78936   -2.000
 5496.00    0.90170   0.78721   -2.000
 5497.00    0.87368   0.78473   -2.000
 5498.00    0.84223   0.78247   -2.000
 5499.00    0.80822   0.78112   -2.000
 5500.00    0.80214   0.77965   -2.000
 5501.00    0.81428   0.77828   -2.000
 5502.00    0.80663   0.77688    0.015
 5503.00    0.78770   0.77606    0.015
 5504.00    0.83269   0.77650    0.015
 5505.00    0.90944   0.77689    0.014
 5506.00    0.94046   0.77772    0.014
 5507.00    0.95183   0.77961    0.014
 5508.00    0.95553   0.78179    0.015
 5509.00    0.95642   0.78496    0.015
 5510.00    0.90853   0.78873    0.015
 5511.00    0.84542   0.79241    0.014
 5512.00    0.80770   0.79599    0.014
 5513.00    0.77657   0.79860    0.014
 5514.00    0.75381   0.80041    0.014
 5515.00    0.73283   0.80095    0.014
 5516.00    0.72672   0.79982    0.014
 5517.00    0.72312   0.79765    0.015
 5518.00    0.69572   0.79498    0.015
 5519.00    0.66531   0.79209    0.015
 5520.00    0.66636   0.78909    0.014
 5521.00    0.67017   0.78621    0.014
 5522.00    0.75917   0.78393    0.015
 5523.00    0.85261   0.78266    0.015
 5524.00    0.84915   0.78203    0.015
 5525.00    0.84251   0.78299    0.014
 5526.00    0.73226   0.78478    0.015
 5527.00    0.63223   0.78639    0.015
 5528.00    0.75212   0.78829    0.015
 5529.00    0.85912   0.79019    0.015
 5530.00    0.80898   0.79256    0.015
 5531.00    0.76214   0.79452    0.015
 5532.00    0.74279   0.79660    0.015
 5533.00    0.72372   0.79875    0.015
 5534.00    0.70636   0.80026    0.015
 5535.00    0.70911   0.80169    0.015
 5536.00    0.81015   0.80297    0.015
 5537.00    0.86130   0.80420    0.015
 5538.00    0.71444   0.80521    0.015
 5539.00    0.61509   0.80608    0.015
 5540.00    0.67251   0.80721    0.015
 5541.00    0.71822   0.80847    0.015
 5542.00    0.73133   0.80947    0.015
 5543.00    0.73095   0.81015    0.015
 5544.00    0.69840   0.81078    0.015
 5545.00    0.68727   0.81075    0.014
 5546.00    0.72030   0.81009    0.014
 5547.00    0.74238   0.80894    0.014
 5548.00    0.74480   0.80742    0.014
 5549.00    0.77511   0.80562    0.014
 5550.00    0.84914   0.80355    0.014
 5551.00    0.86837   0.80143    0.014
 5552.00    0.81213   0.79915    0.014
 5553.00    0.77327   0.79691    0.014
 5554.00    0.75546   0.79420    0.014
 5555.00    0.75001   0.79161    0.014
 5556.00    0.75774   0.78892    0.014
 5557.00    0.75504   0.78618    0.014
 5558.00    0.74250   0.78370    0.014
 5559.00    0.73383   0.78115    0.014
 5560.00    0.72838   0.77955    0.014
 5561.00    0.75116   0.77791    0.014
 5562.00    0.79460   0.77663    0.014
 5563.00    0.76084   0.77631    0.014
 5564.00    0.67748   0.77632    0.014
 5565.00    0.68793   0.77689    0.014
 5566.00    0.75108   0.77767    0.014
 5567.00    0.82016   0.77912    0.014
 5568.00    0.89214   0.78060    0.014
 5569.00    0.91180   0.78191    0.014
 5570.00    0.90935   0.78347    0.015
 5571.00    0.88676   0.78459    0.015
 5572.00    0.85689   0.78473    0.015
 5573.00    0.81130   0.78417    0.015
 5574.00    0.76091   0.78256    0.015
 5575.00    0.74540   0.77956    0.015
 5576.00    0.73879   0.77548    0.014
 5577.00    0.75904   0.77068    0.015
 5578.00    0.78485   0.76507    0.015
 5579.00    0.77807   0.75957    0.015
 5580.00    0.76597   0.75419    0.015
 5581.00    0.77639   0.74925    0.015
 5582.00    0.78956   0.74564    0.015
 5583.00    0.81518   0.74316    0.015
 5584.00    0.84185   0.74264    0.015
 5585.00    0.80233   0.74350    0.015
 5586.00    0.75960   0.74507    0.015
 5587.00    0.73371   0.74724    0.015
 5588.00    0.70900   0.74916    0.015
 5589.00    0.73949   0.75124    0.014
 5590.00    0.76672   0.75296    0.014
 5591.00    0.72916   0.75443    0.014
 5592.00    0.70324   0.75574    0.014
 5593.00    0.81262   0.75710    0.014
 5594.00    0.90566   0.75856    0.014
 5595.00    0.86740   0.76073    0.014
 5596.00    0.82973   0.76404    0.014
 5597.00    0.79569   0.76786    0.014
 5598.00    0.76872   0.77281    0.014
 5599.00    0.77550   0.77789    0.014
 5600.00    0.75842   0.78309    0.014
 5601.00    0.64867   0.78736    0.014
 5602.00    0.55253   0.79004    0.014
 5603.00    0.50046   0.79141    0.014
 5604.00    0.49238   0.79090    0.014
 5605.00    0.60484   0.78923    0.014
 5606.00    0.70795   0.78630    0.014
 5607.00    0.78916   0.78247    0.014
 5608.00    0.85077   0.77814    0.014
 5609.00    0.87264   0.77349    0.014
 5610.00    0.85246   0.76965    0.014
 5611.00    0.75803   0.76655    0.014
 5612.00    0.68366   0.76447    0.014
 5613.00    0.64027   0.76350    0.014
 5614.00    0.64507   0.76285    0.014
 5615.00    0.71527   0.76277    0.014
 5616.00    0.74718   0.76307    0.014
 5617.00    0.73334   0.76381    0.014
 5618.00    0.74955   0.76471    0.014
 5619.00    0.79741   0.76607    0.014
 5620.00    0.78856   0.76798    0.014
 5621.00    0.72700   0.77019    0.014
 5622.00    0.71262   0.77270    0.014
 5623.00    0.73690   0.77509    0.014
 5624.00    0.75360   0.77684    0.014
 5625.00    0.76484   0.77796    0.014
 5626.00    0.70568   0.77823    0.014
 5627.00    0.60197   0.77758    0.014
 5628.00    0.53645   0.77603    0.014
 5629.00    0.49206   0.77411    0.013
 5630.00    0.52382   0.77177    0.013
 5631.00    0.59221   0.76943    0.013
 5632.00    0.63485   0.76742    0.013
 5633.00    0.66680   0.76594    0.014
 5634.00    0.66111   0.76508    0.014
 5635.00    0.64204   0.76466    0.013
 5636.00    0.67294   0.76502    0.013
 5637.00    0.71882   0.76580    0.013
 5638.00    0.73203   0.76700    0.013
 5639.00    0.73711   0.76858    0.013
 5640.00    0.71092   0.76993    0.013
 5641.00    0.67842   0.77108    0.013
 5642.00    0.61198   0.77166    0.013
 5643.00    0.54016   0.77181    0.013
 5644.00    0.61063   0.77099    0.013
 5645.00    0.69785   0.76935    0.013
 5646.00    0.74849   0.76706    0.014
 5647.00    0.79621   0.76424    0.014
 5648.00    0.69697   0.76058    0.014
 5649.00    0.59119   0.75644    0.014
 5650.00    0.61277   0.75267    0.014
 5651.00    0.63646   0.74917    0.014
 5652.00    0.69212   0.74602    0.014
 5653.00    0.74558   0.74415    0.014
 5654.00    0.75844   0.74355    0.014
 5655.00    0.77146   0.74382    0.014
 5656.00    0.78614   0.74503    0.014
 5657.00    0.80799   0.74695    0.014
 5658.00    0.88542   0.74961    0.014
 5659.00    0.94048   0.75261    0.014
 5660.00    0.86421   0.75596    0.014
 5661.00    0.79168   0.75911    0.014
 5662.00    0.73655   0.76235    0.014
 5663.00    0.67330   0.76577    0.014
 5664.00    0.57922   0.76916    0.014
 5665.00    0.52017   0.77238    0.014
 5666.00    0.57232   0.77538    0.014
 5667.00    0.63760   0.77798    0.014
 5668.00    0.73821   0.77984    0.014
 5669.00    0.80438   0.78057    0.014
 5670.00    0.79109   0.78068    0.014
 5671.00    0.78950   0.77991    0.014
 5672.00    0.81128   0.77822    0.014
 5673.00    0.79577   0.77582    0.014
 5674.00    0.71542   0.77287    0.013
 5675.00    0.67309   0.76982    0.013
 5676.00    0.68867   0.76645    0.013
 5677.00    0.67893   0.76376    0.013
 5678.00    0.63532   0.76163    0.014
 5679.00    0.60923   0.76045    0.014
 5680.00    0.60376   0.75998    0.013
 5681.00    0.63618   0.76018    0.013
 5682.00    0.70795   0.76126    0.014
 5683.00    0.76245   0.76293    0.014
 5684.00    0.80113   0.76527    0.013
 5685.00    0.80751   0.76725    0.013
 5686.00    0.78782   0.76923    0.013
 5687.00    0.74542   0.77049    0.013
 5688.00    0.68688   0.77078    0.013
 5689.00    0.63520   0.77040    0.014
 5690.00    0.58782   0.76899    0.014
 5691.00    0.57773   0.76701    0.014
 5692.00    0.58796   0.76392    0.014
 5693.00    0.56911   0.76057    0.014
 5694.00    0.53648   0.75688    0.014
 5695.00    0.54665   0.75274    0.014
 5696.00    0.57430   0.74876    0.014
 5697.00    0.67391   0.74499    0.014
 5698.00    0.79863   0.74148    0.014
 5699.00    0.87601   0.73813    0.014
 5700.00    0.93946   0.73512    0.015
 5701.00    0.84780   0.73292    0.014
 5702.00    0.71835   0.73170    0.014
 5703.00    0.62916   0.73143    0.014
 5704.00    0.54790   0.73290    0.014
 5705.00    0.55527   0.73551    0.014
 5706.00    0.57624   0.73914    0.014
 5707.00    0.59471   0.74429    0.014
 5708.00    0.61290   0.74978    0.013
 5709.00    0.68350   0.75544    0.013
 5710.00    0.75807   0.76126    0.013
 5711.00    0.81468   0.76668    0.013
 5712.00    0.87055   0.77144    0.013
 5713.00    0.91025   0.77580    0.013
 5714.00    0.94747   0.77925    0.013
 5715.00    0.88753   0.78185    0.013
 5716.00    0.82841   0.78363    0.013
 5717.00    0.78323   0.78459    0.013
 5718.00    0.73531   0.78471    0.013
 5719.00    0.65835   0.78430    0.013
 5720.00    0.59688   0.78348    0.013
 5721.00    0.65144   0.78217    0.013
 5722.00    0.70598   0.78126    0.013
 5723.00    0.76036   0.78054    0.013
 5724.00    0.78957   0.77992    0.014
 5725.00    0.70440   0.77926    0.013
 5726.00    0.62498   0.77901    0.013
 5727.00    0.56699   0.77937    0.013
 5728.00    0.54392   0.77964    0.013
 5729.00    0.62952   0.77999    0.013
 5730.00    0.69463   0.78014    0.014
 5731.00    0.70555   0.78019    0.014
 5732.00    0.71167   0.78018    0.014
 5733.00    0.70685   0.77992    0.014
 5734.00    0.73209   0.77964    0.014
 5735.00    0.81639   0.77915    0.014
 5736.00    0.83848   0.77863    0.014
 5737.00    0.75399   0.77774    0.014
 5738.00    0.68893   0.77696    0.014
 5739.00    0.65300   0.77591    0.014
 5740.00    0.64813   0.77472    0.000
 5741.00    0.68420   0.77305    0.000
 5742.00    0.74021   0.77118    0.000
 5743.00    0.81937   0.76966    0.000
 5744.00    0.86953   0.76824    0.000
 5745.00    0.89000   0.76678    0.000
 5746.00    0.88975   0.76527    0.000
 5747.00    0.87079   0.76408    0.000
 5748.00    0.83062   0.76336    0.000
 5749.00    0.77357   0.76329    0.000
 5750.00    0.68941   0.76357    0.000
 5751.00    0.58628   0.76363    0.000
 5752.00    0.58258   0.76390    0.000
 5753.00    0.63997   0.76400    0.000
 5754.00    0.68003   0.76424    0.000
 5755.00    0.71079   0.76458    0.000
 5756.00    0.69112   0.76539    0.000
 5757.00    0.64797   0.76645    0.000
 5758.00    0.65517   0.76832    0.000
 5759.00    0.68258   0.77013    0.000
 5760.00    0.71470   0.77165    0.000
 5761.00    0.74843   0.77298    0.000
 5762.00    0.76943   0.77385    0.000
 5763.00    0.78676   0.77423    0.000
 5764.00    0.80165   0.77391    0.000
 5765.00    0.81595   0.77316    0.000
 5766.00    0.81960   0.77159    0.000
 5767.00    0.82121   0.76971    0.000
 5768.00    0.84067   0.76723    0.000
 5769.00    0.86279   0.76413    0.000
 5770.00    0.87126   0.76071    0.000
 5771.00    0.87825   0.75683    0.000
 5772.00    0.81960   0.75259    0.000
 5773.00    0.75624   0.74818    0.000
 5774.00    0.73868   0.74395    0.000
 5775.00    0.72281   0.74010    0.000
 5776.00    0.64106   0.73732    0.000
 5777.00    0.56361   0.73559    0.000
 5778.00    0.65015   0.73491    0.000
 5779.00    0.73400   0.73530    0.000
 5780.00    0.77473   0.73677    0.000
 5781.00    0.81439   0.73938    0.000
 5782.00    0.84317   0.74222    0.000
 5783.00    0.86456   0.74544    0.000
 5784.00    0.83239   0.74881    0.000
 5785.00    0.80963   0.75192    0.000
 5786.00    0.83905   0.75527    0.000
 5787.00    0.86340   0.75822    0.000
 5788.00    0.86523   0.76088    0.000
 5789.00    0.84392   0.76322    0.000
 5790.00    0.73832   0.76522    0.000
 5791.00    0.64386   0.76697   -2.000
 5792.00    0.58342   0.76839   -2.000
 5793.00    0.56464   0.76983   -2.000
 5794.00    0.65401   0.77085   -2.000
 5795.00    0.73338   0.77147   -2.000
 5796.00    0.79040   0.77159   -2.000
 5797.00    0.82474   0.77151   -2.000
 5798.00    0.81519   0.77097   -2.000
 5799.00    0.80235   0.77054   -2.000
 5800.00    0.78399   0.77005   -2.000
 5801.00    0.75099   0.76966   -2.000
 5802.00    0.69638   0.76937   -2.000
 5803.00    0.67621   0.76915   -2.000
 5804.00    0.70080   0.76895   -2.000
 5805.00    0.72460   0.76886   -2.000
 5806.00    0.74747   0.76875   -2.000
 5807.00    0.73513   0.76875   -2.000
 5808.00    0.68722   0.76884   -2.000
 5809.00    0.64652   0.76925   -2.000
 5810.00    0.61223   0.76995   -2.000
 5811.00    0.64960   0.77095    0.000
 5812.00    0.74318   0.77223    0.000
 5813.00    0.80363   0.77356    0.000
 5814.00    0.84121   0.77484    0.000
 5815.00    0.85137   0.77609    0.000
 5816.00    0.84495   0.77713    0.000
 5817.00    0.82140   0.77808    0.000
 5818.00    0.78883   0.77872    0.000
 5819.00    0.81336   0.77923    0.000
 5820.00    0.86407   0.77942    0.000
 5821.00    0.88882   0.77948    0.000
 5822.00    0.90335   0.77928    0.000
 5823.00    0.85461   0.77887    0.000
 5824.00    0.78461   0.77837    0.000
 5825.00    0.77915   0.77770    0.000
 5826.00    0.79191   0.77699    0.000
 5827.00    0.82637   0.77629    0.000
 5828.00    0.86588   0.77575    0.000
 5829.00    0.86209   0.77532    0.000
 5830.00    0.85021   0.77498    0.000
 5831.00    0.86126   0.77487    0.000
 5832.00    0.87562   0.77479    0.000
 5833.00    0.92380   0.77478    0.000
 5834.00    0.97551   0.77460    0.000
 5835.00    0.94784   0.77420    0.000
 5836.00    0.91481   0.77336    0.000
 5837.00    0.83195   0.77207    0.000
 5838.00    0.74744   0.77024    0.000
 5839.00    0.66288   0.76792    0.000
 5840.00    0.58146   0.76518    0.000
 5841.00    0.59891   0.76205    0.000
 5842.00    0.61788   0.75864    0.000
 5843.00    0.65990   0.75495    0.000
 5844.00    0.70172   0.75110    0.000
 5845.00    0.74171   0.74704    0.000
 5846.00    0.78032   0.74332    0.000
 5847.00    0.80919   0.73987    0.000
 5848.00    0.84146   0.73681    0.000
 5849.00    0.89206   0.73417    0.000
 5850.00    0.93235   0.73222    0.000
 5851.00    0.92795   0.73136    0.000
 5852.00    0.90433   0.73108    0.000
 5853.00    0.81212   0.73190    0.000
 5854.00    0.74267   0.73293    0.000
 5855.00    0.74141   0.73468    0.000
 5856.00    0.73071   0.73678    0.000
 5857.00    0.69594   0.73908    0.000
 5858.00    0.67813   0.74142    0.000
 5859.00    0.69758   0.74358    0.000
 5860.00    0.71646   0.74588    0.000
 5861.00    0.73429   0.74783    0.000
 5862.00    0.72627   0.74965    0.000
 5863.00    0.67530   0.75100    0.000
 5864.00    0.65663   0.75193    0.000
 5865.00    0.68501   0.75234    0.000
 5866.00    0.72612   0.75231    0.000
 5867.00    0.78355   0.75183    0.000
 5868.00    0.81177   0.75063    0.000
 5869.00    0.80703   0.74897    0.000
 5870.00    0.80062   0.74661    0.000
 5871.00    0.79257   0.74379    0.000
 5872.00    0.79806   0.74016    0.000
 5873.00    0.81544   0.73600    0.000
 5874.00    0.81605   0.73103    0.000
 5875.00    0.80370   0.72492    0.000
 5876.00    0.82304   0.71762    0.000
 5877.00    0.86394   0.70910    0.000
 5878.00    0.80658   0.69946    0.000
 5879.00    0.69067   0.68847    0.000
 5880.00    0.62354   0.67662    0.000
 5881.00    0.58177   0.66400    0.000
 5882.00    0.61234   0.65185    0.000
 5883.00    0.67551   0.64204    0.000
 5884.00    0.75661   0.63413    0.000
 5885.00    0.84465   0.62814    0.000
 5886.00    0.82239   0.62475    0.000
 5887.00    0.76376   0.62366    0.000
 5888.00    0.71472   0.62511    0.000
 5889.00    0.66834   0.63025    0.000
 5890.00    0.67791   0.63757    0.000
 5891.00    0.70020   0.64641    0.000
 5892.00    0.67521   0.65641    0.000
 5893.00    0.64162   0.66713    0.000
 5894.00    0.62901   0.67785    0.000
 5895.00    0.61932   0.68810    0.000
 5896.00    0.62272   0.69747    0.000
 5897.00    0.62744   0.70555    0.000
 5898.00    0.68342   0.71235    0.000
 5899.00    0.74266   0.71779    0.000
 5900.00    0.73792   0.72203    0.000
 5901.00    0.73122   0.72501    0.013
 5902.00    0.69814   0.72690    0.013
 5903.00    0.66642   0.72800    0.013
 5904.00    0.67333   0.72830    0.013
 5905.00    0.68043   0.72816    0.013
 5906.00    0.69030   0.72752    0.013
 5907.00    0.69693   0.72715    0.013
 5908.00    0.67344   0.72671    0.013
 5909.00    0.65698   0.72666    0.013
 5910.00    0.68832   0.72687    0.013
 5911.00    0.71484   0.72731    0.013
 5912.00    0.71600   0.72811    0.013
 5913.00    0.70848   0.72895    0.013
 5914.00    0.66419   0.72991    0.013
 5915.00    0.61986   0.73077    0.013
 5916.00    0.57541   0.73158    0.013
 5917.00    0.53686   0.73202    0.013
 5918.00    0.51566   0.73227    0.012
 5919.00    0.51425   0.73213    0.012
 5920.00    0.56244   0.73172    0.012
 5921.00    0.61350   0.73125    0.012
 5922.00    0.67074   0.73064    0.012
 5923.00    0.69487   0.73021    0.012
 5924.00    0.65694   0.72983    0.012
 5925.00    0.63600   0.72957    0.012
 5926.00    0.64291   0.72953    0.012
 5927.00    0.64997   0.72962    0.012
 5928.00    0.65724   0.73004    0.012
 5929.00    0.67498   0.73046    0.012
 5930.00    0.70595   0.73092    0.012
 5931.00    0.72934   0.73125    0.012
 5932.00    0.74428   0.73157    0.012
 5933.00    0.71661   0.73168    0.012
 5934.00    0.64713   0.73177    0.013
 5935.00    0.61770   0.73173    0.013
 5936.00    0.62295   0.73154    0.013
 5937.00    0.64249   0.73118    0.013
 5938.00    0.67293   0.73061    0.013
 5939.00    0.68928   0.72986    0.013
 5940.00    0.69619   0.72909    0.013
 5941.00    0.70385   0.72820    0.013
 5942.00    0.71195   0.72731    0.013
 5943.00    0.71883   0.72636    0.013
 5944.00    0.72508   0.72563    0.013
 5945.00    0.68703   0.72500    0.013
 5946.00    0.62934   0.72464    0.013
 5947.00    0.62394   0.72452    0.012
 5948.00    0.63847   0.72474    0.012
 5949.00    0.65453   0.72529    0.012
 5950.00    0.67108   0.72622    0.013
 5951.00    0.61602   0.72741    0.012
 5952.00    0.54156   0.72883    0.012
 5953.00    0.53860   0.73034    0.012
 5954.00    0.55151   0.73195    0.012
 5955.00    0.55200   0.73344    0.012
 5956.00    0.55029   0.73484    0.012
 5957.00    0.54530   0.73616    0.012
 5958.00    0.53985   0.73727    0.012
 5959.00    0.59690   0.73822    0.012
 5960.00    0.65996   0.73892    0.012
 5961.00    0.67749   0.73942    0.012
 5962.00    0.69230   0.73956    0.012
 5963.00    0.65998   0.73942    0.012
 5964.00    0.62663   0.73888    0.012
 5965.00    0.62044   0.73791    0.012
 5966.00    0.61445   0.73654    0.013
 5967.00    0.61329   0.73487    0.012
 5968.00    0.61299   0.73301    0.012
 5969.00    0.62422   0.73101    0.013
 5970.00    0.63538   0.72907    0.013
 5971.00    0.64599   0.72707    0.013
 5972.00    0.65417   0.72521    0.013
 5973.00    0.64627   0.72339    0.013
 5974.00    0.64556   0.72172    0.012
 5975.00    0.68167   0.72039    0.013
 5976.00    0.70786   0.71946    0.013
 5977.00    0.69294   0.71871    0.013
 5978.00    0.68093   0.71840    0.012
 5979.00    0.67892   0.71840    0.012
 5980.00    0.67540   0.71883    0.012
 5981.00    0.66755   0.71942    0.012
 5982.00    0.66029   0.72034    0.012
 5983.00    0.65450   0.72144    0.012
 5984.00    0.65499   0.72251    0.012
 5985.00    0.66886   0.72342    0.012
 5986.00    0.69187   0.72405    0.012
 5987.00    0.73176   0.72437    0.012
 5988.00    0.75119   0.72436    0.012
 5989.00    0.73763   0.72408    0.012
 5990.00    0.72326   0.72347    0.012
 5991.00    0.70775   0.72261    0.012
 5992.00    0.69599   0.72153    0.012
 5993.00    0.68888   0.72024    0.012
 5994.00    0.68976   0.71900    0.012
 5995.00    0.69939   0.71763    0.012
 5996.00    0.70730   0.71621    0.012
 5997.00    0.71353   0.71486    0.012
 5998.00    0.70946   0.71354    0.012
 5999.00    0.69661   0.71245    0.012
 6000.00    0.69742   0.71150    0.013
 6001.00    0.70849   0.71065    0.013
 6002.00    0.70860   0.70994    0.013
 6003.00    0.70147   0.70935    0.013
 6004.00    0.65135   0.70888    0.013
 6005.00    0.57639   0.70847    0.013
 6006.00    0.57777   0.70806    0.012
 6007.00    0.61762   0.70757    0.012
 6008.00    0.64966   0.70706    0.012
 6009.00    0.67829   0.70655    0.012
 6010.00    0.68501   0.70602    0.012
 6011.00    0.68353   0.70569    0.012
 6012.00    0.67918   0.70544    0.013
 6013.00    0.67391   0.70561    0.013
 6014.00    0.64853   0.70601    0.012
 6015.00    0.61781   0.70687    0.012
 6016.00    0.60609   0.70816    0.012
 6017.00    0.59848   0.70980    0.012
 6018.00    0.63482   0.71188    0.012
 6019.00    0.67874   0.71413    0.012
 6020.00    0.69883   0.71670    0.012
 6021.00    0.71581   0.71922    0.012
 6022.00    0.68145   0.72182    0.012
 6023.00    0.64236   0.72418    0.012
 6024.00    0.63964   0.72641    0.012
 6025.00    0.63894   0.72830    0.012
 6026.00    0.63936   0.72992    0.012
 6027.00    0.64005   0.73116    0.012
 6028.00    0.66580   0.73205    0.012
 6029.00    0.69116   0.73268    0.012
 6030.00    0.70754   0.73296    0.012
 6031.00    0.72186   0.73321    0.012
 6032.00    0.70996   0.73322    0.013
 6033.00    0.69785   0.73331    0.013
 6034.00    0.68395   0.73331    0.013
 6035.00    0.67198   0.73349    0.013
 6036.00    0.67231   0.73366    0.012
 6037.00    0.67735   0.73391    0.012
 6038.00    0.70599   0.73419    0.012
 6039.00    0.73305   0.73436    0.012
 6040.00    0.75372   0.73442    0.012
 6041.00    0.77837   0.73421    0.012
 6042.00    0.81636   0.73377    0.012
 6043.00    0.83951   0.73305    0.012
 6044.00    0.82063   0.73201    0.012
 6045.00    0.79745   0.73084    0.012
 6046.00    0.76383   0.72945    0.012
 6047.00    0.73991   0.72812    0.012
 6048.00    0.73629   0.72671    0.012
 6049.00    0.74242   0.72548    0.012
 6050.00    0.76627   0.72428    0.012
 6051.00    0.78424   0.72323    0.012
 6052.00    0.79287   0.72235    0.012
 6053.00    0.76656   0.72152    0.012
 6054.00    0.69155   0.72097    0.012
 6055.00    0.65016   0.72056    0.012
 6056.00    0.65002   0.72046    0.012
 6057.00    0.66145   0.72061    0.012
 6058.00    0.68538   0.72117    0.012
 6059.00    0.70284   0.72213    0.012
 6060.00    0.71414   0.72340    0.012
 6061.00    0.76234   0.72499    0.012
 6062.00    0.84159   0.72661    0.013
 6063.00    0.85734   0.72821    0.013
 6064.00    0.82607   0.72943    0.013
 6065.00    0.75497   0.73026    0.012
 6066.00    0.65796   0.73044    0.012
 6067.00    0.63561   0.73000    0.012
 6068.00    0.65578   0.72886    0.012
 6069.00    0.67770   0.72717    0.012
 6070.00    0.70050   0.72503    0.012
 6071.00    0.70976   0.72257    0.012
 6072.00    0.71323   0.72004    0.012
 6073.00    0.71854   0.71751    0.012
 6074.00    0.72453   0.71524    0.012
 6075.00    0.70808   0.71318    0.012
 6076.00    0.68465   0.71151    0.012
 6077.00    0.67209   0.71015    0.012
 6078.00    0.66236   0.70918    0.012
 6079.00    0.66395   0.70848    0.011
 6080.00    0.66795   0.70807    0.011
 6081.00    0.66156   0.70789    0.011
 6082.00    0.65342   0.70786    0.012
 6083.00    0.67925   0.70799    0.012
 6084.00    0.70935   0.70821    0.012
 6085.00    0.73564   0.70853    0.012
 6086.00    0.76160   0.70881    0.012
 6087.00    0.75521   0.70899    0.012
 6088.00    0.74714   0.70895    0.012
 6089.00    0.71980   0.70863    0.012
 6090.00    0.69214   0.70808    0.012
 6091.00    0.66670   0.70713    0.012
 6092.00    0.64230   0.70598    0.012
 6093.00    0.64009   0.70461    0.012
 6094.00    0.63655   0.70333    0.012
 6095.00    0.61683   0.70219    0.012
 6096.00    0.60157   0.70148    0.012
 6097.00    0.62330   0.70121    0.012
 6098.00    0.64394   0.70152    0.012
 6099.00    0.65773   0.70235    0.012
 6100.00    0.66238   0.70357    0.012
 6101.00    0.62242   0.70509    0.012
 6102.00    0.59176   0.70665    0.012
 6103.00    0.59784   0.70814    0.012
 6104.00    0.60048   0.70932    0.012
 6105.00    0.59176   0.71012    0.011
 6106.00    0.58008   0.71037    0.011
 6107.00    0.56014   0.71010    0.011
 6108.00    0.55111   0.70925    0.011
 6109.00    0.56805   0.70788    0.011
 6110.00    0.58748   0.70608    0.011
 6111.00    0.61204   0.70397    0.011
 6112.00    0.63753   0.70175    0.012
 6113.00    0.66470   0.69957    0.012
 6114.00    0.69684   0.69766    0.012
 6115.00    0.73676   0.69611    0.012
 6116.00    0.76150   0.69509    0.012
 6117.00    0.76538   0.69452    0.012
 6118.00    0.75857   0.69445    0.012
 6119.00    0.73883   0.69464    0.012
 6120.00    0.71689   0.69498    0.012
 6121.00    0.69260   0.69519    0.012
 6122.00    0.69086   0.69514    0.012
 6123.00    0.71033   0.69460    0.012
 6124.00    0.71302   0.69350    0.012
 6125.00    0.70179   0.69178    0.012
 6126.00    0.70592   0.68960    0.012
 6127.00    0.72127   0.68709    0.012
 6128.00    0.72071   0.68459    0.012
 6129.00    0.70994   0.68233    0.011
 6130.00    0.68444   0.68064    0.011
 6131.00    0.65067   0.67971    0.011
 6132.00    0.63505   0.67964    0.011
 6133.00    0.62828   0.68048    0.012
 6134.00    0.62367   0.68201    0.012
 6135.00    0.61997   0.68413    0.012
 6136.00    0.62933   0.68643    0.012
 6137.00    0.64342   0.68880    0.012
 6138.00    0.65413   0.69086    0.012
 6139.00    0.66380   0.69256    0.012
 6140.00    0.68699   0.69370    0.012
 6141.00    0.71362   0.69432    0.012
 6142.00    0.74347   0.69436    0.012
 6143.00    0.77400   0.69388    0.012
 6144.00    0.77674   0.69290    0.012
 6145.00    0.77497   0.69140    0.012
 6146.00    0.75523   0.68940    0.012
 6147.00    0.73330   0.68680    0.012
 6148.00    0.72454   0.68366    0.012
 6149.00    0.71689   0.67991    0.012
 6150.00    0.71239   0.67567    0.012
 6151.00    0.70804   0.67103    0.012
 6152.00    0.68424   0.66623    0.012
 6153.00    0.65932   0.66151    0.012
 6154.00    0.58566   0.65714    0.012
 6155.00    0.51422   0.65340    0.012
 6156.00    0.48658   0.65046    0.012
 6157.00    0.46466   0.64849    0.012
 6158.00    0.50877   0.64750    0.012
 6159.00    0.54674   0.64744    0.012
 6160.00    0.53555   0.64823    0.012
 6161.00    0.53089   0.64968    0.012
 6162.00    0.56563   0.65170    0.012
 6163.00    0.60732   0.65410    0.011
 6164.00    0.68203   0.65680    0.011
 6165.00    0.74561   0.65967    0.011
 6166.00    0.76611   0.66263    0.011
 6167.00    0.78044   0.66562    0.011
 6168.00    0.77483   0.66851    0.011
 6169.00    0.75381   0.67128    0.012
 6170.00    0.69065   0.67377    0.012
 6171.00    0.62128   0.67599    0.012
 6172.00    0.53738   0.67775    0.012
 6173.00    0.48747   0.67907    0.012
 6174.00    0.50636   0.67980    0.012
 6175.00    0.53387   0.67997    0.012
 6176.00    0.57658   0.67950    0.012
 6177.00    0.59774   0.67846    0.012
 6178.00    0.58566   0.67691    0.012
 6179.00    0.57888   0.67498    0.012
 6180.00    0.57927   0.67287    0.012
 6181.00    0.60220   0.67074    0.012
 6182.00    0.65199   0.66885    0.012
 6183.00    0.68420   0.66734    0.012
 6184.00    0.69792   0.66640    0.012
 6185.00    0.69349   0.66606    0.012
 6186.00    0.67221   0.66634    0.012
 6187.00    0.66340   0.66715    0.012
 6188.00    0.66477   0.66838    0.012
 6189.00    0.66705   0.66989    0.011
 6190.00    0.66998   0.67155    0.012
 6191.00    0.65235   0.67322    0.011
 6192.00    0.62173   0.67486    0.011
 6193.00    0.60438   0.67636    0.011
 6194.00    0.59435   0.67773    0.012
 6195.00    0.62085   0.67889    0.012
 6196.00    0.66487   0.67981   -2.000
 6197.00    0.79144   0.68041   -2.000
 6198.00    0.95222   0.68060   -2.000
 6199.00    0.95708   0.68028   -2.000
 6200.00    0.90668   0.67938   -2.000
 6201.00    0.79756   0.67786   -2.000
 6202.00    0.67088   0.67572   -2.000
 6203.00    0.42250   0.67304   -2.000
 6204.00    0.14389   0.66993   -2.000
 6205.00    0.18504   0.66657   -2.000
 6206.00    0.29057   0.66316   -2.000
 6207.00    0.47432   0.65991   -2.000
 6208.00    0.67041   0.65700    0.013
 6209.00    0.72060   0.65457    0.012
 6210.00    0.75370   0.65271    0.012
 6211.00    0.74933   0.65143    0.012
 6212.00    0.74198   0.65069    0.012
 6213.00    0.70325   0.65040    0.011
 6214.00    0.66314   0.65040    0.011
 6215.00    0.66280   0.65056    0.011
 6216.00    0.66346   0.65071    0.011
 6217.00    0.69063   0.65073    0.011
 6218.00    0.71368   0.65054    0.011
 6219.00    0.66159   0.65010    0.011
 6220.00    0.61257   0.64946    0.011
 6221.00    0.59731   0.64866    0.011
 6222.00    0.58428   0.64786    0.011
 6223.00    0.58843   0.64714    0.011
 6224.00    0.59270   0.64660    0.011
 6225.00    0.59772   0.64627    0.011
 6226.00    0.59767   0.64613    0.011
 6227.00    0.57411   0.64611    0.012
 6228.00    0.55153   0.64606    0.012
 6229.00    0.53261   0.64591    0.012
 6230.00    0.51847   0.64549    0.012
 6231.00    0.51946   0.64482    0.012
 6232.00    0.53895   0.64385    0.012
 6233.00    0.60813   0.64268    0.012
 6234.00    0.66973   0.64141    0.012
 6235.00    0.71388   0.64018    0.012
 6236.00    0.72292   0.63908    0.012
 6237.00    0.66198   0.63820    0.011
 6238.00    0.61212   0.63755    0.011
 6239.00    0.58146   0.63710    0.011
 6240.00    0.56578   0.63674    0.011
 6241.00    0.57284   0.63638    0.011
 6242.00    0.59325   0.63590    0.011
 6243.00    0.63151   0.63524    0.011
 6244.00    0.66728   0.63436    0.011
 6245.00    0.70014   0.63330    0.011
 6246.00    0.70077   0.63220    0.011
 6247.00    0.66798   0.63118    0.011
 6248.00    0.64038   0.63046    0.011
 6249.00    0.61753   0.63016    0.011
 6250.00    0.61378   0.63045    0.011
 6251.00    0.62542   0.63136    0.011
 6252.00    0.63430   0.63290    0.011
 6253.00    0.64122   0.63499    0.011
 6254.00    0.61806   0.63747    0.011
 6255.00    0.57618   0.64020    0.012
 6256.00    0.55314   0.64297    0.012
 6257.00    0.54035   0.64568    0.012
 6258.00    0.55555   0.64814    0.012
 6259.00    0.58398   0.65034    0.012
 6260.00    0.67683   0.65221    0.013
 6261.00    0.79592   0.65378    0.014
 6262.00    0.78480   0.65504    0.015
 6263.00    0.72838   0.65605    0.015
 6264.00    0.68404   0.65682    0.015
 6265.00    0.64325   0.65736    0.015
 6266.00    0.60516   0.65770    0.014
 6267.00    0.56773   0.65784    0.013
 6268.00    0.58224   0.65781    0.012
 6269.00    0.60695   0.65764    0.011
 6270.00    0.60571   0.65741    0.011
 6271.00    0.60049   0.65718    0.011
 6272.00    0.59068   0.65705    0.011
 6273.00    0.58035   0.65709    0.011
 6274.00    0.56179   0.65736    0.011
 6275.00    0.54261   0.65788    0.011
 6276.00    0.55204   0.65864    0.011
 6277.00    0.56262   0.65956    0.011
 6278.00    0.62529   0.66055    0.011
 6279.00    0.68642   0.66148    0.012
 6280.00    0.66975   0.66221    0.000
 6281.00    0.65164   0.66265    0.000
 6282.00    0.60888   0.66269    0.000
 6283.00    0.57070   0.66229    0.000
 6284.00    0.58070   0.66145    0.000
 6285.00    0.58964   0.66019    0.000
 6286.00    0.59065   0.65860    0.000
 6287.00    0.59017   0.65676    0.000
 6288.00    0.58128   0.65481    0.000
 6289.00    0.56746   0.65286    0.000
 6290.00    0.53136   0.65107    0.000
 6291.00    0.50257   0.64954    0.000
 6292.00    0.50096   0.64839    0.000
 6293.00    0.50315   0.64768    0.000
 6294.00    0.51712   0.64746    0.000
 6295.00    0.54033   0.64770    0.000
 6296.00    0.58790   0.64836    0.000
 6297.00    0.62985   0.64930    0.000
 6298.00    0.65906   0.65040    0.000
 6299.00    0.67139   0.65147    0.000
 6300.00    0.65062   0.65236    0.000
 6301.00    0.62421   0.65290    0.000
 6302.00    0.58814   0.65302    0.000
 6303.00    0.56488   0.65264    0.000
 6304.00    0.56082   0.65181    0.000
 6305.00    0.57717   0.65057    0.000
 6306.00    0.62041   0.64909    0.000
 6307.00    0.62747   0.64752    0.000
 6308.00    0.59260   0.64607    0.000
 6309.00    0.57029   0.64488    0.000
 6310.00    0.56081   0.64415    0.000
 6311.00    0.57699   0.64394    0.000
 6312.00    0.61629   0.64433    0.000
 6313.00    0.63863   0.64529    0.000
 6314.00    0.64751   0.64674    0.000
 6315.00    0.64900   0.64857    0.000
 6316.00    0.64535   0.65059    0.000
 6317.00    0.63942   0.65267    0.000
 6318.00    0.63210   0.65460    0.000
 6319.00    0.64742   0.65625    0.000
 6320.00    0.67487   0.65749    0.000
 6321.00    0.68471   0.65825    0.011
 6322.00    0.68638   0.65848    0.011
 6323.00    0.66310   0.65820    0.011
 6324.00    0.62983   0.65746    0.011
 6325.00    0.61995   0.65635    0.011
 6326.00    0.61805   0.65497    0.011
 6327.00    0.61886   0.65349    0.011
 6328.00    0.62045   0.65199    0.011
 6329.00    0.59916   0.65064    0.011
 6330.00    0.57244   0.64946    0.011
 6331.00    0.55586   0.64858    0.011
 6332.00    0.54122   0.64796    0.011
 6333.00    0.55340   0.64764    0.011
 6334.00    0.56955   0.64757    0.011
 6335.00    0.56512   0.64772    0.011
 6336.00    0.55845   0.64805    0.011
 6337.00    0.58654   0.64852    0.011
 6338.00    0.61711   0.64911    0.011
 6339.00    0.63833   0.64972    0.011
 6340.00    0.65921   0.65031    0.012
 6341.00    0.59950   0.65077    0.011
 6342.00    0.54050   0.65102    0.011
 6343.00    0.51705   0.65094    0.011
 6344.00    0.49490   0.65045    0.011
 6345.00    0.49332   0.64951    0.011
 6346.00    0.48918   0.64806    0.011
 6347.00    0.45926   0.64619    0.011
 6348.00    0.43639   0.64394    0.010
 6349.00    0.46445   0.64148    0.011
 6350.00    0.49591   0.63896    0.011
 6351.00    0.54617   0.63658    0.011
 6352.00    0.58813   0.63453    0.011
 6353.00    0.59339   0.63298    0.011
 6354.00    0.59417   0.63205    0.011
 6355.00    0.57870   0.63184    0.011
 6356.00    0.57415   0.63235    0.011
 6357.00    0.60291   0.63359    0.011
 6358.00    0.63483   0.63541    0.011
 6359.00    0.67496   0.63775    0.011
 6360.00    0.68291   0.64037    0.012
 6361.00    0.61922   0.64319    0.012
 6362.00    0.57962   0.64598    0.011
 6363.00    0.58654   0.64866    0.011
 6364.00    0.61248   0.65105    0.012
 6365.00    0.67046   0.65312    0.012
 6366.00    0.69986   0.65479    0.012
 6367.00    0.68711   0.65603    0.011
 6368.00    0.65002   0.65688    0.011
 6369.00    0.58136   0.65733    0.011
 6370.00    0.54830   0.65750    0.011
 6371.00    0.55594   0.65741    0.011
 6372.00    0.57372   0.65719    0.011
 6373.00    0.60172   0.65687    0.011
 6374.00    0.63185   0.65656    0.010
 6375.00    0.66386   0.65625    0.011
 6376.00    0.66021   0.65599    0.011
 6377.00    0.62861   0.65571    0.011
 6378.00    0.60182   0.65543    0.011
 6379.00    0.57834   0.65503    0.011
 6380.00    0.57916   0.65452    0.011
 6381.00    0.59465   0.65382    0.011
 6382.00    0.58425   0.65297    0.011
 6383.00    0.56021   0.65193    0.011
 6384.00    0.53363   0.65083    0.011
 6385.00    0.50588   0.64964    0.011
 6386.00    0.51936   0.64857    0.011
 6387.00    0.54907   0.64754    0.011
 6388.00    0.56593   0.64677    0.011
 6389.00    0.57849   0.64615    0.011
 6390.00    0.56602   0.64586    0.011
 6391.00    0.54651   0.64572    0.011
 6392.00    0.54740   0.64587    0.011
 6393.00    0.55302   0.64613    0.011
 6394.00    0.55346   0.64653    0.011
 6395.00    0.55295   0.64692    0.011
 6396.00    0.52757   0.64729    0.011
 6397.00    0.49862   0.64754    0.011
 6398.00    0.50573   0.64763    0.011
 6399.00    0.51660   0.64755    0.011
 6400.00    0.51516   0.64727    0.011
 6401.00    0.51290   0.64688    0.011
 6402.00    0.49745   0.64635    0.011
 6403.00    0.48157   0.64582    0.011
 6404.00    0.47081   0.64525    0.011
 6405.00    0.46157   0.64478    0.011
 6406.00    0.49975   0.64432    0.011
 6407.00    0.53779   0.64401    0.011
 6408.00    0.57388   0.64377    0.011
 6409.00    0.60927   0.64369    0.011
 6410.00    0.63793   0.64374    0.011
 6411.00    0.66214   0.64395    0.011
 6412.00    0.65523   0.64437    0.011
 6413.00    0.65390   0.64494    0.011
 6414.00    0.68266   0.64573    0.011
 6415.00    0.69592   0.64656    0.011
 6416.00    0.64219   0.64749    0.011
 6417.00    0.59219   0.64830    0.011
 6418.00    0.55551   0.64898    0.011
 6419.00    0.53074   0.64940    0.011
 6420.00    0.54159   0.64956    0.011
 6421.00    0.54567   0.64943    0.011
 6422.00    0.53253   0.64907    0.010
 6423.00    0.51171   0.64857    0.010
 6424.00    0.47404   0.64800    0.011
 6425.00    0.45760   0.64748    0.011
 6426.00    0.48147   0.64708    0.011
 6427.00    0.50895   0.64685    0.011
 6428.00    0.54241   0.64688    0.011
 6429.00    0.56285   0.64710    0.012
 6430.00    0.56435   0.64758    0.012
 6431.00    0.56483   0.64820    0.012
 6432.00    0.56400   0.64898    0.011
 6433.00    0.56254   0.64972    0.011
 6434.00    0.56037   0.65044    0.011
 6435.00    0.53684   0.65088    0.011
 6436.00    0.49208   0.65107    0.011
 6437.00    0.50156   0.65078    0.011
 6438.00    0.55856   0.65013    0.011
 6439.00    0.62986   0.64899    0.011
 6440.00    0.71219   0.64760    0.011
 6441.00    0.74903   0.64593    0.011
 6442.00    0.75499   0.64432    0.011
 6443.00    0.72817   0.64275    0.011
 6444.00    0.68185   0.64154    0.011
 6445.00    0.64290   0.64060    0.011
 6446.00    0.60778   0.64012    0.011
 6447.00    0.58204   0.63994    0.011
 6448.00    0.56053   0.64009    0.011
 6449.00    0.56294   0.64040    0.011
 6450.00    0.57460   0.64082    0.011
 6451.00    0.57202   0.64126    0.011
 6452.00    0.56475   0.64165    0.011
 6453.00    0.51421   0.64204    0.011
 6454.00    0.45174   0.64233    0.011
 6455.00    0.44597   0.64272    0.011
 6456.00    0.45305   0.64304    0.011
 6457.00    0.46894   0.64355    0.011
 6458.00    0.48644   0.64399    0.011
 6459.00    0.49714   0.64461    0.011
 6460.00    0.50690   0.64514    0.011
 6461.00    0.51325   0.64572    0.011
 6462.00    0.51925   0.64619    0.011
 6463.00    0.50559   0.64655    0.011
 6464.00    0.49068   0.64681    0.011
 6465.00    0.52647   0.64687    0.011
 6466.00    0.56362   0.64683    0.011
 6467.00    0.57109   0.64655    0.010
 6468.00    0.57650   0.64617    0.010
 6469.00    0.52431   0.64555    0.010
 6470.00    0.47743   0.64483    0.010
 6471.00    0.50550   0.64390    0.011
 6472.00    0.53175   0.64290    0.011
 6473.00    0.54104   0.64175    0.011
 6474.00    0.53927   0.64053    0.011
 6475.00    0.46261   0.63919    0.011
 6476.00    0.40076   0.63773    0.011
 6477.00    0.41665   0.63603    0.011
 6478.00    0.44239   0.63406    0.011
 6479.00    0.50975   0.63165    0.011
 6480.00    0.56125   0.62877    0.011
 6481.00    0.55743   0.62529    0.011
 6482.00    0.55755   0.62132    0.011
 6483.00    0.56921   0.61689    0.011
 6484.00    0.58768   0.61226    0.011
 6485.00    0.62316   0.60771    0.011
 6486.00    0.64310   0.60349    0.011
 6487.00    0.62954   0.60012    0.011
 6488.00    0.61055   0.59763    0.011
 6489.00    0.58141   0.59655    0.011
 6490.00    0.54937   0.59664    0.010
 6491.00    0.51256   0.59823    0.010
 6492.00    0.49792   0.60084    0.010
 6493.00    0.51502   0.60451    0.010
 6494.00    0.53546   0.60871    0.010
 6495.00    0.56010   0.61327    0.010
 6496.00    0.57770   0.61780    0.010
 6497.00    0.58748   0.62206    0.011
 6498.00    0.59860   0.62584    0.011
 6499.00    0.61106   0.62899    0.011
 6500.00    0.60078   0.63147    0.011
 6501.00    0.57085   0.63324    0.011
 6502.00    0.54432   0.63438    0.011
 6503.00    0.52037   0.63491    0.011
 6504.00    0.55279   0.63499    0.011
 6505.00    0.62291   0.63468    0.011
 6506.00    0.66009   0.63415    0.011
 6507.00    0.67795   0.63350    0.011
 6508.00    0.64917   0.63281    0.011
 6509.00    0.59655   0.63227    0.011
 6510.00    0.55903   0.63184    0.011
 6511.00    0.52818   0.63167    0.011
 6512.00    0.52173   0.63163    0.011
 6513.00    0.52455   0.63186    0.011
 6514.00    0.50327   0.63213    0.011
 6515.00    0.47420   0.63253    0.010
 6516.00    0.47100   0.63285    0.010
 6517.00    0.47480   0.63314    0.010
 6518.00    0.48290   0.63329    0.010
 6519.00    0.49195   0.63333    0.010
 6520.00    0.51237   0.63326    0.011
 6521.00    0.53481   0.63311    0.011
 6522.00    0.57095   0.63292    0.011
 6523.00    0.60894   0.63271    0.011
 6524.00    0.58231   0.63253    0.011
 6525.00    0.54951   0.63237    0.011
 6526.00    0.53026   0.63227    0.011
 6527.00    0.51182   0.63214    0.011
 6528.00    0.50550   0.63198    0.000
 6529.00    0.49966   0.63169    0.000
 6530.00    0.51722   0.63122    0.000
 6531.00    0.53471   0.63049    0.000
 6532.00    0.55031   0.62949    0.000
 6533.00    0.56703   0.62807    0.000
 6534.00    0.59877   0.62642    0.000
 6535.00    0.62832   0.62440    0.000
 6536.00    0.63830   0.62219    0.000
 6537.00    0.63982   0.61965    0.000
 6538.00    0.58579   0.61702    0.000
 6539.00    0.53807   0.61416    0.000
 6540.00    0.52257   0.61120    0.000
 6541.00    0.51755   0.60796    0.000
 6542.00    0.55586   0.60449    0.000
 6543.00    0.60427   0.60061    0.000
 6544.00    0.68722   0.59628    0.000
 6545.00    0.76068   0.59130    0.000
 6546.00    0.80682   0.58572    0.000
 6547.00    0.83334   0.57933    0.000
 6548.00    0.81160   0.57236    0.000
 6549.00    0.76259   0.56466    0.000
 6550.00    0.65576   0.55676    0.000
 6551.00    0.58295   0.54885    0.000
 6552.00    0.57281   0.54145    0.000
 6553.00    0.58472   0.53523    0.000
 6554.00    0.63213   0.53038    0.000
 6555.00    0.76794   0.52737    0.000
 6556.00    1.02863   0.52623    0.000
 6557.00    1.40347   0.52728    0.000
 6558.00    1.92014   0.53013    0.000
 6559.00    2.34136   0.53473    0.000
 6560.00    2.65804   0.54054    0.000
 6561.00    2.71489   0.54712    0.000
 6562.00    2.52075   0.55402    0.000
 6563.00    2.17005   0.56091    0.000
 6564.00    1.68601   0.56744    0.000
 6565.00    1.27853   0.57359    0.000
 6566.00    0.92852   0.57908    0.000
 6567.00    0.71609   0.58407    0.000
 6568.00    0.59437   0.58838    0.000
 6569.00    0.51506   0.59227    0.000
 6570.00    0.46023   0.59560    0.000
 6571.00    0.42659   0.59862    0.000
 6572.00    0.40359   0.60120    0.000
 6573.00    0.40208   0.60341    0.000
 6574.00    0.40991   0.60526    0.000
 6575.00    0.47409   0.60668    0.000
 6576.00    0.55932   0.60780    0.000
 6577.00    0.72429   0.60850    0.000
 6578.00    0.91452   0.60886    0.000
 6579.00    1.08297   0.60888    0.000
 6580.00    1.24567   0.60853    0.000
 6581.00    1.31406   0.60791    0.000
 6582.00    1.36206   0.60698    0.000
 6583.00    1.21759   0.60607    0.000
 6584.00    1.04011   0.60511    0.000
 6585.00    0.84357   0.60437    0.000
 6586.00    0.64456   0.60386    0.000
 6587.00    0.56430   0.60361    0.000
 6588.00    0.49490   0.60371    0.000
 6589.00    0.51572   0.60409    0.000
 6590.00    0.54152   0.60478    0.000
 6591.00    0.58077   0.60559    0.000
 6592.00    0.61989   0.60649    0.000
 6593.00    0.62008   0.60725    0.000
 6594.00    0.61952   0.60786    0.000
 6595.00    0.60194   0.60827    0.000
 6596.00    0.58557   0.60841    0.000
 6597.00    0.58459   0.60845    0.000
 6598.00    0.57942   0.60829    0.000
 6599.00    0.53836   0.60820    0.000
 6600.00    0.50030   0.60810    0.000
 6601.00    0.48140   0.60827    0.000
 6602.00    0.47352   0.60866    0.000
 6603.00    0.52051   0.60924    0.000
 6604.00    0.56245   0.61005    0.000
 6605.00    0.58402   0.61096    0.000
 6606.00    0.59895   0.61212    0.000
 6607.00    0.59162   0.61317    0.000
 6608.00    0.58544   0.61419    0.000
 6609.00    0.58248   0.61498    0.010
 6610.00    0.57712   0.61560    0.010
 6611.00    0.56591   0.61592    0.010
 6612.00    0.54459   0.61591    0.010
 6613.00    0.50215   0.61560    0.010
 6614.00    0.48584   0.61492    0.010
 6615.00    0.51694   0.61405    0.011
 6616.00    0.54284   0.61286    0.011
 6617.00    0.56050   0.61174    0.011
 6618.00    0.55947   0.61034    0.011
 6619.00    0.53242   0.60901    0.011
 6620.00    0.51713   0.60758    0.011
 6621.00    0.51625   0.60625    0.011
 6622.00    0.49052   0.60497    0.011
 6623.00    0.43796   0.60380    0.011
 6624.00    0.42182   0.60280    0.011
 6625.00    0.44038   0.60194    0.010
 6626.00    0.46273   0.60146    0.010
 6627.00    0.48826   0.60111    0.010
 6628.00    0.50381   0.60108    0.010
 6629.00    0.51197   0.60113    0.010
 6630.00    0.52913   0.60133    0.010
 6631.00    0.55213   0.60156    0.010
 6632.00    0.53847   0.60189    0.010
 6633.00    0.50397   0.60218    0.010
 6634.00    0.49166   0.60238    0.010
 6635.00    0.49033   0.60259    0.011
 6636.00    0.48815   0.60280    0.011
 6637.00    0.48561   0.60298    0.011
 6638.00    0.48654   0.60319    0.011
 6639.00    0.48875   0.60335    0.011
 6640.00    0.48124   0.60354    0.011
 6641.00    0.47071   0.60365    0.011
 6642.00    0.48650   0.60376    0.011
 6643.00    0.50909   0.60374    0.011
 6644.00    0.52580   0.60367    0.011
 6645.00    0.54126   0.60341    0.011
 6646.00    0.52242   0.60307    0.011
 6647.00    0.49788   0.60251    0.011
 6648.00    0.47251   0.60181    0.011
 6649.00    0.44704   0.60096    0.010
 6650.00    0.45159   0.59991    0.010
 6651.00    0.45875   0.59884    0.010
 6652.00    0.45679   0.59762    0.010
 6653.00    0.45436   0.59651    0.010
 6654.00    0.45037   0.59534    0.010
 6655.00    0.44672   0.59448    0.010
 6656.00    0.46884   0.59374    0.010
 6657.00    0.49202   0.59333    0.010
 6658.00    0.53790   0.59325    0.010
 6659.00    0.57812   0.59334    0.011
 6660.00    0.55013   0.59366    0.011
 6661.00    0.51893   0.59406    0.011
 6662.00    0.46130   0.59452    0.011
 6663.00    0.41424   0.59487    0.011
 6664.00    0.43246   0.59505    0.011
 6665.00    0.45055   0.59500    0.011
 6666.00    0.46796   0.59473    0.011
 6667.00    0.48330   0.59426    0.011
 6668.00    0.49043   0.59364    0.011
 6669.00    0.48611   0.59297    0.010
 6670.00    0.44420   0.59230    0.010
 6671.00    0.42266   0.59180    0.010
 6672.00    0.45767   0.59165    0.010
 6673.00    0.48837   0.59189    0.010
 6674.00    0.50885   0.59219    0.010
 6675.00    0.51304   0.59281    0.010
 6676.00    0.48378   0.59349    0.010
 6677.00    0.47527   0.59429    0.010
 6678.00    0.50383   0.59503    0.010
 6679.00    0.52458   0.59564    0.010
 6680.00    0.53315   0.59613    0.010
 6681.00    0.55167   0.59634    0.011
 6682.00    0.58383   0.59642    0.011
 6683.00    0.58258   0.59620    0.011
 6684.00    0.54096   0.59585    0.011
 6685.00    0.50229   0.59525    0.011
 6686.00    0.46676   0.59462    0.011
 6687.00    0.45681   0.59387    0.011
 6688.00    0.47087   0.59313    0.011
 6689.00    0.50179   0.59237    0.011
 6690.00    0.54667   0.59175    0.011
 6691.00    0.57428   0.59133    0.011
 6692.00    0.58931   0.59089    0.011
 6693.00    0.56825   0.59071    0.010
 6694.00    0.52410   0.59038    0.010
 6695.00    0.49473   0.59021    0.010
 6696.00    0.47363   0.58983    0.000
 6697.00    0.48168   0.58951    0.000
 6698.00    0.50392   0.58905    0.000
 6699.00    0.53151   0.58854    0.000
 6700.00    0.56136   0.58784    0.000
 6701.00    0.55915   0.58694    0.000
 6702.00    0.54540   0.58592    0.000
 6703.00    0.54918   0.58468    0.000
 6704.00    0.55829   0.58337    0.000
 6705.00    0.56527   0.58205    0.000
 6706.00    0.57170   0.58067    0.000
 6707.00    0.57241   0.57946    0.000
 6708.00    0.57193   0.57842    0.000
 6709.00    0.57983   0.57763    0.000
 6710.00    0.58909   0.57718    0.000
 6711.00    0.65939   0.57704    0.000
 6712.00    0.73708   0.57744    0.000
 6713.00    0.82718   0.57796    0.000
 6714.00    0.91832   0.57881    0.000
 6715.00    0.90413   0.57966    0.000
 6716.00    0.88495   0.58071    0.000
 6717.00    0.80421   0.58169    0.000
 6718.00    0.72247   0.58263    0.000
 6719.00    0.63283   0.58345    0.000
 6720.00    0.54537   0.58415    0.000
 6721.00    0.50035   0.58476    0.000
 6722.00    0.46097   0.58515    0.000
 6723.00    0.48649   0.58546    0.000
 6724.00    0.51974   0.58549    0.000
 6725.00    0.61455   0.58543    0.000
 6726.00    0.70877   0.58507    0.000
 6727.00    0.79941   0.58468    0.000
 6728.00    0.87129   0.58405    0.000
 6729.00    0.85433   0.58340    0.000
 6730.00    0.82916   0.58256    0.000
 6731.00    0.77230   0.58170    0.000
 6732.00    0.71064   0.58075    0.000
 6733.00    0.63356   0.57986    0.000
 6734.00    0.56446   0.57898    0.000
 6735.00    0.51711   0.57812    0.000
 6736.00    0.47630   0.57733    0.000
 6737.00    0.45078   0.57659    0.000
 6738.00    0.43195   0.57600    0.000
 6739.00    0.42663   0.57543    0.000
 6740.00    0.43828   0.57513    0.000
 6741.00    0.47975   0.57484    0.000
 6742.00    0.52343   0.57486    0.000
 6743.00    0.57049   0.57499    0.000
 6744.00    0.59072   0.57541    0.000
 6745.00    0.57469   0.57607    0.000
 6746.00    0.56617   0.57679    0.000
 6747.00    0.56660   0.57785    0.000
 6748.00    0.56692   0.57877    0.000
 6749.00    0.56713   0.57989    0.000
 6750.00    0.55673   0.58085    0.000
 6751.00    0.53651   0.58171    0.000
 6752.00    0.52700   0.58240    0.000
 6753.00    0.52625   0.58279    0.012
 6754.00    0.50114   0.58303    0.012
 6755.00    0.45852   0.58289    0.012
 6756.00    0.44034   0.58268    0.012
 6757.00    0.43756   0.58220    0.012
 6758.00    0.44445   0.58174    0.012
 6759.00    0.45665   0.58123    0.012
 6760.00    0.53777   0.58079    0.012
 6761.00    0.65190   0.58053    0.012
 6762.00    0.68629   0.58043    0.012
 6763.00    0.68770   0.58061    0.013
 6764.00    0.66715   0.58092    0.013
 6765.00    0.63884   0.58146    0.012
 6766.00    0.60440   0.58192    0.012
 6767.00    0.56811   0.58251    0.013
 6768.00    0.59254   0.58291    0.013
 6769.00    0.63200   0.58320    0.013
 6770.00    0.64066   0.58316    0.012
 6771.00    0.64315   0.58287    0.012
 6772.00    0.54494   0.58231    0.012
 6773.00    0.43092   0.58147    0.011
 6774.00    0.40364   0.58053    0.011
 6775.00    0.38647   0.57942    0.011
 6776.00    0.36469   0.57831    0.011
 6777.00    0.34254   0.57726    0.011
 6778.00    0.44752   0.57636    0.011
 6779.00    0.55804   0.57567    0.011
 6780.00    0.58443   0.57520    0.011
 6781.00    0.60845   0.57498    0.011
 6782.00    0.56237   0.57484    0.011
 6783.00    0.51779   0.57490    0.011
 6784.00    0.50042   0.57494    0.011
 6785.00    0.48891   0.57505    0.011
 6786.00    0.54150   0.57521    0.011
 6787.00    0.59306   0.57537    0.012
 6788.00    0.63677   0.57555    0.012
 6789.00    0.67309   0.57570    0.012
 6790.00    0.66635   0.57598    0.012
 6791.00    0.64801   0.57615    0.012
 6792.00    0.57605   0.57640    0.012
 6793.00    0.51205   0.57655    0.012
 6794.00    0.47814   0.57668    0.012
 6795.00    0.45959   0.57672    0.012
 6796.00    0.48953   0.57673    0.011
 6797.00    0.52338   0.57663    0.011
 6798.00    0.56769   0.57649    0.011
 6799.00    0.60523   0.57624    0.011
 6800.00    0.62720   0.57604    0.011
 6801.00    0.62743   0.57582    0.011
 6802.00    0.58444   0.57555    0.011
 6803.00    0.52173   0.57538    0.011
 6804.00    0.42484   0.57524    0.011
 6805.00    0.34674   0.57511    0.011
 6806.00    0.29715   0.57512    0.011
 6807.00    0.29477   0.57521    0.011
 6808.00    0.35531   0.57532    0.011
 6809.00    0.43336   0.57551    0.011
 6810.00    0.53194   0.57572    0.012
 6811.00    0.58862   0.57604    0.012
 6812.00    0.60192   0.57642    0.012
 6813.00    0.58861   0.57667    0.012
 6814.00    0.55099   0.57691    0.012
 6815.00    0.52977   0.57704    0.012
 6816.00    0.52173   0.57718    0.012
 6817.00    0.56623   0.57728    0.012
 6818.00    0.64791   0.57725    0.012
 6819.00    0.66469   0.57711    0.011
 6820.00    0.64116   0.57686    0.011
 6821.00    0.60071   0.57652    0.011
 6822.00    0.55109   0.57609    0.011
 6823.00    0.51084   0.57546    0.011
 6824.00    0.47501   0.57489    0.011
 6825.00    0.43458   0.57417    0.011
 6826.00    0.39228   0.57337    0.011
 6827.00    0.39635   0.57232    0.011
 6828.00    0.41651   0.57118    0.011
 6829.00    0.47736   0.56999    0.011
 6830.00    0.55010   0.56880    0.011
 6831.00    0.55779   0.56767    0.011
 6832.00    0.54972   0.56657    0.011
 6833.00    0.52140   0.56580    0.011
 6834.00    0.48911   0.56516    0.012
 6835.00    0.52814   0.56493    0.012
 6836.00    0.57804   0.56488    0.012
 6837.00    0.61064   0.56515    0.012
 6838.00    0.64129   0.56562    0.012
 6839.00    0.58308   0.56618    0.012
 6840.00    0.51823   0.56671    0.012
 6841.00    0.45668   0.56704    0.012
 6842.00    0.39525   0.56719    0.011
 6843.00    0.40079   0.56710    0.011
 6844.00    0.40934   0.56681    0.011
 6845.00    0.51972   0.56630    0.011
 6846.00    0.61914   0.56566    0.011
 6847.00    0.53356   0.56491    0.011
 6848.00    0.45424   0.56416    0.011
 6849.00    0.44044   0.56339    0.011
 6850.00    0.42712   0.56263    0.011
 6851.00    0.41729   0.56214    0.011
 6852.00    0.42029   0.56183    0.011
 6853.00    0.49600   0.56161    0.011
 6854.00    0.55881   0.56153    0.012
 6855.00    0.56339   0.56154    0.011
 6856.00    0.56121   0.56149    0.011
 6857.00    0.53400   0.56157    0.011
 6858.00    0.50739   0.56173    0.011
 6859.00    0.48261   0.56187    0.011
 6860.00    0.46876   0.56197    0.011
 6861.00    0.48362   0.56196    0.011
 6862.00    0.49286   0.56202    0.011
 6863.00    0.48939   0.56198    0.011
 6864.00    0.49106   0.56218    0.011
 6865.00    0.50279   0.56237    0.011
 6866.00    0.51653   0.56261    0.011
 6867.00    0.53372   0.56279    0.011
 6868.00    0.56150   0.56302    0.011
 6869.00    0.60511   0.56334    0.011
 6870.00    0.61829   0.56354    0.011
 6871.00    0.59146   0.56386    0.011
 6872.00    0.56825   0.56411    0.011
 6873.00    0.54923   0.56450    0.011
 6874.00    0.53204   0.56479    0.011
 6875.00    0.51673   0.56521    0.011
 6876.00    0.51028   0.56566    0.011
 6877.00    0.51180   0.56619    0.011
 6878.00    0.48277   0.56686    0.011
 6879.00    0.42950   0.56764    0.011
 6880.00    0.42972   0.56851    0.011
 6881.00    0.46724   0.56922    0.011
 6882.00    0.51380   0.57000    0.011
 6883.00    0.56589   0.57070    0.011
 6884.00    0.55979   0.57124    0.011
 6885.00    0.52259   0.57172    0.010
 6886.00    0.50951   0.57205    0.010
 6887.00    0.50762   0.57229    0.011
 6888.00    0.47600   0.57238    0.011
 6889.00    0.43250   0.57254    0.011
 6890.00    0.39100   0.57258    0.011
 6891.00    0.35018   0.57269    0.011
 6892.00    0.37152   0.57283    0.011
 6893.00    0.41068   0.57298    0.011
 6894.00    0.51656   0.57315    0.011
 6895.00    0.63824   0.57320    0.011
 6896.00    0.64125   0.57334    0.011
 6897.00    0.62164   0.57335    0.011
 6898.00    0.62819   0.57333    0.011
 6899.00    0.63862   0.57311    0.011
 6900.00    0.58533   0.57286    0.011
 6901.00    0.52517   0.57241    0.011
 6902.00    0.51983   0.57195    0.011
 6903.00    0.51836   0.57135    0.011
 6904.00    0.49016   0.57072    0.011
 6905.00    0.46099   0.57008    0.010
 6906.00    0.50305   0.56940    0.011
 6907.00    0.54314   0.56882    0.011
 6908.00    0.50698   0.56828    0.011
 6909.00    0.47192   0.56782    0.011
 6910.00    0.45423   0.56750    0.011
 6911.00    0.44158   0.56731    0.011
 6912.00    0.47939   0.56710    0.011
 6913.00    0.50808   0.56699    0.011
 6914.00    0.47121   0.56687    0.011
 6915.00    0.44258   0.56671    0.011
 6916.00    0.45941   0.56662    0.011
 6917.00    0.48510   0.56639    0.011
 6918.00    0.54987   0.56631    0.011
 6919.00    0.59761   0.56609    0.011
 6920.00    0.58361   0.56605    0.011
 6921.00    0.56535   0.56602    0.011
 6922.00    0.53417   0.56614    0.011
 6923.00    0.51943   0.56637    0.011
 6924.00    0.54723   0.56653    0.011
 6925.00    0.55383   0.56683    0.011
 6926.00    0.51332   0.56695    0.011
 6927.00    0.48453   0.56716    0.011
 6928.00    0.47830   0.56721    0.011
 6929.00    0.47725   0.56725    0.011
 6930.00    0.48489   0.56731    0.011
 6931.00    0.52003   0.56718    0.011
 6932.00    0.59568   0.56707    0.011
 6933.00    0.62699   0.56674    0.011
 6934.00    0.60088   0.56645    0.012
 6935.00    0.58126   0.56600    0.012
 6936.00    0.56903   0.56561    0.012
 6937.00    0.53442   0.56516    0.012
 6938.00    0.47729   0.56471    0.011
 6939.00    0.45212   0.56435    0.011
 6940.00    0.45531   0.56400    0.011
 6941.00    0.43304   0.56390    0.011
 6942.00    0.39086   0.56384    0.011
 6943.00    0.39537   0.56395    0.011
 6944.00    0.43198   0.56410    0.011
 6945.00    0.47360   0.56438    0.011
 6946.00    0.51824   0.56460    0.011
 6947.00    0.48060   0.56503    0.010
 6948.00    0.39968   0.56549    0.010
 6949.00    0.37363   0.56601    0.011
 6950.00    0.37262   0.56663    0.011
 6951.00    0.40364   0.56725    0.011
 6952.00    0.44725   0.56792    0.011
 6953.00    0.48131   0.56846    0.011
 6954.00    0.51219   0.56900    0.011
 6955.00    0.53459   0.56932    0.011
 6956.00    0.55462   0.56964    0.011
 6957.00    0.52002   0.56979    0.011
 6958.00    0.47277   0.56978    0.012
 6959.00    0.46535   0.56960    0.011
 6960.00    0.46533   0.56917    0.011
 6961.00    0.48366   0.56852    0.011
 6962.00    0.50463   0.56760    0.011
 6963.00    0.52747   0.56653    0.011
 6964.00    0.55050   0.56525    0.011
 6965.00    0.52177   0.56392    0.011
 6966.00    0.48958   0.56246    0.011
 6967.00    0.49990   0.56108    0.011
 6968.00    0.51157   0.55988    0.011
 6969.00    0.48278   0.55885    0.011
 6970.00    0.45353   0.55818    0.011
 6971.00    0.41008   0.55780    0.011
 6972.00    0.37073   0.55780    0.011
 6973.00    0.39253   0.55815    0.011
 6974.00    0.40794   0.55886    0.011
 6975.00    0.36205   0.55992    0.011
 6976.00    0.32839   0.56116    0.012
 6977.00    0.37973   0.56251    0.012
 6978.00    0.42007   0.56381    0.012
 6979.00    0.40132   0.56486    0.012
 6980.00    0.39655   0.56574    0.011
 6981.00    0.45207   0.56639    0.011
 6982.00    0.49696   0.56682    0.011
 6983.00    0.50411   0.56702    0.011
 6984.00    0.51189   0.56698    0.011
 6985.00    0.52151   0.56678    0.011
 6986.00    0.52847   0.56642    0.011
 6987.00    0.52869   0.56595    0.011
 6988.00    0.51258   0.56537    0.011
 6989.00    0.46077   0.56463    0.011
 6990.00    0.43293   0.56378    0.011
 6991.00    0.45059   0.56292    0.011
 6992.00    0.45859   0.56205    0.011
 6993.00    0.45062   0.56130    0.011
 6994.00    0.45723   0.56053    0.011
 6995.00    0.48499   0.55989    0.012
 6996.00    0.51081   0.55936    0.012
 6997.00    0.53413   0.55894    0.012
 6998.00    0.55719   0.55867    0.012
 6999.00    0.57996   0.55842    0.012
 7000.00    0.57538   0.55815    0.012
 7001.00    0.54369   0.55781    0.012
 7002.00    0.49406   0.55745    0.011
 7003.00    0.42873   0.55716    0.011
 7004.00    0.40924   0.55693    0.011
 7005.00    0.42509   0.55664    0.011
 7006.00    0.44432   0.55630    0.011
 7007.00    0.46584   0.55597    0.011
 7008.00    0.45669   0.55566    0.011
 7009.00    0.42934   0.55537    0.011
 7010.00    0.41574   0.55520    0.011
 7011.00    0.40926   0.55509    0.011
 7012.00    0.41805   0.55514    0.012
 7013.00    0.43368   0.55531    0.012
 7014.00    0.45011   0.55563    0.012
 7015.00    0.46685   0.55617    0.012
 7016.00    0.47514   0.55663    0.012
 7017.00    0.48066   0.55708    0.012
 7018.00    0.41404   0.55746    0.012
 7019.00    0.32757   0.55795    0.011
 7020.00    0.36413   0.55842    0.012
 7021.00    0.42849   0.55900    0.012
 7022.00    0.43998   0.55968    0.012
 7023.00    0.44192   0.56035    0.012
 7024.00    0.50551   0.56087    0.012
 7025.00    0.57764   0.56143    0.012
 7026.00    0.57963   0.56217    0.012
 7027.00    0.57464   0.56290    0.012
 7028.00    0.54122   0.56370    0.012
 7029.00    0.50602   0.56453    0.012
 7030.00    0.44031   0.56542    0.012
 7031.00    0.37408   0.56636    0.012
 7032.00    0.39893   0.56742    0.012
 7033.00    0.42344   0.56841    0.012
 7034.00    0.43864   0.56946    0.012
 7035.00    0.44940   0.57022    0.012
 7036.00    0.39783   0.57086    0.012
 7037.00    0.35514   0.57133    0.012
 7038.00    0.39442   0.57123    0.012
 7039.00    0.43135   0.57061    0.012
 7040.00    0.45242   0.56952    0.012
 7041.00    0.46404   0.56807    0.012
 7042.00    0.42631   0.56627    0.012
 7043.00    0.40535   0.56425    0.012
 7044.00    0.45495   0.56202    0.011
 7045.00    0.50274   0.55949    0.011
 7046.00    0.54424   0.55684    0.012
 7047.00    0.57441   0.55422    0.012
 7048.00    0.57139   0.55170    0.012
 7049.00    0.56383   0.54938    0.012
 7050.00    0.54492   0.54727   -2.000
 7051.00    0.51886   0.54558   -2.000
 7052.00    0.47740   0.54406   -2.000
 7053.00    0.45056   0.54282   -2.000
 7054.00    0.45100   0.54168   -2.000
 7055.00    0.43490   0.54077   -2.000
 7056.00    0.39182   0.54009   -2.000
 7057.00    0.38026   0.53961   -2.000
 7058.00    0.41379   0.53942   -2.000
 7059.00    0.44398   0.53945   -2.000
 7060.00    0.46997   0.53962   -2.000
 7061.00    0.50488   0.53985   -2.000
 7062.00    0.54967   0.54028   -2.000
 7063.00    0.57208   0.54066   -2.000
 7064.00    0.57261   0.54117   -2.000
 7065.00    0.55502   0.54170   -2.000
 7066.00    0.52182   0.54222   -2.000
 7067.00    0.53306   0.54268   -2.000
 7068.00    0.57806   0.54282   -2.000
 7069.00    0.59204   0.54256   -2.000
 7070.00    0.58532   0.54186   -2.000
 7071.00    0.54321   0.54084   -2.000
 7072.00    0.48040   0.53951   -2.000
 7073.00    0.52166   0.53779   -2.000
 7074.00    0.61598   0.53589   -2.000
 7075.00    0.57500   0.53374   -2.000
 7076.00    0.47428   0.53142   -2.000
 7077.00    0.48151   0.52905   -2.000
 7078.00    0.52967   0.52674   -2.000
 7079.00    0.45726   0.52447   -2.000
 7080.00    0.34602   0.52246   -2.000
 7081.00    0.41213   0.52067   -2.000
 7082.00    0.52601   0.51932   -2.000
 7083.00    0.48578   0.51838   -2.000
 7084.00    0.41151   0.51774   -2.000
 7085.00    0.46856   0.51737   -2.000
 7086.00    0.54869   0.51724   -2.000
 7087.00    0.51744   0.51754   -2.000
 7088.00    0.47127   0.51776   -2.000
 7089.00    0.44060   0.51844   -2.000
 7090.00    0.41141   0.51891   -2.000
 7091.00    0.49462   0.51959   -2.000
 7092.00    0.58444   0.52024   -2.000
 7093.00    0.55281   0.52073   -2.000
 7094.00    0.51853   0.52127   -2.000
 7095.00    0.53155   0.52149   -2.000
 7096.00    0.54301   0.52178   -2.000
 7097.00    0.51576   0.52176   -2.000
 7098.00    0.48805   0.52166   -2.000
 7099.00    0.45426   0.52138   -2.000
 7100.00    0.43018   0.52112   -2.000
 7101.00    0.49222   0.52087   -2.000
 7102.00    0.55189   0.52066   -2.000
 7103.00    0.59597   0.52032   -2.000
 7104.00    0.61755   0.52005   -2.000
 7105.00    0.52456   0.51980   -2.000
 7106.00    0.46000   0.51966   -2.000
 7107.00    0.51248   0.51950   -2.000
 7108.00    0.53367   0.51921   -2.000
 7109.00    0.44817   0.51911   -2.000
 7110.00    0.41486   0.51885   -2.000
 7111.00    0.53148   0.51868   -2.000
 7112.00    0.58618   0.51829   -2.000
 7113.00    0.48893   0.51778   -2.000
 7114.00    0.44415   0.51717   -2.000
 7115.00    0.51039   0.51643   -2.000
 7116.00    0.52957   0.51573   -2.000
 7117.00    0.46220   0.51489   -2.000
 7118.00    0.46958   0.51410   -2.000
 7119.00    0.59707   0.51329   -2.000
 7120.00    0.65257   0.51278   -2.000
 7121.00    0.60658   0.51249   -2.000
 7122.00    0.61050   0.51222   -2.000
 7123.00    0.67633   0.51216   -2.000
 7124.00    0.64815   0.51225   -2.000
 7125.00    0.51720   0.51267   -2.000
 7126.00    0.42185   0.51308   -2.000
 7127.00    0.36084   0.51351   -2.000
 7128.00    0.38404   0.51396   -2.000
 7129.00    0.47884   0.51472   -2.000
 7130.00    0.49409   0.51534   -2.000
 7131.00    0.44975   0.51569   -2.000
 7132.00    0.40240   0.51605   -2.000
 7133.00    0.35308   0.51602   -2.000
 7134.00    0.31608   0.51604   -2.000
 7135.00    0.28618   0.51587   -2.000
 7136.00    0.32398   0.51538   -2.000
 7137.00    0.39575   0.51515   -2.000
 7138.00    0.42671   0.51515   -2.000
 7139.00    0.43993   0.51511   -2.000
 7140.00    0.46477   0.51515   -2.000
 7141.00    0.49394   0.51540   -2.000
 7142.00    0.48901   0.51575   -2.000
 7143.00    0.47331   0.51609   -2.000
 7144.00    0.47162   0.51661   -2.000
 7145.00    0.47362   0.51717   -2.000
 7146.00    0.46767   0.51773   -2.000
 7147.00    0.46001   0.51845   -2.000
 7148.00    0.40539   0.51875   -2.000
 7149.00    0.34275   0.51903   -2.000
 7150.00    0.37238   0.51919   -2.000
 7151.00    0.41395   0.51901   -2.000
 7152.00    0.51012   0.51856   -2.000
 7153.00    0.61125   0.51798   -2.000
 7154.00    0.59437   0.51793   -2.000
 7155.00    0.57103   0.51776   -2.000
 7156.00    0.55145   0.51771   -2.000
 7157.00    0.53204   0.51771   -2.000
 7158.00    0.52143   0.51789   -2.000
 7159.00    0.51403   0.51835   -2.000
 7160.00    0.57949   0.51891   -2.000
 7161.00    0.65012   0.51941   -2.000
 7162.00    0.78589   0.51993   -2.000
 7163.00    0.88316   0.52065   -2.000
 7164.00    0.65205   0.52120   -2.000
 7165.00    0.46323   0.52158   -2.000
 7166.00    0.54239   0.52179   -2.000
 7167.00    0.59852   0.52158   -2.000
 7168.00    0.54026   0.52110   -2.000
 7169.00    0.52903   0.52045   -2.000
 7170.00    0.70711   0.51972   -2.000
 7171.00    0.78430   0.51906   -2.000
 7172.00    0.52439   0.51818   -2.000
 7173.00    0.33674   0.51717   -2.000
 7174.00    0.35290   0.51624   -2.000
 7175.00    0.40166   0.51520   -2.000
 7176.00    0.52904   0.51426   -2.000
 7177.00    0.62746   0.51325   -2.000
 7178.00    0.66558   0.51247   -2.000
 7179.00    0.67613   0.51207   -2.000
 7180.00    0.63678   0.51175   -2.000
 7181.00    0.57218   0.51155   -2.000
 7182.00    0.46762   0.51118   -2.000
 7183.00    0.41569   0.51127   -2.000
 7184.00    0.43688   0.51125   -2.000
 7185.00    0.46800   0.51136   -2.000
 7186.00    0.51127   0.51189   -2.000
 7187.00    0.57400   0.51231   -2.000
 7188.00    0.65773   0.51289   -2.000
 7189.00    0.63659   0.51321   -2.000
 7190.00    0.51575   0.51337   -2.000
 7191.00    0.44964   0.51363   -2.000
 7192.00    0.42943   0.51391   -2.000
 7193.00    0.37645   0.51404   -2.000
 7194.00    0.29928   0.51382   -2.000
 7195.00    0.36462   0.51339   -2.000
 7196.00    0.52235   0.51325   -2.000
 7197.00    0.53622   0.51290   -2.000
 7198.00    0.46850   0.51276   -2.000
 7199.00    0.56965   0.51272   -2.000
 7200.00    0.75419   0.51271   -2.000
 7201.00    0.73611   0.51298   -2.000
 7202.00    0.63150   0.51304   -2.000
 7203.00    0.53005   0.51327   -2.000
 7204.00    0.42974   0.51338   -2.000
 7205.00    0.38556   0.51396   -2.000
 7206.00    0.35876   0.51482   -2.000
 7207.00    0.31785   0.51550   -2.000
 7208.00    0.27330   0.51634   -2.000
 7209.00    0.39050   0.51684   -2.000
 7210.00    0.54173   0.51736   -2.000
 7211.00    0.55468   0.51785   -2.000
 7212.00    0.54467   0.51845   -2.000
 7213.00    0.56080   0.51924   -2.000
 7214.00    0.58021   0.51999   -2.000
 7215.00    0.48122   0.52099   -2.000
 7216.00    0.37197   0.52173   -2.000
 7217.00    0.38133   0.52251   -2.000
 7218.00    0.39670   0.52340   -2.000
