###################################################################
## OUTPUT of StarlightChains_v04.for    [Cid@UFSC - 01/Apr/2007] ##
###################################################################

## Some input info
KUG0210-078._53_25.txt                   [arq_obs]
Base.CB07.vall.4m                        [arq_base]
Masks.EmLines.NEW.gm                     [arq_masks]
StCv04.C11.config                        [arq_config]
   66                                    [N_base]
    0                                    [N_YAV_components = # of components with extra extinction!]
    0                                    [i_FitPowerLaw (1/0 = Yes/No)]
-9.99                                    [alpha_PowerLaw]
CCM                                      [red_law_option]
 1.458241                                [q_norm = A(l_norm)/A(V)]

## (Re)Sampling Parameters
 3741.00                                 [l_ini (A)]
 7218.00                                 [l_fin (A)]
    1.00                                 [dl    (A)]     (OBS: dl_cushion =    50.00 A)

## Normalization info
 4020.00                                 [l_norm (A) - for base]
 4010.00                                 [llow_norm (A) - window for f_obs]
 4060.00                                 [lupp_norm (A) - window for f_obs]
5.307118E-18                             [fobs_norm (in input units)]

## S/N
 3691.00                                 [llow_SN (A) - window for S/N]
 7268.00                                 [lupp_SN (A) - window for S/N]
   2.335                                 [S/N in S/N window]
   2.862                                 [S/N in norm. window]
   0.005                                 [S/N_err in S/N window]
   0.006                                 [S/N_err in norm. window]
  1.0000                                 [fscale_chi2]

## etc...
    -2007988                             [idum_orig]
  2387                                   [NOl_eff]
  2363                                   [Nl_eff]
    24    NSIGMA                         [Ntot_cliped & clip_method]
   445480                                [Nglobal_steps]
   7                                     [N_chains]
   7                                     [NEX0s_base = N_base in EX0s-fits]
 0   0   1       24   2.0   1.095E+03    [Clip-Bug, RC-Crash & Burn-In warning-flags, n_censored_weights, wei_nsig_threshold & wei_limit]
    12     11.931     11.432      0.499  [idt_all, wdt_TotTime, wdt_UsrTime & wdt_SysTime (sec)]

## Synthesis Results - Best model ##

 1.24284E-05                             [chi2/Nl_eff]
    59.09417                             [adev (%)]

   122.81267                             [sum-of-x (%)]
 1.13298E-17                             [Flux_tot (units of input spectrum!)]
 5.80355E-14                             [Mini_tot (???)]
 3.07540E-14                             [Mcor_tot (???)]

-101.52                                  [v0_min  (km/s)]
  36.93                                  [vd_min  (km/s)]
 0.4117                                  [AV_min  (mag)]
 0.0000                                  [YAV_min (mag)]

# j     x_j(%)      Mini_j(%)     Mcor_j(%)     age_j(yr)     Z_j      (L/M)_j    YAV?  Mstars   component_j        a/Fe...       SSP_chi2r SSP_adev(%)   SSP_AV   SSP_x(%)
  1     25.9544     3.7712E-01    7.1166E-01    1.000000E+06  0.00400  1.094E-02    0   1.0000   age020_m42            0.0000     1.2630E-05    59.8081   1.7805   115.4065
  2      0.0000     0.0000E+00    0.0000E+00    3.160000E+06  0.00400  4.007E-02    0   0.9999   age045_m42            0.0000     1.3461E-05    59.5292   1.0281   123.0508
  3      0.0000     0.0000E+00    0.0000E+00    5.010000E+06  0.00400  2.539E-02    0   0.9488   age055_m42            0.0000     1.2992E-05    59.2938   1.3607   120.1566
  4      0.0000     0.0000E+00    0.0000E+00    6.610000E+06  0.00400  2.620E-02    0   0.9220   age061_m42            0.0000     1.3500E-05    58.9735   0.9637   122.9619
  5      0.0000     0.0000E+00    0.0000E+00    1.000000E+07  0.00400  1.322E-02    0   0.8862   age070_m42            0.0000     1.3224E-05    58.3815   0.7591   123.3617
  6      0.0000     0.0000E+00    0.0000E+00    1.445000E+07  0.00400  7.883E-03    0   0.8571   age078_m42            0.0000     1.2937E-05    58.5862   1.0784   120.7964
  7      0.0000     0.0000E+00    0.0000E+00    2.512000E+07  0.00400  5.251E-03    0   0.8174   age090_m42            0.0000     1.3240E-05    58.2966   0.6396   123.6686
  8      0.0000     0.0000E+00    0.0000E+00    4.000000E+07  0.00400  3.649E-03    0   0.7851   age104_m42            0.0000     1.3431E-05    58.2491   0.4037   124.7934
  9      0.0000     0.0000E+00    0.0000E+00    5.500000E+07  0.00400  3.098E-03    0   0.7629   age110_m42            0.0000     1.3790E-05    58.4136   0.5211   125.6422
 10      0.0000     0.0000E+00    0.0000E+00    1.015200E+08  0.00400  2.228E-03    0   0.7207   age116_m42            0.0000     1.4156E-05    58.3571   0.5188   126.2589
 11      0.0000     0.0000E+00    0.0000E+00    2.861200E+08  0.00400  1.093E-03    0   0.6648   age125_m42            0.0000     1.4522E-05    57.8910  -0.0186   128.5877
 12      0.0000     0.0000E+00    0.0000E+00    5.088000E+08  0.00400  6.597E-04    0   0.6365   age130_m42            0.0000     1.5041E-05    57.9117  -0.0596   130.3643
 13      0.0000     0.0000E+00    0.0000E+00    1.434000E+09  0.00400  2.132E-04    0   0.5798   age139_m42            0.0000     1.5232E-05    57.6598  -1.0000   132.4742
 14      0.0000     0.0000E+00    0.0000E+00    4.250000E+09  0.00400  5.895E-05    0   0.5377   age158_m42            0.0000     1.5397E-05    57.3626  -1.0000   120.0745
 15      0.0000     0.0000E+00    0.0000E+00    7.500000E+09  0.00400  3.510E-05    0   0.5212   age171_m42            0.0000     1.6023E-05    58.7286  -1.0000   115.1485
 16      0.0000     0.0000E+00    0.0000E+00    1.300000E+10  0.00400  2.005E-05    0   0.5034   age193_m42            0.0000     1.6710E-05    60.3427  -1.0000   110.5533
 17      0.0000     0.0000E+00    0.0000E+00    1.800000E+10  0.00400  1.525E-05    0   0.4967   age213_m42            0.0000     1.6692E-05    60.6414  -1.0000   109.5731
 18      0.0000     0.0000E+00    0.0000E+00    1.000000E+06  0.00800  1.238E-02    0   1.0000   age020_m52            0.0000     1.2624E-05    59.7861   1.7754   115.6664
 19      0.0000     0.0000E+00    0.0000E+00    3.160000E+06  0.00800  3.074E-02    0   0.9966   age045_m52            0.0000     1.2621E-05    59.6217   1.6918   116.8524
 20      0.0000     0.0000E+00    0.0000E+00    5.010000E+06  0.00800  2.668E-02    0   0.9443   age055_m52            0.0000     1.2812E-05    59.1972   1.4471   119.1275
 21      0.0000     0.0000E+00    0.0000E+00    6.610000E+06  0.00800  2.136E-02    0   0.9177   age061_m52            0.0000     1.3023E-05    58.4044   0.2499   125.2134
 22      0.0000     0.0000E+00    0.0000E+00    1.000000E+07  0.00800  1.215E-02    0   0.8827   age070_m52            0.0000     1.2971E-05    58.4427   0.9550   122.7533
 23      0.0000     0.0000E+00    0.0000E+00    1.445000E+07  0.00800  8.717E-03    0   0.8552   age078_m52            0.0000     1.2988E-05    58.4938   1.0442   122.3642
 24      0.0000     0.0000E+00    0.0000E+00    2.512000E+07  0.00800  5.592E-03    0   0.8162   age090_m52            0.0000     1.3264E-05    58.2819   0.7029   125.0469
 25      0.0000     0.0000E+00    0.0000E+00    4.000000E+07  0.00800  3.896E-03    0   0.7841   age104_m52            0.0000     1.3526E-05    58.2882   0.6001   126.2792
 26      0.0000     0.0000E+00    0.0000E+00    1.015200E+08  0.00800  2.148E-03    0   0.7226   age116_m52            0.0000     1.3977E-05    58.1720   0.5028   126.8220
 27      0.0000     0.0000E+00    0.0000E+00    2.861200E+08  0.00800  9.925E-04    0   0.6683   age125_m52            0.0000     1.5066E-05    57.8389  -0.0002   131.5428
 28      0.0000     0.0000E+00    0.0000E+00    9.047900E+08  0.00800  3.141E-04    0   0.6138   age135_m52            0.0000     1.5871E-05    58.6034  -0.8565   138.2811
 29      0.0000     0.0000E+00    0.0000E+00    1.434000E+09  0.00800  1.719E-04    0   0.5853   age139_m52            0.0000     1.5615E-05    56.4361  -1.0000   127.6586
 30      0.0000     0.0000E+00    0.0000E+00    2.500000E+09  0.00800  7.872E-05    0   0.5600   age150_m52            0.0000     1.6368E-05    57.9967  -1.0000   118.7706
 31      0.0000     0.0000E+00    0.0000E+00    4.250000E+09  0.00800  4.336E-05    0   0.5426   age158_m52            0.0000     1.6413E-05    58.1790  -1.0000   117.3660
 32      0.0000     0.0000E+00    0.0000E+00    6.250000E+09  0.00800  3.159E-05    0   0.5319   age166_m52            0.0000     1.7477E-05    59.7482  -1.0000   112.2129
 33      0.0000     0.0000E+00    0.0000E+00    1.300000E+10  0.00800  1.361E-05    0   0.5073   age193_m52            0.0000     2.0144E-05    64.1630  -1.0000    98.2840
 34      0.0000     0.0000E+00    0.0000E+00    1.800000E+10  0.00800  9.886E-06    0   0.4990   age213_m52            0.0000     2.1253E-05    64.4509  -1.0000    94.3800
 35      0.0000     0.0000E+00    0.0000E+00    1.000000E+06  0.02000  1.544E-02    0   1.0000   age020_m62            0.0000     1.2608E-05    59.7201   1.7731   115.9427
 36      0.0000     0.0000E+00    0.0000E+00    3.160000E+06  0.02000  3.762E-02    0   0.9858   age045_m62            0.0000     1.2557E-05    59.4636   1.7042   117.1590
 37      0.0000     0.0000E+00    0.0000E+00    5.010000E+06  0.02000  3.296E-02    0   0.9342   age055_m62            0.0000     1.3170E-05    59.0299   1.3045   121.8725
 38      0.0000     0.0000E+00    0.0000E+00    8.710000E+06  0.02000  1.154E-02    0   0.8861   age067_m62            0.0000     1.2477E-05    58.5806   0.5398   122.4274
 39      0.0000     0.0000E+00    0.0000E+00    1.445000E+07  0.02000  7.663E-03    0   0.8472   age078_m62            0.0000     1.2831E-05    58.4098   0.6371   124.3842
 40      0.0000     0.0000E+00    0.0000E+00    2.512000E+07  0.02000  4.532E-03    0   0.8099   age090_m62            0.0000     1.2880E-05    58.2299   0.6377   123.7094
 41      0.0000     0.0000E+00    0.0000E+00    5.500000E+07  0.02000  2.733E-03    0   0.7595   age110_m62            0.0000     1.3429E-05    58.0000   0.5787   125.4917
 42      0.0000     0.0000E+00    0.0000E+00    1.609000E+08  0.02000  1.369E-03    0   0.6985   age120_m62            0.0000     1.4535E-05    57.5214   0.3911   129.1162
 43      0.0000     0.0000E+00    0.0000E+00    2.861200E+08  0.02000  9.013E-04    0   0.6714   age125_m62            0.0000     1.5403E-05    57.2979   0.1276   132.6922
 44      0.0000     0.0000E+00    0.0000E+00    5.088000E+08  0.02000  5.028E-04    0   0.6449   age130_m62            0.0000     1.6180E-05    57.9727  -0.3112   137.7096
 45      0.0000     0.0000E+00    0.0000E+00    9.047900E+08  0.02000  2.428E-04    0   0.6179   age135_m62            0.0000     1.5814E-05    58.9667  -0.9574   138.7592
 46      0.0000     0.0000E+00    0.0000E+00    1.434000E+09  0.02000  1.263E-04    0   0.5908   age139_m62            0.0000     1.5867E-05    56.2340  -1.0000   129.5597
 47      0.0000     0.0000E+00    0.0000E+00    2.500000E+09  0.02000  5.985E-05    0   0.5673   age150_m62            0.0000     1.6864E-05    57.6077  -1.0000   119.8248
 48      0.0000     0.0000E+00    0.0000E+00    4.250000E+09  0.02000  3.271E-05    0   0.5468   age158_m62            0.0000     1.8516E-05    59.8188  -1.0000   110.6609
 49      0.0000     0.0000E+00    0.0000E+00    1.000000E+10  0.02000  1.360E-05    0   0.5167   age181_m62            0.0000     2.1091E-05    62.1064  -1.0000    99.6811
 50      0.0000     0.0000E+00    0.0000E+00    1.800000E+10  0.02000  7.124E-06    0   0.5013   age213_m62            0.0000     2.2976E-05    62.9017  -1.0000    92.1966
 51      0.0000     0.0000E+00    0.0000E+00    1.000000E+06  0.05000  2.592E-02    0   0.9998   age020_m72            0.0000     1.2568E-05    59.6842   1.7703   115.8954
 52      0.0000     0.0000E+00    0.0000E+00    3.160000E+06  0.05000  4.845E-02    0   0.9577   age045_m72            0.0000     1.2715E-05    59.2091   1.5713   118.9197
 53     13.3947     6.9310E-02    1.1964E-01    5.010000E+06  0.05000  3.072E-02    0   0.9147   age055_m72            0.0000     1.2667E-05    58.6521   1.1752   121.3027
 54     74.5499     8.1446E-01    1.3644E+00    6.610000E+06  0.05000  1.455E-02    0   0.8877   age061_m72            0.0000     1.2430E-05    59.7883   0.6120   122.0734
 55      0.0000     0.0000E+00    0.0000E+00    1.000000E+07  0.05000  9.074E-03    0   0.8524   age070_m72            0.0000     1.2681E-05    59.1927   1.3415   120.9995
 56      0.0000     0.0000E+00    0.0000E+00    2.512000E+07  0.05000  4.250E-03    0   0.7902   age090_m72            0.0000     1.3069E-05    58.5428   1.0518   122.8387
 57      0.0000     0.0000E+00    0.0000E+00    4.000000E+07  0.05000  3.087E-03    0   0.7618   age104_m72            0.0000     1.3326E-05    58.3635   0.8359   124.2953
 58      0.0000     0.0000E+00    0.0000E+00    1.015200E+08  0.05000  1.700E-03    0   0.7096   age116_m72            0.0000     1.4314E-05    57.6196   0.5549   128.0188
 59      0.0000     0.0000E+00    0.0000E+00    2.861200E+08  0.05000  7.384E-04    0   0.6633   age125_m72            0.0000     1.5855E-05    57.5065  -0.0325   135.1915
 60      0.0000     0.0000E+00    0.0000E+00    5.088000E+08  0.05000  3.819E-04    0   0.6372   age130_m72            0.0000     1.5988E-05    58.3687  -0.6065   139.8884
 61      0.0000     0.0000E+00    0.0000E+00    9.047900E+08  0.05000  1.676E-04    0   0.6110   age135_m72            0.0000     1.6160E-05    55.9366  -1.0000   132.9451
 62      0.0000     0.0000E+00    0.0000E+00    1.434000E+09  0.05000  8.837E-05    0   0.5874   age139_m72            0.0000     1.7150E-05    57.4101  -1.0000   121.5283
 63      0.0000     0.0000E+00    0.0000E+00    2.500000E+09  0.05000  4.233E-05    0   0.5598   age150_m72            0.0000     1.8831E-05    59.3460  -1.0000   111.5582
 64      8.9136     9.8739E+01    9.7804E+01    6.250000E+09  0.05000  1.435E-05    0   0.5249   age166_m72            0.0000     2.1762E-05    62.7835  -1.0000    96.3811
 65      0.0000     0.0000E+00    0.0000E+00    1.300000E+10  0.05000  6.513E-06    0   0.5036   age193_m72            0.0000     2.4368E-05    63.4173  -1.0000    88.0152
 66      0.0000     0.0000E+00    0.0000E+00    1.800000E+10  0.05000  4.527E-06    0   0.4945   age213_m72            0.0000     2.5914E-05    63.5292  -1.0000    82.5043


## Synthesis Results - Average & Chains ##

# j      x_j: min, <> & last-chain-values for 1 ...  7 chains
  1     25.9544      0.5970      0.0000      0.5513      0.0000      0.0000      0.0166      0.0000      0.0000
  2      0.0000      0.4487      0.0000      0.0000      0.0000      0.0000      0.0000      0.0000      0.0000
  3      0.0000      0.3737      0.0000      0.0000      0.0000      0.0000      0.0000      0.0000      0.0000
  4      0.0000      0.4445      0.0000      0.0000      0.0000      0.0000      0.0000      0.0000      0.0000
  5      0.0000      0.6071      0.0000      0.0000      0.0021      0.0000      0.0000      0.0000      0.0010
  6      0.0000      0.5387      0.0000      0.0000      0.0000      0.0000      0.0000      0.0000      0.0000
  7      0.0000      0.4936      0.0000      0.0000      0.0000      0.0000      0.0000      0.0000      0.0000
  8      0.0000      0.4576      0.0000      0.0000      0.0000      0.0000      0.0063      0.0223      0.0000
  9      0.0000      0.4614      0.0000      0.0000      0.0000      0.0000      0.0000      0.0000      0.0010
 10      0.0000      0.4887      0.0000      0.0000      0.0000      0.0000      0.0000      0.0000      0.0000
 11      0.0000      0.4499      0.0000      0.0000      0.0000      0.0000      0.0000      0.0000      0.0000
 12      0.0000      0.5008      0.0000      0.0000      0.0000      0.0000      0.0000      0.0000      0.0000
 13      0.0000      0.4216      0.0000      0.0000      0.0000      0.0000      0.0000      0.0000      0.0008
 14      0.0000      0.5634      0.0000      0.0000      0.0000      0.0000      0.0000      0.0000      0.0000
 15      0.0000      0.5448      0.0000      0.0000      0.0000      0.0000      0.0000      0.0000      0.0000
 16      0.0000      0.4902      0.0240      0.0137      0.0000      0.0208      0.0007      0.0398      0.0082
 17      0.0000      0.6991      0.0000      0.0000      0.0000      0.0000      0.0000      0.0075      0.0014
 18      0.0000      0.5000      0.0009      0.0000      0.0000      0.0000      0.0000      0.4107      0.0000
 19      0.0000      0.4899      0.0000      0.0000      0.0000      0.0000      0.0000      0.0047      0.0000
 20      0.0000      0.3450      0.0000      0.0000      0.0000      0.0000      0.0000      0.0000      0.0000
 21      0.0000      0.5106      0.0000      0.0000      0.0000      0.0206      0.0000      0.0118      0.0000
 22      0.0000      0.4277      0.0000      0.0000      0.0000      0.0030      0.0000      0.0044      0.0000
 23      0.0000      0.6395      0.0000      0.0000      0.0000      0.0000      0.0000      0.0000      0.0000
 24      0.0000      0.7277      0.0000      0.0000      0.0000      0.0000      0.0000      0.0000      0.0000
 25      0.0000      0.5406      0.0000      0.0000      0.0000      0.0000      0.0004      0.0141      0.0000
 26      0.0000      0.6215      0.0000      0.0000      0.0000      0.0000      0.0000      0.0000      0.0000
 27      0.0000      0.5699      0.0000      0.0000      0.0000      0.0017      0.0000      0.0000      0.0000
 28      0.0000      0.5424      0.0000      0.0000      0.0000      0.0000      0.0000      0.0000      0.0000
 29      0.0000      0.4602      0.0000      0.0000      0.0000      0.0000      0.0000      0.0000      0.0000
 30      0.0000      0.8196      0.0000      0.0000      0.0000      0.0000      0.0000      0.0000      0.0026
 31      0.0000      0.5668      0.0000      0.0000      0.0000      0.0111      0.0000      0.0000      0.0000
 32      0.0000      0.4380      0.0000      0.0000      0.0000      0.0000      0.0000      0.0000      0.0068
 33      0.0000      0.4292      0.3144      0.0199      0.4719      0.0106      0.0000      0.5384      0.0000
 34      0.0000      0.8229      0.1461      0.7727      0.5127      0.6467      0.0000      0.5063      0.9997
 35      0.0000      0.4584      0.0000      0.0000      0.0000      0.0000      0.0000      0.2016      0.0191
 36      0.0000      0.6704      0.0000      0.0000      0.0000      0.0074      0.0000      0.0000      0.0000
 37      0.0000      0.5213      0.0000      0.0780      0.0000      0.0000      0.0000      0.0000      0.0000
 38      0.0000      0.4178      0.0000      0.0000      0.0000      0.0000      0.0000      0.1606      0.0000
 39      0.0000      0.4003      0.0000      0.0000      0.0000      0.0000      0.0000      0.0000      0.0000
 40      0.0000      0.3353      0.0000      0.0000      0.0000      0.0000      0.0000      0.0000      0.0000
 41      0.0000      0.5271      0.0000      0.0000      0.0000      0.0000      0.0000      0.0006      0.0000
 42      0.0000      0.4754      0.0000      0.0000      0.0000      0.0000      0.0000      0.2083      0.0000
 43      0.0000      0.6540      0.0000      0.0000      0.0000      0.0000      0.0000      0.0000      0.0000
 44      0.0000      0.4685      0.0000      0.0000      0.0000      0.0000      0.0000      0.0000      0.0002
 45      0.0000      0.4865      0.0000      0.0000      0.0000      0.0000      0.0000      0.0000      0.0000
 46      0.0000      0.4151      0.0000      0.0000      0.0000      0.0000      0.0000      0.0000      0.0000
 47      0.0000      0.6182      0.0000      0.0000      0.0000      0.0000      0.0000      0.0000      0.0000
 48      0.0000      0.4549      0.0000      0.0000      0.0000      0.0000      0.0000      0.0000      0.0000
 49      0.0000      0.4946      0.0000      0.0000      0.0000      0.0144      0.0000      0.0000      0.0000
 50      0.0000      0.4771      0.0000      0.0000      0.0000      0.0000      0.0000      0.0000      0.0000
 51      0.0000      0.4897      0.0000      0.0000      0.0000      0.0000      0.0000      0.6804      0.0000
 52      0.0000      0.5580      0.0000      0.0000      0.0000      0.0000      0.0000      0.0000      0.0000
 53     13.3947      0.4363      0.0000      0.0000      0.0000      0.0000      0.0138      0.0000      0.0000
 54     74.5499     48.6562     81.3922     80.1950     80.9377     81.1454     81.8391     79.1148     80.9027
 55      0.0000      0.5187      0.0000      0.0000      0.0000      0.0000      0.0000      0.0088      0.0000
 56      0.0000      0.3109      0.0000      0.0000      0.0000      0.0000      0.0000      0.0000      0.0000
 57      0.0000      0.4832      0.0000      0.0000      0.0000      0.0078      0.0000      0.0000      0.0000
 58      0.0000      0.5199      0.0000      0.2601      0.0000      0.0000      0.0000      0.0000      0.0000
 59      0.0000      0.4281      0.0000      0.0000      0.0000      0.0000      0.0000      0.0000      0.0000
 60      0.0000      0.3883      0.0000      0.0000      0.0000      0.0000      0.0000      0.0000      0.0000
 61      0.0000      0.4284      0.0000      0.0000      0.0000      0.0000      0.0000      0.0000      0.0000
 62      0.0000      0.6100      0.0000      0.0000      0.0000      0.0000      0.0000      0.0000      0.0000
 63      0.0000      0.5201      0.0000      0.0000      0.0000      0.0000      0.0000      0.0000      0.0000
 64      8.9136      0.5964      0.0000      0.0000      0.0000      0.0122      0.0015      0.0000      0.0000
 65      0.0000      0.4724      0.0000      0.0000      0.0000      0.0000      0.0000      0.0000      0.0000
 66      0.0000      0.5993      0.0000      0.0000      0.0000      0.0094      0.0000      0.0000      0.0000

# j      m_j: min, <> & last-chain-values for 1 ...  7 chains
  1  7.1166E-01  1.5874E-02  0.0000E+00  1.1162E-01  0.0000E+00  0.0000E+00  2.9893E-02  0.0000E+00  0.0000E+00
  2  0.0000E+00  3.2572E-03  0.0000E+00  0.0000E+00  0.0000E+00  0.0000E+00  0.0000E+00  0.0000E+00  0.0000E+00
  3  0.0000E+00  4.0619E-03  0.0000E+00  0.0000E+00  0.0000E+00  0.0000E+00  0.0000E+00  0.0000E+00  0.0000E+00
  4  0.0000E+00  4.5508E-03  0.0000E+00  0.0000E+00  0.0000E+00  0.0000E+00  0.0000E+00  0.0000E+00  0.0000E+00
  5  0.0000E+00  1.1839E-02  0.0000E+00  0.0000E+00  2.9273E-04  0.0000E+00  0.0000E+00  0.0000E+00  1.1594E-04
  6  0.0000E+00  1.7040E-02  0.0000E+00  0.0000E+00  0.0000E+00  0.0000E+00  0.0000E+00  8.5175E-06  0.0000E+00
  7  0.0000E+00  2.2353E-02  0.0000E+00  0.0000E+00  0.0000E+00  0.0000E+00  0.0000E+00  0.0000E+00  0.0000E+00
  8  0.0000E+00  2.8643E-02  0.0000E+00  0.0000E+00  0.0000E+00  0.0000E+00  2.6876E-02  9.2256E-03  0.0000E+00
  9  0.0000E+00  3.3054E-02  0.0000E+00  0.0000E+00  0.0000E+00  0.0000E+00  0.0000E+00  0.0000E+00  4.5549E-04
 10  0.0000E+00  4.5985E-02  0.0000E+00  0.0000E+00  0.0000E+00  0.0000E+00  0.0000E+00  0.0000E+00  0.0000E+00
 11  0.0000E+00  7.9602E-02  0.0000E+00  0.0000E+00  0.0000E+00  0.0000E+00  0.0000E+00  0.0000E+00  0.0000E+00
 12  0.0000E+00  1.4055E-01  0.0000E+00  0.0000E+00  0.0000E+00  0.0000E+00  0.0000E+00  0.0000E+00  0.0000E+00
 13  0.0000E+00  3.3353E-01  0.0000E+00  0.0000E+00  0.0000E+00  0.0000E+00  0.0000E+00  0.0000E+00  3.8736E-03
 14  0.0000E+00  1.4948E+00  0.0000E+00  0.0000E+00  0.0000E+00  0.0000E+00  0.0000E+00  0.0000E+00  0.0000E+00
 15  0.0000E+00  2.3534E+00  0.0000E+00  0.0000E+00  0.0000E+00  0.0000E+00  0.0000E+00  0.0000E+00  0.0000E+00
 16  0.0000E+00  3.5801E+00  2.4421E+00  7.6417E-01  0.0000E+00  1.2836E+00  3.5708E-01  1.9260E+00  3.7012E-01
 17  0.0000E+00  6.6234E+00  0.0000E+00  0.0000E+00  0.0000E+00  0.0000E+00  0.0000E+00  4.7065E-01  8.3517E-02
 18  0.0000E+00  1.1748E-02  3.0735E-04  0.0000E+00  0.0000E+00  0.0000E+00  0.0000E+00  6.3916E-02  0.0000E+00
 19  0.0000E+00  4.6204E-03  0.0000E+00  0.0000E+00  0.0000E+00  0.0000E+00  0.0000E+00  2.9667E-04  0.0000E+00
 20  0.0000E+00  3.5520E-03  0.0000E+00  0.0000E+00  0.0000E+00  0.0000E+00  0.0000E+00  0.0000E+00  0.0000E+00
 21  0.0000E+00  6.3810E-03  0.0000E+00  0.0000E+00  0.0000E+00  2.1805E-03  0.0000E+00  9.7480E-04  0.0000E+00
 22  0.0000E+00  9.0398E-03  0.0000E+00  0.0000E+00  0.0000E+00  5.4317E-04  0.0000E+00  6.1522E-04  0.0000E+00
 23  0.0000E+00  1.8251E-02  0.0000E+00  0.0000E+00  0.0000E+00  0.0000E+00  0.0000E+00  0.0000E+00  0.0000E+00
 24  0.0000E+00  3.0896E-02  0.0000E+00  0.0000E+00  0.0000E+00  0.0000E+00  0.0000E+00  0.0000E+00  0.0000E+00
 25  0.0000E+00  3.1651E-02  0.0000E+00  0.0000E+00  0.0000E+00  0.0000E+00  1.5902E-03  5.4644E-03  0.0000E+00
 26  0.0000E+00  6.0824E-02  0.0000E+00  0.0000E+00  0.0000E+00  0.0000E+00  0.0000E+00  0.0000E+00  0.0000E+00
 27  0.0000E+00  1.1162E-01  0.0000E+00  0.0000E+00  0.0000E+00  2.7693E-03  0.0000E+00  0.0000E+00  0.0000E+00
 28  0.0000E+00  3.0833E-01  0.0000E+00  0.0000E+00  0.0000E+00  0.0000E+00  0.0000E+00  0.0000E+00  0.0000E+00
 29  0.0000E+00  4.5578E-01  0.0000E+00  0.0000E+00  0.0000E+00  0.0000E+00  0.0000E+00  0.0000E+00  0.0000E+00
 30  0.0000E+00  1.6960E+00  0.0000E+00  0.0000E+00  0.0000E+00  0.0000E+00  0.0000E+00  0.0000E+00  3.2826E-02
 31  0.0000E+00  2.0634E+00  0.0000E+00  0.0000E+00  0.0000E+00  3.4257E-01  0.0000E+00  0.0000E+00  0.0000E+00
 32  0.0000E+00  2.1451E+00  0.0000E+00  0.0000E+00  0.0000E+00  0.0000E+00  0.0000E+00  0.0000E+00  2.0617E-01
 33  0.0000E+00  4.6537E+00  4.7512E+01  1.6440E+00  3.6337E+01  9.6843E-01  0.0000E+00  3.8670E+01  0.0000E+00
 34  0.0000E+00  1.2083E+01  2.9911E+01  8.6396E+01  5.3462E+01  8.0245E+01  0.0000E+00  4.9246E+01  9.0452E+01
 35  0.0000E+00  8.6370E-03  0.0000E+00  0.0000E+00  0.0000E+00  0.0000E+00  0.0000E+00  2.5160E-02  2.2230E-03
 36  0.0000E+00  5.1101E-03  0.0000E+00  0.0000E+00  0.0000E+00  4.7554E-04  0.0000E+00  0.0000E+00  0.0000E+00
 37  0.0000E+00  4.2978E-03  0.0000E+00  4.9004E-03  0.0000E+00  0.0000E+00  0.0000E+00  0.0000E+00  0.0000E+00
 38  0.0000E+00  9.3329E-03  0.0000E+00  0.0000E+00  0.0000E+00  0.0000E+00  0.0000E+00  2.3756E-02  0.0000E+00
 39  0.0000E+00  1.2875E-02  0.0000E+00  0.0000E+00  0.0000E+00  0.0000E+00  0.0000E+00  0.0000E+00  0.0000E+00
 40  0.0000E+00  1.7431E-02  0.0000E+00  0.0000E+00  0.0000E+00  0.0000E+00  0.0000E+00  0.0000E+00  0.0000E+00
 41  0.0000E+00  4.2611E-02  0.0000E+00  0.0000E+00  0.0000E+00  0.0000E+00  0.0000E+00  3.3954E-04  0.0000E+00
 42  0.0000E+00  7.0561E-02  0.0000E+00  0.0000E+00  0.0000E+00  0.0000E+00  0.0000E+00  2.0479E-01  0.0000E+00
 43  0.0000E+00  1.4171E-01  0.0000E+00  0.0000E+00  0.0000E+00  0.0000E+00  0.0000E+00  0.0000E+00  0.0000E+00
 44  0.0000E+00  1.7482E-01  0.0000E+00  0.0000E+00  0.0000E+00  0.0000E+00  0.0000E+00  0.0000E+00  4.4629E-04
 45  0.0000E+00  3.6015E-01  0.0000E+00  0.0000E+00  0.0000E+00  0.0000E+00  0.0000E+00  0.0000E+00  0.0000E+00
 46  0.0000E+00  5.6478E-01  0.0000E+00  0.0000E+00  0.0000E+00  0.0000E+00  0.0000E+00  0.0000E+00  0.0000E+00
 47  0.0000E+00  1.7045E+00  0.0000E+00  0.0000E+00  0.0000E+00  0.0000E+00  0.0000E+00  0.0000E+00  0.0000E+00
 48  0.0000E+00  2.2120E+00  0.0000E+00  0.0000E+00  0.0000E+00  0.0000E+00  0.0000E+00  0.0000E+00  0.0000E+00
 49  0.0000E+00  5.4663E+00  0.0000E+00  0.0000E+00  0.0000E+00  1.3461E+00  0.0000E+00  0.0000E+00  0.0000E+00
 50  0.0000E+00  9.7663E+00  0.0000E+00  0.0000E+00  0.0000E+00  0.0000E+00  0.0000E+00  0.0000E+00  0.0000E+00
 51  0.0000E+00  5.4948E-03  0.0000E+00  0.0000E+00  0.0000E+00  0.0000E+00  0.0000E+00  5.0572E-02  0.0000E+00
 52  0.0000E+00  3.2086E-03  0.0000E+00  0.0000E+00  0.0000E+00  0.0000E+00  0.0000E+00  0.0000E+00  0.0000E+00
 53  1.1964E-01  3.7790E-03  0.0000E+00  0.0000E+00  0.0000E+00  0.0000E+00  8.0948E-03  0.0000E+00  0.0000E+00
 54  1.3644E+00  8.6354E-01  2.0135E+01  1.0839E+01  1.0201E+01  1.2171E+01  9.8519E+01  9.3007E+00  8.8481E+00
 55  0.0000E+00  1.4173E-02  0.0000E+00  0.0000E+00  0.0000E+00  0.0000E+00  0.0000E+00  1.5992E-03  0.0000E+00
 56  0.0000E+00  1.6813E-02  0.0000E+00  0.0000E+00  0.0000E+00  0.0000E+00  0.0000E+00  0.0000E+00  0.0000E+00
 57  0.0000E+00  3.4684E-02  0.0000E+00  0.0000E+00  0.0000E+00  4.7101E-03  0.0000E+00  0.0000E+00  0.0000E+00
 58  0.0000E+00  6.3131E-02  0.0000E+00  2.4053E-01  0.0000E+00  0.0000E+00  0.0000E+00  0.0000E+00  0.0000E+00
 59  0.0000E+00  1.1188E-01  0.0000E+00  0.0000E+00  0.0000E+00  0.0000E+00  0.0000E+00  0.0000E+00  0.0000E+00
 60  0.0000E+00  1.8848E-01  0.0000E+00  0.0000E+00  0.0000E+00  0.0000E+00  0.0000E+00  0.0000E+00  0.0000E+00
 61  0.0000E+00  4.5434E-01  0.0000E+00  0.0000E+00  0.0000E+00  0.0000E+00  0.0000E+00  0.0000E+00  0.0000E+00
 62  0.0000E+00  1.1795E+00  0.0000E+00  0.0000E+00  0.0000E+00  0.0000E+00  0.0000E+00  0.0000E+00  0.0000E+00
 63  0.0000E+00  2.0008E+00  0.0000E+00  0.0000E+00  0.0000E+00  0.0000E+00  0.0000E+00  0.0000E+00  0.0000E+00
 64  9.7804E+01  6.3462E+00  0.0000E+00  0.0000E+00  0.0000E+00  1.0978E+00  1.0579E+00  0.0000E+00  0.0000E+00
 65  0.0000E+00  1.0625E+01  0.0000E+00  0.0000E+00  0.0000E+00  0.0000E+00  0.0000E+00  0.0000E+00  0.0000E+00
 66  0.0000E+00  1.9042E+01  0.0000E+00  0.0000E+00  0.0000E+00  2.5348E+00  0.0000E+00  0.0000E+00  0.0000E+00

# AV, chi2 & Mass for <> & i_chain = 1 ...  7 solutions
AV       0.4117      1.4299      1.4438      1.4248      1.4079      1.4247      1.4767      1.4140      1.4031
chi2 1.2428E-05  1.8265E-05  1.6877E-05  1.6883E-05  1.6881E-05  1.6877E-05  1.6863E-05  1.6871E-05  1.6878E-05
Mass 3.0754E-14  1.2451E-13  9.0999E-15  1.6237E-14  1.7022E-14  1.4630E-14  1.9547E-15  1.8399E-14  1.9490E-14
-101.52                                  [v0_min (km/s) before EX0s...]
  36.93                                  [vd_min (km/s) before EX0s...]


## Synthetic spectrum (Best Model) ##l_obs f_obs f_syn wei
 3478    [Nl_obs]
 3741.00    1.88557   1.27799    0.000
 3742.00    1.33626   1.26540    0.000
 3743.00   -0.02855   1.24210    0.000
 3744.00    0.63152   1.20751    0.000
 3745.00    2.47138   1.16338    0.019
 3746.00    2.28483   1.10646    0.019
 3747.00    1.06927   1.03143    0.018
 3748.00    0.16798   0.96207    0.018
 3749.00   -0.59512   0.94617    0.000
 3750.00    0.01979   0.99786    0.017
 3751.00    1.15493   1.07865    0.017
 3752.00    0.57191   1.15090    0.017
 3753.00   -0.56175   1.20458    0.000
 3754.00   -1.72705   1.23964    0.000
 3755.00   -2.90083   1.25847    0.000
 3756.00   -2.64498   1.26752    0.000
 3757.00   -2.07533   1.27317    0.000
 3758.00    0.36220   1.27905    0.016
 3759.00    3.12580   1.28748    0.017
 3760.00    2.33158   1.29140    0.018
 3761.00    1.06474   1.28393    0.019
 3762.00   -0.02040   1.27318    0.000
 3763.00   -1.08848   1.26043    0.000
 3764.00   -0.10947   1.23415    0.000
 3765.00    0.98763   1.19022    0.015
 3766.00   -0.07004   1.13402    0.000
 3767.00   -1.17779   1.06543    0.000
 3768.00   -2.15726   0.98835    0.000
 3769.00   -3.02114   0.93588    0.000
 3770.00   -1.07732   0.94978    0.000
 3771.00    0.70888   1.02108    0.015
 3772.00    0.42970   1.10124    0.015
 3773.00    0.28283   1.16569    0.015
 3774.00    1.29758   1.21506    0.015
 3775.00    2.13651   1.24924    0.015
 3776.00    1.83546   1.26969    0.015
 3777.00    1.46322   1.28610    0.015
 3778.00    0.73065   1.30730    0.015
 3779.00    0.09647   1.32924    0.015
 3780.00   -0.13504   1.34222    0.000
 3781.00   -0.36905   1.34588    0.000
 3782.00   -0.61151   1.34292    0.000
 3783.00   -0.88022   1.33317    0.000
 3784.00   -1.22397   1.32236    0.000
 3785.00   -1.00492   1.31542    0.000
 3786.00    0.58921   1.30895    0.015
 3787.00    1.67318   1.30034    0.015
 3788.00    1.68188   1.28645    0.015
 3789.00    1.55572   1.26456    0.015
 3790.00    1.18254   1.23846    0.015
 3791.00    1.13532   1.21133    0.014
 3792.00    1.60988   1.17276    0.014
 3793.00    1.56542   1.11305    0.015
 3794.00    0.79194   1.03433    0.014
 3795.00    0.76045   0.94572    0.014
 3796.00    1.64608   0.87515    0.014
 3797.00    1.64338   0.86776    0.014
 3798.00    0.67286   0.93345    0.014
 3799.00    0.05112   1.02820    0.014
 3800.00   -0.23544   1.10998    0.000
 3801.00   -0.28668   1.16933    0.000
 3802.00   -0.13852   1.21287    0.000
 3803.00   -0.36222   1.23740    0.000
 3804.00   -0.86341   1.23533    0.000
 3805.00   -0.20826   1.22999    0.000
 3806.00    1.20493   1.25420    0.015
 3807.00    1.99881   1.29296    0.015
 3808.00    2.43730   1.31705    0.015
 3809.00    2.09739   1.32742    0.015
 3810.00    1.36841   1.33051    0.014
 3811.00    0.33288   1.32644    0.014
 3812.00   -0.83520   1.31782    0.000
 3813.00   -0.90815   1.30939    0.000
 3814.00   -0.57497   1.30113    0.000
 3815.00    0.08029   1.28897    0.014
 3816.00    0.83681   1.25665    0.014
 3817.00    0.63725   1.18570    0.014
 3818.00    0.18689   1.11465    0.014
 3819.00   -0.62828   1.11943    0.000
 3820.00   -1.52161   1.18951    0.000
 3821.00   -1.42465   1.25024    0.000
 3822.00   -1.15964   1.27330    0.000
 3823.00    0.85908   1.27142    0.013
 3824.00    3.10284   1.26205    0.014
 3825.00    2.47508   1.25219    0.014
 3826.00    1.58958   1.23921    0.014
 3827.00   -0.03655   1.22004    0.000
 3828.00   -1.70247   1.19211    0.000
 3829.00   -0.92572   1.15320    0.000
 3830.00   -0.10057   1.09899    0.000
 3831.00    0.67755   1.02769    0.014
 3832.00    1.45405   0.94229    0.014
 3833.00    2.19473   0.85854    0.014
 3834.00    2.77113   0.81867    0.015
 3835.00    1.30477   0.85094    0.014
 3836.00    0.01256   0.92598    0.014
 3837.00    0.19228   1.00524    0.014
 3838.00    0.51562   1.07872    0.014
 3839.00    1.74248   1.13837    0.014
 3840.00    2.51369   1.18016    0.015
 3841.00    1.03661   1.21061    0.014
 3842.00   -0.02584   1.23469    0.000
 3843.00    0.57155   1.25430    0.014
 3844.00    1.02396   1.26745    0.015
 3845.00    0.99442   1.27441    0.015
 3846.00    0.80149   1.27761    0.014
 3847.00    0.14976   1.27874    0.000
 3848.00    0.03096   1.27517    0.000
 3849.00    1.19216   1.26755    0.000
 3850.00    2.08498   1.27068    0.000
 3851.00    2.42122   1.28329    0.000
 3852.00    2.18649   1.28632    0.000
 3853.00    0.92194   1.27689    0.000
 3854.00    0.31560   1.26406    0.000
 3855.00    0.74731   1.26049    0.000
 3856.00    1.17864   1.27092    0.000
 3857.00    1.60944   1.27896    0.000
 3858.00    1.54554   1.27384    0.000
 3859.00    0.87887   1.26592    0.000
 3860.00    0.50537   1.26561    0.000
 3861.00    0.44678   1.26627    0.000
 3862.00    0.76353   1.25993    0.000
 3863.00    1.43591   1.25438    0.000
 3864.00    1.40495   1.25583    0.000
 3865.00    0.78643   1.24982    0.000
 3866.00    0.36854   1.23819    0.000
 3867.00    0.09821   1.24739    0.000
 3868.00    0.14860   1.26369    0.000
 3869.00    0.40614   1.25337    0.000
 3870.00    0.51735   1.22512    0.000
 3871.00    0.54586   1.21669    0.000
 3872.00    0.75050   1.23613    0.000
 3873.00    1.04178   1.24662    0.000
 3874.00    0.95932   1.22747    0.000
 3875.00    0.71793   1.20499    0.000
 3876.00    0.45720   1.20555    0.000
 3877.00    0.18944   1.21441    0.000
 3878.00    0.84885   1.21514    0.000
 3879.00    1.79410   1.20397    0.000
 3880.00    1.93316   1.17870    0.000
 3881.00    1.86526   1.15128    0.013
 3882.00    1.44494   1.13147    0.013
 3883.00    0.95095   1.10378    0.013
 3884.00    0.49537   1.04943    0.013
 3885.00    0.04612   0.97107    0.013
 3886.00    0.85418   0.87901    0.013
 3887.00    1.81796   0.79910    0.013
 3888.00    1.89628   0.78408    0.013
 3889.00    1.89883   0.85126    0.013
 3890.00    2.07765   0.95051    0.013
 3891.00    2.26525   1.03492    0.013
 3892.00    2.18150   1.09543    0.013
 3893.00    2.09460   1.13674    0.013
 3894.00    2.09080   1.16619    0.013
 3895.00    2.05215   1.19039    0.013
 3896.00    1.30061   1.20547    0.012
 3897.00    0.60949   1.20740    0.012
 3898.00    0.63289   1.21091    0.012
 3899.00    0.61122   1.22869    0.011
 3900.00    0.22238   1.24823    0.011
 3901.00   -0.14497   1.25708    0.000
 3902.00   -0.38098   1.25955    0.000
 3903.00   -0.41742   1.26019    0.000
 3904.00    0.50655   1.25798    0.011
 3905.00    1.12532   1.25823    0.011
 3906.00    0.54886   1.26553    0.010
 3907.00    0.18092   1.27550    0.010
 3908.00    0.49264   1.28051    0.011
 3909.00    0.71327   1.27444    0.011
 3910.00    0.68275   1.26156    0.012
 3911.00    0.54533   1.25872    0.012
 3912.00    0.15546   1.26937    0.012
 3913.00    0.09146   1.27815    0.012
 3914.00    0.69254   1.27856    0.013
 3915.00    1.20459   1.27188    0.013
 3916.00    1.55853   1.25230    0.013
 3917.00    1.39568   1.21391    0.013
 3918.00    0.42986   1.17463    0.013
 3919.00    0.26330   1.16416    0.013
 3920.00    1.18730   1.18776    0.013
 3921.00    1.54321   1.21537    0.013
 3922.00    1.21671   1.21937    0.013
 3923.00    1.13144   1.20786    0.013
 3924.00    1.30164   1.19145    0.013
 3925.00    1.37217   1.17700    0.013
 3926.00    1.34960   1.17934    0.013
 3927.00    0.68255   1.19348    0.013
 3928.00   -0.51527   1.20494    0.000
 3929.00   -0.39809   1.20979    0.000
 3930.00    0.67238   1.20360    0.013
 3931.00    1.53465   1.18663    0.013
 3932.00    2.26442   1.17105    0.013
 3933.00    2.39009   1.17272    0.013
 3934.00    2.17957   1.18631    0.013
 3935.00    1.82497   1.20016    0.013
 3936.00    1.40063   1.21276    0.012
 3937.00    1.13823   1.22245    0.012
 3938.00    0.94353   1.22974    0.012
 3939.00    1.12909   1.23431    0.012
 3940.00    1.45066   1.23456    0.012
 3941.00    1.11994   1.23044    0.012
 3942.00    0.59207   1.22037    0.012
 3943.00    0.91872   1.20976    0.012
 3944.00    1.45998   1.21164    0.013
 3945.00    1.91318   1.22299    0.013
 3946.00    2.34842   1.22836    0.013
 3947.00    1.59887   1.22994    0.013
 3948.00    0.65960   1.23517    0.013
 3949.00    0.53267   1.23937    0.013
 3950.00    0.50272   1.23556    0.013
 3951.00    1.26227   1.22422    0.013
 3952.00    2.08610   1.21062    0.013
 3953.00    2.87948   1.20035    0.013
 3954.00    3.67146   1.19792    0.013
 3955.00    2.80423   1.19995    0.013
 3956.00    1.91752   1.20301    0.013
 3957.00    1.11733   1.20304    0.013
 3958.00    0.37407   1.19266    0.013
 3959.00    0.70909   1.16698    0.013
 3960.00    1.02833   1.13411    0.000
 3961.00    1.16960   1.10560    0.000
 3962.00    1.25293   1.07092    0.000
 3963.00    0.88077   1.02486    0.000
 3964.00    0.62384   0.98722    0.000
 3965.00    1.05069   0.95206    0.000
 3966.00    1.36052   0.89139    0.000
 3967.00    1.12088   0.80592    0.000
 3968.00    1.00542   0.73088    0.000
 3969.00    1.36586   0.71778    0.000
 3970.00    1.75579   0.77763    0.000
 3971.00    2.23999   0.86338    0.000
 3972.00    2.52082   0.94107    0.000
 3973.00    2.25083   1.01003    0.000
 3974.00    2.02454   1.06510    0.000
 3975.00    1.89971   1.10241    0.000
 3976.00    1.85342   1.12937    0.000
 3977.00    1.96488   1.15020    0.000
 3978.00    1.79667   1.16682    0.000
 3979.00    1.13930   1.17921    0.000
 3980.00    0.50477   1.18202    0.000
 3981.00   -0.09479   1.17751    0.000
 3982.00    0.06091   1.18022    0.012
 3983.00    1.23229   1.19465    0.012
 3984.00    1.94207   1.20935    0.012
 3985.00    2.10520   1.21851    0.012
 3986.00    1.98755   1.22613    0.012
 3987.00    1.57672   1.23064    0.012
 3988.00    1.64165   1.22933    0.012
 3989.00    2.14476   1.22806    0.012
 3990.00    2.31461   1.23076    0.012
 3991.00    2.21389   1.23293    0.012
 3992.00    1.71183   1.22505    0.012
 3993.00    0.92303   1.20912    0.012
 3994.00    0.42036   1.20348    0.012
 3995.00    0.09709   1.21091    0.012
 3996.00    0.31882   1.21634    0.012
 3997.00    0.83920   1.21908    0.012
 3998.00    1.27642   1.22663    0.012
 3999.00    1.67403   1.23291    0.012
 4000.00    1.34552   1.23300    0.012
 4001.00    0.71857   1.22960    0.012
 4002.00    0.51001   1.22202    0.012
 4003.00    0.44840   1.20857    0.012
 4004.00    0.64985   1.19642    0.012
 4005.00    0.92924   1.19128    0.012
 4006.00    0.80101   1.17872    0.012
 4007.00    0.57264   1.15057    0.012
 4008.00    0.28506   1.13651    0.012
 4009.00   -0.01429   1.15899    0.000
 4010.00    0.32393   1.19422    0.012
 4011.00    0.76121   1.21614    0.012
 4012.00    1.25186   1.22556    0.012
 4013.00    1.74864   1.23031    0.012
 4014.00    1.28103   1.23237    0.012
 4015.00    0.73886   1.22992    0.012
 4016.00    1.00000   1.22604    0.012
 4017.00    1.29497   1.22698    0.012
 4018.00    1.76122   1.22872    0.012
 4019.00    2.20475   1.22288    0.012
 4020.00    1.58428   1.20963    0.012
 4021.00    0.98914   1.19043    0.012
 4022.00    0.84056   1.15771    0.012
 4023.00    0.70516   1.10072    0.012
 4024.00    0.71154   1.03534    0.012
 4025.00    0.70917   1.01899    0.012
 4026.00    0.64036   1.07495    0.012
 4027.00    0.60878   1.14502    0.012
 4028.00    0.79189   1.17884    0.012
 4029.00    0.92821   1.18332    0.011
 4030.00    0.85001   1.17932    0.011
 4031.00    0.90571   1.17560    0.011
 4032.00    1.46366   1.17338    0.011
 4033.00    1.79521   1.17409    0.011
 4034.00    1.41701   1.18491    0.011
 4035.00    0.96557   1.20787    0.011
 4036.00    0.31925   1.22601    0.011
 4037.00    0.06870   1.22827    0.011
 4038.00    0.72186   1.21922    0.011
 4039.00    1.17279   1.20582    0.011
 4040.00    1.22392   1.19785    0.011
 4041.00    1.25500   1.19566    0.011
 4042.00    1.25151   1.18711    0.012
 4043.00    1.16139   1.17291    0.012
 4044.00    0.94058   1.16586    0.012
 4045.00    0.95613   1.17341    0.011
 4046.00    1.28499   1.18887    0.011
 4047.00    1.39991   1.20140    0.011
 4048.00    1.26504   1.21035    0.012
 4049.00    1.11520   1.21634    0.012
 4050.00    0.94994   1.21490    0.012
 4051.00    0.96030   1.20518    0.012
 4052.00    1.13014   1.19212    0.012
 4053.00    0.83537   1.18319    0.012
 4054.00    0.16876   1.18200    0.012
 4055.00    0.68303   1.18349    0.012
 4056.00    2.02882   1.18228    0.012
 4057.00    2.02164   1.17935    0.012
 4058.00    1.17875   1.17545    0.012
 4059.00    1.08932   1.17181    0.012
 4060.00    1.40644   1.16817    0.012
 4061.00    1.37553   1.16072    0.012
 4062.00    1.18151   1.15573    0.012
 4063.00    1.63979   1.16352    0.012
 4064.00    2.36160   1.17670    0.012
 4065.00    1.98543   1.18095    0.012
 4066.00    1.23068   1.17631    0.011
 4067.00    0.97671   1.16496    0.011
 4068.00    0.86817   1.14682    0.011
 4069.00    0.90812   1.12948    0.011
 4070.00    0.98373   1.12058    0.012
 4071.00    0.98374   1.12770    0.012
 4072.00    0.96910   1.14255    0.011
 4073.00    0.76911   1.13650    0.011
 4074.00    0.54119   1.11473    0.011
 4075.00    0.34529   1.10900    0.011
 4076.00    0.15294   1.12099    0.011
 4077.00    0.47238   1.13469    0.011
 4078.00    0.82931   1.14901    0.011
 4079.00    0.47103   1.16327    0.011
 4080.00    0.08537   1.16810    0.011
 4081.00    0.77083   1.16107    0.011
 4082.00    1.45479   1.14770    0.011
 4083.00    1.85811   1.13624    0.011
 4084.00    2.21382   1.13489    0.011
 4085.00    1.78507   1.14026    0.011
 4086.00    1.37443   1.14019    0.011
 4087.00    1.15008   1.13246    0.011
 4088.00    0.97324   1.12953    0.011
 4089.00    1.14498   1.13492    0.011
 4090.00    1.31556   1.13159    0.011
 4091.00    1.47957   1.11598    0.011
 4092.00    1.63321   1.10055    0.000
 4093.00    1.74046   1.07872    0.000
 4094.00    1.84640   1.03969    0.000
 4095.00    1.94754   0.99576    0.000
 4096.00    1.87865   0.95974    0.000
 4097.00    1.28688   0.92161    0.000
 4098.00    0.94291   0.86062    0.000
 4099.00    1.24663   0.77614    0.000
 4100.00    1.46369   0.71401    0.000
 4101.00    1.48611   0.72685    0.000
 4102.00    1.39612   0.80001    0.000
 4103.00    1.08738   0.88120    0.000
 4104.00    0.89931   0.95062    0.000
 4105.00    0.91599   1.00565    0.000
 4106.00    1.01531   1.04123    0.000
 4107.00    1.23747   1.06120    0.000
 4108.00    1.39192   1.07148    0.000
 4109.00    1.45789   1.07718    0.000
 4110.00    1.35067   1.08641    0.000
 4111.00    1.04411   1.10196    0.000
 4112.00    1.07679   1.11628    0.000
 4113.00    1.45383   1.12098    0.011
 4114.00    1.84227   1.12092    0.011
 4115.00    2.24093   1.12495    0.011
 4116.00    1.81572   1.12401    0.011
 4117.00    0.74050   1.10243    0.011
 4118.00    0.91422   1.06828    0.011
 4119.00    1.95465   1.04732    0.011
 4120.00    2.32933   1.05913    0.011
 4121.00    2.29890   1.09619    0.011
 4122.00    1.87151   1.13073    0.017
 4123.00    1.23322   1.15019    0.069
 4124.00    0.91864   1.15530   -1.000
 4125.00    0.75332   1.14530   -1.000
 4126.00    1.12150   1.12762   -1.000
 4127.00    1.70151   1.11720   -1.000
 4128.00    1.13031   1.11458   -1.000
 4129.00    0.16949   1.10763   -1.000
 4130.00    0.19180   1.09843    0.027
 4131.00    0.49383   1.09719    0.012
 4132.00    1.02541   1.10765    0.010
 4133.00    1.61088   1.12542    0.010
 4134.00    1.38315   1.14072    0.010
 4135.00    1.00192   1.14457    0.010
 4136.00    0.98505   1.14087    0.011
 4137.00    1.02139   1.13872    0.011
 4138.00    1.66597   1.13727    0.011
 4139.00    2.37518   1.12954    0.011
 4140.00    1.60108   1.10255    0.010
 4141.00    0.72437   1.04941    0.010
 4142.00    0.52539   1.00434    0.010
 4143.00    0.34978   1.01434    0.010
 4144.00    1.18733   1.06477    0.010
 4145.00    2.00018   1.10619    0.010
 4146.00    1.93115   1.12447    0.010
 4147.00    1.83908   1.12568    0.010
 4148.00    1.39068   1.11641    0.010
 4149.00    1.01166   1.11106    0.010
 4150.00    1.31645   1.11077    0.010
 4151.00    1.53724   1.10410    0.010
 4152.00    1.16171   1.09921    0.010
 4153.00    0.76533   1.10569    0.010
 4154.00    0.25515   1.11169    0.010
 4155.00    0.00343   1.11342    0.010
 4156.00    0.88143   1.12158    0.010
 4157.00    1.51399   1.13346    0.010
 4158.00    1.26372   1.13883    0.010
 4159.00    1.00087   1.13710    0.010
 4160.00    0.70009   1.13299    0.010
 4161.00    0.50245   1.12868    0.010
 4162.00    0.56970   1.12344    0.010
 4163.00    0.67212   1.11839    0.010
 4164.00    0.85222   1.11650    0.010
 4165.00    0.88186   1.11415    0.010
 4166.00    0.62328   1.10510    0.010
 4167.00    0.72842   1.09573    0.010
 4168.00    1.44143   1.09869    0.010
 4169.00    1.67848   1.10649    0.010
 4170.00    1.21831   1.10271    0.010
 4171.00    1.12292   1.09262    0.010
 4172.00    1.49735   1.08953    0.010
 4173.00    1.42687   1.09288    0.010
 4174.00    0.85152   1.09594    0.010
 4175.00    0.58200   1.09699    0.011
 4176.00    0.61856   1.09899    0.011
 4177.00    1.00796   1.10359    0.010
 4178.00    1.70882   1.10958    0.010
 4179.00    1.70440   1.11331    0.010
 4180.00    1.15146   1.11235    0.010
 4181.00    1.12345   1.11060    0.010
 4182.00    1.45444   1.11030    0.010
 4183.00    1.41957   1.10774    0.010
 4184.00    1.16540   1.10237    0.010
 4185.00    1.23103   1.09697    0.010
 4186.00    1.46393   1.09390    0.010
 4187.00    1.25969   1.09143    0.010
 4188.00    0.85717   1.08816    0.010
 4189.00    0.90171   1.09145    0.010
 4190.00    1.12069   1.10319    0.010
 4191.00    1.45348   1.11519    0.010
 4192.00    1.82406   1.11920    0.010
 4193.00    1.39804   1.11137    0.010
 4194.00    0.74999   1.09758    0.010
 4195.00    0.71347   1.08700    0.010
 4196.00    0.81726   1.07872    0.010
 4197.00    0.82415   1.06892    0.010
 4198.00    0.81323   1.06149    0.010
 4199.00    1.07072   1.06160    0.010
 4200.00    1.36617   1.06783    0.010
 4201.00    1.33439   1.07737    0.010
 4202.00    1.26925   1.08781    0.010
 4203.00    1.08737   1.09528    0.010
 4204.00    0.89789   1.10109    0.009
 4205.00    0.67053   1.10762    0.009
 4206.00    0.44285   1.11310    0.009
 4207.00    0.75586   1.11425    0.009
 4208.00    1.06720   1.10980    0.010
 4209.00    1.32940   1.10526    0.009
 4210.00    1.56679   1.10518    0.009
 4211.00    1.44285   1.10562    0.010
 4212.00    1.31248   1.10081    0.010
 4213.00    1.12141   1.09001    0.009
 4214.00    0.96649   1.08107    0.009
 4215.00    1.06009   1.08501    0.009
 4216.00    1.13871   1.09788    0.009
 4217.00    1.13765   1.10625    0.009
 4218.00    1.06230   1.10747    0.009
 4219.00    0.66966   1.10404    0.009
 4220.00    0.36603   1.09467    0.009
 4221.00    0.37600   1.08205    0.009
 4222.00    0.39294   1.07073    0.009
 4223.00    0.43055   1.05669    0.009
 4224.00    0.57197   1.03811    0.009
 4225.00    0.97539   1.02373    0.009
 4226.00    1.21153   1.02710    0.009
 4227.00    1.08417   1.04890    0.009
 4228.00    0.91828   1.07177    0.009
 4229.00    0.67970   1.08385    0.009
 4230.00    0.52121   1.08524    0.009
 4231.00    0.49456   1.07900    0.009
 4232.00    0.43300   1.07353    0.009
 4233.00    0.32105   1.07325    0.009
 4234.00    0.30543   1.06868    0.009
 4235.00    0.41214   1.06033    0.009
 4236.00    0.43952   1.06099    0.009
 4237.00    0.37815   1.06909    0.009
 4238.00    0.49267   1.07413    0.009
 4239.00    0.78076   1.07346    0.009
 4240.00    0.81735   1.07234    0.009
 4241.00    0.63508   1.07897    0.009
 4242.00    0.62287   1.09352    0.009
 4243.00    0.74103   1.10336    0.009
 4244.00    0.87534   1.09860    0.009
 4245.00    1.02053   1.08585    0.009
 4246.00    0.98569   1.07716    0.009
 4247.00    0.84455   1.07272    0.010
 4248.00    0.54306   1.06573    0.010
 4249.00    0.15902   1.05933    0.010
 4250.00    0.49899   1.05858    0.010
 4251.00    1.16198   1.05016    0.010
 4252.00    1.08746   1.03145    0.010
 4253.00    0.73017   1.02859    0.010
 4254.00    0.66884   1.04838    0.010
 4255.00    0.70397   1.06808    0.010
 4256.00    0.91956   1.07278    0.010
 4257.00    1.18442   1.06538    0.009
 4258.00    1.37074   1.05481    0.010
 4259.00    1.53947   1.04997    0.010
 4260.00    1.44838   1.05765    0.010
 4261.00    1.31083   1.07404    0.010
 4262.00    1.11724   1.08695    0.010
 4263.00    0.91597   1.08661    0.010
 4264.00    0.51350   1.06147    0.010
 4265.00    0.09137   1.01618    0.010
 4266.00    0.06896   0.99485    0.009
 4267.00    0.07098   1.01736    0.009
 4268.00    0.78260   1.04186    0.009
 4269.00    1.50691   1.04003    0.010
 4270.00    0.96787   1.02839    0.009
 4271.00    0.44285   1.02456    0.009
 4272.00    0.28872   1.02383    0.009
 4273.00    0.17532   1.01625    0.009
 4274.00    0.62189   1.00907    0.009
 4275.00    1.02624   1.01605    0.009
 4276.00    1.04719   1.03773    0.009
 4277.00    1.05815   1.05983    0.009
 4278.00    1.00255   1.06637    0.009
 4279.00    0.87853   1.05817    0.009
 4280.00    0.40035   1.04642    0.009
 4281.00    0.03713   1.03684    0.009
 4282.00    0.15385   1.03162   -2.000
 4283.00    0.33303   1.03016   -2.000
 4284.00    0.72786   1.03306   -2.000
 4285.00    1.12787   1.04065   -2.000
 4286.00    1.54290   1.04124   -2.000
 4287.00    1.69476   1.02684   -2.000
 4288.00    1.19387   1.01083   -2.000
 4289.00    0.72062   1.00960   -2.000
 4290.00    0.30647   1.02450   -2.000
 4291.00    0.15142   1.04180   -2.000
 4292.00    0.47742   1.04329   -2.000
 4293.00    0.69731   1.03349   -2.000
 4294.00    0.74512   1.03206   -2.000
 4295.00    0.75250   1.03656   -2.000
 4296.00    0.70234   1.03379   -2.000
 4297.00    0.72298   1.02204   -2.000
 4298.00    0.83222   1.00961    0.009
 4299.00    0.89044   1.00608    0.009
 4300.00    0.89236   1.00573    0.009
 4301.00    0.90475   0.99664    0.009
 4302.00    0.92733   0.98778    0.009
 4303.00    0.89365   0.99161    0.009
 4304.00    0.81169   0.99863    0.009
 4305.00    0.72080   0.99564    0.009
 4306.00    0.62318   0.98524    0.009
 4307.00    0.53769   0.97980    0.009
 4308.00    0.46026   0.98731    0.009
 4309.00    0.47911   1.00385    0.009
 4310.00    0.55397   1.01747    0.009
 4311.00    0.44298   1.02055    0.009
 4312.00    0.23782   1.01781    0.009
 4313.00    0.30742   1.02064    0.009
 4314.00    0.49759   1.03270    0.008
 4315.00    0.64122   1.04453    0.008
 4316.00    0.76731   1.04730    0.009
 4317.00    0.57513   1.04292    0.009
 4318.00    0.28120   1.03859    0.008
 4319.00    0.34717   1.04053    0.009
 4320.00    0.50932   1.04547    0.009
 4321.00    0.79765   1.04203    0.009
 4322.00    1.11359   1.02332    0.009
 4323.00    1.11077   0.99276    0.009
 4324.00    1.05250   0.96954    0.009
 4325.00    1.07098   0.97564    0.009
 4326.00    1.09960   1.00379    0.009
 4327.00    0.91989   1.02540    0.009
 4328.00    0.72070   1.02709    0.009
 4329.00    0.74863   1.01566    0.009
 4330.00    0.78954   1.00185    0.000
 4331.00    1.27932   0.99064    0.000
 4332.00    1.77477   0.98214    0.000
 4333.00    1.72090   0.97197    0.000
 4334.00    1.64985   0.94594    0.000
 4335.00    1.16625   0.89240    0.000
 4336.00    0.73132   0.82099    0.000
 4337.00    0.92999   0.74603    0.000
 4338.00    1.08702   0.67677    0.000
 4339.00    0.88024   0.64888    0.000
 4340.00    0.69943   0.69272    0.000
 4341.00    0.68630   0.77349    0.000
 4342.00    0.74550   0.83912    0.000
 4343.00    1.16952   0.88179    0.000
 4344.00    1.38405   0.91290    0.000
 4345.00    0.74351   0.93595    0.000
 4346.00    0.33318   0.95596    0.000
 4347.00    0.70166   0.97567    0.000
 4348.00    1.00812   0.98501    0.000
 4349.00    1.13756   0.97505    0.000
 4350.00    1.10480   0.96115    0.000
 4351.00    0.67656   0.96673    0.009
 4352.00    0.35558   0.98880    0.009
 4353.00    0.26021   1.01104    0.009
 4354.00    0.37438   1.02899    0.009
 4355.00    0.87164   1.04152    0.009
 4356.00    1.11651   1.04257    0.011
 4357.00    0.95813   1.03339    0.031
 4358.00    0.78304   1.02683   -1.000
 4359.00    0.58453   1.02985   -1.000
 4360.00    0.46494   1.03844   -1.000
 4361.00    0.44272   1.04726   -1.000
 4362.00    0.38835   1.05296   -1.000
 4363.00    0.29903   1.05496   -1.000
 4364.00    0.53742   1.04835   -1.000
 4365.00    1.09019   1.03179   -1.000
 4366.00    1.25765   1.01954    0.033
 4367.00    1.09920   1.02018    0.012
 4368.00    1.10782   1.02608    0.009
 4369.00    1.24088   1.02717    0.009
 4370.00    0.86866   1.02072    0.009
 4371.00    0.16580   1.01217    0.009
 4372.00    0.14514   1.00469    0.009
 4373.00    0.51521   0.99926    0.009
 4374.00    0.57230   1.00292    0.009
 4375.00    0.47326   1.01739    0.009
 4376.00    0.50956   1.03065    0.009
 4377.00    0.60426   1.03301    0.009
 4378.00    0.67891   1.02981    0.009
 4379.00    0.74615   1.02599    0.009
 4380.00    0.71295   1.01248    0.009
 4381.00    0.64826   0.98337    0.009
 4382.00    0.36190   0.95463    0.009
 4383.00    0.01754   0.94865    0.009
 4384.00    0.07052   0.95926    0.009
 4385.00    0.20836   0.95339    0.009
 4386.00    0.56659   0.93013    0.009
 4387.00    0.96209   0.93042    0.009
 4388.00    0.80046   0.96011    0.009
 4389.00    0.56765   0.98799    0.009
 4390.00    1.05283   1.00651    0.009
 4391.00    1.60208   1.01950    0.009
 4392.00    1.52114   1.02031    0.009
 4393.00    1.40663   1.01014    0.009
 4394.00    1.09817   1.00746    0.009
 4395.00    0.78979   1.02360    0.009
 4396.00    0.79639   1.04119    0.009
 4397.00    0.80109   1.04090    0.009
 4398.00    0.76391   1.02699    0.009
 4399.00    0.71777   1.01736    0.009
 4400.00    0.56092   1.02163    0.009
 4401.00    0.47378   1.02385    0.009
 4402.00    0.97311   1.00542    0.009
 4403.00    1.33503   0.98071    0.009
 4404.00    0.83574   0.97491    0.009
 4405.00    0.43385   0.98486    0.008
 4406.00    0.51104   0.99277    0.009
 4407.00    0.60506   0.99902    0.009
 4408.00    0.76630   1.01083    0.009
 4409.00    0.90419   1.02109    0.008
 4410.00    0.96463   1.02620    0.008
 4411.00    1.03939   1.02684    0.008
 4412.00    1.15426   1.00925    0.008
 4413.00    1.29476   0.97656    0.008
 4414.00    1.49669   0.95948    0.008
 4415.00    1.53294   0.96905    0.008
 4416.00    1.22627   0.99210    0.008
 4417.00    1.04712   1.01536    0.008
 4418.00    1.09753   1.02884    0.008
 4419.00    1.11147   1.03029    0.008
 4420.00    1.06802   1.02294    0.008
 4421.00    0.95055   1.01489    0.008
 4422.00    0.73079   1.01559    0.008
 4423.00    0.76666   1.01975    0.008
 4424.00    1.11347   1.01738    0.008
 4425.00    1.27699   1.01092    0.008
 4426.00    1.24398   1.00901    0.008
 4427.00    1.12562   1.01098    0.008
 4428.00    0.92653   1.00692    0.008
 4429.00    0.94390   0.99990    0.008
 4430.00    1.14178   1.00071    0.008
 4431.00    1.07314   1.00195    0.008
 4432.00    0.80883   0.99392    0.008
 4433.00    0.59798   0.98235    0.008
 4434.00    0.42161   0.97655    0.008
 4435.00    0.58016   0.98090    0.008
 4436.00    0.92763   0.99656    0.008
 4437.00    0.75803   1.01864    0.008
 4438.00    0.33461   1.03047    0.008
 4439.00    0.45219   1.02083    0.008
 4440.00    0.79933   0.99900    0.008
 4441.00    0.75513   0.98408    0.008
 4442.00    0.56872   0.98926    0.008
 4443.00    0.73475   1.00882    0.008
 4444.00    1.00918   1.02072    0.008
 4445.00    1.10618   1.01501    0.008
 4446.00    1.15777   1.00846    0.008
 4447.00    1.00742   1.01325    0.008
 4448.00    0.81499   1.01898    0.008
 4449.00    1.13189   1.01847    0.008
 4450.00    1.53247   1.01446    0.008
 4451.00    1.20982   1.00809    0.008
 4452.00    0.79801   0.99877    0.008
 4453.00    0.64188   0.98653    0.008
 4454.00    0.50749   0.97911    0.008
 4455.00    0.80694   0.98199    0.008
 4456.00    1.12781   0.98687    0.008
 4457.00    1.13610   0.98665    0.008
 4458.00    1.14196   0.98322    0.008
 4459.00    1.30729   0.97813    0.008
 4460.00    1.45283   0.97479    0.008
 4461.00    1.19764   0.98188    0.000
 4462.00    0.96564   0.99483    0.000
 4463.00    1.00631   0.99734    0.000
 4464.00    1.06187   0.98897    0.000
 4465.00    1.23814   0.98049    0.000
 4466.00    1.35105   0.97285    0.000
 4467.00    1.07838   0.95827    0.000
 4468.00    0.82704   0.92702    0.000
 4469.00    0.67809   0.88273    0.000
 4470.00    0.58315   0.86519    0.000
 4471.00    0.69921   0.90573    0.000
 4472.00    0.78098   0.96680    0.000
 4473.00    0.75130   1.00092    0.000
 4474.00    0.75472   1.01349    0.000
 4475.00    0.84919   1.02430    0.000
 4476.00    0.82367   1.03039    0.000
 4477.00    0.51536   1.01800    0.000
 4478.00    0.45517   0.98428    0.000
 4479.00    0.90032   0.94963    0.000
 4480.00    1.20317   0.94419    0.000
 4481.00    1.25375   0.97170    0.000
 4482.00    1.21404   1.00558    0.008
 4483.00    1.03430   1.02648    0.008
 4484.00    0.84131   1.03449    0.008
 4485.00    0.63027   1.03017    0.008
 4486.00    0.47925   1.01339    0.008
 4487.00    0.40021   0.99337    0.008
 4488.00    0.37058   0.98469    0.008
 4489.00    0.39319   0.99289    0.008
 4490.00    0.54410   1.00766    0.008
 4491.00    0.81466   1.01377    0.008
 4492.00    0.88801   1.00514    0.008
 4493.00    0.79923   0.99090    0.008
 4494.00    0.83213   0.98461    0.008
 4495.00    0.95306   0.98940    0.008
 4496.00    1.10550   1.00148    0.008
 4497.00    1.27797   1.01322    0.008
 4498.00    1.34402   1.01606    0.008
 4499.00    1.35096   1.01037    0.008
 4500.00    1.35090   1.00908    0.008
 4501.00    1.34746   1.02271    0.008
 4502.00    0.98529   1.04038    0.008
 4503.00    0.47345   1.04539    0.008
 4504.00    0.52717   1.03723    0.008
 4505.00    0.78274   1.02525    0.008
 4506.00    1.07811   1.01799    0.008
 4507.00    1.38549   1.01866    0.008
 4508.00    1.08926   1.02291    0.008
 4509.00    0.64184   1.02211    0.008
 4510.00    0.77569   1.01155    0.008
 4511.00    1.02771   0.99763    0.008
 4512.00    0.97121   0.98999    0.008
 4513.00    0.86550   0.99061    0.008
 4514.00    0.85802   0.99676    0.008
 4515.00    0.86222   1.00115    0.008
 4516.00    0.65809   1.00004    0.008
 4517.00    0.43710   1.00186    0.008
 4518.00    0.84535   1.01132    0.008
 4519.00    1.28221   1.02029    0.008
 4520.00    1.40251   1.01760    0.008
 4521.00    1.51157   1.00389    0.008
 4522.00    1.24553   0.99193    0.008
 4523.00    0.98362   0.98550    0.008
 4524.00    0.79921   0.97832    0.008
 4525.00    0.65138   0.96690    0.008
 4526.00    0.91339   0.95142    0.008
 4527.00    1.13492   0.93832    0.008
 4528.00    1.03974   0.93770    0.008
 4529.00    0.96533   0.95111    0.008
 4530.00    1.01379   0.96857    0.008
 4531.00    1.02253   0.97519    0.009
 4532.00    0.84538   0.96537    0.009
 4533.00    0.71986   0.95240    0.009
 4534.00    0.79172   0.95613    0.009
 4535.00    0.86144   0.97957    0.008
 4536.00    0.92435   1.00114    0.008
 4537.00    0.90859   1.00166    0.008
 4538.00    0.68023   0.98513    0.008
 4539.00    0.57079   0.96781    0.008
 4540.00    0.73688   0.96457    0.008
 4541.00    0.87428   0.97564    0.008
 4542.00    0.95420   0.98414    0.008
 4543.00    0.95795   0.98186    0.008
 4544.00    0.82873   0.97991    0.008
 4545.00    0.71829   0.98392    0.008
 4546.00    0.63656   0.98477    0.008
 4547.00    0.47734   0.97742    0.008
 4548.00    0.21408   0.97317    0.008
 4549.00    0.17712   0.97504    0.008
 4550.00    0.40767   0.96680    0.000
 4551.00    0.69676   0.95154    0.000
 4552.00    1.04689   0.94820    0.000
 4553.00    1.09312   0.95626    0.000
 4554.00    0.85995   0.96934    0.000
 4555.00    0.64910   0.98743    0.000
 4556.00    0.45634   1.00351    0.000
 4557.00    0.57471   1.01018    0.000
 4558.00    0.91495   1.00961    0.000
 4559.00    1.11894   1.00778    0.000
 4560.00    1.23765   1.00627    0.000
 4561.00    1.07682   0.99898    0.000
 4562.00    0.76309   0.98571    0.000
 4563.00    0.85031   0.97737    0.000
 4564.00    1.12812   0.97952    0.000
 4565.00    1.17725   0.98612    0.000
 4566.00    1.13258   0.99137    0.000
 4567.00    1.00184   0.99665    0.000
 4568.00    0.84094   0.99851    0.000
 4569.00    0.66864   0.98979    0.000
 4570.00    0.49299   0.98178    0.000
 4571.00    0.59512   0.98802    0.000
 4572.00    0.76529   0.99517    0.000
 4573.00    0.88701   0.99214    0.000
 4574.00    0.99913   0.99163    0.000
 4575.00    0.73414   0.99743    0.000
 4576.00    0.41077   0.99685    0.000
 4577.00    0.83669   0.98459    0.000
 4578.00    1.34835   0.97001    0.000
 4579.00    1.07963   0.96598    0.000
 4580.00    0.75097   0.97337    0.000
 4581.00    0.89458   0.98026    0.000
 4582.00    1.05785   0.97880    0.000
 4583.00    0.55906   0.97284    0.000
 4584.00    0.07176   0.96867    0.000
 4585.00    0.32472   0.97146    0.000
 4586.00    0.57072   0.98187    0.000
 4587.00    0.69503   0.99031    0.000
 4588.00    0.78203   0.98480    0.000
 4589.00    0.46995   0.96859    0.000
 4590.00    0.20494   0.95892    0.000
 4591.00    0.29577   0.96127    0.000
 4592.00    0.35439   0.96339    0.000
 4593.00    0.22786   0.95702    0.000
 4594.00    0.19467   0.94945    0.000
 4595.00    0.58792   0.95156    0.000
 4596.00    0.95397   0.96242    0.000
 4597.00    1.21826   0.97123    0.000
 4598.00    1.38936   0.96854    0.000
 4599.00    1.26901   0.95592    0.000
 4600.00    1.11225   0.94874    0.000
 4601.00    0.85882   0.95504    0.000
 4602.00    0.75482   0.96450    0.000
 4603.00    0.99130   0.96634    0.000
 4604.00    1.20746   0.96230    0.000
 4605.00    1.38351   0.96282    0.000
 4606.00    1.30087   0.97378    0.000
 4607.00    0.77339   0.98672    0.000
 4608.00    0.61098   0.99103    0.000
 4609.00    0.99826   0.98932    0.000
 4610.00    1.15686   0.98547    0.000
 4611.00    1.01287   0.97825    0.000
 4612.00    0.96430   0.97557    0.000
 4613.00    1.02695   0.98369    0.000
 4614.00    0.97870   0.99238    0.000
 4615.00    0.81647   0.99413    0.000
 4616.00    0.75035   0.98671    0.000
 4617.00    0.77137   0.97154    0.000
 4618.00    0.81059   0.96445    0.000
 4619.00    0.86435   0.97256    0.000
 4620.00    0.75943   0.98220    0.000
 4621.00    0.54296   0.98723    0.000
 4622.00    0.41802   0.99029    0.000
 4623.00    0.34949   0.98794    0.000
 4624.00    0.65872   0.98082    0.000
 4625.00    1.17139   0.97624    0.000
 4626.00    1.20383   0.97446    0.000
 4627.00    1.01167   0.96760    0.000
 4628.00    0.83632   0.95812    0.000
 4629.00    0.66775   0.95918    0.000
 4630.00    0.71955   0.96821    0.000
 4631.00    0.84716   0.96884    0.000
 4632.00    0.96375   0.96140    0.000
 4633.00    1.07716   0.95814    0.000
 4634.00    1.06629   0.95941    0.000
 4635.00    1.02565   0.95502    0.000
 4636.00    0.88725   0.94070    0.000
 4637.00    0.72996   0.92554    0.000
 4638.00    0.59415   0.91888    0.000
 4639.00    0.46155   0.91977    0.000
 4640.00    0.75229   0.92438    0.000
 4641.00    1.08961   0.93179    0.000
 4642.00    0.82439   0.93963    0.000
 4643.00    0.51535   0.94043    0.000
 4644.00    0.82539   0.92702    0.000
 4645.00    1.15884   0.90624    0.000
 4646.00    1.08397   0.89233    0.000
 4647.00    1.00909   0.88901    0.000
 4648.00    1.01116   0.89302    0.000
 4649.00    1.01722   0.90545    0.000
 4650.00    1.08865   0.92620    0.000
 4651.00    1.11584   0.94508    0.000
 4652.00    0.69028   0.94834    0.000
 4653.00    0.34749   0.94003    0.000
 4654.00    0.60954   0.93544    0.000
 4655.00    0.80212   0.94112    0.000
 4656.00    0.60631   0.95684    0.000
 4657.00    0.47071   0.97559    0.000
 4658.00    0.60380   0.98389    0.000
 4659.00    0.71233   0.97428    0.000
 4660.00    0.73087   0.95623    0.000
 4661.00    0.80884   0.94546    0.000
 4662.00    1.06915   0.94540    0.000
 4663.00    1.20772   0.94588    0.000
 4664.00    1.02881   0.93537    0.000
 4665.00    0.88493   0.91483    0.000
 4666.00    0.81954   0.90017    0.000
 4667.00    0.71763   0.90382    0.000
 4668.00    0.54476   0.92104    0.000
 4669.00    0.52794   0.93830    0.000
 4670.00    0.77543   0.94461    0.000
 4671.00    0.91880   0.93864    0.000
 4672.00    0.90771   0.92997    0.000
 4673.00    0.86076   0.92699    0.000
 4674.00    0.76703   0.93061    0.000
 4675.00    0.73319   0.93625    0.000
 4676.00    0.76816   0.93840    0.000
 4677.00    0.65535   0.93566    0.000
 4678.00    0.39278   0.93067    0.000
 4679.00    0.37929   0.92538    0.000
 4680.00    0.58843   0.92253    0.000
 4681.00    0.68718   0.92487    0.000
 4682.00    0.69900   0.92577    0.000
 4683.00    0.68015   0.91771    0.000
 4684.00    0.64006   0.90946    0.000
 4685.00    0.70657   0.91236    0.000
 4686.00    0.83783   0.92260    0.000
 4687.00    0.92307   0.93200    0.000
 4688.00    0.98391   0.93578    0.000
 4689.00    0.97473   0.93296    0.000
 4690.00    0.93334   0.93109    0.000
 4691.00    1.04472   0.93516    0.000
 4692.00    1.21662   0.94127    0.000
 4693.00    1.12342   0.94731    0.000
 4694.00    0.94071   0.95196    0.000
 4695.00    1.08236   0.94879    0.000
 4696.00    1.31604   0.93242    0.000
 4697.00    1.31504   0.91310    0.000
 4698.00    1.25908   0.90829    0.000
 4699.00    0.98045   0.91507    0.000
 4700.00    0.65992   0.91776    0.000
 4701.00    0.66854   0.91530    0.000
 4702.00    0.72504   0.91504    0.000
 4703.00    0.61116   0.91769    0.000
 4704.00    0.47925   0.91958    0.000
 4705.00    0.64494   0.91937    0.000
 4706.00    0.83106   0.91722    0.000
 4707.00    0.72055   0.91471    0.000
 4708.00    0.59995   0.91748    0.000
 4709.00    0.82906   0.92581    0.000
 4710.00    1.04934   0.92109    0.000
 4711.00    0.96497   0.89828    0.000
 4712.00    0.88323   0.88488    0.000
 4713.00    0.84183   0.89553    0.000
 4714.00    0.80699   0.91324    0.000
 4715.00    0.83652   0.92740    0.000
 4716.00    0.86382   0.94007    0.000
 4717.00    0.87536   0.95128    0.000
 4718.00    0.92577   0.95886    0.000
 4719.00    1.18766   0.96000    0.000
 4720.00    1.32195   0.95469    0.000
 4721.00    0.90012   0.94949    0.000
 4722.00    0.62261   0.95195    0.000
 4723.00    0.86286   0.95844    0.000
 4724.00    1.05552   0.95636    0.000
 4725.00    1.10488   0.93942    0.000
 4726.00    1.08834   0.91786    0.000
 4727.00    0.90293   0.90662    0.000
 4728.00    0.77267   0.90729    0.000
 4729.00    0.76398   0.91306    0.000
 4730.00    0.83838   0.92061    0.000
 4731.00    1.07165   0.92775    0.000
 4732.00    1.10952   0.93271    0.000
 4733.00    0.82143   0.93631    0.000
 4734.00    0.72732   0.93520    0.000
 4735.00    0.91683   0.93046    0.000
 4736.00    1.06905   0.93254    0.000
 4737.00    1.17332   0.93951    0.000
 4738.00    1.12864   0.93905    0.000
 4739.00    0.91523   0.93132    0.000
 4740.00    0.73575   0.92732    0.000
 4741.00    0.59016   0.93182    0.000
 4742.00    0.58212   0.93774    0.000
 4743.00    0.69527   0.93895    0.000
 4744.00    0.71117   0.94070    0.000
 4745.00    0.65157   0.94555    0.000
 4746.00    0.69868   0.94767    0.000
 4747.00    0.81864   0.94671    0.000
 4748.00    0.95072   0.94598    0.000
 4749.00    1.09007   0.94370    0.000
 4750.00    1.19671   0.93802    0.000
 4751.00    1.28627   0.93271    0.000
 4752.00    1.24613   0.93029    0.000
 4753.00    1.14730   0.93013    0.000
 4754.00    1.01594   0.93062    0.000
 4755.00    0.87191   0.92969    0.000
 4756.00    0.90526   0.92763    0.000
 4757.00    0.99738   0.92682    0.000
 4758.00    0.85878   0.92676    0.000
 4759.00    0.65604   0.92160    0.000
 4760.00    0.51810   0.91000    0.000
 4761.00    0.39498   0.89968    0.007
 4762.00    0.52271   0.89371    0.007
 4763.00    0.69638   0.88767    0.007
 4764.00    0.61706   0.88260    0.007
 4765.00    0.50210   0.88467    0.007
 4766.00    0.64177   0.89378    0.007
 4767.00    0.80726   0.90443    0.007
 4768.00    1.23480   0.91102    0.007
 4769.00    1.67928   0.90942    0.007
 4770.00    1.38327   0.90342    0.007
 4771.00    1.06520   0.90283    0.007
 4772.00    0.91381   0.91048    0.007
 4773.00    0.77312   0.91879    0.007
 4774.00    0.94245   0.92153    0.007
 4775.00    1.10024   0.92172    0.007
 4776.00    1.09137   0.92103    0.007
 4777.00    1.05432   0.91620    0.007
 4778.00    0.75223   0.90998    0.007
 4779.00    0.52550   0.90663    0.007
 4780.00    0.81480   0.90314    0.007
 4781.00    1.03904   0.89719    0.007
 4782.00    0.91859   0.89480    0.007
 4783.00    0.85508   0.89797    0.007
 4784.00    1.03407   0.89833    0.007
 4785.00    1.16722   0.89483    0.007
 4786.00    1.13928   0.89367    0.007
 4787.00    1.11838   0.89423    0.007
 4788.00    1.11831   0.89562    0.007
 4789.00    1.05367   0.89885    0.007
 4790.00    0.82647   0.90373    0.007
 4791.00    0.69577   0.91237    0.007
 4792.00    0.77434   0.92464    0.007
 4793.00    0.78787   0.93356    0.007
 4794.00    0.67897   0.93340    0.007
 4795.00    0.68858   0.92602    0.007
 4796.00    0.89291   0.91573    0.007
 4797.00    0.96851   0.90582    0.007
 4798.00    0.85861   0.90168    0.007
 4799.00    0.82604   0.90651    0.007
 4800.00    0.89146   0.91425    0.007
 4801.00    0.95480   0.91690    0.007
 4802.00    1.01582   0.91264    0.007
 4803.00    1.08118   0.90424    0.007
 4804.00    1.15082   0.89661    0.007
 4805.00    1.16394   0.89165    0.007
 4806.00    1.12795   0.88866    0.007
 4807.00    1.16767   0.88960    0.007
 4808.00    1.26535   0.89432    0.007
 4809.00    1.11669   0.89803    0.007
 4810.00    0.80233   0.89689    0.007
 4811.00    0.74605   0.89307    0.007
 4812.00    0.84186   0.89150    0.007
 4813.00    0.87574   0.89353    0.007
 4814.00    0.87779   0.89837    0.007
 4815.00    0.92295   0.90572    0.007
 4816.00    0.98731   0.91086    0.007
 4817.00    1.01523   0.90933    0.007
 4818.00    1.02921   0.90594    0.007
 4819.00    0.96909   0.90633    0.007
 4820.00    0.88488   0.90474    0.007
 4821.00    1.01948   0.89401    0.007
 4822.00    1.21364   0.88430    0.007
 4823.00    1.09827   0.88828    0.007
 4824.00    0.91373   0.89856    0.007
 4825.00    0.64680   0.90040    0.007
 4826.00    0.36520   0.89144    0.007
 4827.00    0.52635   0.88317    0.007
 4828.00    0.74783   0.88440    0.007
 4829.00    0.85276   0.88663    0.007
 4830.00    0.94637   0.88201    0.007
 4831.00    0.97139   0.88121    0.007
 4832.00    0.99226   0.88987    0.007
 4833.00    0.97804   0.89753    0.007
 4834.00    0.96342   0.89832    0.007
 4835.00    1.04344   0.89688    0.007
 4836.00    1.11732   0.89436    0.007
 4837.00    1.03089   0.88789    0.007
 4838.00    0.93541   0.88125    0.007
 4839.00    0.71642   0.87996    0.007
 4840.00    0.53097   0.87959    0.007
 4841.00    0.64871   0.87447    0.007
 4842.00    0.74502   0.87191    0.007
 4843.00    0.69915   0.87879    0.007
 4844.00    0.67641   0.88622    0.007
 4845.00    0.77308   0.88262    0.007
 4846.00    0.85881   0.86917    0.007
 4847.00    0.89896   0.85782    0.007
 4848.00    0.92291   0.85558    0.000
 4849.00    0.89103   0.85525    0.000
 4850.00    0.84589   0.85059    0.000
 4851.00    0.76230   0.84242    0.000
 4852.00    0.75116   0.82669    0.000
 4853.00    0.91936   0.80179    0.000
 4854.00    1.06031   0.77926    0.000
 4855.00    1.14312   0.76529    0.000
 4856.00    1.16503   0.74630    0.000
 4857.00    1.07409   0.70652    0.000
 4858.00    1.06026   0.64464    0.000
 4859.00    1.17125   0.58636    0.000
 4860.00    1.13576   0.57622    0.000
 4861.00    0.89226   0.62230    0.000
 4862.00    0.82210   0.68259    0.000
 4863.00    0.96852   0.72826    0.000
 4864.00    1.10356   0.76251    0.000
 4865.00    1.22606   0.78842    0.000
 4866.00    1.24167   0.80599    0.000
 4867.00    1.15345   0.81848    0.000
 4868.00    1.19914   0.82178    0.000
 4869.00    1.35950   0.81287    0.000
 4870.00    1.35891   0.80825    0.000
 4871.00    1.23691   0.82126    0.000
 4872.00    1.26037   0.83921    0.000
 4873.00    1.38023   0.84807    0.000
 4874.00    1.26045   0.85317    0.000
 4875.00    1.00156   0.86118    0.007
 4876.00    0.84151   0.86977    0.007
 4877.00    0.73145   0.87803    0.007
 4878.00    0.70602   0.88083    0.007
 4879.00    0.71764   0.87270    0.007
 4880.00    0.67428   0.86488    0.007
 4881.00    0.61026   0.86721    0.007
 4882.00    0.70219   0.86953    0.007
 4883.00    0.84385   0.86236    0.007
 4884.00    0.80177   0.85328    0.007
 4885.00    0.71070   0.85318    0.007
 4886.00    0.95088   0.85980    0.007
 4887.00    1.26332   0.86134    0.007
 4888.00    1.12376   0.85067    0.007
 4889.00    0.90585   0.83722    0.007
 4890.00    0.81323   0.84175    0.007
 4891.00    0.73710   0.86531    0.007
 4892.00    0.93397   0.88924    0.007
 4893.00    1.15620   0.90477    0.007
 4894.00    1.07431   0.91248    0.007
 4895.00    0.97518   0.91402    0.007
 4896.00    0.87920   0.91082    0.007
 4897.00    0.78714   0.90098    0.007
 4898.00    1.11611   0.88840    0.007
 4899.00    1.42111   0.88398    0.007
 4900.00    1.15715   0.88559    0.007
 4901.00    0.92275   0.88323    0.007
 4902.00    1.07053   0.88112    0.007
 4903.00    1.19507   0.88796    0.007
 4904.00    1.11758   0.89734    0.007
 4905.00    1.05231   0.89833    0.007
 4906.00    1.06561   0.89113    0.007
 4907.00    1.01979   0.88114    0.007
 4908.00    0.67663   0.87261    0.007
 4909.00    0.43629   0.87145    0.007
 4910.00    0.61444   0.87796    0.007
 4911.00    0.76838   0.88520    0.007
 4912.00    0.84058   0.89091    0.007
 4913.00    0.92081   0.89750    0.007
 4914.00    1.02389   0.90070    0.007
 4915.00    1.11194   0.89206    0.007
 4916.00    1.16344   0.86966    0.007
 4917.00    1.15972   0.83958    0.007
 4918.00    1.04010   0.80900    0.007
 4919.00    0.92591   0.78373    0.007
 4920.00    0.82163   0.78014    0.007
 4921.00    0.70997   0.80089    0.007
 4922.00    0.58652   0.82461    0.007
 4923.00    0.64947   0.84063    0.007
 4924.00    0.97330   0.86147    0.007
 4925.00    1.17829   0.88595    0.007
 4926.00    1.23692   0.90207    0.007
 4927.00    1.05558   0.91120    0.007
 4928.00    0.61372   0.91550    0.007
 4929.00    0.65112   0.91392    0.007
 4930.00    1.14745   0.90530    0.007
 4931.00    1.36061   0.88830    0.007
 4932.00    1.33468   0.87452    0.007
 4933.00    1.15328   0.87763    0.007
 4934.00    0.85628   0.88593    0.007
 4935.00    0.77672   0.87959    0.007
 4936.00    0.83918   0.86085    0.007
 4937.00    0.85980   0.84870    0.007
 4938.00    0.85649   0.85386    0.007
 4939.00    0.90048   0.86795    0.007
 4940.00    0.96801   0.87673    0.000
 4941.00    0.95547   0.88269    0.000
 4942.00    0.90847   0.89192    0.000
 4943.00    0.85967   0.89815    0.000
 4944.00    0.81022   0.89849    0.000
 4945.00    0.85906   0.90045    0.000
 4946.00    0.93866   0.90520    0.000
 4947.00    1.02018   0.90883    0.000
 4948.00    1.10220   0.91256    0.000
 4949.00    0.86953   0.91636    0.000
 4950.00    0.56986   0.91435    0.000
 4951.00    0.61189   0.90331    0.000
 4952.00    0.71151   0.88663    0.000
 4953.00    0.54175   0.86718    0.000
 4954.00    0.33773   0.84371    0.000
 4955.00    0.51782   0.81779    0.000
 4956.00    0.73199   0.80568    0.000
 4957.00    0.89015   0.81998    0.000
 4958.00    1.04534   0.84472    0.000
 4959.00    1.10956   0.85804    0.000
 4960.00    1.17156   0.85912    0.000
 4961.00    1.19611   0.85749    0.000
 4962.00    1.21207   0.85374    0.000
 4963.00    1.04114   0.84442    0.000
 4964.00    0.88271   0.83510    0.000
 4965.00    0.87777   0.83267    0.000
 4966.00    0.88342   0.83549    0.000
 4967.00    0.97777   0.84084    0.000
 4968.00    1.04060   0.84674    0.000
 4969.00    0.90661   0.85225    0.000
 4970.00    0.78386   0.85834    0.000
 4971.00    0.71621   0.86394    0.000
 4972.00    0.66345   0.86810    0.000
 4973.00    0.67001   0.86978    0.000
 4974.00    0.63849   0.86758    0.000
 4975.00    0.48101   0.86148    0.000
 4976.00    0.38492   0.85203    0.000
 4977.00    0.46041   0.84335    0.000
 4978.00    0.59287   0.83812    0.000
 4979.00    0.86156   0.82938    0.000
 4980.00    1.03721   0.81354    0.000
 4981.00    1.02063   0.80236    0.000
 4982.00    1.04438   0.80599    0.000
 4983.00    1.14057   0.81802    0.000
 4984.00    1.19004   0.82962    0.000
 4985.00    1.16612   0.84086    0.000
 4986.00    1.11484   0.84950    0.000
 4987.00    1.02584   0.85029    0.000
 4988.00    1.03259   0.84443    0.000
 4989.00    1.15560   0.83883    0.000
 4990.00    1.21086   0.84019    0.000
 4991.00    1.19359   0.84318    0.000
 4992.00    1.09394   0.84119    0.000
 4993.00    0.91650   0.84152    0.000
 4994.00    0.93147   0.84745    0.000
 4995.00    1.10659   0.85052    0.000
 4996.00    1.07935   0.84564    0.000
 4997.00    0.90381   0.83213    0.000
 4998.00    0.91981   0.81263    0.000
 4999.00    1.05907   0.79753    0.000
 5000.00    1.03588   0.79503    0.000
 5001.00    0.92124   0.80232    0.000
 5002.00    0.79650   0.80509    0.000
 5003.00    0.66680   0.79677    0.000
 5004.00    0.89594   0.78674    0.000
 5005.00    1.27703   0.78862    0.000
 5006.00    1.24012   0.80372    0.000
 5007.00    1.05166   0.81800    0.000
 5008.00    0.97039   0.82091    0.000
 5009.00    0.92200   0.81532    0.000
 5010.00    0.96786   0.80493    0.000
 5011.00    1.03778   0.79034    0.000
 5012.00    1.09681   0.77275    0.000
 5013.00    1.15359   0.75697    0.000
 5014.00    0.82282   0.75781    0.000
 5015.00    0.42861   0.77629    0.000
 5016.00    0.53421   0.79551    0.000
 5017.00    0.70115   0.80669    0.000
 5018.00    0.75686   0.81325    0.000
 5019.00    0.80315   0.81413    0.000
 5020.00    0.92188   0.80896    0.000
 5021.00    1.04414   0.80786    0.000
 5022.00    1.02753   0.81529    0.000
 5023.00    1.00940   0.82215    0.000
 5024.00    1.02878   0.82191    0.000
 5025.00    1.04158   0.81652    0.000
 5026.00    0.92228   0.81441    0.000
 5027.00    0.82484   0.82193    0.000
 5028.00    0.98270   0.83182    0.000
 5029.00    1.11999   0.83729    0.007
 5030.00    1.09118   0.84204    0.007
 5031.00    1.06734   0.84862    0.007
 5032.00    1.07372   0.84932    0.007
 5033.00    1.07876   0.83629    0.007
 5034.00    1.07738   0.81892    0.007
 5035.00    1.09978   0.81384    0.007
 5036.00    1.21480   0.81539    0.007
 5037.00    1.21254   0.80553    0.007
 5038.00    0.82988   0.78225    0.007
 5039.00    0.63005   0.76476    0.007
 5040.00    0.93208   0.77355    0.007
 5041.00    1.09621   0.80279    0.007
 5042.00    0.93606   0.82773    0.007
 5043.00    0.84402   0.84166    0.007
 5044.00    0.89045   0.84736    0.007
 5045.00    0.89114   0.83913    0.007
 5046.00    0.81088   0.82055    0.007
 5047.00    0.87115   0.80791    0.007
 5048.00    1.14898   0.80721    0.007
 5049.00    1.25109   0.80995    0.007
 5050.00    1.11431   0.81333    0.007
 5051.00    1.01667   0.82028    0.007
 5052.00    0.96589   0.82846    0.007
 5053.00    0.92263   0.82995    0.007
 5054.00    0.88731   0.82705    0.007
 5055.00    1.03826   0.83018    0.007
 5056.00    1.36261   0.84071    0.007
 5057.00    1.37913   0.84837    0.007
 5058.00    1.14304   0.85216    0.007
 5059.00    1.00768   0.85688    0.007
 5060.00    0.94507   0.85814    0.007
 5061.00    1.01508   0.84823    0.006
 5062.00    1.16917   0.82764    0.006
 5063.00    1.20782   0.81047    0.007
 5064.00    1.18247   0.80960    0.007
 5065.00    1.01028   0.81638    0.007
 5066.00    0.76731   0.81816    0.006
 5067.00    0.75138   0.81960    0.006
 5068.00    0.82998   0.82582    0.006
 5069.00    0.96135   0.82786    0.006
 5070.00    1.11152   0.82129    0.006
 5071.00    1.06490   0.81748    0.007
 5072.00    0.95909   0.82182    0.007
 5073.00    0.97982   0.82463    0.007
 5074.00    1.03214   0.82322    0.007
 5075.00    0.99458   0.82336    0.007
 5076.00    0.93879   0.81992    0.006
 5077.00    0.97520   0.80364    0.007
 5078.00    1.02626   0.78617    0.007
 5079.00    0.90954   0.78420    0.007
 5080.00    0.77298   0.79230    0.007
 5081.00    0.68918   0.79817    0.006
 5082.00    0.60962   0.80324    0.006
 5083.00    0.55867   0.81158    0.006
 5084.00    0.50900   0.81843    0.006
 5085.00    0.70028   0.82079    0.006
 5086.00    0.88747   0.82248    0.006
 5087.00    0.72859   0.82560    0.006
 5088.00    0.58393   0.82655    0.006
 5089.00    0.70363   0.82588    0.006
 5090.00    0.80522   0.82946    0.006
 5091.00    0.70512   0.83679    0.006
 5092.00    0.63424   0.83899    0.006
 5093.00    0.79102   0.83234    0.006
 5094.00    0.90985   0.82292    0.007
 5095.00    0.80505   0.81442    0.007
 5096.00    0.73358   0.80424    0.007
 5097.00    0.81760   0.79401    0.007
 5098.00    0.87833   0.79382    0.007
 5099.00    0.85026   0.80534    0.007
 5100.00    0.81615   0.81586    0.006
 5101.00    0.76282   0.81696    0.006
 5102.00    0.70154   0.81264    0.006
 5103.00    0.61883   0.80984    0.006
 5104.00    0.57364   0.80789    0.006
 5105.00    0.61523   0.80314    0.007
 5106.00    0.68296   0.79873    0.007
 5107.00    0.80300   0.79735    0.007
 5108.00    0.92020   0.79627    0.007
 5109.00    1.03245   0.79844    0.007
 5110.00    1.05671   0.80476    0.007
 5111.00    0.94675   0.80904    0.007
 5112.00    0.89924   0.81273    0.007
 5113.00    0.93539   0.81982    0.007
 5114.00    1.01271   0.82833    0.007
 5115.00    1.13862   0.83622    0.007
 5116.00    1.19665   0.84022    0.007
 5117.00    1.18407   0.83676    0.007
 5118.00    1.09186   0.82728    0.007
 5119.00    0.92659   0.81467    0.007
 5120.00    0.71827   0.80082    0.007
 5121.00    0.47511   0.78717    0.007
 5122.00    0.51280   0.77950    0.007
 5123.00    0.75041   0.78153    0.007
 5124.00    0.80733   0.78460    0.007
 5125.00    0.75136   0.78191    0.007
 5126.00    0.75380   0.77920    0.007
 5127.00    0.78812   0.78216    0.007
 5128.00    0.75060   0.78925    0.007
 5129.00    0.67900   0.79803    0.007
 5130.00    0.70014   0.80308    0.007
 5131.00    0.75923   0.80302    0.007
 5132.00    0.91630   0.80678    0.007
 5133.00    1.10763   0.81731    0.007
 5134.00    1.23825   0.82156    0.007
 5135.00    1.35098   0.81357    0.007
 5136.00    1.15948   0.80124    0.007
 5137.00    0.89367   0.79317    0.007
 5138.00    0.87127   0.79609    0.007
 5139.00    0.89696   0.80266    0.007
 5140.00    0.79216   0.79654    0.007
 5141.00    0.66724   0.78497    0.007
 5142.00    0.59818   0.78244    0.006
 5143.00    0.53548   0.78338    0.006
 5144.00    0.65605   0.78107    0.006
 5145.00    0.79060   0.78099    0.006
 5146.00    0.84677   0.78547    0.006
 5147.00    0.89970   0.79083    0.007
 5148.00    0.82584   0.78943    0.006
 5149.00    0.75067   0.78079    0.006
 5150.00    0.66387   0.77378    0.006
 5151.00    0.58570   0.77329    0.006
 5152.00    0.65709   0.77758    0.006
 5153.00    0.72645   0.78543    0.006
 5154.00    0.77427   0.79802    0.006
 5155.00    0.80271   0.81311    0.006
 5156.00    0.68529   0.82393    0.006
 5157.00    0.59175   0.82494    0.006
 5158.00    0.63492   0.82321    0.006
 5159.00    0.70153   0.82365    0.006
 5160.00    0.87493   0.82047    0.006
 5161.00    1.03719   0.81337    0.006
 5162.00    1.15785   0.80346    0.007
 5163.00    1.26445   0.78214    0.007
 5164.00    1.32717   0.74645    0.007
 5165.00    1.30750   0.71016    0.007
 5166.00    1.06965   0.69183    0.007
 5167.00    0.83255   0.69748    0.007
 5168.00    0.59717   0.71263    0.007
 5169.00    0.49448   0.71362    0.007
 5170.00    0.65304   0.69667    0.007
 5171.00    0.77716   0.68693    0.007
 5172.00    0.84218   0.70284    0.007
 5173.00    0.82621   0.72999    0.007
 5174.00    0.68850   0.74816    0.007
 5175.00    0.62306   0.75671    0.007
 5176.00    0.65307   0.76153    0.007
 5177.00    0.70043   0.76149    0.007
 5178.00    0.76798   0.75584    0.007
 5179.00    0.80634   0.74474    0.006
 5180.00    0.81476   0.72472    0.006
 5181.00    0.78329   0.69989    0.006
 5182.00    0.71572   0.69096    0.006
 5183.00    0.73223   0.71119    0.006
 5184.00    0.81579   0.74474    0.006
 5185.00    0.73759   0.76834    0.006
 5186.00    0.54590   0.77702    0.006
 5187.00    0.41599   0.77990    0.006
 5188.00    0.32411   0.77963    0.006
 5189.00    0.40274   0.76717    0.006
 5190.00    0.57303   0.74696    0.000
 5191.00    0.74851   0.73851    0.000
 5192.00    0.92643   0.74553    0.000
 5193.00    0.84025   0.75557    0.000
 5194.00    0.64783   0.76509    0.000
 5195.00    0.64260   0.77586    0.000
 5196.00    0.70161   0.78445    0.000
 5197.00    0.76306   0.78869    0.000
 5198.00    0.82523   0.78714    0.000
 5199.00    0.86401   0.78135    0.000
 5200.00    0.89722   0.77551    0.000
 5201.00    0.97214   0.76932    0.000
 5202.00    1.05509   0.75477    0.000
 5203.00    1.04913   0.73301    0.000
 5204.00    1.02988   0.71821    0.000
 5205.00    0.86558   0.71529    0.000
 5206.00    0.68540   0.71538    0.000
 5207.00    0.69952   0.71795    0.000
 5208.00    0.72767   0.72917    0.000
 5209.00    0.93338   0.74691    0.000
 5210.00    1.14571   0.76573    0.000
 5211.00    0.95241   0.78177    0.006
 5212.00    0.76813   0.78988    0.006
 5213.00    0.98038   0.78636    0.006
 5214.00    1.16847   0.77829    0.006
 5215.00    0.96457   0.77823    0.006
 5216.00    0.75968   0.78749    0.006
 5217.00    0.54466   0.79782    0.006
 5218.00    0.36402   0.80438    0.006
 5219.00    0.43351   0.80785    0.006
 5220.00    0.49769   0.80639    0.006
 5221.00    0.53233   0.79580    0.006
 5222.00    0.57505   0.77671    0.006
 5223.00    0.65373   0.75461    0.006
 5224.00    0.73997   0.73606    0.006
 5225.00    0.85377   0.73164    0.006
 5226.00    0.92261   0.75013    0.006
 5227.00    0.85379   0.77991    0.006
 5228.00    0.80566   0.80099    0.006
 5229.00    0.81135   0.80816    0.006
 5230.00    0.79421   0.80209    0.006
 5231.00    0.72600   0.78770    0.007
 5232.00    0.71069   0.77890    0.007
 5233.00    0.79795   0.78366    0.006
 5234.00    0.84175   0.79797    0.006
 5235.00    0.81210   0.81201    0.006
 5236.00    0.83196   0.81743    0.006
 5237.00    0.92513   0.81376    0.006
 5238.00    1.06965   0.80740    0.006
 5239.00    1.28103   0.80393    0.006
 5240.00    1.31378   0.80280    0.006
 5241.00    1.14167   0.80353    0.006
 5242.00    1.05415   0.80833    0.006
 5243.00    1.05218   0.80966    0.006
 5244.00    0.96979   0.79419    0.007
 5245.00    0.81565   0.77117    0.006
 5246.00    0.87720   0.76322    0.007
 5247.00    1.10830   0.76751    0.007
 5248.00    0.98184   0.76627    0.007
 5249.00    0.60815   0.76326    0.007
 5250.00    0.82292   0.77018    0.007
 5251.00    1.39442   0.78094    0.007
 5252.00    1.36824   0.78297    0.007
 5253.00    1.02577   0.77929    0.007
 5254.00    0.94810   0.78543    0.007
 5255.00    0.99204   0.80329    0.007
 5256.00    0.92749   0.81825    0.007
 5257.00    0.82005   0.82008    0.007
 5258.00    0.93936   0.80995    0.007
 5259.00    1.13505   0.79377    0.007
 5260.00    0.94806   0.77466    0.007
 5261.00    0.65276   0.75334    0.007
 5262.00    0.77335   0.73439    0.007
 5263.00    0.99102   0.72275    0.007
 5264.00    0.77415   0.72309    0.007
 5265.00    0.47580   0.73528    0.007
 5266.00    0.74973   0.74012    0.007
 5267.00    1.10657   0.72202    0.007
 5268.00    1.16615   0.70491    0.007
 5269.00    1.19445   0.71785    0.007
 5270.00    0.99505   0.74840    0.007
 5271.00    0.78012   0.76961    0.007
 5272.00    0.53978   0.77576    0.007
 5273.00    0.29859   0.77381    0.007
 5274.00    0.58321   0.77584    0.007
 5275.00    0.86044   0.79109    0.007
 5276.00    0.88244   0.80971    0.007
 5277.00    0.89414   0.81612    0.007
 5278.00    0.74907   0.80855    0.007
 5279.00    0.62218   0.79460    0.007
 5280.00    0.67264   0.78145    0.007
 5281.00    0.71766   0.77351    0.006
 5282.00    0.72436   0.77631    0.006
 5283.00    0.73296   0.79410    0.006
 5284.00    0.75189   0.81724    0.006
 5285.00    0.75862   0.82902    0.006
 5286.00    0.71239   0.82651    0.006
 5287.00    0.69388   0.82124    0.006
 5288.00    0.77457   0.82152    0.006
 5289.00    0.86088   0.82403    0.006
 5290.00    0.96402   0.82288    0.006
 5291.00    1.01538   0.81904    0.006
 5292.00    0.93434   0.81652    0.007
 5293.00    0.91599   0.81085    0.007
 5294.00    1.03556   0.79310    0.007
 5295.00    1.04944   0.76725    0.006
 5296.00    0.86167   0.75266    0.007
 5297.00    0.78180   0.76010    0.007
 5298.00    0.88156   0.77565    0.007
 5299.00    0.90901   0.78243    0.007
 5300.00    0.83094   0.78573    0.007
 5301.00    0.70402   0.79736    0.006
 5302.00    0.51440   0.81558    0.006
 5303.00    0.54594   0.82825    0.006
 5304.00    0.82754   0.82718    0.006
 5305.00    0.84830   0.81796    0.006
 5306.00    0.60892   0.81379    0.006
 5307.00    0.45775   0.81837    0.006
 5308.00    0.38416   0.82319    0.007
 5309.00    0.49885   0.82231    0.007
 5310.00    0.75944   0.81780    0.007
 5311.00    0.83100   0.81327    0.007
 5312.00    0.77374   0.81097    0.006
 5313.00    0.86055   0.80964    0.006
 5314.00    1.03339   0.80645    0.007
 5315.00    0.93654   0.80330    0.007
 5316.00    0.69920   0.80307    0.007
 5317.00    0.66147   0.80293    0.007
 5318.00    0.71391   0.80075    0.007
 5319.00    0.89222   0.79944    0.007
 5320.00    1.11942   0.79792    0.007
 5321.00    1.19164   0.79160    0.007
 5322.00    1.21263   0.78314    0.007
 5323.00    0.96966   0.78101    0.007
 5324.00    0.65349   0.77770    0.006
 5325.00    0.74642   0.75548    0.006
 5326.00    0.93267   0.72314    0.006
 5327.00    0.84806   0.71475    0.007
 5328.00    0.71402   0.73880    0.007
 5329.00    0.81429   0.76843    0.006
 5330.00    0.94743   0.78311    0.006
 5331.00    0.79402   0.78810    0.006
 5332.00    0.61170   0.79583    0.006
 5333.00    0.79452   0.80508    0.006
 5334.00    1.00076   0.80761    0.006
 5335.00    0.99486   0.80431    0.006
 5336.00    0.98330   0.79897    0.006
 5337.00    1.24363   0.78775    0.006
 5338.00    1.48393   0.77044    0.006
 5339.00    1.15162   0.76107    0.006
 5340.00    0.84025   0.76915    0.006
 5341.00    0.82913   0.78341    0.006
 5342.00    0.81836   0.78969    0.006
 5343.00    0.81085   0.78473    0.006
 5344.00    0.83195   0.77896    0.006
 5345.00    1.04807   0.77999    0.006
 5346.00    1.19564   0.77980    0.006
 5347.00    0.98124   0.77478    0.006
 5348.00    0.76451   0.77767    0.006
 5349.00    0.53785   0.79307    0.006
 5350.00    0.42899   0.80930    0.006
 5351.00    0.73304   0.81842    0.006
 5352.00    0.96926   0.82487    0.006
 5353.00    1.00554   0.83149    0.006
 5354.00    1.01631   0.83455    0.006
 5355.00    0.96302   0.83429    0.006
 5356.00    0.93767   0.83318    0.006
 5357.00    0.97280   0.83056    0.006
 5358.00    1.02555   0.82454    0.006
 5359.00    1.11139   0.81464    0.006
 5360.00    1.08465   0.80480    0.006
 5361.00    0.87326   0.79993    0.006
 5362.00    0.73287   0.79770    0.006
 5363.00    0.69462   0.79464    0.006
 5364.00    0.76199   0.79284    0.006
 5365.00    0.96299   0.79284    0.006
 5366.00    1.00343   0.79065    0.006
 5367.00    0.86487   0.77983    0.006
 5368.00    0.67988   0.75938   -2.000
 5369.00    0.44922   0.74272   -2.000
 5370.00    0.38927   0.74771   -2.000
 5371.00    0.47735   0.77358   -2.000
 5372.00    0.74737   0.80027   -2.000
 5373.00    1.15637   0.81288   -2.000
 5374.00    1.27143   0.81191   -2.000
 5375.00    1.18911   0.80795   -2.000
 5376.00    1.02647   0.81051   -2.000
 5377.00    0.81659   0.81587   -2.000
 5378.00    0.89641   0.81481   -2.000
 5379.00    1.12478   0.80779   -2.000
 5380.00    0.98366   0.80076   -2.000
 5381.00    0.67836   0.79619   -2.000
 5382.00    0.76236   0.79638   -2.000
 5383.00    0.99495   0.80090    0.006
 5384.00    0.89096   0.80430    0.006
 5385.00    0.67779   0.80397    0.006
 5386.00    0.83204   0.79988    0.006
 5387.00    1.08605   0.79090    0.006
 5388.00    1.05707   0.77988    0.006
 5389.00    0.96504   0.77376    0.006
 5390.00    0.90563   0.77436    0.006
 5391.00    0.85201   0.77683    0.006
 5392.00    0.70947   0.77662    0.006
 5393.00    0.55485   0.77132    0.006
 5394.00    0.78003   0.75825    0.006
 5395.00    1.04191   0.74560    0.006
 5396.00    1.00933   0.75115    0.006
 5397.00    0.95903   0.77071    0.006
 5398.00    0.98040   0.78296    0.006
 5399.00    1.00398   0.78471    0.006
 5400.00    1.08539   0.78512    0.006
 5401.00    1.15801   0.78040    0.006
 5402.00    1.00398   0.76244    0.006
 5403.00    0.84532   0.73921    0.006
 5404.00    0.62390   0.72926    0.006
 5405.00    0.44637   0.73822    0.006
 5406.00    0.66352   0.74916    0.006
 5407.00    0.84350   0.74587    0.006
 5408.00    0.77780   0.73729    0.006
 5409.00    0.71228   0.74280    0.006
 5410.00    0.64772   0.76161    0.006
 5411.00    0.65385   0.77839    0.006
 5412.00    0.95341   0.78634    0.006
 5413.00    1.13080   0.79107    0.006
 5414.00    0.88853   0.79918    0.006
 5415.00    0.68944   0.80804    0.006
 5416.00    0.61529   0.81031    0.006
 5417.00    0.65168   0.80444    0.006
 5418.00    0.96106   0.79625    0.006
 5419.00    1.11114   0.79364    0.006
 5420.00    0.92206   0.79685    0.006
 5421.00    0.79025   0.79565    0.006
 5422.00    0.76438   0.78818    0.006
 5423.00    0.70540   0.78740    0.006
 5424.00    0.59294   0.79792    0.006
 5425.00    0.53750   0.80680    0.006
 5426.00    0.56287   0.79721    0.006
 5427.00    0.61539   0.77087    0.006
 5428.00    0.70176   0.75418    0.006
 5429.00    0.79336   0.75908    0.006
 5430.00    0.89071   0.76484    0.006
 5431.00    0.96629   0.75861    0.006
 5432.00    1.02076   0.74967    0.006
 5433.00    1.01522   0.74807    0.006
 5434.00    0.95837   0.75510    0.006
 5435.00    0.96625   0.76851    0.006
 5436.00    1.02287   0.78555    0.006
 5437.00    1.11725   0.80179    0.006
 5438.00    1.23661   0.81302    0.006
 5439.00    1.11191   0.81841    0.006
 5440.00    0.84580   0.82035    0.006
 5441.00    0.78023   0.82008    0.006
 5442.00    0.81588   0.81283    0.006
 5443.00    0.93824   0.79190    0.006
 5444.00    1.09848   0.76101    0.006
 5445.00    0.99966   0.73798    0.006
 5446.00    0.80368   0.73654    0.006
 5447.00    0.79343   0.74789    0.006
 5448.00    0.84228   0.75603    0.006
 5449.00    0.82580   0.75628    0.006
 5450.00    0.79196   0.75140    0.006
 5451.00    0.73555   0.74246    0.006
 5452.00    0.67423   0.72954    0.006
 5453.00    0.77713   0.71672    0.006
 5454.00    0.90839   0.71568    0.006
 5455.00    1.00529   0.73039    0.006
 5456.00    1.09769   0.74929    0.006
 5457.00    1.00580   0.75850    0.006
 5458.00    0.89688   0.75588    0.006
 5459.00    0.84313   0.74907    0.006
 5460.00    0.79249   0.74327    0.006
 5461.00    0.90155   0.74008    0.006
 5462.00    1.01251   0.74289    0.006
 5463.00    0.94837   0.74933    0.006
 5464.00    0.88392   0.75280    0.006
 5465.00    0.81220   0.75546    0.006
 5466.00    0.74825   0.75974    0.006
 5467.00    0.78402   0.75993    0.006
 5468.00    0.81285   0.75449    0.006
 5469.00    0.78165   0.75024    0.006
 5470.00    0.76296   0.74772    0.006
 5471.00    0.82441   0.74228    0.006
 5472.00    0.87927   0.73730    0.006
 5473.00    0.90111   0.73426    0.006
 5474.00    0.94296   0.72684    0.006
 5475.00    1.06606   0.72143    0.006
 5476.00    1.14450   0.73102    0.006
 5477.00    1.07262   0.74691    0.006
 5478.00    0.95301   0.75014   -2.000
 5479.00    0.69785   0.74034   -2.000
 5480.00    0.58355   0.73478   -2.000
 5481.00    0.81122   0.74246   -2.000
 5482.00    0.89398   0.75682   -2.000
 5483.00    0.67320   0.76734   -2.000
 5484.00    0.61000   0.76677   -2.000
 5485.00    0.83380   0.75739   -2.000
 5486.00    1.49582   0.75085   -2.000
 5487.00    2.85540   0.75213   -2.000
 5488.00    3.56634   0.75526   -2.000
 5489.00    3.37115   0.75839   -2.000
 5490.00    2.83632   0.76159   -2.000
 5491.00    1.88394   0.76085   -2.000
 5492.00    0.95060   0.75815   -2.000
 5493.00    0.03788   0.75749   -2.000
 5494.00   -0.16956   0.75440   -2.000
 5495.00    0.29715   0.74721   -2.000
 5496.00    0.59422   0.74608   -2.000
 5497.00    0.74829   0.75337   -2.000
 5498.00    0.77611   0.75565   -2.000
 5499.00    0.71023   0.74727   -2.000
 5500.00    0.63816   0.73941   -2.000
 5501.00    0.56205   0.73978   -2.000
 5502.00    0.55322   0.74294    0.006
 5503.00    0.58278   0.74055    0.005
 5504.00    0.66318   0.73302    0.005
 5505.00    0.76884   0.73146    0.006
 5506.00    0.81369   0.74046    0.006
 5507.00    0.83242   0.74885    0.006
 5508.00    0.76157   0.74841    0.006
 5509.00    0.65774   0.74035    0.006
 5510.00    0.75571   0.72916    0.006
 5511.00    0.91665   0.72173    0.006
 5512.00    0.94240   0.72117    0.006
 5513.00    0.93297   0.72542    0.006
 5514.00    0.85185   0.73340    0.006
 5515.00    0.75552   0.74513    0.006
 5516.00    0.86357   0.75907    0.006
 5517.00    1.00593   0.76935    0.006
 5518.00    0.93134   0.77148    0.006
 5519.00    0.82927   0.76906    0.006
 5520.00    0.87954   0.76746    0.006
 5521.00    0.94325   0.76714    0.006
 5522.00    0.95998   0.76568    0.006
 5523.00    0.97426   0.76114    0.006
 5524.00    0.83583   0.75301    0.006
 5525.00    0.69664   0.74210    0.006
 5526.00    0.71598   0.73389    0.006
 5527.00    0.74453   0.73726    0.006
 5528.00    0.97119   0.75027    0.006
 5529.00    1.17090   0.76017    0.006
 5530.00    1.04196   0.76098    0.006
 5531.00    0.91039   0.75687    0.006
 5532.00    0.75694   0.75182    0.006
 5533.00    0.62118   0.74802    0.006
 5534.00    0.59547   0.74876    0.006
 5535.00    0.59183   0.75255    0.006
 5536.00    0.69604   0.75531    0.006
 5537.00    0.76006   0.75937    0.006
 5538.00    0.66454   0.76674    0.006
 5539.00    0.59331   0.77218    0.006
 5540.00    0.60227   0.77022    0.006
 5541.00    0.60469   0.76345    0.005
 5542.00    0.58890   0.75897    0.005
 5543.00    0.58678   0.75777    0.005
 5544.00    0.61730   0.75718    0.005
 5545.00    0.65900   0.75999    0.005
 5546.00    0.72376   0.76777    0.005
 5547.00    0.76566   0.77456    0.005
 5548.00    0.76657   0.77617    0.005
 5549.00    0.79104   0.77411    0.005
 5550.00    0.85244   0.76957    0.005
 5551.00    0.85129   0.76299    0.005
 5552.00    0.76404   0.75711    0.005
 5553.00    0.68613   0.75466    0.005
 5554.00    0.61953   0.75423    0.005
 5555.00    0.58491   0.75306    0.005
 5556.00    0.58447   0.75248    0.005
 5557.00    0.65728   0.75397    0.005
 5558.00    0.79914   0.75463    0.006
 5559.00    0.79110   0.75216    0.006
 5560.00    0.65851   0.74802    0.006
 5561.00    0.69514   0.74518    0.006
 5562.00    0.85558   0.74404    0.006
 5563.00    0.87261   0.74153    0.006
 5564.00    0.79754   0.73779    0.006
 5565.00    0.78478   0.73728    0.006
 5566.00    0.80704   0.73945    0.006
 5567.00    0.84998   0.74066    0.006
 5568.00    0.90303   0.74270    0.006
 5569.00    0.87083   0.74604    0.006
 5570.00    0.80261   0.74435    0.006
 5571.00    0.75753   0.74008    0.006
 5572.00    0.72083   0.74256    0.006
 5573.00    0.68564   0.74841    0.006
 5574.00    0.65090   0.75078    0.006
 5575.00    0.57435   0.75155    0.006
 5576.00    0.48716   0.75174    0.006
 5577.00    0.54300   0.75150    0.006
 5578.00    0.62845   0.75265    0.006
 5579.00    0.75708   0.75212    0.006
 5580.00    0.89275   0.74833    0.006
 5581.00    0.83278   0.74553    0.006
 5582.00    0.74892   0.74315    0.006
 5583.00    0.72294   0.73676    0.005
 5584.00    0.70183   0.72524    0.005
 5585.00    0.73957   0.71188    0.005
 5586.00    0.78015   0.70318    0.005
 5587.00    0.77365   0.70344    0.005
 5588.00    0.76552   0.71133    0.005
 5589.00    0.70319   0.72040    0.005
 5590.00    0.65360   0.72459    0.005
 5591.00    0.85707   0.72489    0.005
 5592.00    1.04634   0.72666    0.006
 5593.00    1.07074   0.73435    0.006
 5594.00    1.09408   0.74346    0.006
 5595.00    1.10897   0.74060    0.006
 5596.00    1.12001   0.72447    0.005
 5597.00    1.10787   0.71065    0.006
 5598.00    1.05481   0.70673    0.006
 5599.00    0.80672   0.70669    0.006
 5600.00    0.60142   0.70689    0.006
 5601.00    0.56235   0.71012    0.006
 5602.00    0.57998   0.71854    0.006
 5603.00    0.78105   0.72928    0.006
 5604.00    0.92198   0.73883    0.006
 5605.00    0.89822   0.74523    0.006
 5606.00    0.89422   0.74765    0.006
 5607.00    0.93660   0.74663    0.005
 5608.00    0.91465   0.74530    0.006
 5609.00    0.76221   0.74713    0.006
 5610.00    0.63046   0.75099    0.006
 5611.00    0.53525   0.74903    0.006
 5612.00    0.52066   0.73374    0.006
 5613.00    0.63064   0.71162    0.006
 5614.00    0.75218   0.70141    0.005
 5615.00    0.88940   0.70810    0.005
 5616.00    0.94606   0.71722    0.006
 5617.00    0.90647   0.71949    0.006
 5618.00    0.80697   0.72001    0.006
 5619.00    0.64436   0.72480    0.005
 5620.00    0.57130   0.72951    0.005
 5621.00    0.58143   0.72509    0.005
 5622.00    0.63873   0.71211    0.005
 5623.00    0.73465   0.70384    0.005
 5624.00    0.78654   0.70850    0.005
 5625.00    0.80667   0.71813    0.005
 5626.00    0.77818   0.72373    0.005
 5627.00    0.71891   0.72591    0.005
 5628.00    0.69263   0.72771    0.005
 5629.00    0.68460   0.73009    0.005
 5630.00    0.75790   0.73253    0.005
 5631.00    0.87035   0.73366    0.005
 5632.00    0.87201   0.73203    0.005
 5633.00    0.82764   0.72703    0.005
 5634.00    0.85445   0.71993    0.005
 5635.00    0.90654   0.71418    0.005
 5636.00    0.90199   0.71183    0.005
 5637.00    0.88045   0.71033    0.005
 5638.00    0.78039   0.70739    0.005
 5639.00    0.66078   0.70517    0.005
 5640.00    0.64124   0.70756    0.005
 5641.00    0.64191   0.71229    0.005
 5642.00    0.66452   0.71537    0.005
 5643.00    0.69060   0.71696    0.005
 5644.00    0.74056   0.71831    0.005
 5645.00    0.79333   0.71959    0.005
 5646.00    0.75996   0.72051    0.005
 5647.00    0.71971   0.72186    0.005
 5648.00    0.75800   0.72585    0.005
 5649.00    0.79979   0.73279    0.005
 5650.00    0.91708   0.73941    0.005
 5651.00    1.03071   0.74103    0.005
 5652.00    0.92387   0.73653    0.005
 5653.00    0.82152   0.73150    0.005
 5654.00    0.80201   0.72910    0.005
 5655.00    0.79025   0.72092    0.005
 5656.00    0.86441   0.70512    0.005
 5657.00    0.91770   0.69802    0.005
 5658.00    0.80917   0.70554    0.005
 5659.00    0.69562   0.71090    0.005
 5660.00    0.55262   0.70686    0.005
 5661.00    0.46277   0.70505    0.005
 5662.00    0.62017   0.71185    0.005
 5663.00    0.72723   0.71900    0.005
 5664.00    0.64290   0.71938    0.005
 5665.00    0.62039   0.71469    0.005
 5666.00    0.79404   0.71074    0.005
 5667.00    0.94104   0.71123    0.005
 5668.00    1.01638   0.71393    0.005
 5669.00    1.05107   0.71765    0.005
 5670.00    0.99198   0.72473    0.005
 5671.00    0.91421   0.73356    0.005
 5672.00    0.79913   0.73702    0.005
 5673.00    0.74903   0.73444    0.005
 5674.00    0.81190   0.73356    0.005
 5675.00    0.85242   0.73582    0.005
 5676.00    0.85892   0.73437    0.005
 5677.00    0.87046   0.72883    0.005
 5678.00    0.88877   0.72576    0.005
 5679.00    0.87713   0.72519    0.005
 5680.00    0.83024   0.72276    0.005
 5681.00    0.75649   0.72151    0.005
 5682.00    0.65485   0.72619    0.005
 5683.00    0.63111   0.73005    0.005
 5684.00    0.67873   0.72578    0.005
 5685.00    0.65320   0.71719    0.005
 5686.00    0.56859   0.71365    0.005
 5687.00    0.55141   0.71831    0.005
 5688.00    0.58216   0.72748    0.005
 5689.00    0.62077   0.73656    0.005
 5690.00    0.66429   0.74353    0.005
 5691.00    0.75649   0.74602    0.005
 5692.00    0.87521   0.74190    0.005
 5693.00    0.93308   0.73378    0.005
 5694.00    0.96214   0.72764    0.005
 5695.00    1.04930   0.72464    0.005
 5696.00    1.16018   0.72230    0.006
 5697.00    1.12235   0.72053    0.006
 5698.00    1.03264   0.71842    0.006
 5699.00    0.89366   0.71398    0.006
 5700.00    0.74019   0.71040    0.006
 5701.00    0.71421   0.71283    0.005
 5702.00    0.71928   0.71947    0.005
 5703.00    0.69277   0.72240    0.005
 5704.00    0.66003   0.71718    0.005
 5705.00    0.66825   0.70778    0.005
 5706.00    0.68276   0.69930    0.005
 5707.00    0.80045   0.69488    0.005
 5708.00    0.92983   0.69646    0.005
 5709.00    0.97025   0.70018    0.005
 5710.00    1.00394   0.70445    0.005
 5711.00    0.98313   0.71424    0.005
 5712.00    0.96010   0.72621    0.005
 5713.00    0.89294   0.73362    0.005
 5714.00    0.82759   0.73606    0.005
 5715.00    0.85066   0.73464    0.005
 5716.00    0.87617   0.73182    0.005
 5717.00    0.94350   0.73204    0.005
 5718.00    0.99957   0.73557    0.005
 5719.00    0.93662   0.73962    0.005
 5720.00    0.88301   0.74313    0.005
 5721.00    0.89939   0.74512    0.005
 5722.00    0.92998   0.74434    0.005
 5723.00    1.04163   0.74030    0.005
 5724.00    1.11400   0.73173    0.005
 5725.00    1.00800   0.72268    0.005
 5726.00    0.91221   0.72210    0.005
 5727.00    0.85438   0.72945    0.005
 5728.00    0.81720   0.73297    0.005
 5729.00    0.84430   0.72896    0.005
 5730.00    0.85753   0.72746    0.005
 5731.00    0.83409   0.73390    0.005
 5732.00    0.79397   0.74142    0.005
 5733.00    0.71602   0.74361    0.005
 5734.00    0.66299   0.74097    0.005
 5735.00    0.65894   0.73671    0.005
 5736.00    0.63996   0.73283    0.005
 5737.00    0.59540   0.73011    0.005
 5738.00    0.61497   0.72992    0.005
 5739.00    0.73075   0.73263    0.005
 5740.00    0.77238   0.73499    0.000
 5741.00    0.71625   0.73507    0.000
 5742.00    0.69135   0.73818    0.000
 5743.00    0.70272   0.74518    0.000
 5744.00    0.73018   0.74828    0.000
 5745.00    0.77412   0.74181    0.000
 5746.00    0.79684   0.73229    0.000
 5747.00    0.80041   0.73167    0.000
 5748.00    0.85361   0.73979    0.000
 5749.00    0.94633   0.74455    0.000
 5750.00    0.95869   0.73845    0.000
 5751.00    0.91477   0.72672    0.000
 5752.00    0.85556   0.72077    0.000
 5753.00    0.78695   0.72689    0.000
 5754.00    0.77582   0.74012    0.000
 5755.00    0.79552   0.75038    0.000
 5756.00    0.80512   0.75207    0.000
 5757.00    0.81003   0.74429    0.000
 5758.00    0.80542   0.73010    0.000
 5759.00    0.79699   0.71556    0.000
 5760.00    0.73961   0.70639    0.000
 5761.00    0.66546   0.70768    0.000
 5762.00    0.71084   0.71937    0.000
 5763.00    0.79066   0.73209    0.000
 5764.00    0.86403   0.73826    0.000
 5765.00    0.93586   0.73941    0.000
 5766.00    0.81236   0.73893    0.000
 5767.00    0.65137   0.73765    0.000
 5768.00    0.70130   0.73609    0.000
 5769.00    0.78265   0.73421    0.000
 5770.00    0.76569   0.73203    0.000
 5771.00    0.73801   0.73057    0.000
 5772.00    0.88191   0.72968    0.000
 5773.00    1.03811   0.72973    0.000
 5774.00    1.03137   0.73158    0.000
 5775.00    1.01862   0.73383    0.000
 5776.00    0.89763   0.73383    0.000
 5777.00    0.77938   0.72866    0.000
 5778.00    0.77502   0.71647    0.000
 5779.00    0.76641   0.70208    0.000
 5780.00    0.68938   0.69479    0.000
 5781.00    0.61570   0.69528    0.000
 5782.00    0.57596   0.69544    0.000
 5783.00    0.54104   0.69371    0.000
 5784.00    0.54104   0.69780    0.000
 5785.00    0.53532   0.70918    0.000
 5786.00    0.49782   0.71987    0.000
 5787.00    0.48320   0.72433    0.000
 5788.00    0.57008   0.72196    0.000
 5789.00    0.64209   0.71825    0.000
 5790.00    0.65990   0.72174    0.000
 5791.00    0.69068   0.73215   -2.000
 5792.00    0.76102   0.74279   -2.000
 5793.00    0.83890   0.74861   -2.000
 5794.00    0.93635   0.74585   -2.000
 5795.00    1.01556   0.73572   -2.000
 5796.00    1.05407   0.72928   -2.000
 5797.00    1.07801   0.73572   -2.000
 5798.00    1.07377   0.74928   -2.000
 5799.00    1.05875   0.75916   -2.000
 5800.00    1.02556   0.76182   -2.000
 5801.00    0.94781   0.75687   -2.000
 5802.00    0.80416   0.74707   -2.000
 5803.00    0.68235   0.74025   -2.000
 5804.00    0.58891   0.73977   -2.000
 5805.00    0.60196   0.74223   -2.000
 5806.00    0.73692   0.74412   -2.000
 5807.00    0.79681   0.74441   -2.000
 5808.00    0.78092   0.74357   -2.000
 5809.00    0.73174   0.74143   -2.000
 5810.00    0.65293   0.73793   -2.000
 5811.00    0.64878   0.73369    0.000
 5812.00    0.70323   0.72770    0.000
 5813.00    0.70052   0.71973    0.000
 5814.00    0.65837   0.71452    0.000
 5815.00    0.58115   0.71702    0.000
 5816.00    0.48271   0.72491    0.000
 5817.00    0.53667   0.73161    0.000
 5818.00    0.67113   0.73483    0.000
 5819.00    0.78394   0.73566    0.000
 5820.00    0.88684   0.73397    0.000
 5821.00    0.90947   0.73097    0.000
 5822.00    0.90045   0.72996    0.000
 5823.00    0.90807   0.73184    0.000
 5824.00    0.92130   0.73397    0.000
 5825.00    0.89643   0.73507    0.000
 5826.00    0.86081   0.73654    0.000
 5827.00    0.81081   0.73911    0.000
 5828.00    0.75747   0.74129    0.000
 5829.00    0.74061   0.74165    0.000
 5830.00    0.73058   0.74050    0.000
 5831.00    0.78479   0.73704    0.000
 5832.00    0.84828   0.73168    0.000
 5833.00    0.83294   0.72912    0.000
 5834.00    0.80936   0.73199    0.000
 5835.00    0.84930   0.73378    0.000
 5836.00    0.89354   0.73005    0.000
 5837.00    0.93295   0.72706    0.000
 5838.00    0.97221   0.73067    0.000
 5839.00    0.91905   0.73782    0.000
 5840.00    0.86588   0.74295    0.000
 5841.00    0.81424   0.74397    0.000
 5842.00    0.76843   0.74139    0.000
 5843.00    0.81090   0.73616    0.000
 5844.00    0.85437   0.72866    0.000
 5845.00    0.90750   0.72006    0.000
 5846.00    0.95846   0.71381    0.000
 5847.00    0.99423   0.71137    0.000
 5848.00    1.01216   0.70981    0.000
 5849.00    0.93369   0.70515    0.000
 5850.00    0.84984   0.69690    0.000
 5851.00    0.74267   0.68977    0.000
 5852.00    0.67226   0.68945    0.000
 5853.00    0.73310   0.69312    0.000
 5854.00    0.78702   0.69145    0.000
 5855.00    0.82023   0.68352    0.000
 5856.00    0.87478   0.67940    0.000
 5857.00    0.98377   0.68487    0.000
 5858.00    1.08632   0.69404    0.000
 5859.00    1.17475   0.69893    0.000
 5860.00    1.19412   0.69681    0.000
 5861.00    1.08197   0.69297    0.000
 5862.00    0.95913   0.69303    0.000
 5863.00    0.81850   0.69403    0.000
 5864.00    0.75191   0.69136    0.000
 5865.00    0.79316   0.68881    0.000
 5866.00    0.81613   0.69224    0.000
 5867.00    0.81567   0.69957    0.000
 5868.00    0.83169   0.70473    0.000
 5869.00    0.86633   0.70418    0.000
 5870.00    0.86163   0.69802    0.000
 5871.00    0.81780   0.68685    0.000
 5872.00    0.81257   0.66898    0.000
 5873.00    0.84123   0.65048    0.000
 5874.00    0.85211   0.64385    0.000
 5875.00    0.84924   0.65370    0.000
 5876.00    0.83796   0.66909    0.000
 5877.00    0.82097   0.67405    0.000
 5878.00    0.86698   0.67207    0.000
 5879.00    0.95054   0.67331    0.000
 5880.00    0.96039   0.67828    0.000
 5881.00    0.93192   0.68058    0.000
 5882.00    0.90782   0.67899    0.000
 5883.00    0.88571   0.67693    0.000
 5884.00    0.79560   0.67314    0.000
 5885.00    0.67915   0.65918    0.000
 5886.00    0.61869   0.62543    0.000
 5887.00    0.57670   0.57836    0.000
 5888.00    0.65856   0.54775    0.000
 5889.00    0.77468   0.55653    0.000
 5890.00    0.76402   0.58913    0.000
 5891.00    0.72453   0.61328    0.000
 5892.00    0.62423   0.61348    0.000
 5893.00    0.51286   0.59285    0.000
 5894.00    0.47851   0.57667    0.000
 5895.00    0.45492   0.58738    0.000
 5896.00    0.45398   0.61335    0.000
 5897.00    0.45533   0.63267    0.000
 5898.00    0.54533   0.64405    0.000
 5899.00    0.64098   0.65392    0.000
 5900.00    0.69433   0.66179    0.000
 5901.00    0.74623   0.66668    0.005
 5902.00    0.72723   0.66828    0.005
 5903.00    0.70726   0.66634    0.005
 5904.00    0.65991   0.66424    0.005
 5905.00    0.61242   0.66585    0.005
 5906.00    0.56293   0.66972    0.005
 5907.00    0.53037   0.67241    0.005
 5908.00    0.65545   0.67404    0.005
 5909.00    0.76356   0.67581    0.005
 5910.00    0.75644   0.67486    0.005
 5911.00    0.75292   0.66856    0.005
 5912.00    0.76832   0.66083    0.005
 5913.00    0.79209   0.65774    0.005
 5914.00    0.85126   0.65974    0.005
 5915.00    0.89455   0.66433    0.005
 5916.00    0.88234   0.66833    0.005
 5917.00    0.85553   0.67033    0.005
 5918.00    0.78580   0.67172    0.005
 5919.00    0.70337   0.67143    0.005
 5920.00    0.58912   0.66920    0.005
 5921.00    0.53551   0.66832    0.005
 5922.00    0.61289   0.67015    0.005
 5923.00    0.68916   0.67288    0.005
 5924.00    0.76335   0.67484    0.005
 5925.00    0.81084   0.67424    0.005
 5926.00    0.81461   0.67042    0.005
 5927.00    0.82763   0.66575    0.005
 5928.00    0.85393   0.66431    0.005
 5929.00    0.87420   0.66865    0.005
 5930.00    0.88683   0.67504    0.005
 5931.00    0.85101   0.67608    0.005
 5932.00    0.76126   0.67155    0.005
 5933.00    0.66683   0.66860    0.005
 5934.00    0.56782   0.67211    0.005
 5935.00    0.60368   0.67847    0.005
 5936.00    0.75630   0.68288    0.005
 5937.00    0.82292   0.68311    0.005
 5938.00    0.82396   0.67731    0.005
 5939.00    0.79453   0.66902    0.005
 5940.00    0.74466   0.66689    0.005
 5941.00    0.73846   0.67218    0.005
 5942.00    0.75790   0.67959    0.005
 5943.00    0.79040   0.68602    0.005
 5944.00    0.82959   0.68958    0.005
 5945.00    0.77995   0.68682    0.005
 5946.00    0.69093   0.67787    0.005
 5947.00    0.71445   0.66973    0.005
 5948.00    0.78083   0.66834    0.005
 5949.00    0.82603   0.67008    0.005
 5950.00    0.86438   0.66856    0.005
 5951.00    0.84004   0.66639    0.005
 5952.00    0.79871   0.66821    0.005
 5953.00    0.76852   0.66879    0.005
 5954.00    0.74080   0.66339    0.005
 5955.00    0.74812   0.65823    0.005
 5956.00    0.76163   0.66012    0.005
 5957.00    0.78262   0.66794    0.005
 5958.00    0.80463   0.67672    0.005
 5959.00    0.79812   0.68272    0.005
 5960.00    0.78888   0.68495    0.005
 5961.00    0.72697   0.68437    0.005
 5962.00    0.66192   0.68226    0.005
 5963.00    0.64417   0.67929    0.005
 5964.00    0.62753   0.67823    0.005
 5965.00    0.59317   0.68175    0.005
 5966.00    0.56399   0.68697    0.005
 5967.00    0.66686   0.69058    0.005
 5968.00    0.76455   0.69267    0.005
 5969.00    0.79252   0.69301    0.005
 5970.00    0.81540   0.69135    0.005
 5971.00    0.79279   0.68892    0.005
 5972.00    0.76532   0.68573    0.005
 5973.00    0.70583   0.68035    0.005
 5974.00    0.65206   0.67343    0.005
 5975.00    0.62762   0.66753    0.005
 5976.00    0.62741   0.66462    0.005
 5977.00    0.72748   0.66691    0.005
 5978.00    0.82263   0.67355    0.005
 5979.00    0.90089   0.67900    0.005
 5980.00    0.94483   0.67793    0.005
 5981.00    0.88966   0.67053    0.005
 5982.00    0.82728   0.66326    0.005
 5983.00    0.74709   0.66451    0.005
 5984.00    0.72934   0.67320    0.005
 5985.00    0.84423   0.67995    0.005
 5986.00    0.93200   0.68206    0.005
 5987.00    0.96971   0.68361    0.005
 5988.00    0.95430   0.68529    0.005
 5989.00    0.85325   0.68591    0.005
 5990.00    0.77016   0.68812    0.005
 5991.00    0.71248   0.69438    0.005
 5992.00    0.64129   0.70036    0.005
 5993.00    0.55327   0.70046    0.005
 5994.00    0.53596   0.69477    0.005
 5995.00    0.59624   0.68756    0.005
 5996.00    0.65676   0.68263    0.005
 5997.00    0.71751   0.68109    0.005
 5998.00    0.73087   0.68146    0.005
 5999.00    0.70378   0.68093    0.005
 6000.00    0.69005   0.67849    0.005
 6001.00    0.68636   0.67779    0.005
 6002.00    0.69551   0.68132    0.005
 6003.00    0.71313   0.68317    0.005
 6004.00    0.72655   0.67820    0.005
 6005.00    0.73752   0.66954    0.005
 6006.00    0.75707   0.66495    0.005
 6007.00    0.78093   0.67039    0.005
 6008.00    0.85258   0.68156    0.005
 6009.00    0.94506   0.68721    0.005
 6010.00    0.88095   0.68348    0.005
 6011.00    0.75826   0.67756    0.005
 6012.00    0.69392   0.67704    0.005
 6013.00    0.64811   0.67957    0.005
 6014.00    0.80629   0.67882    0.005
 6015.00    1.01856   0.67636    0.005
 6016.00    1.09360   0.67645    0.005
 6017.00    1.13890   0.67747    0.005
 6018.00    1.03380   0.67750    0.005
 6019.00    0.90282   0.67830    0.005
 6020.00    0.86237   0.68053    0.005
 6021.00    0.83374   0.68282    0.005
 6022.00    0.90763   0.68531    0.005
 6023.00    0.99093   0.68929    0.005
 6024.00    0.94363   0.69281    0.005
 6025.00    0.88905   0.69463    0.005
 6026.00    0.76235   0.69753    0.005
 6027.00    0.63531   0.70092    0.005
 6028.00    0.63123   0.70083    0.005
 6029.00    0.63015   0.69798    0.005
 6030.00    0.69860   0.69758    0.005
 6031.00    0.76405   0.70131    0.005
 6032.00    0.79119   0.70526    0.005
 6033.00    0.81874   0.70609    0.005
 6034.00    0.84978   0.70439    0.005
 6035.00    0.88355   0.70273    0.005
 6036.00    0.93480   0.70197    0.005
 6037.00    0.97249   0.70091    0.005
 6038.00    0.94243   0.69988    0.005
 6039.00    0.93333   0.70077    0.005
 6040.00    1.00907   0.70367    0.005
 6041.00    1.07922   0.70834    0.005
 6042.00    1.13056   0.71326    0.005
 6043.00    1.14143   0.71626    0.005
 6044.00    1.03758   0.71730    0.005
 6045.00    0.93435   0.71680    0.005
 6046.00    0.83262   0.71480    0.005
 6047.00    0.74458   0.71341    0.005
 6048.00    0.68519   0.71456    0.005
 6049.00    0.66749   0.71541    0.005
 6050.00    0.72557   0.71274    0.005
 6051.00    0.76692   0.70811    0.005
 6052.00    0.78168   0.70426    0.005
 6053.00    0.79631   0.70112    0.005
 6054.00    0.81076   0.69759    0.005
 6055.00    0.81956   0.69486    0.005
 6056.00    0.82144   0.69560    0.005
 6057.00    0.78857   0.70040    0.005
 6058.00    0.71811   0.70577    0.005
 6059.00    0.71855   0.70710    0.005
 6060.00    0.78665   0.70296    0.005
 6061.00    0.80206   0.69493    0.005
 6062.00    0.77313   0.68559    0.005
 6063.00    0.73192   0.67999    0.005
 6064.00    0.68160   0.68549    0.005
 6065.00    0.66277   0.70052    0.005
 6066.00    0.66443   0.71373    0.005
 6067.00    0.67596   0.71962    0.005
 6068.00    0.69311   0.72136    0.005
 6069.00    0.72924   0.72233    0.005
 6070.00    0.77478   0.72276    0.005
 6071.00    0.80984   0.72231    0.005
 6072.00    0.84039   0.72184    0.005
 6073.00    0.81013   0.72090    0.005
 6074.00    0.75751   0.71797    0.005
 6075.00    0.69066   0.71217    0.005
 6076.00    0.61938   0.70473    0.005
 6077.00    0.60234   0.69945    0.005
 6078.00    0.59938   0.69675    0.005
 6079.00    0.67868   0.69279    0.005
 6080.00    0.77540   0.68929    0.005
 6081.00    0.81118   0.69147    0.005
 6082.00    0.83677   0.69651    0.005
 6083.00    0.77762   0.69847    0.005
 6084.00    0.70779   0.69914    0.005
 6085.00    0.70473   0.70179    0.005
 6086.00    0.70752   0.70325    0.005
 6087.00    0.69024   0.69902    0.005
 6088.00    0.67193   0.69177    0.005
 6089.00    0.63603   0.68862    0.005
 6090.00    0.60043   0.69066    0.005
 6091.00    0.61038   0.69481    0.005
 6092.00    0.62241   0.70152    0.005
 6093.00    0.67866   0.70887    0.005
 6094.00    0.72458   0.71063    0.005
 6095.00    0.64524   0.70767    0.005
 6096.00    0.57419   0.70754    0.005
 6097.00    0.57192   0.71176    0.005
 6098.00    0.57358   0.71250    0.005
 6099.00    0.59965   0.70060    0.005
 6100.00    0.62251   0.67927    0.005
 6101.00    0.62971   0.66766    0.005
 6102.00    0.63609   0.67672    0.005
 6103.00    0.63922   0.69355    0.005
 6104.00    0.63958   0.70294    0.005
 6105.00    0.63082   0.70375    0.005
 6106.00    0.64179   0.70299    0.005
 6107.00    0.70762   0.70474    0.005
 6108.00    0.78351   0.70527    0.005
 6109.00    0.88337   0.70269    0.005
 6110.00    0.91882   0.70344    0.005
 6111.00    0.82172   0.71044    0.005
 6112.00    0.74501   0.71709    0.005
 6113.00    0.70478   0.71685    0.005
 6114.00    0.69179   0.71150    0.005
 6115.00    0.72144   0.70816    0.005
 6116.00    0.70698   0.70676    0.005
 6117.00    0.63189   0.69948    0.005
 6118.00    0.59784   0.68461    0.004
 6119.00    0.61345   0.66925    0.005
 6120.00    0.68589   0.66378    0.005
 6121.00    0.81894   0.67482    0.005
 6122.00    0.88102   0.69281    0.005
 6123.00    0.87632   0.70144    0.005
 6124.00    0.83231   0.69887    0.005
 6125.00    0.75569   0.69312    0.005
 6126.00    0.73089   0.69054    0.005
 6127.00    0.74393   0.69496    0.005
 6128.00    0.77840   0.70498    0.005
 6129.00    0.82662   0.71331    0.005
 6130.00    0.79096   0.71507    0.005
 6131.00    0.70827   0.71019    0.005
 6132.00    0.68449   0.69757    0.005
 6133.00    0.68945   0.67652    0.005
 6134.00    0.70819   0.65331    0.005
 6135.00    0.73275   0.64222    0.005
 6136.00    0.68185   0.65490    0.005
 6137.00    0.60370   0.68189    0.005
 6138.00    0.59374   0.69891    0.005
 6139.00    0.60460   0.69746    0.005
 6140.00    0.62598   0.69297    0.005
 6141.00    0.65003   0.69945    0.005
 6142.00    0.67436   0.71190    0.005
 6143.00    0.69875   0.71909    0.005
 6144.00    0.73385   0.71824    0.005
 6145.00    0.77069   0.71138    0.005
 6146.00    0.81719   0.69836    0.005
 6147.00    0.86486   0.68187    0.005
 6148.00    0.82528   0.67160    0.005
 6149.00    0.77842   0.67409    0.005
 6150.00    0.68311   0.68386    0.005
 6151.00    0.58547   0.68972    0.005
 6152.00    0.59111   0.68658    0.005
 6153.00    0.59863   0.68016    0.005
 6154.00    0.62789   0.67637    0.005
 6155.00    0.65624   0.67180    0.005
 6156.00    0.66672   0.66216    0.005
 6157.00    0.67446   0.64733    0.005
 6158.00    0.65054   0.62705    0.005
 6159.00    0.62142   0.60324    0.005
 6160.00    0.55065   0.58641    0.005
 6161.00    0.50455   0.58668    0.005
 6162.00    0.60700   0.60004    0.005
 6163.00    0.69874   0.61431    0.005
 6164.00    0.73961   0.62355    0.005
 6165.00    0.75427   0.62766    0.005
 6166.00    0.66741   0.62376    0.005
 6167.00    0.60380   0.61356    0.005
 6168.00    0.61520   0.61029    0.004
 6169.00    0.62544   0.62042    0.004
 6170.00    0.63247   0.63239    0.005
 6171.00    0.63076   0.63533    0.005
 6172.00    0.60859   0.63260    0.005
 6173.00    0.59696   0.63093    0.005
 6174.00    0.60664   0.63172    0.005
 6175.00    0.62643   0.63500    0.005
 6176.00    0.66401   0.64053    0.005
 6177.00    0.72281   0.64490    0.005
 6178.00    0.81432   0.64638    0.005
 6179.00    0.85808   0.64783    0.005
 6180.00    0.83716   0.64944    0.005
 6181.00    0.80763   0.64868    0.005
 6182.00    0.76783   0.64510    0.005
 6183.00    0.74998   0.63823    0.005
 6184.00    0.75523   0.62798    0.005
 6185.00    0.72842   0.61857    0.005
 6186.00    0.67187   0.61385    0.005
 6187.00    0.62793   0.61048    0.005
 6188.00    0.59432   0.60283    0.005
 6189.00    0.57879   0.59397    0.005
 6190.00    0.57628   0.59438    0.005
 6191.00    0.56725   0.60545    0.005
 6192.00    0.55410   0.61755    0.005
 6193.00    0.65384   0.62546    0.005
 6194.00    0.81593   0.63054    0.005
 6195.00    1.19902   0.63266    0.005
 6196.00    1.68823   0.62930   -2.000
 6197.00    2.31738   0.62167   -2.000
 6198.00    3.00455   0.61741   -2.000
 6199.00    3.16584   0.62197   -2.000
 6200.00    3.14073   0.63119   -2.000
 6201.00    2.15860   0.63755   -2.000
 6202.00    0.89007   0.63876   -2.000
 6203.00   -0.01951   0.63813   -2.000
 6204.00   -0.83992   0.63898   -2.000
 6205.00   -0.68634   0.64091   -2.000
 6206.00   -0.33665   0.64162   -2.000
 6207.00    0.06412   0.63956   -2.000
 6208.00    0.47294   0.63458    0.005
 6209.00    0.59347   0.62798    0.005
 6210.00    0.68022   0.61965    0.005
 6211.00    0.70629   0.60795    0.005
 6212.00    0.72755   0.59569    0.005
 6213.00    0.74420   0.58873    0.005
 6214.00    0.76064   0.58973    0.005
 6215.00    0.70334   0.59615    0.005
 6216.00    0.64542   0.60107    0.005
 6217.00    0.59633   0.60072    0.005
 6218.00    0.55120   0.59896    0.005
 6219.00    0.57852   0.59935    0.005
 6220.00    0.60127   0.59984    0.005
 6221.00    0.57377   0.59781    0.005
 6222.00    0.54781   0.59517    0.005
 6223.00    0.53363   0.59564    0.005
 6224.00    0.53259   0.59878    0.005
 6225.00    0.60833   0.60104    0.005
 6226.00    0.68537   0.59916    0.005
 6227.00    0.76840   0.59081    0.005
 6228.00    0.83533   0.57935    0.005
 6229.00    0.84124   0.57432    0.005
 6230.00    0.82779   0.57990    0.005
 6231.00    0.75300   0.59167    0.005
 6232.00    0.68306   0.60460    0.005
 6233.00    0.62609   0.61399    0.005
 6234.00    0.60147   0.61608    0.005
 6235.00    0.65134   0.61121    0.005
 6236.00    0.66873   0.60202    0.005
 6237.00    0.62142   0.59207    0.005
 6238.00    0.57077   0.58665    0.005
 6239.00    0.51435   0.58729    0.005
 6240.00    0.50033   0.58723    0.005
 6241.00    0.55074   0.58371    0.005
 6242.00    0.60183   0.58327    0.005
 6243.00    0.65380   0.58787    0.005
 6244.00    0.67343   0.59453    0.005
 6245.00    0.65501   0.60306    0.005
 6246.00    0.64144   0.61139    0.005
 6247.00    0.63288   0.61537    0.005
 6248.00    0.62928   0.61396    0.005
 6249.00    0.63023   0.60760    0.005
 6250.00    0.62710   0.59911    0.005
 6251.00    0.62070   0.59447    0.005
 6252.00    0.57895   0.59518    0.005
 6253.00    0.51212   0.59576    0.004
 6254.00    0.50059   0.59092    0.004
 6255.00    0.52347   0.58147    0.005
 6256.00    0.60548   0.57515    0.005
 6257.00    0.71964   0.57966    0.005
 6258.00    0.90227   0.59230    0.005
 6259.00    1.11725   0.60451    0.005
 6260.00    1.21658   0.61460    0.005
 6261.00    1.26878   0.62219    0.006
 6262.00    1.08208   0.62264    0.006
 6263.00    0.81225   0.61744    0.006
 6264.00    0.55054   0.61462    0.006
 6265.00    0.29122   0.61540    0.006
 6266.00    0.24365   0.61465    0.006
 6267.00    0.24753   0.61278    0.005
 6268.00    0.33691   0.61437    0.005
 6269.00    0.44308   0.61917    0.005
 6270.00    0.55750   0.62318    0.005
 6271.00    0.67320   0.62376    0.005
 6272.00    0.69586   0.62168    0.005
 6273.00    0.70804   0.62002    0.005
 6274.00    0.75015   0.62028    0.005
 6275.00    0.79452   0.62171    0.005
 6276.00    0.82291   0.62252    0.005
 6277.00    0.85066   0.62007    0.005
 6278.00    0.83746   0.61502    0.005
 6279.00    0.82167   0.61317    0.005
 6280.00    0.71312   0.61753    0.000
 6281.00    0.60820   0.62476    0.000
 6282.00    0.56513   0.62984    0.000
 6283.00    0.52626   0.63172    0.000
 6284.00    0.53151   0.63453    0.000
 6285.00    0.53309   0.64041    0.000
 6286.00    0.50729   0.64611    0.000
 6287.00    0.49637   0.64793    0.000
 6288.00    0.57003   0.64490    0.000
 6289.00    0.63424   0.63899    0.000
 6290.00    0.65565   0.63325    0.000
 6291.00    0.67542   0.63022    0.000
 6292.00    0.68913   0.62951    0.000
 6293.00    0.69908   0.62618    0.000
 6294.00    0.69740   0.61904    0.000
 6295.00    0.70700   0.61525    0.000
 6296.00    0.74635   0.61940    0.000
 6297.00    0.80009   0.62636    0.000
 6298.00    0.88644   0.62857    0.000
 6299.00    0.92982   0.62559    0.000
 6300.00    0.88890   0.62390    0.000
 6301.00    0.85187   0.62692    0.000
 6302.00    0.82151   0.63049    0.000
 6303.00    0.76402   0.63186    0.000
 6304.00    0.66591   0.63580    0.000
 6305.00    0.60800   0.64522    0.000
 6306.00    0.60300   0.65374    0.000
 6307.00    0.63687   0.65475    0.000
 6308.00    0.71581   0.64926    0.000
 6309.00    0.73361   0.64267    0.000
 6310.00    0.68891   0.63989    0.000
 6311.00    0.65629   0.64043    0.000
 6312.00    0.63456   0.63974    0.000
 6313.00    0.63128   0.63774    0.000
 6314.00    0.64264   0.63722    0.000
 6315.00    0.63192   0.63558    0.000
 6316.00    0.60577   0.63237    0.000
 6317.00    0.59122   0.63391    0.000
 6318.00    0.58378   0.64000    0.000
 6319.00    0.60454   0.64384    0.000
 6320.00    0.64039   0.64487    0.000
 6321.00    0.66958   0.64738    0.005
 6322.00    0.69567   0.65103    0.005
 6323.00    0.69993   0.65301    0.005
 6324.00    0.69544   0.65394    0.005
 6325.00    0.65646   0.65539    0.005
 6326.00    0.60571   0.65750    0.005
 6327.00    0.63761   0.65834    0.005
 6328.00    0.69327   0.65744    0.005
 6329.00    0.77538   0.65923    0.004
 6330.00    0.86377   0.66448    0.004
 6331.00    0.86811   0.66630    0.004
 6332.00    0.85638   0.65848    0.004
 6333.00    0.81298   0.64444    0.004
 6334.00    0.76488   0.63660    0.004
 6335.00    0.71240   0.64109    0.004
 6336.00    0.65944   0.65075    0.004
 6337.00    0.66315   0.65846    0.004
 6338.00    0.67089   0.66418    0.004
 6339.00    0.65770   0.66650    0.004
 6340.00    0.64374   0.66163    0.005
 6341.00    0.61351   0.65070    0.005
 6342.00    0.58479   0.64038    0.005
 6343.00    0.61170   0.63655    0.005
 6344.00    0.63659   0.63959    0.005
 6345.00    0.62923   0.64681    0.005
 6346.00    0.62185   0.65547    0.005
 6347.00    0.61432   0.66305    0.005
 6348.00    0.60541   0.66663    0.005
 6349.00    0.58649   0.66596    0.005
 6350.00    0.56340   0.66220    0.005
 6351.00    0.51719   0.65543    0.005
 6352.00    0.49126   0.64704    0.005
 6353.00    0.55503   0.64160    0.005
 6354.00    0.61072   0.64028    0.005
 6355.00    0.63700   0.63667    0.005
 6356.00    0.67342   0.62782    0.004
 6357.00    0.74075   0.62013    0.004
 6358.00    0.81149   0.61779    0.004
 6359.00    0.89112   0.61742    0.004
 6360.00    0.93612   0.61707    0.004
 6361.00    0.90401   0.61942    0.005
 6362.00    0.85395   0.62579    0.005
 6363.00    0.76923   0.63417    0.005
 6364.00    0.70944   0.64316    0.005
 6365.00    0.69160   0.65279    0.005
 6366.00    0.68858   0.66082    0.005
 6367.00    0.70740   0.66302    0.005
 6368.00    0.72031   0.66057    0.005
 6369.00    0.72556   0.66078    0.005
 6370.00    0.70939   0.66674    0.005
 6371.00    0.66874   0.67363    0.005
 6372.00    0.64176   0.67609    0.005
 6373.00    0.62857   0.67516    0.005
 6374.00    0.64734   0.67383    0.005
 6375.00    0.69455   0.67006    0.005
 6376.00    0.68797   0.66206    0.005
 6377.00    0.63927   0.65479    0.005
 6378.00    0.59582   0.65328    0.005
 6379.00    0.55600   0.65636    0.004
 6380.00    0.56525   0.66032    0.004
 6381.00    0.60413   0.66144    0.004
 6382.00    0.63826   0.65913    0.004
 6383.00    0.66988   0.65772    0.004
 6384.00    0.63680   0.65971    0.004
 6385.00    0.57412   0.66205    0.004
 6386.00    0.54442   0.66269    0.004
 6387.00    0.52770   0.66346    0.004
 6388.00    0.56092   0.66442    0.004
 6389.00    0.61087   0.66133    0.004
 6390.00    0.66850   0.65137    0.004
 6391.00    0.72830   0.64128    0.004
 6392.00    0.78266   0.64248    0.005
 6393.00    0.83576   0.65527    0.005
 6394.00    0.79398   0.66889    0.005
 6395.00    0.73453   0.67484    0.005
 6396.00    0.73066   0.66956    0.005
 6397.00    0.73478   0.65498    0.005
 6398.00    0.77306   0.64399    0.005
 6399.00    0.81490   0.64973    0.005
 6400.00    0.76733   0.66659    0.005
 6401.00    0.71376   0.67990    0.005
 6402.00    0.61744   0.68476    0.005
 6403.00    0.51973   0.68323    0.005
 6404.00    0.50170   0.67758    0.005
 6405.00    0.48502   0.67101    0.005
 6406.00    0.51020   0.66887    0.005
 6407.00    0.53513   0.67226    0.004
 6408.00    0.55646   0.67318    0.005
 6409.00    0.57200   0.66694    0.005
 6410.00    0.53163   0.66019    0.004
 6411.00    0.49506   0.65908    0.004
 6412.00    0.48496   0.66292    0.004
 6413.00    0.49127   0.66894    0.004
 6414.00    0.58597   0.67363    0.004
 6415.00    0.66857   0.67331    0.004
 6416.00    0.69893   0.66691    0.004
 6417.00    0.70187   0.65622    0.004
 6418.00    0.60720   0.64596    0.005
 6419.00    0.52577   0.64405    0.005
 6420.00    0.48394   0.65403    0.005
 6421.00    0.45176   0.66758    0.005
 6422.00    0.44415   0.67440    0.005
 6423.00    0.45396   0.67566    0.005
 6424.00    0.50195   0.67773    0.005
 6425.00    0.55792   0.68043    0.005
 6426.00    0.62906   0.67822    0.005
 6427.00    0.69382   0.66761    0.005
 6428.00    0.74800   0.65301    0.005
 6429.00    0.77361   0.64603    0.005
 6430.00    0.75768   0.65254    0.005
 6431.00    0.71224   0.66476    0.005
 6432.00    0.62906   0.67328    0.005
 6433.00    0.57357   0.67717    0.005
 6434.00    0.54929   0.67803    0.005
 6435.00    0.55698   0.67330    0.004
 6436.00    0.59644   0.66324    0.004
 6437.00    0.63087   0.65856    0.004
 6438.00    0.66087   0.66754    0.005
 6439.00    0.69362   0.68286    0.005
 6440.00    0.72849   0.69331    0.004
 6441.00    0.73203   0.69706    0.004
 6442.00    0.71430   0.69762    0.005
 6443.00    0.66554   0.69741    0.005
 6444.00    0.59830   0.69527    0.005
 6445.00    0.61422   0.68624    0.005
 6446.00    0.67330   0.66670    0.005
 6447.00    0.76177   0.64314    0.005
 6448.00    0.86345   0.63156    0.005
 6449.00    0.89491   0.63992    0.005
 6450.00    0.89920   0.65866    0.005
 6451.00    0.86508   0.67387    0.005
 6452.00    0.81831   0.67845    0.005
 6453.00    0.76749   0.67495    0.005
 6454.00    0.71554   0.67361    0.005
 6455.00    0.70847   0.68056    0.005
 6456.00    0.71157   0.69123    0.004
 6457.00    0.69654   0.69750    0.004
 6458.00    0.67822   0.69383    0.004
 6459.00    0.65554   0.67884    0.004
 6460.00    0.63224   0.66056    0.004
 6461.00    0.62887   0.65443    0.004
 6462.00    0.62749   0.66446    0.004
 6463.00    0.67016   0.67878    0.004
 6464.00    0.71561   0.68833    0.004
 6465.00    0.71931   0.69319    0.004
 6466.00    0.72181   0.69427    0.004
 6467.00    0.72624   0.69140    0.004
 6468.00    0.73047   0.68629    0.005
 6469.00    0.72930   0.68208    0.005
 6470.00    0.73309   0.68010    0.005
 6471.00    0.80705   0.67709    0.005
 6472.00    0.87658   0.67055    0.005
 6473.00    0.90509   0.66640    0.005
 6474.00    0.90953   0.67060    0.005
 6475.00    0.75120   0.67819    0.005
 6476.00    0.61620   0.68094    0.005
 6477.00    0.60352   0.67729    0.005
 6478.00    0.61015   0.66804    0.005
 6479.00    0.69837   0.65415    0.005
 6480.00    0.74656   0.64209    0.004
 6481.00    0.65516   0.63956    0.004
 6482.00    0.57088   0.64598    0.004
 6483.00    0.50750   0.65472    0.004
 6484.00    0.48109   0.66161    0.004
 6485.00    0.54713   0.66578    0.004
 6486.00    0.59512   0.66653    0.004
 6487.00    0.60419   0.66316    0.004
 6488.00    0.58908   0.65754    0.004
 6489.00    0.52872   0.65233    0.004
 6490.00    0.50801   0.64439    0.004
 6491.00    0.55206   0.62759    0.005
 6492.00    0.60463   0.60533    0.005
 6493.00    0.66942   0.59024    0.005
 6494.00    0.72029   0.58875    0.005
 6495.00    0.75362   0.59653    0.005
 6496.00    0.75140   0.60666    0.005
 6497.00    0.70970   0.61650    0.005
 6498.00    0.64626   0.62784    0.005
 6499.00    0.56152   0.64000    0.005
 6500.00    0.53938   0.64957    0.005
 6501.00    0.57134   0.65554    0.005
 6502.00    0.63603   0.65949    0.005
 6503.00    0.72563   0.66303    0.005
 6504.00    0.78475   0.66454    0.005
 6505.00    0.82348   0.66115    0.004
 6506.00    0.84887   0.65559    0.004
 6507.00    0.86643   0.65469    0.005
 6508.00    0.79644   0.65987    0.004
 6509.00    0.68171   0.66536    0.004
 6510.00    0.59623   0.66689    0.004
 6511.00    0.52369   0.66554    0.004
 6512.00    0.49389   0.66252    0.004
 6513.00    0.48033   0.65806    0.004
 6514.00    0.48945   0.65375    0.004
 6515.00    0.50590   0.65066    0.004
 6516.00    0.56324   0.64957    0.004
 6517.00    0.63163   0.65294    0.004
 6518.00    0.69956   0.66038    0.005
 6519.00    0.76739   0.66715    0.005
 6520.00    0.81287   0.67017    0.005
 6521.00    0.85441   0.67083    0.005
 6522.00    0.86794   0.67130    0.005
 6523.00    0.87770   0.67059    0.005
 6524.00    0.89016   0.66748    0.005
 6525.00    0.90287   0.66525    0.005
 6526.00    0.87902   0.66777    0.005
 6527.00    0.85301   0.67276    0.005
 6528.00    0.77606   0.67438    0.000
 6529.00    0.69780   0.67073    0.000
 6530.00    0.61614   0.66594    0.000
 6531.00    0.53966   0.66595    0.000
 6532.00    0.59358   0.67211    0.000
 6533.00    0.64311   0.67936    0.000
 6534.00    0.63397   0.68171    0.000
 6535.00    0.62327   0.67964    0.000
 6536.00    0.59878   0.67957    0.000
 6537.00    0.57859   0.68414    0.000
 6538.00    0.58666   0.68775    0.000
 6539.00    0.59487   0.68466    0.000
 6540.00    0.60387   0.67552    0.000
 6541.00    0.61444   0.66473    0.000
 6542.00    0.63149   0.65525    0.000
 6543.00    0.64595   0.64700    0.000
 6544.00    0.65155   0.64170    0.000
 6545.00    0.66309   0.64301    0.000
 6546.00    0.69168   0.64816    0.000
 6547.00    0.71972   0.64949    0.000
 6548.00    0.74641   0.64492    0.000
 6549.00    0.76779   0.63878    0.000
 6550.00    0.77794   0.63446    0.000
 6551.00    0.79021   0.62983    0.000
 6552.00    0.80638   0.62215    0.000
 6553.00    0.81463   0.61423    0.000
 6554.00    0.81013   0.61062    0.000
 6555.00    0.79388   0.61116    0.000
 6556.00    0.76105   0.61122    0.000
 6557.00    0.80759   0.60479    0.000
 6558.00    0.95277   0.58254    0.000
 6559.00    1.16473   0.53702    0.000
 6560.00    1.44985   0.48504    0.000
 6561.00    1.64340   0.46750    0.000
 6562.00    1.74847   0.50127    0.000
 6563.00    1.74716   0.55526    0.000
 6564.00    1.65522   0.59509    0.000
 6565.00    1.51235   0.61537    0.000
 6566.00    1.33127   0.62293    0.000
 6567.00    1.13771   0.62465    0.000
 6568.00    0.93594   0.62643    0.000
 6569.00    0.78844   0.62730    0.000
 6570.00    0.67227   0.62324    0.000
 6571.00    0.63465   0.61715    0.000
 6572.00    0.63651   0.61580    0.000
 6573.00    0.61883   0.62130    0.000
 6574.00    0.59265   0.63006    0.000
 6575.00    0.60993   0.63698    0.000
 6576.00    0.64344   0.63955    0.000
 6577.00    0.68779   0.63848    0.000
 6578.00    0.73558   0.63555    0.000
 6579.00    0.74967   0.63366    0.000
 6580.00    0.75484   0.63693    0.000
 6581.00    0.77703   0.64440    0.000
 6582.00    0.80290   0.65086    0.000
 6583.00    0.83322   0.65423    0.000
 6584.00    0.86430   0.65644    0.000
 6585.00    0.89364   0.66100    0.000
 6586.00    0.92274   0.66664    0.000
 6587.00    0.91674   0.66883    0.000
 6588.00    0.90753   0.66478    0.000
 6589.00    0.81654   0.65259    0.000
 6590.00    0.72104   0.63481    0.000
 6591.00    0.60834   0.62227    0.000
 6592.00    0.49652   0.62437    0.000
 6593.00    0.50382   0.63660    0.000
 6594.00    0.51048   0.64626    0.000
 6595.00    0.50248   0.64733    0.000
 6596.00    0.49747   0.64410    0.000
 6597.00    0.53026   0.64467    0.000
 6598.00    0.57232   0.65187    0.000
 6599.00    0.69393   0.66012    0.000
 6600.00    0.80143   0.66336    0.000
 6601.00    0.81919   0.66087    0.000
 6602.00    0.82458   0.65472    0.000
 6603.00    0.76840   0.64767    0.000
 6604.00    0.72405   0.64197    0.000
 6605.00    0.72744   0.63697    0.000
 6606.00    0.72807   0.63158    0.000
 6607.00    0.71948   0.62991    0.000
 6608.00    0.68806   0.63707    0.000
 6609.00    0.59206   0.64858    0.004
 6610.00    0.54524   0.65467    0.004
 6611.00    0.61728   0.65397    0.004
 6612.00    0.68820   0.65374    0.005
 6613.00    0.75677   0.65736    0.005
 6614.00    0.78349   0.66004    0.005
 6615.00    0.73431   0.65867    0.005
 6616.00    0.68068   0.65622    0.005
 6617.00    0.62003   0.65601    0.005
 6618.00    0.58159   0.65738    0.005
 6619.00    0.57406   0.65707    0.005
 6620.00    0.54216   0.65236    0.005
 6621.00    0.48040   0.64308    0.004
 6622.00    0.46548   0.63301    0.004
 6623.00    0.50113   0.62843    0.004
 6624.00    0.57063   0.63143    0.004
 6625.00    0.67238   0.63685    0.004
 6626.00    0.74176   0.63957    0.004
 6627.00    0.78394   0.63945    0.004
 6628.00    0.77277   0.63856    0.004
 6629.00    0.72214   0.63734    0.004
 6630.00    0.67561   0.63415    0.004
 6631.00    0.63175   0.62941    0.004
 6632.00    0.58709   0.62727    0.004
 6633.00    0.54198   0.63010    0.004
 6634.00    0.50468   0.63535    0.004
 6635.00    0.47124   0.63919    0.004
 6636.00    0.47966   0.63996    0.005
 6637.00    0.50599   0.63889    0.005
 6638.00    0.53631   0.63914    0.005
 6639.00    0.56811   0.64062    0.005
 6640.00    0.60084   0.63861    0.005
 6641.00    0.63385   0.63315    0.005
 6642.00    0.64543   0.63146    0.005
 6643.00    0.65147   0.63572    0.004
 6644.00    0.75293   0.63968    0.005
 6645.00    0.87452   0.63958    0.005
 6646.00    0.87784   0.63763    0.005
 6647.00    0.86144   0.63457    0.005
 6648.00    0.76949   0.62815    0.004
 6649.00    0.66805   0.61957    0.004
 6650.00    0.66144   0.61425    0.004
 6651.00    0.66308   0.61465    0.004
 6652.00    0.62418   0.61776    0.004
 6653.00    0.58319   0.61984    0.004
 6654.00    0.57366   0.61993    0.004
 6655.00    0.56482   0.61949    0.004
 6656.00    0.56612   0.61965    0.004
 6657.00    0.56668   0.61964    0.005
 6658.00    0.55190   0.61856    0.005
 6659.00    0.53724   0.61585    0.005
 6660.00    0.52401   0.61108    0.005
 6661.00    0.51303   0.60698    0.005
 6662.00    0.52066   0.60781    0.005
 6663.00    0.53060   0.61169    0.005
 6664.00    0.55486   0.61368    0.005
 6665.00    0.58539   0.61467    0.005
 6666.00    0.64638   0.61850    0.005
 6667.00    0.69168   0.62523    0.005
 6668.00    0.67497   0.63161    0.005
 6669.00    0.66260   0.63510    0.005
 6670.00    0.66452   0.63561    0.005
 6671.00    0.66497   0.63444    0.005
 6672.00    0.66134   0.63243    0.004
 6673.00    0.65180   0.62674    0.004
 6674.00    0.62824   0.61203    0.004
 6675.00    0.60056   0.59146    0.004
 6676.00    0.56442   0.57936    0.004
 6677.00    0.53445   0.58327    0.004
 6678.00    0.51549   0.59323    0.004
 6679.00    0.50877   0.59757    0.004
 6680.00    0.52118   0.59843    0.004
 6681.00    0.53152   0.60156    0.004
 6682.00    0.53901   0.60568    0.004
 6683.00    0.55648   0.60760    0.004
 6684.00    0.58597   0.60709    0.005
 6685.00    0.61953   0.60587    0.005
 6686.00    0.65743   0.60588    0.005
 6687.00    0.63757   0.60779    0.005
 6688.00    0.56349   0.61001    0.005
 6689.00    0.46397   0.61096    0.005
 6690.00    0.34341   0.61086    0.005
 6691.00    0.32906   0.61014    0.005
 6692.00    0.39212   0.60788    0.005
 6693.00    0.46229   0.60349    0.005
 6694.00    0.53702   0.59956    0.004
 6695.00    0.59236   0.59960    0.004
 6696.00    0.63687   0.60382    0.000
 6697.00    0.61913   0.61005    0.000
 6698.00    0.57108   0.61568    0.000
 6699.00    0.53697   0.61813    0.000
 6700.00    0.50871   0.61663    0.000
 6701.00    0.52883   0.61282    0.000
 6702.00    0.56637   0.60984    0.000
 6703.00    0.56096   0.60972    0.000
 6704.00    0.54248   0.61132    0.000
 6705.00    0.53858   0.61280    0.000
 6706.00    0.53837   0.61376    0.000
 6707.00    0.49928   0.61353    0.000
 6708.00    0.45219   0.61194    0.000
 6709.00    0.45508   0.61028    0.000
 6710.00    0.46607   0.60772    0.000
 6711.00    0.47726   0.60151    0.000
 6712.00    0.48847   0.59169    0.000
 6713.00    0.67866   0.58104    0.000
 6714.00    0.88369   0.57215    0.000
 6715.00    0.96246   0.56748    0.000
 6716.00    1.03523   0.56939    0.000
 6717.00    0.93449   0.57598    0.000
 6718.00    0.83167   0.58140    0.000
 6719.00    0.74955   0.58336    0.000
 6720.00    0.66746   0.58480    0.000
 6721.00    0.58582   0.58771    0.000
 6722.00    0.51475   0.58969    0.000
 6723.00    0.56490   0.58908    0.000
 6724.00    0.61856   0.58839    0.000
 6725.00    0.70020   0.59010    0.000
 6726.00    0.78073   0.59318    0.000
 6727.00    0.85455   0.59578    0.000
 6728.00    0.92977   0.59758    0.000
 6729.00    1.01161   0.59849    0.000
 6730.00    1.04994   0.59810    0.000
 6731.00    0.92016   0.59705    0.000
 6732.00    0.79292   0.59688    0.000
 6733.00    0.67380   0.59803    0.000
 6734.00    0.56711   0.59872    0.000
 6735.00    0.49428   0.59687    0.000
 6736.00    0.45258   0.59326    0.000
 6737.00    0.48362   0.59129    0.000
 6738.00    0.47817   0.59277    0.000
 6739.00    0.39899   0.59460    0.000
 6740.00    0.34426   0.59347    0.000
 6741.00    0.33255   0.59200    0.000
 6742.00    0.36528   0.59350    0.000
 6743.00    0.46642   0.59496    0.000
 6744.00    0.53574   0.59228    0.000
 6745.00    0.56205   0.58642    0.000
 6746.00    0.58314   0.58125    0.000
 6747.00    0.59800   0.57933    0.000
 6748.00    0.61063   0.58036    0.000
 6749.00    0.62090   0.58133    0.000
 6750.00    0.53498   0.57989    0.000
 6751.00    0.35999   0.57910    0.000
 6752.00    0.25657   0.58273    0.000
 6753.00    0.21157   0.58918    0.005
 6754.00    0.22666   0.59557    0.005
 6755.00    0.28492   0.60084    0.005
 6756.00    0.38010   0.60418    0.005
 6757.00    0.49856   0.60560    0.005
 6758.00    0.59900   0.60582    0.005
 6759.00    0.68950   0.60508    0.005
 6760.00    0.76856   0.60442    0.005
 6761.00    0.84215   0.60511    0.005
 6762.00    0.75921   0.60575    0.005
 6763.00    0.61151   0.60353    0.005
 6764.00    0.55908   0.59884    0.005
 6765.00    0.54034   0.59599    0.005
 6766.00    0.60259   0.59754    0.005
 6767.00    0.68902   0.60041    0.005
 6768.00    0.70334   0.60111    0.005
 6769.00    0.69979   0.60146    0.005
 6770.00    0.65379   0.60482    0.005
 6771.00    0.59927   0.61033    0.005
 6772.00    0.60360   0.61529    0.005
 6773.00    0.61719   0.61875    0.005
 6774.00    0.55921   0.62054    0.005
 6775.00    0.49288   0.62059    0.005
 6776.00    0.46732   0.61974    0.005
 6777.00    0.44498   0.61808    0.005
 6778.00    0.56181   0.61333    0.005
 6779.00    0.68470   0.60336    0.005
 6780.00    0.69775   0.58991    0.005
 6781.00    0.70817   0.57802    0.005
 6782.00    0.64966   0.57181    0.005
 6783.00    0.59501   0.57217    0.005
 6784.00    0.61031   0.57755    0.005
 6785.00    0.62703   0.58482    0.005
 6786.00    0.65915   0.58998    0.005
 6787.00    0.69142   0.59115    0.005
 6788.00    0.72470   0.59067    0.005
 6789.00    0.74320   0.59109    0.005
 6790.00    0.67550   0.59110    0.005
 6791.00    0.61763   0.58958    0.005
 6792.00    0.60524   0.58889    0.005
 6793.00    0.60698   0.59078    0.005
 6794.00    0.66215   0.59418    0.005
 6795.00    0.68529   0.59739    0.005
 6796.00    0.60730   0.59949    0.005
 6797.00    0.55617   0.60135    0.005
 6798.00    0.57697   0.60401    0.005
 6799.00    0.60194   0.60648    0.005
 6800.00    0.63648   0.60736    0.005
 6801.00    0.67195   0.60643    0.005
 6802.00    0.70931   0.60510    0.005
 6803.00    0.72614   0.60452    0.005
 6804.00    0.70741   0.60404    0.005
 6805.00    0.67059   0.60415    0.005
 6806.00    0.60632   0.60538    0.005
 6807.00    0.54333   0.60625    0.005
 6808.00    0.48201   0.60664    0.005
 6809.00    0.46327   0.60766    0.005
 6810.00    0.49448   0.60811    0.005
 6811.00    0.49358   0.60588    0.005
 6812.00    0.45945   0.60110    0.005
 6813.00    0.47101   0.59760    0.005
 6814.00    0.52427   0.59946    0.005
 6815.00    0.53845   0.60451    0.005
 6816.00    0.52119   0.60707    0.005
 6817.00    0.55453   0.60585    0.005
 6818.00    0.62370   0.60443    0.005
 6819.00    0.65346   0.60613    0.005
 6820.00    0.65874   0.61018    0.005
 6821.00    0.63923   0.61353    0.005
 6822.00    0.60627   0.61511    0.005
 6823.00    0.62248   0.61548    0.005
 6824.00    0.66187   0.61379    0.005
 6825.00    0.68528   0.60923    0.005
 6826.00    0.70220   0.60483    0.005
 6827.00    0.68541   0.60473    0.005
 6828.00    0.65693   0.60816    0.005
 6829.00    0.57475   0.61059    0.005
 6830.00    0.47687   0.61043    0.005
 6831.00    0.49742   0.61142    0.005
 6832.00    0.54665   0.61595    0.005
 6833.00    0.61330   0.62062    0.005
 6834.00    0.68336   0.62168    0.005
 6835.00    0.69942   0.61923    0.005
 6836.00    0.70723   0.61455    0.005
 6837.00    0.71216   0.60841    0.005
 6838.00    0.71676   0.60207    0.005
 6839.00    0.71599   0.59801    0.005
 6840.00    0.71482   0.59932    0.005
 6841.00    0.70790   0.60634    0.005
 6842.00    0.70074   0.61473    0.005
 6843.00    0.59834   0.61954    0.005
 6844.00    0.50072   0.62014    0.005
 6845.00    0.61972   0.61920    0.005
 6846.00    0.72547   0.61744    0.005
 6847.00    0.60743   0.61353    0.005
 6848.00    0.49999   0.60896    0.005
 6849.00    0.50334   0.60643    0.005
 6850.00    0.50251   0.60555    0.005
 6851.00    0.47066   0.60364    0.005
 6852.00    0.44326   0.59939    0.005
 6853.00    0.44109   0.59552    0.005
 6854.00    0.44891   0.59564    0.005
 6855.00    0.50180   0.59887    0.005
 6856.00    0.56813   0.60169    0.005
 6857.00    0.68421   0.60137    0.005
 6858.00    0.77608   0.59712    0.005
 6859.00    0.79295   0.59318    0.005
 6860.00    0.80650   0.59643    0.005
 6861.00    0.81132   0.60653    0.005
 6862.00    0.78129   0.61500    0.005
 6863.00    0.67253   0.61597    0.005
 6864.00    0.56175   0.61064    0.005
 6865.00    0.44700   0.60318    0.005
 6866.00    0.36979   0.59869    0.005
 6867.00    0.35662   0.60006    0.005
 6868.00    0.37844   0.60331    0.005
 6869.00    0.45257   0.60340    0.005
 6870.00    0.50886   0.60225    0.005
 6871.00    0.54172   0.60389    0.005
 6872.00    0.56982   0.60755    0.005
 6873.00    0.59243   0.61117    0.005
 6874.00    0.58011   0.61507    0.005
 6875.00    0.53214   0.61969    0.005
 6876.00    0.51843   0.62337    0.005
 6877.00    0.53556   0.62387    0.005
 6878.00    0.52647   0.62047    0.005
 6879.00    0.49659   0.61426    0.005
 6880.00    0.47302   0.60805    0.005
 6881.00    0.45385   0.60559    0.005
 6882.00    0.47166   0.60812    0.005
 6883.00    0.51212   0.61250    0.005
 6884.00    0.50458   0.61619    0.005
 6885.00    0.47140   0.61996    0.005
 6886.00    0.47404   0.62385    0.005
 6887.00    0.49329   0.62701    0.005
 6888.00    0.50664   0.62946    0.005
 6889.00    0.51763   0.63046    0.005
 6890.00    0.50210   0.62987    0.005
 6891.00    0.47753   0.62941    0.005
 6892.00    0.49315   0.62967    0.005
 6893.00    0.52030   0.62938    0.005
 6894.00    0.57362   0.62884    0.005
 6895.00    0.63314   0.62987    0.005
 6896.00    0.63414   0.63113    0.005
 6897.00    0.62399   0.62928    0.005
 6898.00    0.65887   0.62628    0.005
 6899.00    0.70041   0.62765    0.005
 6900.00    0.72208   0.63279    0.005
 6901.00    0.74160   0.63567    0.005
 6902.00    0.72768   0.63503    0.005
 6903.00    0.71139   0.63561    0.005
 6904.00    0.61290   0.63957    0.005
 6905.00    0.51146   0.64364    0.005
 6906.00    0.52383   0.64534    0.005
 6907.00    0.53576   0.64544    0.005
 6908.00    0.51914   0.64403    0.005
 6909.00    0.50029   0.64054    0.005
 6910.00    0.44607   0.63599    0.005
 6911.00    0.40622   0.63217    0.005
 6912.00    0.51026   0.63115    0.005
 6913.00    0.60079   0.63334    0.005
 6914.00    0.59415   0.63574    0.005
 6915.00    0.57703   0.63607    0.005
 6916.00    0.50210   0.63501    0.005
 6917.00    0.44006   0.63443    0.005
 6918.00    0.43482   0.63600    0.005
 6919.00    0.44641   0.63837    0.005
 6920.00    0.51903   0.63768    0.005
 6921.00    0.58048   0.63191    0.005
 6922.00    0.60797   0.62391    0.005
 6923.00    0.60398   0.61974    0.005
 6924.00    0.51864   0.62268    0.005
 6925.00    0.48691   0.63017    0.005
 6926.00    0.57434   0.63684    0.005
 6927.00    0.58752   0.63985    0.005
 6928.00    0.45764   0.63977    0.005
 6929.00    0.39790   0.63760    0.005
 6930.00    0.45604   0.63393    0.005
 6931.00    0.46770   0.63172    0.005
 6932.00    0.41089   0.63412    0.005
 6933.00    0.39486   0.63871    0.005
 6934.00    0.43163   0.64105    0.005
 6935.00    0.49432   0.64104    0.005
 6936.00    0.58658   0.64175    0.005
 6937.00    0.58986   0.64493    0.005
 6938.00    0.50362   0.64908    0.005
 6939.00    0.47992   0.65055    0.005
 6940.00    0.51173   0.64765    0.005
 6941.00    0.48264   0.64187    0.005
 6942.00    0.40594   0.63600    0.005
 6943.00    0.42602   0.63449    0.005
 6944.00    0.51266   0.64010    0.005
 6945.00    0.55846   0.64878    0.005
 6946.00    0.57965   0.65447    0.005
 6947.00    0.61992   0.65541    0.005
 6948.00    0.67022   0.65205    0.005
 6949.00    0.67492   0.64587    0.005
 6950.00    0.65880   0.63977    0.005
 6951.00    0.60682   0.63606    0.005
 6952.00    0.54076   0.63658    0.005
 6953.00    0.53105   0.64169    0.005
 6954.00    0.54019   0.64789    0.005
 6955.00    0.62788   0.65154    0.005
 6956.00    0.73764   0.65295    0.005
 6957.00    0.66361   0.65439    0.005
 6958.00    0.54706   0.65682    0.005
 6959.00    0.61613   0.65948    0.005
 6960.00    0.71965   0.66178    0.005
 6961.00    0.81541   0.66348    0.005
 6962.00    0.91005   0.66338    0.005
 6963.00    0.83749   0.66160    0.005
 6964.00    0.74761   0.66143    0.005
 6965.00    0.67960   0.66510    0.005
 6966.00    0.61306   0.66928    0.005
 6967.00    0.52668   0.66908    0.005
 6968.00    0.43971   0.66501    0.005
 6969.00    0.55885   0.66198    0.005
 6970.00    0.67186   0.66296    0.005
 6971.00    0.59693   0.66517    0.005
 6972.00    0.55413   0.66396    0.005
 6973.00    0.98946   0.65859    0.011
 6974.00    1.36444   0.64987   -1.000
 6975.00    1.15987   0.63767   -1.000
 6976.00    0.97084   0.62662   -1.000
 6977.00    0.88993   0.62637   -1.000
 6978.00    0.81010   0.63855   -1.000
 6979.00    0.73607   0.65400   -1.000
 6980.00    0.65553   0.66527   -1.000
 6981.00    0.54696   0.67138   -1.000
 6982.00    0.46767   0.67435   -1.000
 6983.00    0.49236   0.67589   -1.000
 6984.00    0.52201   0.67522    0.037
 6985.00    0.56644   0.67048    0.007
 6986.00    0.59689   0.66200    0.005
 6987.00    0.59179   0.65387    0.005
 6988.00    0.56024   0.65147    0.005
 6989.00    0.47085   0.65591    0.005
 6990.00    0.41508   0.66230    0.005
 6991.00    0.42311   0.66498    0.005
 6992.00    0.42252   0.66374    0.005
 6993.00    0.40763   0.66256    0.005
 6994.00    0.46826   0.66342    0.005
 6995.00    0.63849   0.66395    0.005
 6996.00    0.65072   0.66085    0.005
 6997.00    0.46129   0.65522    0.005
 6998.00    0.38533   0.65324    0.005
 6999.00    0.43698   0.65778    0.005
 7000.00    0.52988   0.66345    0.005
 7001.00    0.66369   0.66350    0.005
 7002.00    0.75770   0.65855    0.005
 7003.00    0.81690   0.65503    0.005
 7004.00    0.78436   0.65619    0.005
 7005.00    0.68112   0.65992    0.005
 7006.00    0.60098   0.66398    0.005
 7007.00    0.53648   0.66686    0.005
 7008.00    0.47395   0.66697    0.005
 7009.00    0.41259   0.66649    0.005
 7010.00    0.40323   0.66856    0.005
 7011.00    0.42080   0.66946    0.005
 7012.00    0.44830   0.66238    0.005
 7013.00    0.48026   0.64883    0.005
 7014.00    0.56199   0.64078    0.005
 7015.00    0.66292   0.64760    0.005
 7016.00    0.64146   0.66386    0.005
 7017.00    0.57983   0.67707    0.005
 7018.00    0.54958   0.68212    0.005
 7019.00    0.52797   0.68018    0.005
 7020.00    0.57678   0.67243    0.005
 7021.00    0.64152   0.66258    0.005
 7022.00    0.62030   0.65739    0.005
 7023.00    0.58355   0.65925    0.005
 7024.00    0.65668   0.66332    0.005
 7025.00    0.74504   0.66530    0.005
 7026.00    0.69532   0.66718    0.005
 7027.00    0.63190   0.67144    0.005
 7028.00    0.67425   0.67598    0.005
 7029.00    0.72323   0.67770    0.005
 7030.00    0.54683   0.67642    0.005
 7031.00    0.36447   0.67487    0.005
 7032.00    0.29455   0.67559    0.005
 7033.00    0.22995   0.67763    0.005
 7034.00    0.31131   0.67593    0.005
 7035.00    0.38951   0.66727    0.005
 7036.00    0.42323   0.65917    0.005
 7037.00    0.46267   0.66352    0.006
 7038.00    0.55486   0.67944    0.006
 7039.00    0.61994   0.69523    0.006
 7040.00    0.50239   0.70340    0.005
 7041.00    0.43674   0.70357    0.005
 7042.00    0.64242   0.69874    0.005
 7043.00    0.78712   0.69495    0.005
 7044.00    0.67511   0.69707    0.005
 7045.00    0.54384   0.70363    0.005
 7046.00    0.34556   0.70912    0.005
 7047.00    0.25255   0.70904    0.005
 7048.00    0.46763   0.70190    0.005
 7049.00    0.59920   0.68733    0.005
 7050.00    0.52229   0.66424   -2.000
 7051.00    0.45021   0.63439   -2.000
 7052.00    0.38854   0.60620   -2.000
 7053.00    0.40741   0.59152   -2.000
 7054.00    0.57668   0.59385   -2.000
 7055.00    0.60805   0.60240   -2.000
 7056.00    0.41452   0.60405   -2.000
 7057.00    0.32999   0.59665   -2.000
 7058.00    0.40137   0.58783   -2.000
 7059.00    0.51617   0.58446   -2.000
 7060.00    0.68563   0.58653   -2.000
 7061.00    0.84029   0.59064   -2.000
 7062.00    0.97852   0.59364   -2.000
 7063.00    1.02118   0.59300   -2.000
 7064.00    0.97037   0.58902   -2.000
 7065.00    0.86503   0.58492   -2.000
 7066.00    0.71265   0.58439   -2.000
 7067.00    0.68141   0.59016   -2.000
 7068.00    0.74220   0.60097   -2.000
 7069.00    0.64714   0.61124   -2.000
 7070.00    0.44801   0.61697   -2.000
 7071.00    0.46134   0.61878   -2.000
 7072.00    0.59894   0.61873   -2.000
 7073.00    0.65087   0.61823   -2.000
 7074.00    0.65913   0.61851   -2.000
 7075.00    0.66459   0.62022   -2.000
 7076.00    0.66881   0.62305   -2.000
 7077.00    0.76077   0.62662   -2.000
 7078.00    0.88601   0.62988   -2.000
 7079.00    0.82210   0.62940   -2.000
 7080.00    0.69729   0.62185   -2.000
 7081.00    0.92713   0.60867   -2.000
 7082.00    1.25251   0.59610   -2.000
 7083.00    1.02996   0.58842   -2.000
 7084.00    0.68644   0.58080   -2.000
 7085.00    0.68308   0.56672   -2.000
 7086.00    0.73952   0.55114   -2.000
 7087.00    0.62653   0.54397   -2.000
 7088.00    0.49085   0.54641   -2.000
 7089.00    0.44476   0.55252   -2.000
 7090.00    0.40719   0.55617   -2.000
 7091.00    0.45355   0.55545   -2.000
 7092.00    0.50484   0.55301   -2.000
 7093.00    0.51348   0.55166   -2.000
 7094.00    0.52225   0.55259   -2.000
 7095.00    0.69009   0.55587   -2.000
 7096.00    0.84866   0.56070   -2.000
 7097.00    0.77648   0.56498   -2.000
 7098.00    0.69778   0.56609   -2.000
 7099.00    0.53260   0.56353   -2.000
 7100.00    0.39805   0.56017   -2.000
 7101.00    0.53508   0.56025   -2.000
 7102.00    0.66242   0.56518   -2.000
 7103.00    0.72645   0.57144   -2.000
 7104.00    0.78274   0.57515   -2.000
 7105.00    0.79960   0.57680   -2.000
 7106.00    0.80875   0.57786   -2.000
 7107.00    0.78619   0.57653   -2.000
 7108.00    0.76622   0.57173   -2.000
 7109.00    0.75508   0.56768   -2.000
 7110.00    0.77007   0.56904   -2.000
 7111.00    0.86017   0.57440   -2.000
 7112.00    0.86028   0.57934   -2.000
 7113.00    0.63961   0.58292   -2.000
 7114.00    0.49223   0.58635   -2.000
 7115.00    0.49996   0.58908   -2.000
 7116.00    0.52391   0.59034   -2.000
 7117.00    0.57769   0.59085   -2.000
 7118.00    0.57845   0.59110   -2.000
 7119.00    0.49403   0.59060   -2.000
 7120.00    0.64938   0.58910   -2.000
 7121.00    1.14273   0.58464   -2.000
 7122.00    1.32765   0.57192   -2.000
 7123.00    1.13002   0.55094   -2.000
 7124.00    0.94681   0.53261   -2.000
 7125.00    0.77937   0.52634   -2.000
 7126.00    0.76270   0.52812   -2.000
 7127.00    0.89144   0.52837   -2.000
 7128.00    0.95704   0.52479   -2.000
 7129.00    0.96896   0.52223   -2.000
 7130.00    0.87977   0.52435   -2.000
 7131.00    0.71485   0.52993   -2.000
 7132.00    0.56764   0.53559   -2.000
 7133.00    0.43209   0.53928   -2.000
 7134.00    0.45661   0.54115   -2.000
 7135.00    0.57333   0.54138   -2.000
 7136.00    0.72190   0.53993   -2.000
 7137.00    0.88644   0.53934   -2.000
 7138.00    1.02451   0.54235   -2.000
 7139.00    1.15109   0.54736   -2.000
 7140.00    0.95413   0.55100   -2.000
 7141.00    0.63666   0.55264   -2.000
 7142.00    0.61657   0.55341   -2.000
 7143.00    0.69041   0.55352   -2.000
 7144.00    0.70537   0.55186   -2.000
 7145.00    0.70480   0.54792   -2.000
 7146.00    0.49707   0.54458   -2.000
 7147.00    0.24467   0.54534   -2.000
 7148.00    0.24565   0.54980   -2.000
 7149.00    0.28993   0.55615   -2.000
 7150.00    0.38855   0.56353   -2.000
 7151.00    0.49420   0.56961   -2.000
 7152.00    0.46818   0.57223   -2.000
 7153.00    0.43021   0.57340   -2.000
 7154.00    0.46178   0.57577   -2.000
 7155.00    0.49715   0.57632   -2.000
 7156.00    0.47732   0.57084   -2.000
 7157.00    0.45874   0.56269   -2.000
 7158.00    0.65909   0.55921   -2.000
 7159.00    0.85299   0.56196   -2.000
 7160.00    0.90025   0.56501   -2.000
 7161.00    0.93736   0.56243   -2.000
 7162.00    0.84657   0.55623   -2.000
 7163.00    0.71034   0.55427   -2.000
 7164.00    0.18659   0.55987   -2.000
 7165.00   -0.15397   0.56774   -2.000
 7166.00    0.66657   0.57163   -2.000
 7167.00    1.31668   0.57199   -2.000
 7168.00    1.12059   0.57345   -2.000
 7169.00    0.93799   0.57740   -2.000
 7170.00    0.80970   0.58090   -2.000
 7171.00    0.70233   0.58150   -2.000
 7172.00    0.66487   0.57960   -2.000
 7173.00    0.59861   0.57730   -2.000
 7174.00    0.45111   0.57700   -2.000
 7175.00    0.36352   0.57930   -2.000
 7176.00    0.42041   0.58088   -2.000
 7177.00    0.38761   0.57793   -2.000
 7178.00    0.16805   0.57247   -2.000
 7179.00    0.10512   0.57109   -2.000
 7180.00    0.32580   0.57744   -2.000
 7181.00    0.42521   0.58768   -2.000
 7182.00    0.33269   0.59412   -2.000
 7183.00    0.37695   0.59190   -2.000
 7184.00    0.61124   0.58190   -2.000
 7185.00    0.77534   0.56999   -2.000
 7186.00    0.85360   0.56367   -2.000
 7187.00    0.80722   0.56669   -2.000
 7188.00    0.62650   0.57558   -2.000
 7189.00    0.43120   0.58268   -2.000
 7190.00    0.22205   0.58428   -2.000
 7191.00    0.18291   0.58422   -2.000
 7192.00    0.28630   0.58601   -2.000
 7193.00    0.35634   0.58654   -2.000
 7194.00    0.40178   0.58180   -2.000
 7195.00    0.43114   0.57470   -2.000
 7196.00    0.45007   0.57202   -2.000
 7197.00    0.72032   0.57456   -2.000
 7198.00    1.13314   0.57668   -2.000
 7199.00    1.12438   0.57587   -2.000
 7200.00    0.90741   0.57633   -2.000
 7201.00    0.73746   0.58110   -2.000
 7202.00    0.58759   0.58568   -2.000
 7203.00    0.69030   0.58327   -2.000
 7204.00    0.88542   0.57334   -2.000
 7205.00    0.77635   0.56315   -2.000
 7206.00    0.57303   0.56060   -2.000
 7207.00    0.44629   0.56701   -2.000
 7208.00    0.33932   0.57795   -2.000
 7209.00    0.44566   0.58694   -2.000
 7210.00    0.59687   0.58940   -2.000
 7211.00    0.58890   0.58675   -2.000
 7212.00    0.55449   0.58405   -2.000
 7213.00    0.44934   0.58448   -2.000
 7214.00    0.33536   0.58851   -2.000
 7215.00    0.21617   0.59497   -2.000
 7216.00    0.09653   0.60048   -2.000
 7217.00    0.12742   0.60212   -2.000
 7218.00    0.16597   0.60108   -2.000
