###################################################################
## OUTPUT of StarlightChains_v04.for    [Cid@UFSC - 01/Apr/2007] ##
###################################################################

## Some input info
KUG0210-078._31_39.txt                   [arq_obs]
Base.CB07.vall.4m                        [arq_base]
Masks.EmLines.NEW.gm                     [arq_masks]
StCv04.C11.config                        [arq_config]
   66                                    [N_base]
    0                                    [N_YAV_components = # of components with extra extinction!]
    0                                    [i_FitPowerLaw (1/0 = Yes/No)]
-9.99                                    [alpha_PowerLaw]
CCM                                      [red_law_option]
 1.458241                                [q_norm = A(l_norm)/A(V)]

## (Re)Sampling Parameters
 3741.00                                 [l_ini (A)]
 7218.00                                 [l_fin (A)]
    1.00                                 [dl    (A)]     (OBS: dl_cushion =    50.00 A)

## Normalization info
 4020.00                                 [l_norm (A) - for base]
 4010.00                                 [llow_norm (A) - window for f_obs]
 4060.00                                 [lupp_norm (A) - window for f_obs]
1.769720E-17                             [fobs_norm (in input units)]

## S/N
 3691.00                                 [llow_SN (A) - window for S/N]
 7268.00                                 [lupp_SN (A) - window for S/N]
   5.822                                 [S/N in S/N window]
   5.224                                 [S/N in norm. window]
   0.023                                 [S/N_err in S/N window]
   0.021                                 [S/N_err in norm. window]
  1.0000                                 [fscale_chi2]

## etc...
    -2007464                             [idum_orig]
  2432                                   [NOl_eff]
  2408                                   [Nl_eff]
    24    NSIGMA                         [Ntot_cliped & clip_method]
  2383920                                [Nglobal_steps]
   7                                     [N_chains]
  40                                     [NEX0s_base = N_base in EX0s-fits]
 0   0   1       24   2.0   3.616E+03    [Clip-Bug, RC-Crash & Burn-In warning-flags, n_censored_weights, wei_nsig_threshold & wei_limit]
    62     61.601     60.840      0.761  [idt_all, wdt_TotTime, wdt_UsrTime & wdt_SysTime (sec)]

## Synthesis Results - Best model ##

 1.03135E-05                             [chi2/Nl_eff]
     8.49623                             [adev (%)]

   110.55351                             [sum-of-x (%)]
 1.01476E-17                             [Flux_tot (units of input spectrum!)]
 8.17293E-13                             [Mini_tot (???)]
 4.12734E-13                             [Mcor_tot (???)]

  29.77                                  [v0_min  (km/s)]
 324.09                                  [vd_min  (km/s)]
-0.4888                                  [AV_min  (mag)]
 0.0000                                  [YAV_min (mag)]

# j     x_j(%)      Mini_j(%)     Mcor_j(%)     age_j(yr)     Z_j      (L/M)_j    YAV?  Mstars   component_j        a/Fe...       SSP_chi2r SSP_adev(%)   SSP_AV   SSP_x(%)
  1      4.6026     4.7250E-03    9.3564E-03    1.000000E+06  0.00400  1.094E-02    0   1.0000   age020_m42            0.0000     2.2393E-05    12.4676   3.4546    90.9183
  2      0.1643     4.6057E-05    9.1193E-05    3.160000E+06  0.00400  4.007E-02    0   0.9999   age045_m42            0.0000     1.9507E-05    11.4763   2.7087    98.0087
  3      0.0000     0.0000E+00    0.0000E+00    5.010000E+06  0.00400  2.539E-02    0   0.9488   age055_m42            0.0000     2.0589E-05    11.9221   3.0399    95.1599
  4      0.0000     0.0000E+00    0.0000E+00    6.610000E+06  0.00400  2.620E-02    0   0.9220   age061_m42            0.0000     1.9445E-05    11.4538   2.6370    98.1463
  5      0.0000     0.0000E+00    0.0000E+00    1.000000E+07  0.00400  1.322E-02    0   0.8862   age070_m42            0.0000     2.0933E-05    12.2880   2.3843    99.1721
  6      0.0000     0.0000E+00    0.0000E+00    1.445000E+07  0.00400  7.883E-03    0   0.8571   age078_m42            0.0000     2.1549E-05    12.4450   2.7118    96.6031
  7      0.0000     0.0000E+00    0.0000E+00    2.512000E+07  0.00400  5.251E-03    0   0.8174   age090_m42            0.0000     2.1157E-05    12.4509   2.2587    99.6148
  8      0.0000     0.0000E+00    0.0000E+00    4.000000E+07  0.00400  3.649E-03    0   0.7851   age104_m42            0.0000     2.0294E-05    12.1442   2.0244   100.7269
  9      0.0000     0.0000E+00    0.0000E+00    5.500000E+07  0.00400  3.098E-03    0   0.7629   age110_m42            0.0000     1.9590E-05    11.5877   2.1619   101.3545
 10      0.0000     0.0000E+00    0.0000E+00    1.015200E+08  0.00400  2.228E-03    0   0.7207   age116_m42            0.0000     1.9223E-05    11.2436   2.1706   101.9815
 11      0.0000     0.0000E+00    0.0000E+00    2.861200E+08  0.00400  1.093E-03    0   0.6648   age125_m42            0.0000     1.8943E-05    11.2514   1.6015   104.8753
 12      0.0000     0.0000E+00    0.0000E+00    5.088000E+08  0.00400  6.597E-04    0   0.6365   age130_m42            0.0000     1.7981E-05    10.6216   1.5735   106.4762
 13      0.0000     0.0000E+00    0.0000E+00    1.434000E+09  0.00400  2.132E-04    0   0.5798   age139_m42            0.0000     1.4255E-05     9.6047   0.5930   108.8959
 14      0.0000     0.0000E+00    0.0000E+00    4.250000E+09  0.00400  5.895E-05    0   0.5377   age158_m42            0.0000     1.2066E-05     9.0124   0.1341   105.1823
 15      0.0000     0.0000E+00    0.0000E+00    7.500000E+09  0.00400  3.510E-05    0   0.5212   age171_m42            0.0000     1.1552E-05     8.8087  -0.0658   104.8119
 16      0.0000     0.0000E+00    0.0000E+00    1.300000E+10  0.00400  2.005E-05    0   0.5034   age193_m42            0.0000     1.1346E-05     8.7016  -0.2399   104.4813
 17      1.4255     1.0498E+00    1.0326E+00    1.800000E+10  0.00400  1.525E-05    0   0.4967   age213_m42            0.0000     1.1495E-05     8.7719  -0.2602   103.9378
 18      0.0000     0.0000E+00    0.0000E+00    1.000000E+06  0.00800  1.238E-02    0   1.0000   age020_m52            0.0000     2.2369E-05    12.4752   3.4509    91.0982
 19      0.0000     0.0000E+00    0.0000E+00    3.160000E+06  0.00800  3.074E-02    0   0.9966   age045_m52            0.0000     2.1937E-05    12.3841   3.3733    91.9453
 20      0.0000     0.0000E+00    0.0000E+00    5.010000E+06  0.00800  2.668E-02    0   0.9443   age055_m52            0.0000     2.0841E-05    12.0444   3.1255    94.1601
 21      0.0000     0.0000E+00    0.0000E+00    6.610000E+06  0.00800  2.136E-02    0   0.9177   age061_m52            0.0000     1.9248E-05    11.9493   1.8846   100.2661
 22      0.0000     0.0000E+00    0.0000E+00    1.000000E+07  0.00800  1.215E-02    0   0.8827   age070_m52            0.0000     2.1972E-05    12.7295   2.5721    98.5935
 23      0.0000     0.0000E+00    0.0000E+00    1.445000E+07  0.00800  8.717E-03    0   0.8552   age078_m52            0.0000     2.1260E-05    12.3883   2.6776    97.9599
 24      0.0000     0.0000E+00    0.0000E+00    2.512000E+07  0.00800  5.592E-03    0   0.8162   age090_m52            0.0000     2.1216E-05    12.4581   2.3208   100.8544
 25      0.0000     0.0000E+00    0.0000E+00    4.000000E+07  0.00800  3.896E-03    0   0.7841   age104_m52            0.0000     2.0271E-05    12.0274   2.2226   102.0319
 26      0.0000     0.0000E+00    0.0000E+00    1.015200E+08  0.00800  2.148E-03    0   0.7226   age116_m52            0.0000     1.8848E-05    11.3620   2.1441   102.4943
 27      0.0000     0.0000E+00    0.0000E+00    2.861200E+08  0.00800  9.925E-04    0   0.6683   age125_m52            0.0000     1.7994E-05    10.5994   1.6385   107.4960
 28      0.0000     0.0000E+00    0.0000E+00    9.047900E+08  0.00800  3.141E-04    0   0.6138   age135_m52            0.0000     1.4333E-05     9.2072   0.8099   113.0564
 29      0.0000     0.0000E+00    0.0000E+00    1.434000E+09  0.00800  1.719E-04    0   0.5853   age139_m52            0.0000     1.2245E-05     8.9359   0.2281   110.5952
 30      0.0000     0.0000E+00    0.0000E+00    2.500000E+09  0.00800  7.872E-05    0   0.5600   age150_m52            0.0000     1.1081E-05     8.5414  -0.0597   108.2912
 31      7.5255     1.9492E+00    2.0943E+00    4.250000E+09  0.00800  4.336E-05    0   0.5426   age158_m52            0.0000     1.1068E-05     8.5631  -0.0754   107.2503
 32      0.0000     0.0000E+00    0.0000E+00    6.250000E+09  0.00800  3.159E-05    0   0.5319   age166_m52            0.0000     1.0734E-05     8.4857  -0.2970   107.8626
 33      0.0000     0.0000E+00    0.0000E+00    1.300000E+10  0.00800  1.361E-05    0   0.5073   age193_m52            0.0000     1.0787E-05     8.6779  -0.7886   107.9240
 34      0.0000     0.0000E+00    0.0000E+00    1.800000E+10  0.00800  9.886E-06    0   0.4990   age213_m52            0.0000     1.1173E-05     8.9462  -0.9187   108.1142
 35      0.0000     0.0000E+00    0.0000E+00    1.000000E+06  0.02000  1.544E-02    0   1.0000   age020_m62            0.0000     2.2444E-05    12.4971   3.4464    91.3089
 36      0.0000     0.0000E+00    0.0000E+00    3.160000E+06  0.02000  3.762E-02    0   0.9858   age045_m62            0.0000     2.2278E-05    12.4504   3.3851    92.1004
 37      0.0000     0.0000E+00    0.0000E+00    5.010000E+06  0.02000  3.296E-02    0   0.9342   age055_m62            0.0000     1.9917E-05    11.6372   2.9905    96.6759
 38      0.0000     0.0000E+00    0.0000E+00    8.710000E+06  0.02000  1.154E-02    0   0.8861   age067_m62            0.0000     2.8937E-05    15.6917   2.0746    99.2997
 39      0.6119     8.9675E-04    1.5044E-03    1.445000E+07  0.02000  7.663E-03    0   0.8472   age078_m62            0.0000     2.3149E-05    13.3462   2.2299   100.3222
 40      0.0000     0.0000E+00    0.0000E+00    2.512000E+07  0.02000  4.532E-03    0   0.8099   age090_m62            0.0000     2.3401E-05    13.4506   2.2231    99.9953
 41     11.5049     4.7278E-02    7.1103E-02    5.500000E+07  0.02000  2.733E-03    0   0.7595   age110_m62            0.0000     2.0049E-05    12.0334   2.2076   101.1644
 42      0.0000     0.0000E+00    0.0000E+00    1.609000E+08  0.02000  1.369E-03    0   0.6985   age120_m62            0.0000     1.8945E-05    11.1186   2.0185   105.1091
 43      0.0000     0.0000E+00    0.0000E+00    2.861200E+08  0.02000  9.013E-04    0   0.6714   age125_m62            0.0000     1.8533E-05    10.6211   1.7508   108.8689
 44      0.0000     0.0000E+00    0.0000E+00    5.088000E+08  0.02000  5.028E-04    0   0.6449   age130_m62            0.0000     1.6566E-05     9.6281   1.3446   112.8612
 45      0.0000     0.0000E+00    0.0000E+00    9.047900E+08  0.02000  2.428E-04    0   0.6179   age135_m62            0.0000     1.2761E-05     8.7893   0.7422   112.5744
 46      0.0000     0.0000E+00    0.0000E+00    1.434000E+09  0.02000  1.263E-04    0   0.5908   age139_m62            0.0000     1.1401E-05     8.6000   0.2918   111.0054
 47     11.0465     2.0729E+00    2.3286E+00    2.500000E+09  0.02000  5.985E-05    0   0.5673   age150_m62            0.0000     1.0793E-05     8.5786  -0.0949   110.1566
 48      0.0000     0.0000E+00    0.0000E+00    4.250000E+09  0.02000  3.271E-05    0   0.5468   age158_m62            0.0000     1.0723E-05     8.7933  -0.4281   110.1758
 49     21.8379     1.8034E+01    1.8451E+01    1.000000E+10  0.02000  1.360E-05    0   0.5167   age181_m62            0.0000     1.1524E-05     9.2180  -0.8139   110.9350
 50     13.0928     2.0640E+01    2.0489E+01    1.800000E+10  0.02000  7.124E-06    0   0.5013   age213_m62            0.0000     1.2853E-05     9.5123  -1.0000   109.4348
 51      0.0000     0.0000E+00    0.0000E+00    1.000000E+06  0.05000  2.592E-02    0   0.9998   age020_m72            0.0000     2.2742E-05    12.6210   3.4405    91.2266
 52      0.0000     0.0000E+00    0.0000E+00    3.160000E+06  0.05000  4.845E-02    0   0.9577   age045_m72            0.0000     2.1116E-05    12.0936   3.2586    93.6727
 53      0.0000     0.0000E+00    0.0000E+00    5.010000E+06  0.05000  3.072E-02    0   0.9147   age055_m72            0.0000     2.2584E-05    12.8400   2.8005    96.8549
 54      0.0000     0.0000E+00    0.0000E+00    6.610000E+06  0.05000  1.455E-02    0   0.8877   age061_m72            0.0000     3.4944E-05    17.5492   2.1153    99.6087
 55      0.0000     0.0000E+00    0.0000E+00    1.000000E+07  0.05000  9.074E-03    0   0.8524   age070_m72            0.0000     2.3651E-05    13.0247   2.9667    96.7630
 56      0.0000     0.0000E+00    0.0000E+00    2.512000E+07  0.05000  4.250E-03    0   0.7902   age090_m72            0.0000     2.2103E-05    12.6105   2.6703    98.8479
 57      0.3229     1.1748E-03    1.7722E-03    4.000000E+07  0.05000  3.087E-03    0   0.7618   age104_m72            0.0000     2.2256E-05    12.6751   2.4419   100.5784
 58      0.0000     0.0000E+00    0.0000E+00    1.015200E+08  0.05000  1.700E-03    0   0.7096   age116_m72            0.0000     1.9915E-05    11.5696   2.1678   104.3507
 59      0.0000     0.0000E+00    0.0000E+00    2.861200E+08  0.05000  7.384E-04    0   0.6633   age125_m72            0.0000     1.7636E-05    10.0683   1.6023   111.0426
 60      0.0000     0.0000E+00    0.0000E+00    5.088000E+08  0.05000  3.819E-04    0   0.6372   age130_m72            0.0000     1.4310E-05     9.1098   1.0857   113.7361
 61      0.0000     0.0000E+00    0.0000E+00    9.047900E+08  0.05000  1.676E-04    0   0.6110   age135_m72            0.0000     1.1304E-05     8.8030   0.3613   112.4550
 62     11.3904     1.4476E+00    1.6838E+00    1.434000E+09  0.05000  8.837E-05    0   0.5874   age139_m72            0.0000     1.0868E-05     8.5985  -0.1041   112.1025
 63      4.3714     1.1598E+00    1.2857E+00    2.500000E+09  0.05000  4.233E-05    0   0.5598   age150_m72            0.0000     1.0768E-05     8.9148  -0.4413   111.5818
 64      1.5405     1.2056E+00    1.2531E+00    6.250000E+09  0.05000  1.435E-05    0   0.5249   age166_m72            0.0000     1.1674E-05     9.4171  -0.9218   110.8748
 65      0.0000     0.0000E+00    0.0000E+00    1.300000E+10  0.05000  6.513E-06    0   0.5036   age193_m72            0.0000     1.5074E-05     9.7734  -1.0000   105.8228
 66     21.1164     5.2387E+01    5.1297E+01    1.800000E+10  0.05000  4.527E-06    0   0.4945   age213_m72            0.0000     1.9641E-05    11.1301  -1.0000   100.5382


## Synthesis Results - Average & Chains ##

# j      x_j: min, <> & last-chain-values for 1 ...  7 chains
  1      4.6026      1.3992      0.9683      0.0000      0.0000      0.1414      0.0000      0.5058      0.2655
  2      0.1643      0.9850      0.1893      0.0000      0.1232      0.0000      0.0000      0.9737      0.2809
  3      0.0000      1.2104      0.0000      0.2347      0.3707      0.0215      0.0458      1.4375      0.2399
  4      0.0000      1.5944      0.0000      0.6098      0.6626      0.0237      0.0000      0.2882      1.5430
  5      0.0000      1.3205      1.2916      0.0908      1.1642      0.0404      0.0000      1.9886      0.0000
  6      0.0000      1.1950      0.2859      1.3575      1.2507      0.0000      0.0000      0.0000      0.5646
  7      0.0000      1.7210      1.7545      0.0000      0.0000      0.0000      0.0000      0.4150      1.9206
  8      0.0000      1.3494      0.0778      0.7798      0.2262      0.0142      4.2371      4.1130      0.7617
  9      0.0000      1.5035      0.1298      0.2316      0.2233      0.0434      6.4454      0.3440      0.2377
 10      0.0000      1.5899      1.1989      0.2182      0.0000      0.0054      0.0000      0.0000      1.3780
 11      0.0000      1.3927      0.0000      0.0368      0.4290      0.0871      1.6218      0.0000      0.0000
 12      0.0000      1.1716      0.0549      0.0000      0.5349      0.0000      0.0000      0.0000      0.2216
 13      0.0000      1.4705      0.0000      0.8197      0.8759      0.0000      0.8947      0.0000      0.7643
 14      0.0000      1.2892      0.5505      0.1126      0.7310      0.0345      1.4209      0.8893      3.4929
 15      0.0000      8.7261     25.5523     27.7046     24.6497     32.4362      2.6343      6.9807     10.7154
 16      0.0000      7.7974     22.6312     23.8870     20.5781     29.1934     10.7845      0.4763      6.7897
 17      1.4255      4.5560     11.6130     13.2214     14.7996     11.9446      1.4040      3.0238      7.3966
 18      0.0000      1.7946      1.3570      0.3985      1.4187      2.2026      6.0081      1.6418      0.0000
 19      0.0000      1.8418      1.6572      2.1242      1.8201      2.0457      0.5291      0.0407      0.0000
 20      0.0000      1.7160      0.0000      0.1678      1.0043      1.6645      0.0000      0.1929      4.9743
 21      0.0000      1.3848      0.0000      0.8199      0.0000      0.0000      0.4791      1.8516      0.8487
 22      0.0000      1.1114      1.1539      0.1809      0.5661      0.0000      0.0000      5.7785      0.4450
 23      0.0000      1.5523      0.0835      0.0000      0.1525      0.0034      2.9330      3.9497      0.0000
 24      0.0000      1.3166      0.0000      0.1445      0.1776      0.0198      0.0000      0.0000      0.0000
 25      0.0000      0.9126      0.0101      1.5504      1.1195      0.0000      1.7696      0.0000      5.0147
 26      0.0000      1.6086      0.0221      0.0000      0.3895      0.0027      0.0000      0.0000      0.6661
 27      0.0000      1.2267      0.0000      1.0601      0.0000      0.0894      2.0463      0.9963      0.0927
 28      0.0000      2.4768      2.8662      0.0000      0.3022      0.0000      1.1352      0.0000      1.1655
 29      0.0000      1.1767      0.2129      0.0000      0.0374      0.0000      0.0000      0.8797      0.0000
 30      0.0000      1.1872      1.3675      0.5480      0.0000      0.0000      0.0000      0.0000      1.4058
 31      7.5255      1.4175      1.5395      0.1266      0.8315      0.0530      5.8334      6.5985      0.5300
 32      0.0000      1.6436      1.0574      0.7818      0.9011      2.5380      1.6670      0.0380      0.0000
 33      0.0000      1.5847      0.9718      0.3255      1.0088      0.0334      0.0000      0.0000      0.2811
 34      0.0000      1.7110      0.8923      0.0000      1.4994      0.0000      2.4156      0.0000      2.5288
 35      0.0000      1.5855      2.4009      2.6758      1.6576      3.5375      1.9565      0.0764      0.9618
 36      0.0000      2.1646      4.0863      3.5816      3.2891      3.5887      0.0000      1.4705      3.9520
 37      0.0000      1.5751      0.0000      0.3820      0.3937      0.0173      0.0000      0.0000      0.2800
 38      0.0000      1.0441      0.6710      0.0000      0.0000      0.0000      3.6921      0.2985      0.0662
 39      0.6119      1.0549      0.0000      0.7687      0.0679      0.0000      0.6722      0.9960      2.1193
 40      0.0000      1.5373      0.0000      0.4187      0.0000      0.0149      2.3697      0.3310      0.0000
 41     11.5049      1.3960      0.0000      0.0000      1.4868      0.0582      0.0000      2.2315      1.6506
 42      0.0000      1.0725      0.0000      0.2525      0.4198      0.0046      0.0579      1.3263      0.4731
 43      0.0000      1.2760      0.0000      1.6739      0.0000      0.0000      2.4010      0.0000      0.0000
 44      0.0000      1.8886      0.6704      0.0000      1.1644      0.0000      0.1289      1.6053      0.2443
 45      0.0000      1.4270      0.5287      1.1361      0.3236      0.0056      5.8585      0.0000      2.4286
 46      0.0000      1.4424      0.0000      0.0000      1.1040      0.7933      4.5532      0.4873      3.4497
 47     11.0465      1.5788      0.0000      1.0135      0.4334      0.0284      2.6679      8.1526      9.2686
 48      0.0000      1.5964      1.7967      3.4133      3.9624      2.3076      6.0737      1.1364      5.7884
 49     21.8379      2.0737      2.0670      3.8131      2.2558      2.2946      7.2015     11.8179      1.6710
 50     13.0928      1.7849      2.7709      1.4668      1.4027      1.4090      1.0335      4.4884      2.1027
 51      0.0000      3.2502      6.7573      7.0907      5.4965      8.0420      0.5420      0.9832      1.5896
 52      0.0000      2.4205      3.2314      3.0693      4.1525      3.9672      0.0000      0.7248      0.2278
 53      0.0000      1.4756      1.4677      2.0433      1.4207      1.4662      0.0000      1.2662      0.0000
 54      0.0000      1.5722      0.0000      0.0000      0.0000      0.0000      0.0000      5.5590      3.4783
 55      0.0000      1.2436      0.0000      0.0000      0.9156      0.0213      3.9145      0.0000      1.6324
 56      0.0000      1.9520      1.7486      0.5340      0.1313      0.0000      3.2151      0.0000      0.0000
 57      0.3229      1.1251      0.2138      0.0000      0.1887      0.0000      1.6561      3.8393      0.0000
 58      0.0000      1.4219      0.0000      0.0000      1.0097      0.0297      0.0000      4.8299      0.1332
 59      0.0000      1.7791      1.7707      1.1531      0.2743      0.9090      1.1671      0.3210      4.3668
 60      0.0000      1.4212      0.0000      0.0000      0.0000      0.0000      2.2604      0.9597      0.0000
 61      0.0000      2.5706      2.9677      3.8520      4.3320      5.2819      0.4625      3.9942      3.6151
 62     11.3904      1.4653      1.7763      0.1406      2.0390      0.0710      1.6509      1.2150      4.1923
 63      4.3714      1.4888      1.3518      0.9510      1.8291      0.8449      0.8015      0.7477      0.9124
 64      1.5405      1.2843      0.8424      0.5863      0.3337      0.4585      4.1983      3.3687      2.6416
 65      0.0000      1.5571      0.8081      0.1694      0.0000      0.1281      0.0000      8.6184      3.0041
 66     21.1164      1.1616      0.1135      0.4334      0.0000      0.0345      2.4339      0.6371      1.2132

# j      m_j: min, <> & last-chain-values for 1 ...  7 chains
  1  9.3564E-03  9.8086E-03  4.6070E-03  0.0000E+00  0.0000E+00  6.6577E-04  0.0000E+00  2.2276E-03  1.4248E-03
  2  9.1193E-05  1.8850E-03  2.4591E-04  0.0000E+00  1.6668E-04  0.0000E+00  0.0000E+00  1.1707E-03  4.1158E-04
  3  0.0000E+00  3.4690E-03  0.0000E+00  4.5978E-04  7.5072E-04  4.1486E-05  1.0939E-04  2.5884E-03  5.2635E-04
  4  0.0000E+00  4.3030E-03  0.0000E+00  1.1247E-03  1.2638E-03  4.3039E-05  0.0000E+00  4.8874E-04  3.1884E-03
  5  0.0000E+00  6.7885E-03  4.5069E-03  3.1909E-04  4.2296E-03  1.3947E-04  0.0000E+00  6.4231E-03  0.0000E+00
  6  0.0000E+00  9.9645E-03  1.6183E-03  7.7364E-03  7.3704E-03  0.0000E+00  0.0000E+00  0.0000E+00  3.6048E-03
  7  0.0000E+00  2.0546E-02  1.4216E-02  0.0000E+00  0.0000E+00  0.0000E+00  0.0000E+00  3.1124E-03  1.7555E-02
  8  0.0000E+00  2.2266E-02  8.7179E-04  8.7938E-03  2.6372E-03  1.5693E-04  5.8311E-02  4.2639E-02  9.6221E-03
  9  0.0000E+00  2.8394E-02  1.6644E-03  2.9891E-03  2.9798E-03  5.5020E-04  1.0152E-01  4.0812E-03  3.4363E-03
 10  0.0000E+00  3.9441E-02  2.0186E-02  3.6989E-03  0.0000E+00  8.9881E-05  0.0000E+00  0.0000E+00  2.6173E-02
 11  0.0000E+00  6.4965E-02  0.0000E+00  1.1721E-03  1.4142E-02  2.7304E-03  6.3095E-02  0.0000E+00  0.0000E+00
 12  0.0000E+00  8.6696E-02  2.7564E-03  0.0000E+00  2.7973E-02  0.0000E+00  0.0000E+00  0.0000E+00  1.2551E-02
 13  0.0000E+00  3.0669E-01  0.0000E+00  1.1684E-01  1.2910E-01  0.0000E+00  1.5563E-01  0.0000E+00  1.2205E-01
 14  0.0000E+00  9.0185E-01  2.6135E-01  5.3846E-02  3.6138E-01  1.6222E-02  8.2898E-01  3.9082E-01  1.8707E+00
 15  0.0000E+00  9.9374E+00  1.9750E+01  2.1562E+01  1.9838E+01  2.4815E+01  2.5020E+00  4.9945E+00  9.3425E+00
 16  0.0000E+00  1.5014E+01  2.9577E+01  3.1434E+01  2.8002E+01  3.7764E+01  1.7319E+01  5.7618E-01  1.0009E+01
 17  1.0326E+00  1.1380E+01  1.9688E+01  2.2571E+01  2.6125E+01  2.0044E+01  2.9249E+00  4.7454E+00  1.4145E+01
 18  0.0000E+00  1.1117E-02  5.7056E-03  1.6871E-03  6.2110E-03  9.1667E-03  3.1042E-02  6.3898E-03  0.0000E+00
 19  0.0000E+00  4.5794E-03  2.7966E-03  3.6095E-03  3.1981E-03  3.4170E-03  1.0972E-03  6.3655E-05  0.0000E+00
 20  0.0000E+00  4.6579E-03  0.0000E+00  3.1137E-04  1.9265E-03  3.0354E-03  0.0000E+00  3.2900E-04  1.0338E-02
 21  0.0000E+00  4.5630E-03  0.0000E+00  1.8463E-03  0.0000E+00  0.0000E+00  1.3167E-03  3.8330E-03  2.1411E-03
 22  0.0000E+00  6.1926E-03  4.3638E-03  6.8869E-04  2.2290E-03  0.0000E+00  0.0000E+00  2.0228E-02  1.8981E-03
 23  0.0000E+00  1.1679E-02  4.2620E-04  0.0000E+00  8.1091E-04  1.7143E-05  1.8405E-02  1.8671E-02  0.0000E+00
 24  0.0000E+00  1.4738E-02  0.0000E+00  1.1056E-03  1.4052E-03  1.4914E-04  0.0000E+00  0.0000E+00  0.0000E+00
 25  0.0000E+00  1.4086E-02  1.0583E-04  1.6354E-02  1.2211E-02  0.0000E+00  2.2780E-02  0.0000E+00  5.9260E-02
 26  0.0000E+00  4.1501E-02  3.8749E-04  0.0000E+00  7.1012E-03  4.6234E-05  0.0000E+00  0.0000E+00  1.3158E-02
 27  0.0000E+00  6.3348E-02  0.0000E+00  3.7415E-02  0.0000E+00  3.1022E-03  8.8133E-02  3.2325E-02  3.6659E-03
 28  0.0000E+00  3.7119E-01  2.9155E-01  0.0000E+00  3.2005E-02  0.0000E+00  1.4189E-01  0.0000E+00  1.3373E-01
 29  0.0000E+00  3.0728E-01  3.7730E-02  0.0000E+00  6.9073E-03  0.0000E+00  0.0000E+00  1.4432E-01  0.0000E+00
 30  0.0000E+00  6.4769E-01  5.0639E-01  2.0431E-01  0.0000E+00  0.0000E+00  0.0000E+00  0.0000E+00  5.8722E-01
 31  2.0943E+00  1.3604E+00  1.0028E+00  8.3044E-02  5.6394E-01  3.4166E-02  4.6692E+00  3.9786E+00  3.8943E-01
 32  0.0000E+00  2.1224E+00  9.2677E-01  6.8992E-01  8.2227E-01  2.2018E+00  1.7953E+00  3.0842E-02  0.0000E+00
 33  0.0000E+00  4.5301E+00  1.8856E+00  6.3586E-01  2.0380E+00  6.4217E-02  0.0000E+00  0.0000E+00  6.1512E-01
 34  0.0000E+00  6.6234E+00  2.3444E+00  0.0000E+00  4.1019E+00  0.0000E+00  7.7987E+00  0.0000E+00  7.4948E+00
 35  0.0000E+00  7.8753E-03  8.0942E-03  9.0835E-03  5.8184E-03  1.1804E-02  8.1052E-03  2.3829E-04  3.6575E-03
 36  0.0000E+00  4.3500E-03  5.5737E-03  4.9191E-03  4.6712E-03  4.8450E-03  0.0000E+00  1.8567E-03  6.0806E-03
 37  0.0000E+00  3.4237E-03  0.0000E+00  5.6753E-04  6.0483E-04  2.5329E-05  0.0000E+00  0.0000E+00  4.6600E-04
 38  0.0000E+00  6.1484E-03  2.6818E-03  0.0000E+00  0.0000E+00  0.0000E+00  1.8133E-02  1.1043E-03  2.9826E-04
 39  1.5044E-03  8.9444E-03  0.0000E+00  4.4543E-03  4.0704E-04  0.0000E+00  4.7537E-03  5.3056E-03  1.3757E-02
 40  0.0000E+00  2.1070E-02  0.0000E+00  3.9218E-03  0.0000E+00  1.3677E-04  2.7087E-02  2.8500E-03  0.0000E+00
 41  7.1103E-02  2.9753E-02  0.0000E+00  0.0000E+00  2.2393E-02  8.3342E-04  0.0000E+00  2.9880E-02  2.6933E-02
 42  0.0000E+00  4.1967E-02  0.0000E+00  6.7524E-03  1.1609E-02  1.2195E-04  1.8889E-03  3.2606E-02  1.4175E-02
 43  0.0000E+00  7.2896E-02  0.0000E+00  6.5356E-02  0.0000E+00  0.0000E+00  1.1440E-01  0.0000E+00  0.0000E+00
 44  0.0000E+00  1.8577E-01  4.4760E-02  0.0000E+00  8.0942E-02  0.0000E+00  1.0576E-02  9.9207E-02  1.8397E-02
 45  0.0000E+00  2.7851E-01  7.0034E-02  1.5154E-01  4.4631E-02  7.3999E-04  9.5364E-01  0.0000E+00  3.6289E-01
 46  0.0000E+00  5.1745E-01  0.0000E+00  0.0000E+00  2.7989E-01  1.9118E-01  1.3623E+00  1.0983E-01  9.4750E-01
 47  2.3286E+00  1.1477E+00  0.0000E+00  5.0351E-01  2.2265E-01  1.3852E-02  1.6175E+00  3.7234E+00  5.1585E+00
 48  0.0000E+00  2.0467E+00  1.5634E+00  2.9907E+00  3.5899E+00  1.9875E+00  6.4943E+00  9.1535E-01  5.6815E+00
 49  1.8451E+01  6.0421E+00  4.0878E+00  7.5931E+00  4.6450E+00  4.4917E+00  1.7500E+01  2.1634E+01  3.7276E+00
 50  2.0489E+01  9.6325E+00  1.0149E+01  5.4100E+00  5.3494E+00  5.1083E+00  4.6517E+00  1.5218E+01  8.6880E+00
 51  0.0000E+00  9.6147E-03  1.3567E-02  1.4335E-02  1.1491E-02  1.5982E-02  1.3373E-03  1.8273E-03  3.6002E-03
 52  0.0000E+00  3.6694E-03  3.3248E-03  3.1799E-03  4.4486E-03  4.0403E-03  0.0000E+00  6.9032E-04  2.6437E-04
 53  0.0000E+00  3.3697E-03  2.2748E-03  3.1888E-03  2.2927E-03  2.2493E-03  0.0000E+00  1.8166E-03  0.0000E+00
 54  0.0000E+00  7.3566E-03  0.0000E+00  0.0000E+00  0.0000E+00  0.0000E+00  0.0000E+00  1.6342E-02  1.2460E-02
 55  0.0000E+00  8.9592E-03  0.0000E+00  0.0000E+00  4.6614E-03  1.0296E-04  2.3520E-02  0.0000E+00  9.0038E-03
 56  0.0000E+00  2.7834E-02  1.6923E-02  5.2040E-03  1.3231E-03  0.0000E+00  3.8236E-02  0.0000E+00  0.0000E+00
 57  1.7722E-03  2.1294E-02  2.7457E-03  0.0000E+00  2.5233E-03  0.0000E+00  2.6140E-02  4.5651E-02  0.0000E+00
 58  0.0000E+00  4.5520E-02  0.0000E+00  0.0000E+00  2.2843E-02  6.3929E-04  0.0000E+00  9.7140E-02  3.2642E-03
 59  0.0000E+00  1.2256E-01  8.2795E-02  5.4290E-02  1.3355E-02  4.2071E-02  6.7061E-02  1.3894E-02  2.3033E-01
 60  0.0000E+00  1.8186E-01  0.0000E+00  0.0000E+00  0.0000E+00  0.0000E+00  2.4124E-01  7.7156E-02  0.0000E+00
 61  0.0000E+00  7.1871E-01  5.6315E-01  7.3604E-01  8.5591E-01  9.9210E-01  1.0784E-01  7.0161E-01  7.7384E-01
 62  1.6838E+00  7.4696E-01  6.1459E-01  4.8984E-02  7.3455E-01  2.4311E-02  7.0190E-01  3.8912E-01  1.6362E+00
 63  1.2857E+00  1.5100E+00  9.3058E-01  6.5915E-01  1.3110E+00  5.7572E-01  6.7799E-01  4.7644E-01  7.0851E-01
 64  1.2531E+00  3.6028E+00  1.6040E+00  1.1241E+00  6.6159E-01  8.6403E-01  9.8227E+00  5.9372E+00  5.6735E+00
 65  0.0000E+00  9.2333E+00  3.2524E+00  6.8634E-01  0.0000E+00  5.1020E-01  0.0000E+00  3.2109E+01  1.3639E+01
 66  5.1297E+01  9.7312E+00  6.4550E-01  2.4812E+00  0.0000E+00  1.9389E-01  1.7006E+01  3.3531E+00  7.7811E+00

# AV, chi2 & Mass for <> & i_chain = 1 ...  7 solutions
AV      -0.4888      0.0138      0.0472      0.0287      0.0471     -0.0187      0.3075      0.1298      0.1700
chi2 1.0313E-05  3.8126E-05  1.7829E-05  1.8264E-05  1.8011E-05  1.8598E-05  1.5687E-05  1.5226E-05  1.5282E-05
Mass 4.1273E-13  2.3508E-13  3.6222E-13  3.5092E-13  3.4784E-13  3.3495E-13  4.1816E-13  4.3723E-13  3.7871E-13
  29.77                                  [v0_min (km/s) before EX0s...]
 324.09                                  [vd_min (km/s) before EX0s...]


## Synthetic spectrum (Best Model) ##l_obs f_obs f_syn wei
 3478    [Nl_obs]
 3741.00    0.41047   0.54491    0.000
 3742.00    0.36971   0.54616    0.000
 3743.00    0.27915   0.54284    0.000
 3744.00    0.25921   0.53563    0.000
 3745.00    0.28042   0.52543    0.040
 3746.00    0.37333   0.51660    0.041
 3747.00    0.50266   0.51040    0.041
 3748.00    0.43073   0.50869    0.040
 3749.00    0.27031   0.51400    0.039
 3750.00    0.31780   0.52326    0.039
 3751.00    0.44377   0.53689    0.040
 3752.00    0.47541   0.55512    0.039
 3753.00    0.47681   0.57489    0.038
 3754.00    0.59844   0.59154    0.038
 3755.00    0.75231   0.60355    0.039
 3756.00    0.87544   0.61313    0.039
 3757.00    0.99182   0.61871    0.039
 3758.00    0.92733   0.61997    0.042
 3759.00    0.83127   0.61766    0.047
 3760.00    0.72856   0.61297    0.068
 3761.00    0.62498   0.61070    0.129
 3762.00    0.69011   0.61026    0.065
 3763.00    0.77110   0.60821    0.041
 3764.00    0.80793   0.60722    0.039
 3765.00    0.84221   0.60764    0.038
 3766.00    0.72409   0.60972    0.037
 3767.00    0.60387   0.61483    0.037
 3768.00    0.66828   0.62023    0.039
 3769.00    0.73323   0.62699    0.040
 3770.00    0.81126   0.63826    0.040
 3771.00    0.87580   0.65143    0.040
 3772.00    0.76350   0.66391    0.038
 3773.00    0.65006   0.67851    0.037
 3774.00    0.52665   0.69495    0.036
 3775.00    0.42467   0.71041    0.034
 3776.00    0.46162   0.72528    0.035
 3777.00    0.49173   0.73896    0.036
 3778.00    0.48715   0.75128    0.036
 3779.00    0.47091   0.76190    0.036
 3780.00    0.40696   0.76824    0.036
 3781.00    0.37254   0.77203    0.037
 3782.00    0.43831   0.77172    0.037
 3783.00    0.48539   0.76489    0.038
 3784.00    0.47904   0.75452    0.038
 3785.00    0.49351   0.74051    0.038
 3786.00    0.55887   0.72423    0.037
 3787.00    0.58277   0.70562    0.037
 3788.00    0.51926   0.68506    0.036
 3789.00    0.52431   0.66612    0.036
 3790.00    0.65492   0.64834    0.037
 3791.00    0.70527   0.63085    0.037
 3792.00    0.62714   0.61471    0.036
 3793.00    0.56677   0.60166    0.036
 3794.00    0.53136   0.58950    0.037
 3795.00    0.51275   0.57889    0.036
 3796.00    0.51491   0.57252    0.035
 3797.00    0.47102   0.57115    0.035
 3798.00    0.37696   0.57562    0.034
 3799.00    0.38912   0.58387    0.034
 3800.00    0.50335   0.59609    0.035
 3801.00    0.58219   0.61260    0.036
 3802.00    0.63105   0.63226    0.037
 3803.00    0.62903   0.65122    0.037
 3804.00    0.58905   0.66780    0.036
 3805.00    0.55687   0.68338    0.036
 3806.00    0.52981   0.69550    0.036
 3807.00    0.44268   0.70375    0.036
 3808.00    0.32109   0.70773    0.036
 3809.00    0.35417   0.70691    0.036
 3810.00    0.46457   0.70336    0.037
 3811.00    0.45632   0.69685    0.037
 3812.00    0.39677   0.68585    0.036
 3813.00    0.37965   0.67238    0.035
 3814.00    0.37828   0.65788    0.035
 3815.00    0.44647   0.64160    0.036
 3816.00    0.53652   0.62555    0.036
 3817.00    0.60566   0.60941    0.042
 3818.00    0.66930   0.59473    0.054
 3819.00    0.62323   0.58347    0.045
 3820.00    0.55364   0.57220    0.036
 3821.00    0.57931   0.55998    0.036
 3822.00    0.62115   0.54852    0.037
 3823.00    0.58184   0.53896    0.037
 3824.00    0.53211   0.53120    0.036
 3825.00    0.42706   0.52258    0.035
 3826.00    0.31704   0.51205    0.034
 3827.00    0.29725   0.50239    0.035
 3828.00    0.28231   0.49356    0.037
 3829.00    0.27951   0.48449    0.036
 3830.00    0.27753   0.47552    0.035
 3831.00    0.32443   0.46632    0.036
 3832.00    0.37396   0.45874    0.036
 3833.00    0.48198   0.45325    0.036
 3834.00    0.58484   0.44879    0.036
 3835.00    0.62335   0.44742    0.036
 3836.00    0.65038   0.45024    0.037
 3837.00    0.58040   0.45678    0.038
 3838.00    0.53107   0.46797    0.039
 3839.00    0.61164   0.48305    0.037
 3840.00    0.64795   0.49999    0.036
 3841.00    0.46583   0.52000    0.035
 3842.00    0.29671   0.54069    0.035
 3843.00    0.17965   0.56115    0.035
 3844.00    0.09310   0.58205    0.035
 3845.00    0.10796   0.59924    0.035
 3846.00    0.15780   0.61279    0.036
 3847.00    0.30588   0.62312    0.000
 3848.00    0.46471   0.63062    0.000
 3849.00    0.64940   0.63642    0.000
 3850.00    0.73799   0.63832    0.000
 3851.00    0.62731   0.63701    0.000
 3852.00    0.53426   0.63383    0.000
 3853.00    0.47304   0.63003    0.000
 3854.00    0.46834   0.62668    0.000
 3855.00    0.55278   0.62094    0.000
 3856.00    0.62732   0.61489    0.000
 3857.00    0.68815   0.61052    0.000
 3858.00    0.76234   0.60789    0.000
 3859.00    0.85281   0.60900    0.000
 3860.00    0.88185   0.61085    0.000
 3861.00    0.84492   0.61341    0.000
 3862.00    0.76297   0.61781    0.000
 3863.00    0.63834   0.62313    0.000
 3864.00    0.62398   0.62857    0.000
 3865.00    0.70172   0.63207    0.000
 3866.00    0.74985   0.63345    0.000
 3867.00    0.77620   0.63256    0.000
 3868.00    0.78778   0.63068    0.000
 3869.00    0.78980   0.62785    0.000
 3870.00    0.74087   0.62484    0.000
 3871.00    0.66313   0.62326    0.000
 3872.00    0.58047   0.62151    0.000
 3873.00    0.49539   0.61991    0.000
 3874.00    0.45268   0.61829    0.000
 3875.00    0.42798   0.61656    0.000
 3876.00    0.36888   0.61667    0.000
 3877.00    0.29724   0.61562    0.000
 3878.00    0.30923   0.61154    0.000
 3879.00    0.34701   0.60630    0.000
 3880.00    0.41159   0.60039    0.000
 3881.00    0.48306   0.59603    0.036
 3882.00    0.63929   0.59049    0.036
 3883.00    0.81324   0.58309    0.037
 3884.00    0.78731   0.57757    0.037
 3885.00    0.72841   0.57405    0.038
 3886.00    0.66112   0.57366    0.037
 3887.00    0.59279   0.57573    0.036
 3888.00    0.61946   0.58054    0.036
 3889.00    0.65427   0.59045    0.036
 3890.00    0.63214   0.60298    0.037
 3891.00    0.60717   0.61778    0.037
 3892.00    0.68507   0.63411    0.037
 3893.00    0.76412   0.65130    0.037
 3894.00    0.80830   0.66848    0.037
 3895.00    0.84581   0.68207    0.037
 3896.00    0.74664   0.69377    0.036
 3897.00    0.65589   0.70273    0.035
 3898.00    0.66468   0.71153    0.035
 3899.00    0.67717   0.71849    0.034
 3900.00    0.71972   0.72189    0.035
 3901.00    0.75887   0.72636    0.036
 3902.00    0.77732   0.72887    0.035
 3903.00    0.79036   0.73329    0.035
 3904.00    0.77742   0.73943    0.032
 3905.00    0.74391   0.74536    0.031
 3906.00    0.62985   0.75447    0.031
 3907.00    0.55094   0.76294    0.031
 3908.00    0.58663   0.77280    0.031
 3909.00    0.61544   0.78439    0.032
 3910.00    0.62528   0.79369    0.033
 3911.00    0.65330   0.80140    0.034
 3912.00    0.72427   0.80590    0.035
 3913.00    0.72959   0.80608    0.036
 3914.00    0.60092   0.80365    0.035
 3915.00    0.55129   0.79676    0.035
 3916.00    0.64205   0.78606    0.037
 3917.00    0.76045   0.77268    0.038
 3918.00    0.92183   0.75642    0.038
 3919.00    0.96343   0.74009    0.038
 3920.00    0.84160   0.72229    0.037
 3921.00    0.73209   0.70405    0.036
 3922.00    0.63739   0.68435    0.036
 3923.00    0.58158   0.66321    0.036
 3924.00    0.56697   0.64175    0.036
 3925.00    0.57305   0.61756    0.036
 3926.00    0.59845   0.59265    0.037
 3927.00    0.62116   0.56535    0.037
 3928.00    0.64167   0.53705    0.037
 3929.00    0.62220   0.50975    0.037
 3930.00    0.57374   0.48369    0.036
 3931.00    0.55764   0.46232    0.036
 3932.00    0.56213   0.44605    0.037
 3933.00    0.58195   0.43641    0.037
 3934.00    0.61030   0.43427    0.038
 3935.00    0.62598   0.43911    0.037
 3936.00    0.63553   0.45126    0.036
 3937.00    0.64037   0.46917    0.036
 3938.00    0.64323   0.49112    0.037
 3939.00    0.59539   0.51624    0.037
 3940.00    0.52942   0.54242    0.036
 3941.00    0.51436   0.56883    0.036
 3942.00    0.51468   0.59592    0.037
 3943.00    0.43700   0.62214    0.037
 3944.00    0.33973   0.64631    0.037
 3945.00    0.48180   0.66867    0.037
 3946.00    0.67269   0.69030    0.038
 3947.00    0.86016   0.71163    0.038
 3948.00    1.04709   0.73133    0.039
 3949.00    0.94716   0.74698    0.039
 3950.00    0.81298   0.76004    0.039
 3951.00    0.81333   0.77166    0.039
 3952.00    0.82462   0.77884    0.040
 3953.00    0.73129   0.78131    0.039
 3954.00    0.63315   0.77931    0.039
 3955.00    0.68407   0.77323    0.039
 3956.00    0.73823   0.76321    0.039
 3957.00    0.86298   0.74660    0.040
 3958.00    0.97813   0.72359    0.041
 3959.00    0.91161   0.69686    0.040
 3960.00    0.83041   0.66658    0.000
 3961.00    0.58370   0.63294    0.000
 3962.00    0.37725   0.59654    0.000
 3963.00    0.48729   0.55824    0.000
 3964.00    0.58886   0.52140    0.000
 3965.00    0.64019   0.48797    0.000
 3966.00    0.66820   0.45972    0.000
 3967.00    0.58672   0.43884    0.000
 3968.00    0.52332   0.42601    0.000
 3969.00    0.52920   0.42264    0.000
 3970.00    0.58091   0.42921    0.000
 3971.00    0.77914   0.44571    0.000
 3972.00    0.89131   0.47200    0.000
 3973.00    0.77039   0.50541    0.000
 3974.00    0.68982   0.54429    0.000
 3975.00    0.70293   0.58688    0.000
 3976.00    0.72326   0.63027    0.000
 3977.00    0.75809   0.67353    0.000
 3978.00    0.80228   0.71345    0.000
 3979.00    0.86286   0.74959    0.000
 3980.00    0.95660   0.78249    0.000
 3981.00    1.10109   0.81045    0.039
 3982.00    1.16969   0.83526    0.039
 3983.00    1.13620   0.85568    0.039
 3984.00    1.15395   0.87243    0.039
 3985.00    1.23238   0.88827    0.039
 3986.00    1.24354   0.90060    0.039
 3987.00    1.18447   0.91201    0.038
 3988.00    1.13905   0.92259    0.038
 3989.00    1.10619   0.93110    0.037
 3990.00    1.13967   0.93946    0.037
 3991.00    1.22702   0.94453    0.038
 3992.00    1.22666   0.94888    0.038
 3993.00    1.16365   0.95276    0.038
 3994.00    1.11007   0.95531    0.038
 3995.00    1.06242   0.95851    0.038
 3996.00    1.05952   0.96185    0.038
 3997.00    1.08116   0.96571    0.038
 3998.00    1.09462   0.96884    0.038
 3999.00    1.10420   0.97208    0.039
 4000.00    1.00444   0.97541    0.038
 4001.00    0.85976   0.97822    0.037
 4002.00    0.96404   0.97921    0.038
 4003.00    1.15576   0.98011    0.039
 4004.00    0.97904   0.98172    0.039
 4005.00    0.69315   0.98296    0.038
 4006.00    0.67694   0.98452    0.038
 4007.00    0.72697   0.98656    0.038
 4008.00    0.79787   0.99146    0.038
 4009.00    0.87292   0.99801    0.038
 4010.00    0.90470   1.00655    0.038
 4011.00    0.92976   1.01586    0.038
 4012.00    1.01361   1.02510    0.039
 4013.00    1.10423   1.03401    0.039
 4014.00    1.03195   1.04072    0.038
 4015.00    0.94707   1.04744    0.038
 4016.00    0.91367   1.05308    0.039
 4017.00    0.88244   1.05688    0.039
 4018.00    0.84921   1.05908    0.038
 4019.00    0.81739   1.05906    0.037
 4020.00    0.84867   1.05849    0.038
 4021.00    0.88002   1.05652    0.038
 4022.00    0.91276   1.05316    0.038
 4023.00    0.94647   1.04984    0.038
 4024.00    0.99062   1.04474    0.038
 4025.00    1.02948   1.03821    0.038
 4026.00    1.02815   1.02998    0.038
 4027.00    1.01403   1.01974    0.038
 4028.00    0.92608   1.00918    0.038
 4029.00    0.88123   0.99904    0.037
 4030.00    1.03389   0.98928    0.038
 4031.00    1.14391   0.98203    0.037
 4032.00    1.09398   0.97667    0.037
 4033.00    1.02090   0.97539    0.036
 4034.00    0.87523   0.97821    0.036
 4035.00    0.80792   0.98334    0.036
 4036.00    0.94908   0.99181    0.036
 4037.00    1.06359   1.00022    0.036
 4038.00    1.11722   1.00758    0.037
 4039.00    1.11139   1.01261    0.037
 4040.00    0.98800   1.01284    0.037
 4041.00    0.92840   1.00859    0.037
 4042.00    0.97873   1.00094    0.037
 4043.00    1.01682   0.99188    0.037
 4044.00    1.03645   0.98497    0.037
 4045.00    1.00235   0.97922    0.038
 4046.00    0.89702   0.97572    0.038
 4047.00    0.93154   0.97535    0.038
 4048.00    1.12935   0.97752    0.038
 4049.00    1.23159   0.98278    0.038
 4050.00    1.23545   0.98908    0.039
 4051.00    1.16723   0.99558    0.039
 4052.00    1.03356   0.99940    0.038
 4053.00    1.07092   1.00015    0.038
 4054.00    1.24515   0.99771    0.038
 4055.00    1.11350   0.99308    0.038
 4056.00    0.76646   0.98694    0.038
 4057.00    0.76533   0.97926    0.038
 4058.00    0.97787   0.97126    0.039
 4059.00    1.03174   0.96224    0.039
 4060.00    1.00000   0.95428    0.038
 4061.00    0.99638   0.94767    0.038
 4062.00    1.00595   0.94328    0.038
 4063.00    0.81174   0.94070    0.038
 4064.00    0.53521   0.93951    0.038
 4065.00    0.55509   0.93983    0.038
 4066.00    0.67718   0.94128    0.038
 4067.00    0.80695   0.94431    0.038
 4068.00    0.93895   0.94781    0.038
 4069.00    0.94191   0.95216    0.038
 4070.00    0.91388   0.95634    0.038
 4071.00    0.91384   0.95804    0.038
 4072.00    0.91923   0.95856    0.038
 4073.00    0.98693   0.95825    0.038
 4074.00    1.06403   0.95759    0.038
 4075.00    1.01910   0.95867    0.038
 4076.00    0.96067   0.96165    0.039
 4077.00    0.95977   0.96753    0.039
 4078.00    0.96308   0.97473    0.039
 4079.00    1.11881   0.98282    0.039
 4080.00    1.28038   0.99295    0.038
 4081.00    1.23771   1.00498    0.039
 4082.00    1.19479   1.01861    0.039
 4083.00    1.18536   1.03299    0.039
 4084.00    1.17866   1.04616    0.039
 4085.00    1.21700   1.05766    0.038
 4086.00    1.23545   1.06691    0.037
 4087.00    1.04939   1.07303    0.037
 4088.00    0.88887   1.07744    0.037
 4089.00    0.91577   1.07876    0.037
 4090.00    0.94550   1.07593    0.038
 4091.00    0.99107   1.06935    0.037
 4092.00    1.03646   1.05748    0.000
 4093.00    1.08099   1.04166    0.000
 4094.00    1.10964   1.02205    0.000
 4095.00    1.07994   1.00018    0.000
 4096.00    1.05268   0.97690    0.000
 4097.00    1.03295   0.95349    0.000
 4098.00    1.04638   0.93238    0.000
 4099.00    1.14650   0.91378    0.000
 4100.00    1.16786   0.90002    0.000
 4101.00    1.01233   0.89224    0.000
 4102.00    0.90356   0.88978    0.000
 4103.00    0.88576   0.89270    0.000
 4104.00    0.93501   0.89999    0.000
 4105.00    1.09800   0.91088    0.000
 4106.00    1.17796   0.92470    0.000
 4107.00    1.13449   0.94030    0.000
 4108.00    1.08939   0.95592    0.000
 4109.00    1.04217   0.96995    0.000
 4110.00    1.11385   0.98317    0.000
 4111.00    1.32241   0.99410    0.000
 4112.00    1.34756   1.00315    0.000
 4113.00    1.18654   1.01046    0.036
 4114.00    1.04547   1.01587    0.036
 4115.00    0.92225   1.02051    0.036
 4116.00    0.97803   1.02312    0.036
 4117.00    1.17505   1.02498    0.036
 4118.00    1.24474   1.02523    0.037
 4119.00    1.22609   1.02445    0.037
 4120.00    1.13145   1.02319    0.037
 4121.00    0.99056   1.02108    0.036
 4122.00    0.98163   1.01876    0.036
 4123.00    1.04280   1.01519    0.036
 4124.00    1.06569   1.01270    0.037
 4125.00    1.07094   1.00862    0.037
 4126.00    1.09427   1.00355    0.037
 4127.00    1.12477   0.99721    0.037
 4128.00    1.01353   0.99102    0.037
 4129.00    0.85431   0.98482    0.036
 4130.00    0.84552   0.97900    0.036
 4131.00    0.87953   0.97533    0.037
 4132.00    0.92869   0.97261    0.036
 4133.00    0.98141   0.97362    0.036
 4134.00    1.02192   0.97530    0.036
 4135.00    1.06013   0.97919    0.036
 4136.00    1.00420   0.98258    0.037
 4137.00    0.93453   0.98565    0.037
 4138.00    0.96814   0.98728    0.037
 4139.00    1.01274   0.98648    0.037
 4140.00    1.04907   0.98512    0.037
 4141.00    1.08482   0.98018    0.036
 4142.00    1.04628   0.97468    0.037
 4143.00    1.00518   0.96906    0.038
 4144.00    1.15694   0.96321    0.038
 4145.00    1.29517   0.95861    0.038
 4146.00    0.97401   0.95512    0.037
 4147.00    0.68263   0.95255    0.036
 4148.00    0.85179   0.95250    0.036
 4149.00    0.98901   0.95375    0.037
 4150.00    0.81133   0.95523    0.037
 4151.00    0.66854   0.95580    0.037
 4152.00    0.77354   0.95685    0.037
 4153.00    0.89559   0.95899    0.037
 4154.00    1.11068   0.96147    0.038
 4155.00    1.25319   0.96669    0.038
 4156.00    1.07847   0.97195    0.037
 4157.00    0.92079   0.97976    0.036
 4158.00    0.82434   0.98770    0.036
 4159.00    0.74573   0.99594    0.035
 4160.00    0.72093   1.00424    0.035
 4161.00    0.73418   1.01065    0.035
 4162.00    0.84514   1.01595    0.035
 4163.00    0.99350   1.01855    0.036
 4164.00    1.22446   1.01894    0.036
 4165.00    1.32480   1.01594    0.037
 4166.00    1.17492   1.01089    0.036
 4167.00    1.08186   1.00304    0.036
 4168.00    1.08374   0.99325    0.036
 4169.00    1.01691   0.98293    0.036
 4170.00    0.84941   0.97263    0.035
 4171.00    0.82365   0.96229    0.035
 4172.00    0.98047   0.95283    0.035
 4173.00    0.94376   0.94573    0.035
 4174.00    0.68746   0.94012    0.035
 4175.00    0.59791   0.93667    0.035
 4176.00    0.67525   0.93472    0.035
 4177.00    0.84141   0.93523    0.035
 4178.00    1.08596   0.93889    0.035
 4179.00    1.11955   0.94362    0.035
 4180.00    0.98907   0.94960    0.035
 4181.00    0.85503   0.95528    0.035
 4182.00    0.71855   0.96030    0.034
 4183.00    0.73660   0.96636    0.034
 4184.00    0.84727   0.97187    0.034
 4185.00    0.96327   0.97674    0.034
 4186.00    1.08205   0.98018    0.034
 4187.00    1.17894   0.98404    0.034
 4188.00    1.26590   0.98751    0.034
 4189.00    1.22004   0.98957    0.034
 4190.00    1.12236   0.99030    0.034
 4191.00    1.00124   0.98834    0.034
 4192.00    0.87234   0.98629    0.034
 4193.00    0.81896   0.98249    0.034
 4194.00    0.78662   0.97691    0.033
 4195.00    0.85794   0.97009    0.034
 4196.00    0.95304   0.96223    0.034
 4197.00    1.06554   0.95533    0.035
 4198.00    1.18123   0.94915    0.035
 4199.00    1.09830   0.94491    0.034
 4200.00    0.98729   0.94328    0.033
 4201.00    0.89435   0.94555    0.033
 4202.00    0.80325   0.95070    0.034
 4203.00    0.81532   0.95890    0.033
 4204.00    0.83410   0.96934    0.033
 4205.00    0.96994   0.98046    0.033
 4206.00    1.10915   0.99180    0.033
 4207.00    1.10083   1.00311    0.034
 4208.00    1.09219   1.01261    0.034
 4209.00    1.07418   1.01992    0.034
 4210.00    1.06450   1.02542    0.034
 4211.00    1.17599   1.02898    0.034
 4212.00    1.27042   1.03203    0.034
 4213.00    1.20350   1.03363    0.035
 4214.00    1.15073   1.03485    0.035
 4215.00    1.19532   1.03569    0.035
 4216.00    1.24444   1.03666    0.035
 4217.00    1.31766   1.03569    0.035
 4218.00    1.33150   1.03290    0.035
 4219.00    1.09174   1.02708    0.034
 4220.00    0.87961   1.01780    0.034
 4221.00    0.76482   1.00633    0.034
 4222.00    0.68656   0.99122    0.034
 4223.00    0.71650   0.97563    0.034
 4224.00    0.75958   0.95946    0.034
 4225.00    0.83581   0.94533    0.033
 4226.00    0.89890   0.93444    0.033
 4227.00    0.93345   0.92827    0.034
 4228.00    0.94389   0.92727    0.034
 4229.00    0.90891   0.93115    0.034
 4230.00    0.89109   0.93936    0.033
 4231.00    0.90153   0.94976    0.033
 4232.00    0.92419   0.96277    0.033
 4233.00    0.96450   0.97539    0.032
 4234.00    1.00748   0.98725    0.032
 4235.00    1.05385   0.99797    0.033
 4236.00    1.13985   1.00769    0.033
 4237.00    1.27019   1.01689    0.032
 4238.00    1.29149   1.02630    0.032
 4239.00    1.20520   1.03648    0.032
 4240.00    1.14208   1.04578    0.033
 4241.00    1.09912   1.05534    0.033
 4242.00    1.12016   1.06282    0.033
 4243.00    1.19027   1.06807    0.033
 4244.00    1.10145   1.07081    0.033
 4245.00    0.90554   1.06985    0.033
 4246.00    0.95293   1.06598    0.034
 4247.00    1.14398   1.05881    0.035
 4248.00    1.25619   1.05010    0.035
 4249.00    1.32781   1.03990    0.036
 4250.00    1.39211   1.02991    0.036
 4251.00    1.45315   1.02097    0.036
 4252.00    1.28178   1.01348    0.035
 4253.00    1.02131   1.00813    0.034
 4254.00    0.93134   1.00491    0.034
 4255.00    0.89695   1.00448    0.034
 4256.00    1.05095   1.00632    0.034
 4257.00    1.25637   1.01011    0.034
 4258.00    1.19944   1.01541    0.034
 4259.00    1.08371   1.02239    0.034
 4260.00    1.07291   1.02969    0.034
 4261.00    1.08088   1.03814    0.035
 4262.00    1.19243   1.04554    0.035
 4263.00    1.31814   1.05150    0.035
 4264.00    1.14730   1.05426    0.035
 4265.00    0.94750   1.05341    0.034
 4266.00    0.89334   1.04939    0.034
 4267.00    0.84809   1.04072    0.034
 4268.00    0.92302   1.02933    0.034
 4269.00    1.00053   1.01524    0.033
 4270.00    0.94941   1.00082    0.033
 4271.00    0.89644   0.98746    0.033
 4272.00    0.79445   0.97735    0.033
 4273.00    0.70759   0.97121    0.032
 4274.00    0.82888   0.96992    0.033
 4275.00    0.93665   0.97334    0.033
 4276.00    0.92172   0.98043    0.033
 4277.00    0.92057   0.99012    0.033
 4278.00    1.01125   1.00009    0.033
 4279.00    1.08369   1.01003    0.033
 4280.00    1.06165   1.01744    0.033
 4281.00    1.05309   1.02186    0.033
 4282.00    1.10079   1.02258   -2.000
 4283.00    1.09446   1.02029   -2.000
 4284.00    0.90160   1.01453   -2.000
 4285.00    0.77841   1.00687   -2.000
 4286.00    0.85771   0.99777   -2.000
 4287.00    0.98149   0.98753   -2.000
 4288.00    1.21558   0.97864   -2.000
 4289.00    1.38295   0.96916   -2.000
 4290.00    1.40769   0.96121   -2.000
 4291.00    1.34277   0.95317   -2.000
 4292.00    1.11141   0.94522   -2.000
 4293.00    0.94673   0.93746   -2.000
 4294.00    0.89020   0.92839   -2.000
 4295.00    0.90860   0.91798   -2.000
 4296.00    1.03360   0.90521   -2.000
 4297.00    1.13011   0.89205   -2.000
 4298.00    1.19099   0.87681    0.033
 4299.00    1.18028   0.86105    0.033
 4300.00    1.09060   0.84473    0.033
 4301.00    1.04176   0.82930    0.034
 4302.00    1.03268   0.81662    0.033
 4303.00    1.00469   0.80578    0.033
 4304.00    0.96047   0.79879    0.033
 4305.00    0.84982   0.79515    0.032
 4306.00    0.68896   0.79662    0.032
 4307.00    0.58834   0.80333    0.032
 4308.00    0.52773   0.81569    0.032
 4309.00    0.63877   0.83379    0.032
 4310.00    0.84964   0.85776    0.032
 4311.00    1.02150   0.88719    0.032
 4312.00    1.17358   0.92015    0.032
 4313.00    1.13921   0.95671    0.032
 4314.00    1.02302   0.99290    0.032
 4315.00    1.05288   1.02857    0.032
 4316.00    1.13775   1.05962    0.032
 4317.00    1.19824   1.08495    0.032
 4318.00    1.25094   1.10276    0.032
 4319.00    1.24154   1.11258    0.032
 4320.00    1.21554   1.11560    0.032
 4321.00    1.06644   1.11176    0.032
 4322.00    0.89039   1.10499    0.032
 4323.00    0.93638   1.09511    0.032
 4324.00    1.02100   1.08651    0.033
 4325.00    1.12762   1.07994    0.033
 4326.00    1.23715   1.07811    0.033
 4327.00    1.30987   1.08019    0.033
 4328.00    1.37915   1.08639    0.033
 4329.00    1.28482   1.09506    0.033
 4330.00    1.18112   1.10348    0.000
 4331.00    1.20059   1.11105    0.000
 4332.00    1.22255   1.11483    0.000
 4333.00    1.20164   1.11472    0.000
 4334.00    1.17519   1.10912    0.000
 4335.00    1.01565   1.09838    0.000
 4336.00    0.86471   1.08396    0.000
 4337.00    0.82573   1.06732    0.000
 4338.00    0.81383   1.05175    0.000
 4339.00    1.03845   1.03830    0.000
 4340.00    1.23338   1.02967    0.000
 4341.00    1.23655   1.02627    0.000
 4342.00    1.23297   1.02854    0.000
 4343.00    1.19531   1.03580    0.000
 4344.00    1.15878   1.04709    0.000
 4345.00    1.12688   1.06121    0.000
 4346.00    1.08875   1.07561    0.000
 4347.00    1.02954   1.08966    0.000
 4348.00    1.03319   1.10169    0.000
 4349.00    1.21621   1.11116    0.000
 4350.00    1.34986   1.11796    0.000
 4351.00    1.36314   1.12325    0.033
 4352.00    1.32685   1.12747    0.033
 4353.00    1.18629   1.13170    0.033
 4354.00    1.08234   1.13687    0.033
 4355.00    1.04529   1.14349    0.033
 4356.00    1.06200   1.15162    0.033
 4357.00    1.16459   1.16106    0.033
 4358.00    1.27203   1.17146    0.033
 4359.00    1.38628   1.18244    0.033
 4360.00    1.42185   1.19329    0.033
 4361.00    1.36035   1.20308    0.033
 4362.00    1.22654   1.21134    0.033
 4363.00    1.01411   1.21692    0.032
 4364.00    1.00210   1.21989    0.032
 4365.00    1.18237   1.21958    0.033
 4366.00    1.26056   1.21653    0.034
 4367.00    1.25241   1.21055    0.033
 4368.00    1.18458   1.20249    0.033
 4369.00    1.07228   1.19264    0.033
 4370.00    1.08914   1.18156    0.033
 4371.00    1.19051   1.16994    0.033
 4372.00    1.08309   1.15824    0.033
 4373.00    0.85608   1.14697    0.033
 4374.00    0.91743   1.13570    0.033
 4375.00    1.12262   1.12470    0.033
 4376.00    1.25659   1.11345    0.034
 4377.00    1.35984   1.10186    0.034
 4378.00    1.26331   1.08898    0.034
 4379.00    1.09286   1.07509    0.033
 4380.00    1.14598   1.06022    0.033
 4381.00    1.26920   1.04542    0.034
 4382.00    1.18864   1.03126    0.033
 4383.00    1.05478   1.01948    0.033
 4384.00    0.93848   1.01107    0.032
 4385.00    0.82595   1.00683    0.032
 4386.00    0.99989   1.00720    0.032
 4387.00    1.22227   1.01185    0.033
 4388.00    1.21313   1.02079    0.033
 4389.00    1.17440   1.03275    0.032
 4390.00    1.18622   1.04710    0.033
 4391.00    1.20254   1.06227    0.033
 4392.00    1.18281   1.07772    0.033
 4393.00    1.16116   1.09238    0.033
 4394.00    1.18864   1.10537    0.033
 4395.00    1.21656   1.11575    0.033
 4396.00    1.20203   1.12307    0.032
 4397.00    1.18660   1.12723    0.032
 4398.00    1.15140   1.12795    0.033
 4399.00    1.12092   1.12563    0.033
 4400.00    1.14871   1.12047    0.033
 4401.00    1.16769   1.11357    0.032
 4402.00    1.11258   1.10560    0.033
 4403.00    1.08018   1.09820    0.033
 4404.00    1.19005   1.09228    0.033
 4405.00    1.27676   1.08915    0.034
 4406.00    1.24963   1.08904    0.033
 4407.00    1.22785   1.09240    0.033
 4408.00    1.22749   1.09881    0.033
 4409.00    1.20593   1.10767    0.032
 4410.00    1.11406   1.11800    0.032
 4411.00    1.02778   1.12883    0.031
 4412.00    0.95714   1.13913    0.031
 4413.00    0.95143   1.14854    0.032
 4414.00    1.10135   1.15678    0.032
 4415.00    1.21277   1.16368    0.032
 4416.00    1.24454   1.16958    0.032
 4417.00    1.27318   1.17447    0.032
 4418.00    1.29617   1.17875    0.032
 4419.00    1.30504   1.18220    0.032
 4420.00    1.29168   1.18517    0.032
 4421.00    1.31739   1.18723    0.032
 4422.00    1.39710   1.18854    0.032
 4423.00    1.40569   1.18888    0.032
 4424.00    1.32775   1.18856    0.032
 4425.00    1.26273   1.18732    0.032
 4426.00    1.21156   1.18564    0.032
 4427.00    1.14185   1.18333    0.032
 4428.00    1.05461   1.18068    0.032
 4429.00    1.06737   1.17778    0.032
 4430.00    1.16350   1.17497    0.032
 4431.00    1.24525   1.17252    0.032
 4432.00    1.31644   1.17070    0.032
 4433.00    1.30198   1.17002    0.032
 4434.00    1.23229   1.17050    0.032
 4435.00    1.23017   1.17239    0.032
 4436.00    1.26616   1.17542    0.032
 4437.00    1.31942   1.17971    0.032
 4438.00    1.38116   1.18478    0.033
 4439.00    1.37917   1.19053    0.033
 4440.00    1.35013   1.19640    0.032
 4441.00    1.21059   1.20251    0.032
 4442.00    1.03090   1.20848    0.032
 4443.00    1.04562   1.21429    0.032
 4444.00    1.12013   1.21955    0.033
 4445.00    1.09677   1.22411    0.032
 4446.00    1.04836   1.22744    0.032
 4447.00    1.10165   1.22899    0.032
 4448.00    1.17613   1.22824    0.031
 4449.00    1.25644   1.22467    0.031
 4450.00    1.33771   1.21815    0.032
 4451.00    1.16532   1.20872    0.031
 4452.00    0.96167   1.19680    0.030
 4453.00    0.94263   1.18315    0.031
 4454.00    0.93930   1.16867    0.031
 4455.00    0.95592   1.15437    0.031
 4456.00    0.97353   1.14140    0.031
 4457.00    0.87870   1.13047    0.030
 4458.00    0.78593   1.12260    0.030
 4459.00    0.93511   1.11787    0.031
 4460.00    1.07974   1.11677    0.031
 4461.00    1.13230   1.11890    0.000
 4462.00    1.18504   1.12404    0.000
 4463.00    1.23984   1.13166    0.000
 4464.00    1.29583   1.14112    0.000
 4465.00    1.36137   1.15210    0.000
 4466.00    1.39782   1.16388    0.000
 4467.00    1.25727   1.17640    0.000
 4468.00    1.13792   1.18932    0.000
 4469.00    1.12032   1.20249    0.000
 4470.00    1.13047   1.21581    0.000
 4471.00    1.24897   1.22881    0.000
 4472.00    1.34009   1.24149    0.000
 4473.00    1.34215   1.25294    0.000
 4474.00    1.31807   1.26314    0.000
 4475.00    1.22205   1.27120    0.000
 4476.00    1.16898   1.27724    0.000
 4477.00    1.21715   1.28083    0.000
 4478.00    1.21141   1.28249    0.000
 4479.00    1.09591   1.28247    0.000
 4480.00    1.04581   1.28141    0.000
 4481.00    1.11165   1.27992    0.000
 4482.00    1.17951   1.27833    0.030
 4483.00    1.25051   1.27706    0.030
 4484.00    1.30761   1.27590    0.029
 4485.00    1.34581   1.27489    0.030
 4486.00    1.35201   1.27352    0.030
 4487.00    1.31984   1.27170    0.030
 4488.00    1.30781   1.26921    0.030
 4489.00    1.31707   1.26619    0.030
 4490.00    1.32655   1.26288    0.030
 4491.00    1.33623   1.25984    0.030
 4492.00    1.35389   1.25756    0.030
 4493.00    1.37810   1.25678    0.030
 4494.00    1.39259   1.25783    0.030
 4495.00    1.40003   1.26136    0.030
 4496.00    1.37667   1.26724    0.030
 4497.00    1.33376   1.27575    0.030
 4498.00    1.34918   1.28634    0.030
 4499.00    1.39700   1.29873    0.030
 4500.00    1.38617   1.31224    0.030
 4501.00    1.34702   1.32608    0.030
 4502.00    1.34755   1.33962    0.029
 4503.00    1.36466   1.35195    0.029
 4504.00    1.40380   1.36258    0.029
 4505.00    1.45082   1.37087    0.030
 4506.00    1.32137   1.37658    0.030
 4507.00    1.13871   1.37952    0.030
 4508.00    1.20052   1.37978    0.029
 4509.00    1.32356   1.37763    0.029
 4510.00    1.34091   1.37341    0.029
 4511.00    1.33678   1.36770    0.029
 4512.00    1.26111   1.36097    0.029
 4513.00    1.17404   1.35379    0.030
 4514.00    1.23463   1.34653    0.030
 4515.00    1.31276   1.33952    0.030
 4516.00    1.27356   1.33273    0.029
 4517.00    1.22487   1.32614    0.028
 4518.00    1.25040   1.31927    0.029
 4519.00    1.27930   1.31184    0.029
 4520.00    1.22616   1.30313    0.029
 4521.00    1.17432   1.29303    0.029
 4522.00    1.24009   1.28102    0.029
 4523.00    1.30051   1.26746    0.029
 4524.00    1.26043   1.25246    0.029
 4525.00    1.22158   1.23690    0.029
 4526.00    1.19662   1.22150    0.029
 4527.00    1.18485   1.20725    0.028
 4528.00    1.27634   1.19519    0.029
 4529.00    1.33453   1.18589    0.029
 4530.00    1.19587   1.18023    0.029
 4531.00    1.07875   1.17806    0.029
 4532.00    1.06252   1.17978    0.029
 4533.00    1.06246   1.18461    0.029
 4534.00    1.12421   1.19238    0.029
 4535.00    1.16416   1.20200    0.029
 4536.00    1.13456   1.21290    0.029
 4537.00    1.12497   1.22405    0.029
 4538.00    1.16944   1.23471    0.029
 4539.00    1.18978   1.24425    0.029
 4540.00    1.15422   1.25202    0.029
 4541.00    1.16966   1.25794    0.029
 4542.00    1.28732   1.26172    0.029
 4543.00    1.34144   1.26365    0.029
 4544.00    1.28462   1.26388    0.029
 4545.00    1.24576   1.26283    0.029
 4546.00    1.23434   1.26100    0.029
 4547.00    1.27768   1.25879    0.029
 4548.00    1.39450   1.25684    0.029
 4549.00    1.42289   1.25543    0.029
 4550.00    1.34673   1.25517    0.000
 4551.00    1.25513   1.25623    0.000
 4552.00    1.14743   1.25892    0.000
 4553.00    1.12325   1.26330    0.000
 4554.00    1.17586   1.26920    0.000
 4555.00    1.28774   1.27645    0.000
 4556.00    1.44764   1.28448    0.000
 4557.00    1.45014   1.29292    0.000
 4558.00    1.34038   1.30100    0.000
 4559.00    1.30387   1.30836    0.000
 4560.00    1.31321   1.31449    0.000
 4561.00    1.29050   1.31928    0.000
 4562.00    1.25026   1.32270    0.000
 4563.00    1.21628   1.32498    0.000
 4564.00    1.18527   1.32640    0.000
 4565.00    1.18173   1.32733    0.000
 4566.00    1.18946   1.32809    0.000
 4567.00    1.25376   1.32884    0.000
 4568.00    1.33787   1.32966    0.000
 4569.00    1.29113   1.33046    0.000
 4570.00    1.20570   1.33105    0.000
 4571.00    1.14151   1.33117    0.000
 4572.00    1.08251   1.33056    0.000
 4573.00    1.22952   1.32897    0.000
 4574.00    1.41735   1.32623    0.000
 4575.00    1.30326   1.32227    0.000
 4576.00    1.14244   1.31719    0.000
 4577.00    1.15650   1.31118    0.000
 4578.00    1.19057   1.30465    0.000
 4579.00    1.24366   1.29805    0.000
 4580.00    1.29822   1.29192    0.000
 4581.00    1.31422   1.28674    0.000
 4582.00    1.32863   1.28289    0.000
 4583.00    1.29456   1.28062    0.000
 4584.00    1.25917   1.27986    0.000
 4585.00    1.18515   1.28046    0.000
 4586.00    1.12041   1.28197    0.000
 4587.00    1.21767   1.28393    0.000
 4588.00    1.30697   1.28575    0.000
 4589.00    1.31111   1.28702    0.000
 4590.00    1.31184   1.28736    0.000
 4591.00    1.28682   1.28671    0.000
 4592.00    1.26355   1.28505    0.000
 4593.00    1.25038   1.28270    0.000
 4594.00    1.22914   1.27994    0.000
 4595.00    1.17102   1.27726    0.000
 4596.00    1.12106   1.27501    0.000
 4597.00    1.10163   1.27361    0.000
 4598.00    1.10534   1.27335    0.000
 4599.00    1.18146   1.27439    0.000
 4600.00    1.23712   1.27697    0.000
 4601.00    1.23849   1.28100    0.000
 4602.00    1.24054   1.28664    0.000
 4603.00    1.24415   1.29359    0.000
 4604.00    1.26010   1.30187    0.000
 4605.00    1.30042   1.31099    0.000
 4606.00    1.31771   1.32074    0.000
 4607.00    1.29540   1.33060    0.000
 4608.00    1.25983   1.34016    0.000
 4609.00    1.20429   1.34905    0.000
 4610.00    1.21520   1.35686    0.000
 4611.00    1.31402   1.36354    0.000
 4612.00    1.33048   1.36886    0.000
 4613.00    1.25096   1.37309    0.000
 4614.00    1.25399   1.37618    0.000
 4615.00    1.34187   1.37854    0.000
 4616.00    1.38969   1.38016    0.000
 4617.00    1.40119   1.38138    0.000
 4618.00    1.40376   1.38216    0.000
 4619.00    1.39917   1.38264    0.000
 4620.00    1.40659   1.38281    0.000
 4621.00    1.42245   1.38260    0.000
 4622.00    1.38615   1.38205    0.000
 4623.00    1.31768   1.38103    0.000
 4624.00    1.22215   1.37958    0.000
 4625.00    1.11204   1.37757    0.000
 4626.00    1.06488   1.37508    0.000
 4627.00    1.04717   1.37193    0.000
 4628.00    1.18200   1.36818    0.000
 4629.00    1.37832   1.36367    0.000
 4630.00    1.42107   1.35843    0.000
 4631.00    1.41099   1.35239    0.000
 4632.00    1.45058   1.34559    0.000
 4633.00    1.50457   1.33812    0.000
 4634.00    1.41218   1.33003    0.000
 4635.00    1.28474   1.32164    0.000
 4636.00    1.30355   1.31293    0.000
 4637.00    1.35061   1.30435    0.000
 4638.00    1.30890   1.29575    0.000
 4639.00    1.25387   1.28758    0.000
 4640.00    1.24623   1.27961    0.000
 4641.00    1.24381   1.27221    0.000
 4642.00    1.23983   1.26524    0.000
 4643.00    1.23575   1.25908    0.000
 4644.00    1.23377   1.25375    0.000
 4645.00    1.23187   1.24967    0.000
 4646.00    1.30013   1.24698    0.000
 4647.00    1.36330   1.24604    0.000
 4648.00    1.22451   1.24689    0.000
 4649.00    1.09976   1.24966    0.000
 4650.00    1.20467   1.25412    0.000
 4651.00    1.29740   1.26009    0.000
 4652.00    1.26545   1.26716    0.000
 4653.00    1.24288   1.27485    0.000
 4654.00    1.28884   1.28278    0.000
 4655.00    1.32990   1.29023    0.000
 4656.00    1.34358   1.29687    0.000
 4657.00    1.35972   1.30188    0.000
 4658.00    1.38683   1.30503    0.000
 4659.00    1.36755   1.30565    0.000
 4660.00    1.17836   1.30367    0.000
 4661.00    1.06853   1.29895    0.000
 4662.00    1.20215   1.29181    0.000
 4663.00    1.27238   1.28285    0.000
 4664.00    1.17727   1.27284    0.000
 4665.00    1.13052   1.26285    0.000
 4666.00    1.19214   1.25379    0.000
 4667.00    1.22708   1.24665    0.000
 4668.00    1.21022   1.24201    0.000
 4669.00    1.21003   1.24015    0.000
 4670.00    1.23808   1.24107    0.000
 4671.00    1.27003   1.24422    0.000
 4672.00    1.30776   1.24908    0.000
 4673.00    1.32988   1.25470    0.000
 4674.00    1.33164   1.26048    0.000
 4675.00    1.32106   1.26566    0.000
 4676.00    1.29629   1.26985    0.000
 4677.00    1.25640   1.27287    0.000
 4678.00    1.20120   1.27468    0.000
 4679.00    1.18382   1.27557    0.000
 4680.00    1.20024   1.27576    0.000
 4681.00    1.23348   1.27562    0.000
 4682.00    1.27998   1.27543    0.000
 4683.00    1.34932   1.27535    0.000
 4684.00    1.43447   1.27558    0.000
 4685.00    1.36180   1.27602    0.000
 4686.00    1.19328   1.27674    0.000
 4687.00    1.20273   1.27756    0.000
 4688.00    1.30654   1.27846    0.000
 4689.00    1.30837   1.27926    0.000
 4690.00    1.26328   1.27988    0.000
 4691.00    1.25336   1.28017    0.000
 4692.00    1.25739   1.27998    0.000
 4693.00    1.27011   1.27912    0.000
 4694.00    1.28577   1.27752    0.000
 4695.00    1.26221   1.27492    0.000
 4696.00    1.22753   1.27155    0.000
 4697.00    1.30664   1.26714    0.000
 4698.00    1.41239   1.26229    0.000
 4699.00    1.34466   1.25686    0.000
 4700.00    1.24429   1.25161    0.000
 4701.00    1.21952   1.24657    0.000
 4702.00    1.20574   1.24235    0.000
 4703.00    1.13748   1.23911    0.000
 4704.00    1.06345   1.23701    0.000
 4705.00    1.14066   1.23645    0.000
 4706.00    1.22826   1.23702    0.000
 4707.00    1.23439   1.23928    0.000
 4708.00    1.23774   1.24254    0.000
 4709.00    1.31171   1.24741    0.000
 4710.00    1.38147   1.25322    0.000
 4711.00    1.31094   1.26037    0.000
 4712.00    1.24435   1.26847    0.000
 4713.00    1.23810   1.27751    0.000
 4714.00    1.23617   1.28733    0.000
 4715.00    1.27670   1.29746    0.000
 4716.00    1.31943   1.30781    0.000
 4717.00    1.37768   1.31758    0.000
 4718.00    1.43178   1.32657    0.000
 4719.00    1.46335   1.33389    0.000
 4720.00    1.46835   1.33940    0.000
 4721.00    1.35758   1.34229    0.000
 4722.00    1.27043   1.34271    0.000
 4723.00    1.26799   1.34030    0.000
 4724.00    1.27685   1.33557    0.000
 4725.00    1.31974   1.32877    0.000
 4726.00    1.30885   1.32065    0.000
 4727.00    1.16018   1.31201    0.000
 4728.00    1.09388   1.30351    0.000
 4729.00    1.20916   1.29618    0.000
 4730.00    1.28852   1.29028    0.000
 4731.00    1.29918   1.28659    0.000
 4732.00    1.31475   1.28493    0.000
 4733.00    1.33850   1.28554    0.000
 4734.00    1.34071   1.28802    0.000
 4735.00    1.31140   1.29206    0.000
 4736.00    1.30212   1.29733    0.000
 4737.00    1.31860   1.30324    0.000
 4738.00    1.30646   1.30969    0.000
 4739.00    1.26193   1.31608    0.000
 4740.00    1.24441   1.32243    0.000
 4741.00    1.25390   1.32841    0.000
 4742.00    1.32768   1.33389    0.000
 4743.00    1.45813   1.33887    0.000
 4744.00    1.41176   1.34297    0.000
 4745.00    1.22813   1.34642    0.000
 4746.00    1.23801   1.34859    0.000
 4747.00    1.37997   1.34998    0.000
 4748.00    1.40918   1.34985    0.000
 4749.00    1.37092   1.34885    0.000
 4750.00    1.32979   1.34639    0.000
 4751.00    1.28716   1.34311    0.000
 4752.00    1.29589   1.33880    0.000
 4753.00    1.32786   1.33383    0.000
 4754.00    1.32415   1.32837    0.000
 4755.00    1.30656   1.32241    0.000
 4756.00    1.29010   1.31637    0.000
 4757.00    1.27401   1.30995    0.000
 4758.00    1.32453   1.30358    0.000
 4759.00    1.39357   1.29705    0.000
 4760.00    1.31869   1.29073    0.000
 4761.00    1.21089   1.28469    0.026
 4762.00    1.21882   1.27929    0.026
 4763.00    1.24794   1.27483    0.026
 4764.00    1.24826   1.27177    0.026
 4765.00    1.24451   1.27027    0.026
 4766.00    1.26869   1.27080    0.026
 4767.00    1.29570   1.27313    0.026
 4768.00    1.31855   1.27753    0.026
 4769.00    1.34113   1.28343    0.026
 4770.00    1.44154   1.29069    0.026
 4771.00    1.54376   1.29871    0.026
 4772.00    1.38189   1.30688    0.026
 4773.00    1.22121   1.31487    0.026
 4774.00    1.09532   1.32183    0.026
 4775.00    0.98423   1.32772    0.026
 4776.00    1.08716   1.33180    0.026
 4777.00    1.18296   1.33424    0.025
 4778.00    1.21166   1.33469    0.025
 4779.00    1.23111   1.33349    0.025
 4780.00    1.18716   1.33074    0.025
 4781.00    1.16412   1.32692    0.025
 4782.00    1.25174   1.32245    0.025
 4783.00    1.31812   1.31791    0.025
 4784.00    1.29403   1.31381    0.025
 4785.00    1.27414   1.31066    0.024
 4786.00    1.26905   1.30889    0.024
 4787.00    1.27250   1.30870    0.025
 4788.00    1.30113   1.31027    0.025
 4789.00    1.31275   1.31345    0.025
 4790.00    1.28149   1.31803    0.025
 4791.00    1.26711   1.32363    0.025
 4792.00    1.28933   1.32967    0.025
 4793.00    1.29089   1.33578    0.025
 4794.00    1.25354   1.34139    0.025
 4795.00    1.25300   1.34610    0.025
 4796.00    1.31294   1.34975    0.025
 4797.00    1.35462   1.35197    0.025
 4798.00    1.36998   1.35320    0.025
 4799.00    1.36255   1.35294    0.025
 4800.00    1.32623   1.35213    0.025
 4801.00    1.28828   1.35017    0.025
 4802.00    1.24852   1.34813    0.025
 4803.00    1.23779   1.34552    0.025
 4804.00    1.25565   1.34316    0.025
 4805.00    1.26134   1.34087    0.025
 4806.00    1.25644   1.33904    0.025
 4807.00    1.26288   1.33793    0.025
 4808.00    1.27799   1.33744    0.025
 4809.00    1.28452   1.33809    0.025
 4810.00    1.28527   1.33939    0.025
 4811.00    1.30965   1.34185    0.025
 4812.00    1.34795   1.34478    0.025
 4813.00    1.30956   1.34841    0.025
 4814.00    1.23178   1.35201    0.025
 4815.00    1.24680   1.35560    0.025
 4816.00    1.30315   1.35850    0.025
 4817.00    1.30982   1.36052    0.025
 4818.00    1.29750   1.36144    0.025
 4819.00    1.31993   1.36098    0.025
 4820.00    1.35366   1.35937    0.025
 4821.00    1.38505   1.35645    0.025
 4822.00    1.41579   1.35267    0.025
 4823.00    1.43665   1.34821    0.025
 4824.00    1.45531   1.34342    0.025
 4825.00    1.43534   1.33868    0.025
 4826.00    1.40850   1.33403    0.025
 4827.00    1.36259   1.33005    0.025
 4828.00    1.31407   1.32634    0.025
 4829.00    1.31151   1.32348    0.025
 4830.00    1.31340   1.32085    0.025
 4831.00    1.27261   1.31902    0.026
 4832.00    1.22923   1.31726    0.026
 4833.00    1.19557   1.31586    0.051
 4834.00    1.16249   1.31449   -1.000
 4835.00    1.18770   1.31317   -1.000
 4836.00    1.21284   1.31190   -1.000
 4837.00    1.23619   1.31033   -1.000
 4838.00    1.25706   1.30897   -1.000
 4839.00    1.24419   1.30733   -1.000
 4840.00    1.23849   1.30610   -1.000
 4841.00    1.29762   1.30466   -1.000
 4842.00    1.34198   1.30354   -1.000
 4843.00    1.28834   1.30233   -1.000
 4844.00    1.25088   1.30102   -1.000
 4845.00    1.29693   1.29925   -1.000
 4846.00    1.33575   1.29688    0.263
 4847.00    1.34446   1.29359    0.043
 4848.00    1.33853   1.28892    0.000
 4849.00    1.28216   1.28271    0.000
 4850.00    1.24636   1.27448    0.000
 4851.00    1.27021   1.26431    0.000
 4852.00    1.23883   1.25207    0.000
 4853.00    1.07078   1.23811    0.000
 4854.00    0.97458   1.22244    0.000
 4855.00    1.03166   1.20602    0.000
 4856.00    1.08062   1.18896    0.000
 4857.00    1.11449   1.17255    0.000
 4858.00    1.16421   1.15705    0.000
 4859.00    1.23957   1.14395    0.000
 4860.00    1.27247   1.13308    0.000
 4861.00    1.24509   1.12581    0.000
 4862.00    1.23781   1.12153    0.000
 4863.00    1.25564   1.12076    0.000
 4864.00    1.26326   1.12295    0.000
 4865.00    1.25963   1.12768    0.000
 4866.00    1.28317   1.13447    0.000
 4867.00    1.33309   1.14221    0.000
 4868.00    1.32913   1.15117    0.000
 4869.00    1.27902   1.16013    0.000
 4870.00    1.21255   1.16939    0.000
 4871.00    1.13373   1.17863    0.000
 4872.00    1.10204   1.18790    0.000
 4873.00    1.10158   1.19726    0.000
 4874.00    1.17396   1.20649    0.000
 4875.00    1.28862   1.21578    0.026
 4876.00    1.27593   1.22424    0.026
 4877.00    1.19882   1.23209    0.026
 4878.00    1.20153   1.23868    0.026
 4879.00    1.23919   1.24378    0.026
 4880.00    1.31568   1.24730    0.026
 4881.00    1.40677   1.24862    0.026
 4882.00    1.42638   1.24860    0.026
 4883.00    1.42319   1.24645    0.026
 4884.00    1.35008   1.24448    0.026
 4885.00    1.25832   1.24157    0.026
 4886.00    1.24446   1.23990    0.026
 4887.00    1.24759   1.23883    0.025
 4888.00    1.19384   1.24025    0.025
 4889.00    1.13023   1.24356    0.025
 4890.00    1.25116   1.24954    0.025
 4891.00    1.39640   1.25792    0.026
 4892.00    1.37992   1.26793    0.026
 4893.00    1.34841   1.28009    0.026
 4894.00    1.38004   1.29216    0.025
 4895.00    1.41525   1.30470    0.025
 4896.00    1.42929   1.31569    0.025
 4897.00    1.44223   1.32590    0.025
 4898.00    1.38762   1.33375    0.025
 4899.00    1.33278   1.33947    0.025
 4900.00    1.27263   1.34282    0.025
 4901.00    1.21646   1.34401    0.025
 4902.00    1.21177   1.34360    0.025
 4903.00    1.21378   1.34145    0.025
 4904.00    1.27396   1.33841    0.025
 4905.00    1.32204   1.33436    0.025
 4906.00    1.29229   1.32970    0.025
 4907.00    1.26937   1.32494    0.025
 4908.00    1.28087   1.31961    0.025
 4909.00    1.29949   1.31420    0.025
 4910.00    1.34717   1.30805    0.025
 4911.00    1.38101   1.30164    0.025
 4912.00    1.36816   1.29424    0.025
 4913.00    1.33581   1.28647    0.025
 4914.00    1.24789   1.27836    0.025
 4915.00    1.19688   1.26956    0.025
 4916.00    1.23564   1.26083    0.024
 4917.00    1.27571   1.25190    0.024
 4918.00    1.31851   1.24468    0.024
 4919.00    1.33902   1.23834    0.025
 4920.00    1.31883   1.23499    0.024
 4921.00    1.29473   1.23395    0.024
 4922.00    1.26438   1.23601    0.024
 4923.00    1.21946   1.24087    0.024
 4924.00    1.15416   1.24817    0.024
 4925.00    1.13614   1.25740    0.024
 4926.00    1.17637   1.26737    0.024
 4927.00    1.22042   1.27790    0.024
 4928.00    1.26861   1.28722    0.024
 4929.00    1.30698   1.29563    0.024
 4930.00    1.33593   1.30145    0.024
 4931.00    1.32917   1.30519    0.024
 4932.00    1.29223   1.30625    0.024
 4933.00    1.26819   1.30548    0.024
 4934.00    1.25374   1.30335    0.024
 4935.00    1.25075   1.30110    0.024
 4936.00    1.25524   1.29876    0.024
 4937.00    1.26775   1.29730    0.024
 4938.00    1.28483   1.29736    0.024
 4939.00    1.30746   1.29926    0.024
 4940.00    1.33285   1.30291    0.000
 4941.00    1.30144   1.30866    0.000
 4942.00    1.24556   1.31581    0.000
 4943.00    1.22429   1.32389    0.000
 4944.00    1.21579   1.33231    0.000
 4945.00    1.23809   1.34032    0.000
 4946.00    1.27002   1.34705    0.000
 4947.00    1.31331   1.35213    0.000
 4948.00    1.35957   1.35548    0.000
 4949.00    1.34980   1.35582    0.000
 4950.00    1.32810   1.35433    0.000
 4951.00    1.37641   1.34930    0.000
 4952.00    1.43652   1.34323    0.000
 4953.00    1.36319   1.33557    0.000
 4954.00    1.27290   1.32737    0.000
 4955.00    1.26928   1.31869    0.000
 4956.00    1.27334   1.31017    0.000
 4957.00    1.25278   1.30309    0.000
 4958.00    1.23092   1.29651    0.000
 4959.00    1.26119   1.29187    0.000
 4960.00    1.29147   1.28796    0.000
 4961.00    1.24486   1.28632    0.000
 4962.00    1.20610   1.28509    0.000
 4963.00    1.33807   1.28525    0.000
 4964.00    1.45244   1.28570    0.000
 4965.00    1.35071   1.28668    0.000
 4966.00    1.26086   1.28872    0.000
 4967.00    1.27050   1.29017    0.000
 4968.00    1.27037   1.29229    0.000
 4969.00    1.20911   1.29349    0.000
 4970.00    1.18063   1.29473    0.000
 4971.00    1.31285   1.29516    0.000
 4972.00    1.40317   1.29462    0.000
 4973.00    1.32668   1.29299    0.000
 4974.00    1.26139   1.28998    0.000
 4975.00    1.23312   1.28534    0.000
 4976.00    1.23375   1.27838    0.000
 4977.00    1.31513   1.27032    0.000
 4978.00    1.34678   1.26106    0.000
 4979.00    1.25950   1.25157    0.000
 4980.00    1.20467   1.24197    0.000
 4981.00    1.21690   1.23350    0.000
 4982.00    1.20985   1.22642    0.000
 4983.00    1.16817   1.22083    0.000
 4984.00    1.16900   1.21794    0.000
 4985.00    1.23663   1.21668    0.000
 4986.00    1.26461   1.21841    0.000
 4987.00    1.23792   1.22152    0.000
 4988.00    1.25790   1.22579    0.000
 4989.00    1.33457   1.23084    0.000
 4990.00    1.33354   1.23586    0.000
 4991.00    1.24934   1.24062    0.000
 4992.00    1.19585   1.24419    0.000
 4993.00    1.17133   1.24598    0.000
 4994.00    1.22759   1.24601    0.000
 4995.00    1.35107   1.24438    0.000
 4996.00    1.29454   1.24063    0.000
 4997.00    1.10608   1.23559    0.000
 4998.00    1.06518   1.22909    0.000
 4999.00    1.11925   1.22146    0.000
 5000.00    1.14110   1.21313    0.000
 5001.00    1.14483   1.20459    0.000
 5002.00    1.19674   1.19700    0.000
 5003.00    1.27227   1.18965    0.000
 5004.00    1.32918   1.18237    0.000
 5005.00    1.37821   1.17634    0.000
 5006.00    1.31927   1.17017    0.000
 5007.00    1.22118   1.16521    0.000
 5008.00    1.22677   1.16063    0.000
 5009.00    1.26415   1.15725    0.000
 5010.00    1.23788   1.15415    0.000
 5011.00    1.19534   1.15127    0.000
 5012.00    1.16647   1.14846    0.000
 5013.00    1.14044   1.14633    0.000
 5014.00    1.17796   1.14543    0.000
 5015.00    1.22587   1.14522    0.000
 5016.00    1.21015   1.14565    0.000
 5017.00    1.18662   1.14666    0.000
 5018.00    1.16776   1.14965    0.000
 5019.00    1.14930   1.15288    0.000
 5020.00    1.18365   1.15813    0.000
 5021.00    1.22057   1.16338    0.000
 5022.00    1.23181   1.17029    0.000
 5023.00    1.24248   1.17782    0.000
 5024.00    1.24287   1.18533    0.000
 5025.00    1.24166   1.19294    0.000
 5026.00    1.20829   1.20063    0.000
 5027.00    1.17826   1.20851    0.000
 5028.00    1.18718   1.21475    0.000
 5029.00    1.20153   1.22017    0.023
 5030.00    1.25962   1.22339    0.023
 5031.00    1.30028   1.22647    0.023
 5032.00    1.23523   1.22651    0.023
 5033.00    1.18499   1.22482    0.024
 5034.00    1.20560   1.22130    0.023
 5035.00    1.21727   1.21541    0.023
 5036.00    1.19412   1.21047    0.023
 5037.00    1.16185   1.20448    0.023
 5038.00    1.10002   1.19929    0.023
 5039.00    1.07135   1.19513    0.023
 5040.00    1.13372   1.19250    0.023
 5041.00    1.16782   1.19129    0.024
 5042.00    1.13548   1.19139    0.023
 5043.00    1.12169   1.19348    0.023
 5044.00    1.14560   1.19701    0.023
 5045.00    1.16045   1.20211    0.023
 5046.00    1.15927   1.20698    0.023
 5047.00    1.18628   1.21303    0.023
 5048.00    1.25696   1.21929    0.023
 5049.00    1.28767   1.22574    0.023
 5050.00    1.26404   1.23249    0.023
 5051.00    1.24087   1.23834    0.023
 5052.00    1.21824   1.24428    0.024
 5053.00    1.21990   1.24988    0.024
 5054.00    1.24720   1.25575    0.024
 5055.00    1.22850   1.26141    0.023
 5056.00    1.16700   1.26692    0.023
 5057.00    1.14800   1.27193    0.023
 5058.00    1.16388   1.27538    0.024
 5059.00    1.24122   1.27719    0.024
 5060.00    1.36293   1.27758    0.024
 5061.00    1.38701   1.27588    0.024
 5062.00    1.34919   1.27290    0.024
 5063.00    1.27668   1.26823    0.024
 5064.00    1.18495   1.26287    0.023
 5065.00    1.20993   1.25649    0.024
 5066.00    1.29118   1.24998    0.024
 5067.00    1.29535   1.24352    0.024
 5068.00    1.26743   1.23689    0.024
 5069.00    1.26068   1.23098    0.024
 5070.00    1.26147   1.22498    0.024
 5071.00    1.22488   1.22020    0.024
 5072.00    1.17706   1.21520    0.024
 5073.00    1.22452   1.21014    0.024
 5074.00    1.29578   1.20546    0.024
 5075.00    1.26700   1.19984    0.024
 5076.00    1.21796   1.19502    0.024
 5077.00    1.21243   1.19008    0.024
 5078.00    1.21382   1.18637    0.024
 5079.00    1.17885   1.18327    0.024
 5080.00    1.13958   1.18127    0.023
 5081.00    1.10207   1.18132    0.023
 5082.00    1.06469   1.18242    0.023
 5083.00    1.10358   1.18556    0.023
 5084.00    1.14590   1.18941    0.022
 5085.00    1.08390   1.19519    0.022
 5086.00    1.02343   1.20192    0.022
 5087.00    1.10111   1.20932    0.022
 5088.00    1.17522   1.21662    0.022
 5089.00    1.18297   1.22329    0.022
 5090.00    1.19115   1.22862    0.022
 5091.00    1.20415   1.23209    0.023
 5092.00    1.22549   1.23388    0.024
 5093.00    1.31181   1.23348    0.026
 5094.00    1.38196   1.23206    0.028
 5095.00    1.35679   1.22876    0.029
 5096.00    1.33441   1.22535    0.030
 5097.00    1.32504   1.22105    0.030
 5098.00    1.31753   1.21654    0.030
 5099.00    1.31703   1.21156    0.028
 5100.00    1.28292   1.20671    0.026
 5101.00    1.14187   1.20242    0.023
 5102.00    1.04919   1.19860    0.022
 5103.00    1.08692   1.19578    0.022
 5104.00    1.11686   1.19310    0.022
 5105.00    1.12879   1.19290    0.022
 5106.00    1.12797   1.19270    0.022
 5107.00    1.10165   1.19397    0.022
 5108.00    1.10040   1.19583    0.022
 5109.00    1.14286   1.19805    0.022
 5110.00    1.17309   1.20136    0.022
 5111.00    1.18468   1.20528    0.022
 5112.00    1.22526   1.20950    0.022
 5113.00    1.30470   1.21383    0.023
 5114.00    1.33101   1.21813    0.023
 5115.00    1.29464   1.22080    0.024
 5116.00    1.27051   1.22271    0.024
 5117.00    1.25912   1.22278    0.023
 5118.00    1.23066   1.22091    0.023
 5119.00    1.18654   1.21703    0.023
 5120.00    1.12741   1.21177    0.023
 5121.00    1.05614   1.20519    0.023
 5122.00    1.09434   1.19830    0.023
 5123.00    1.21048   1.19073    0.023
 5124.00    1.21178   1.18310    0.022
 5125.00    1.14134   1.17670    0.022
 5126.00    1.09560   1.17089    0.022
 5127.00    1.06333   1.16757    0.023
 5128.00    1.10090   1.16493    0.023
 5129.00    1.17161   1.16433    0.023
 5130.00    0.74811   1.16475    0.023
 5131.00    0.12236   1.16680    0.022
 5132.00    0.38934   1.16849    0.023
 5133.00    0.96843   1.16939    0.023
 5134.00    1.13593   1.17110    0.023
 5135.00    1.18210   1.17089    0.024
 5136.00    1.14571   1.17154    0.024
 5137.00    1.08917   1.17095    0.023
 5138.00    1.15093   1.16860    0.023
 5139.00    1.23607   1.16575    0.024
 5140.00    1.24103   1.16343    0.025
 5141.00    1.23363   1.16017    0.028
 5142.00    1.16580   1.15581    0.028
 5143.00    1.09108   1.15282    0.027
 5144.00    1.11558   1.14964    0.027
 5145.00    1.14764   1.14805    0.027
 5146.00    1.24452   1.14738    0.025
 5147.00    1.34407   1.14578    0.024
 5148.00    1.20864   1.14547    0.023
 5149.00    1.07688   1.14720    0.023
 5150.00    1.18081   1.14878    0.023
 5151.00    1.27631   1.15136    0.023
 5152.00    1.22556   1.15486    0.023
 5153.00    1.18411   1.15840    0.023
 5154.00    1.24156   1.16247    0.023
 5155.00    1.28742   1.16488    0.023
 5156.00    1.24601   1.16610    0.023
 5157.00    1.21135   1.16590    0.023
 5158.00    1.21534   1.16257    0.023
 5159.00    1.20690   1.15666    0.023
 5160.00    1.14179   1.14792    0.023
 5161.00    1.09650   1.13522    0.023
 5162.00    1.12514   1.11924    0.023
 5163.00    1.14192   1.10015    0.022
 5164.00    1.12171   1.08021    0.023
 5165.00    1.07892   1.06012    0.022
 5166.00    0.97634   1.04139    0.022
 5167.00    0.92362   1.02184    0.022
 5168.00    0.98424   1.00384    0.022
 5169.00    1.00994   0.99078    0.022
 5170.00    0.96687   0.98188    0.022
 5171.00    0.96670   0.97760    0.022
 5172.00    1.04016   0.97582    0.022
 5173.00    1.08318   0.97862    0.022
 5174.00    1.08043   0.98507    0.022
 5175.00    1.09084   0.99278    0.022
 5176.00    1.11866   0.99998    0.022
 5177.00    1.12745   1.00545    0.022
 5178.00    1.11411   1.01157    0.022
 5179.00    1.09323   1.01764    0.022
 5180.00    1.06461   1.02365    0.021
 5181.00    1.05887   1.03001    0.021
 5182.00    1.07384   1.03506    0.022
 5183.00    1.04852   1.04103    0.022
 5184.00    0.99108   1.04579    0.021
 5185.00    1.00567   1.05170    0.021
 5186.00    1.07080   1.05930    0.022
 5187.00    1.08290   1.06579    0.022
 5188.00    1.06237   1.07249    0.022
 5189.00    1.09771   1.08151    0.022
 5190.00    1.16307   1.09450    0.000
 5191.00    1.16051   1.10477    0.000
 5192.00    1.12625   1.11389    0.000
 5193.00    1.16779   1.12197    0.000
 5194.00    1.23983   1.12860    0.000
 5195.00    1.24811   1.13571    0.000
 5196.00    1.23451   1.13975    0.000
 5197.00    1.16114   1.14199    0.000
 5198.00    1.07049   1.14401    0.000
 5199.00    1.10288   1.14608    0.000
 5200.00    1.16465   1.14432    0.000
 5201.00    1.14242   1.14041    0.000
 5202.00    1.10403   1.13673    0.000
 5203.00    1.08232   1.13268    0.000
 5204.00    1.06310   1.12714    0.000
 5205.00    1.02236   1.12274    0.000
 5206.00    0.97925   1.11993    0.000
 5207.00    1.00557   1.11828    0.000
 5208.00    1.03689   1.12000    0.000
 5209.00    1.06853   1.12237    0.000
 5210.00    1.10018   1.12709    0.000
 5211.00    1.10915   1.13246    0.023
 5212.00    1.11986   1.14123    0.023
 5213.00    1.19746   1.14995    0.023
 5214.00    1.26805   1.15931    0.023
 5215.00    1.22490   1.17020    0.023
 5216.00    1.19043   1.17802    0.023
 5217.00    1.24428   1.18578    0.023
 5218.00    1.28311   1.19023    0.023
 5219.00    1.21262   1.19250    0.023
 5220.00    1.15467   1.19192    0.023
 5221.00    1.16664   1.18968    0.023
 5222.00    1.17719   1.18699    0.023
 5223.00    1.18142   1.18266    0.023
 5224.00    1.17459   1.18110    0.022
 5225.00    1.12738   1.17887    0.022
 5226.00    1.09201   1.17626    0.022
 5227.00    1.09288   1.17584    0.022
 5228.00    1.10622   1.17499    0.022
 5229.00    1.15199   1.17563    0.022
 5230.00    1.17940   1.17903    0.022
 5231.00    1.16570   1.18457    0.022
 5232.00    1.15108   1.19261    0.022
 5233.00    1.13467   1.20225    0.022
 5234.00    1.14547   1.21273    0.022
 5235.00    1.20228   1.22107    0.022
 5236.00    1.24573   1.22897    0.022
 5237.00    1.26941   1.23719    0.022
 5238.00    1.25977   1.24281    0.022
 5239.00    1.20676   1.24883    0.022
 5240.00    1.17147   1.25399    0.022
 5241.00    1.15649   1.25743    0.021
 5242.00    1.14058   1.25815    0.021
 5243.00    1.12375   1.25553    0.021
 5244.00    1.13635   1.25315    0.021
 5245.00    1.17522   1.24979    0.022
 5246.00    1.17362   1.24464    0.022
 5247.00    1.14019   1.24032    0.022
 5248.00    1.16193   1.23599    0.022
 5249.00    1.22182   1.23221    0.022
 5250.00    1.23087   1.22852    0.022
 5251.00    1.20910   1.22378    0.022
 5252.00    1.19056   1.22142    0.022
 5253.00    1.17373   1.21991    0.022
 5254.00    1.16849   1.21928    0.022
 5255.00    1.16857   1.21692    0.022
 5256.00    1.17123   1.21307    0.022
 5257.00    1.17490   1.20878    0.022
 5258.00    1.18279   1.20040    0.022
 5259.00    1.19210   1.19084    0.022
 5260.00    1.17047   1.17894    0.022
 5261.00    1.14007   1.16645    0.022
 5262.00    1.15719   1.15268    0.023
 5263.00    1.18540   1.13927    0.023
 5264.00    1.16634   1.12580    0.023
 5265.00    1.13843   1.11054    0.024
 5266.00    1.07771   1.09847    0.023
 5267.00    1.01223   1.09111    0.023
 5268.00    1.04518   1.08789    0.024
 5269.00    1.08848   1.08728    0.024
 5270.00    1.08091   1.09169    0.024
 5271.00    1.06988   1.09772    0.023
 5272.00    1.09148   1.10713    0.024
 5273.00    1.11418   1.12050    0.024
 5274.00    1.07597   1.13423    0.024
 5275.00    1.04120   1.14978    0.023
 5276.00    1.11887   1.16602    0.023
 5277.00    1.19436   1.18212    0.023
 5278.00    1.23657   1.19564    0.023
 5279.00    1.27234   1.20862    0.023
 5280.00    1.24535   1.22122    0.023
 5281.00    1.21759   1.23356    0.023
 5282.00    1.18447   1.24610    0.023
 5283.00    1.16612   1.25692    0.023
 5284.00    1.22784   1.26577    0.022
 5285.00    1.27631   1.27334    0.022
 5286.00    1.26718   1.28045    0.022
 5287.00    1.24747   1.28638    0.022
 5288.00    1.18996   1.29203    0.022
 5289.00    1.16096   1.29562    0.022
 5290.00    1.21762   1.29812    0.022
 5291.00    1.25881   1.29844    0.022
 5292.00    1.26045   1.29575    0.021
 5293.00    1.26707   1.29137    0.021
 5294.00    1.28466   1.28580    0.022
 5295.00    1.28104   1.28195    0.022
 5296.00    1.23697   1.27758    0.022
 5297.00    1.18760   1.27367    0.021
 5298.00    1.12942   1.27131    0.021
 5299.00    1.12710   1.27022    0.021
 5300.00    1.20631   1.27159    0.022
 5301.00    1.26006   1.27419    0.022
 5302.00    1.28115   1.27928    0.022
 5303.00    1.31656   1.28540    0.022
 5304.00    1.36816   1.29293    0.021
 5305.00    1.34586   1.30139    0.021
 5306.00    1.24985   1.30882    0.021
 5307.00    1.19283   1.31620    0.021
 5308.00    1.17011   1.32239    0.021
 5309.00    1.17754   1.32687    0.021
 5310.00    1.20834   1.32949    0.022
 5311.00    1.20601   1.33072    0.022
 5312.00    1.18112   1.32990    0.021
 5313.00    1.21506   1.32732    0.021
 5314.00    1.28414   1.32404    0.022
 5315.00    1.31450   1.31879    0.022
 5316.00    1.32468   1.31207    0.022
 5317.00    1.27038   1.30341    0.022
 5318.00    1.18695   1.29427    0.021
 5319.00    1.22657   1.28398    0.021
 5320.00    1.31399   1.27239    0.022
 5321.00    1.30404   1.26186    0.022
 5322.00    1.26189   1.25029    0.022
 5323.00    1.23361   1.23919    0.022
 5324.00    1.20917   1.22685    0.022
 5325.00    1.22403   1.21732    0.022
 5326.00    1.24785   1.21025    0.022
 5327.00    1.22233   1.20500    0.022
 5328.00    1.18781   1.20298    0.022
 5329.00    1.20752   1.20148    0.021
 5330.00    1.23484   1.20347    0.021
 5331.00    1.22509   1.20602    0.022
 5332.00    1.21160   1.21120    0.022
 5333.00    1.22441   1.21781    0.022
 5334.00    1.23890   1.22519    0.021
 5335.00    1.23381   1.23301    0.021
 5336.00    1.22801   1.23783    0.021
 5337.00    1.17336   1.24279    0.021
 5338.00    1.12185   1.24733    0.021
 5339.00    1.16019   1.25079    0.021
 5340.00    1.19742   1.25459    0.021
 5341.00    1.21883   1.25673    0.021
 5342.00    1.24138   1.25844    0.021
 5343.00    1.27469   1.26042    0.021
 5344.00    1.30215   1.26186    0.021
 5345.00    1.28966   1.26547    0.021
 5346.00    1.27295   1.26968    0.021
 5347.00    1.23395   1.27588    0.021
 5348.00    1.20606   1.28261    0.021
 5349.00    1.22537   1.28872    0.021
 5350.00    1.24625   1.29708    0.021
 5351.00    1.27266   1.30463    0.021
 5352.00    1.28896   1.31265    0.020
 5353.00    1.27545   1.32109    0.020
 5354.00    1.27208   1.32826    0.020
 5355.00    1.29417   1.33501    0.020
 5356.00    1.29820   1.33928    0.020
 5357.00    1.26316   1.34204    0.020
 5358.00    1.22866   1.34228    0.020
 5359.00    1.19515   1.34033    0.020
 5360.00    1.19027   1.33659    0.020
 5361.00    1.23233   1.33024    0.020
 5362.00    1.26013   1.32353    0.020
 5363.00    1.26741   1.31468    0.021
 5364.00    1.26519   1.30614    0.021
 5365.00    1.25095   1.29638    0.020
 5366.00    1.23150   1.28665    0.020
 5367.00    1.20626   1.27796    0.020
 5368.00    1.22604   1.27015   -2.000
 5369.00    1.29009   1.26656   -2.000
 5370.00    1.29551   1.26353   -2.000
 5371.00    1.25009   1.26400   -2.000
 5372.00    1.22994   1.26473   -2.000
 5373.00    1.22909   1.26609   -2.000
 5374.00    1.19154   1.26968   -2.000
 5375.00    1.12935   1.27394   -2.000
 5376.00    1.15517   1.28073   -2.000
 5377.00    1.23276   1.28633   -2.000
 5378.00    1.23092   1.29192   -2.000
 5379.00    1.18834   1.29518   -2.000
 5380.00    1.14388   1.29713   -2.000
 5381.00    1.09857   1.29880   -2.000
 5382.00    1.14561   1.29881   -2.000
 5383.00    1.22790   1.29827    0.021
 5384.00    1.27013   1.29573    0.021
 5385.00    1.29936   1.29174    0.021
 5386.00    1.31429   1.28600    0.021
 5387.00    1.32534   1.27989    0.021
 5388.00    1.27156   1.27340    0.021
 5389.00    1.20334   1.26644    0.020
 5390.00    1.14360   1.25919    0.020
 5391.00    1.08537   1.25193    0.020
 5392.00    1.10511   1.24367    0.020
 5393.00    1.13543   1.23494    0.020
 5394.00    1.16882   1.22817    0.020
 5395.00    1.20250   1.22114    0.020
 5396.00    1.24562   1.21567    0.020
 5397.00    1.28930   1.21078    0.020
 5398.00    1.26186   1.20656    0.020
 5399.00    1.23263   1.20197    0.020
 5400.00    1.21403   1.19636    0.020
 5401.00    1.19638   1.19289    0.020
 5402.00    1.20299   1.18997    0.020
 5403.00    1.20718   1.18844    0.020
 5404.00    1.17865   1.18806    0.019
 5405.00    1.15249   1.18878    0.019
 5406.00    1.14777   1.18950    0.019
 5407.00    1.15228   1.19121    0.020
 5408.00    1.21781   1.19474    0.020
 5409.00    1.27040   1.20057    0.020
 5410.00    1.25641   1.20866    0.020
 5411.00    1.24348   1.21705    0.020
 5412.00    1.23497   1.22606    0.020
 5413.00    1.22316   1.23448    0.020
 5414.00    1.20004   1.24379    0.020
 5415.00    1.19445   1.25270    0.020
 5416.00    1.23960   1.26037    0.020
 5417.00    1.27088   1.26721    0.020
 5418.00    1.26791   1.27231    0.020
 5419.00    1.25797   1.27599    0.020
 5420.00    1.23316   1.27746    0.020
 5421.00    1.20129   1.27824    0.020
 5422.00    1.15636   1.27776    0.020
 5423.00    1.14476   1.27600    0.020
 5424.00    1.18702   1.27353    0.020
 5425.00    1.22920   1.26899    0.020
 5426.00    1.27124   1.26455    0.020
 5427.00    1.28997   1.25918    0.020
 5428.00    1.27963   1.25464    0.020
 5429.00    1.23797   1.25285    0.020
 5430.00    1.16191   1.24946    0.020
 5431.00    1.15227   1.24723    0.020
 5432.00    1.20703   1.24449    0.020
 5433.00    1.21959   1.24372    0.020
 5434.00    1.19608   1.24770    0.020
 5435.00    1.18762   1.25035    0.020
 5436.00    1.19049   1.25523    0.020
 5437.00    1.19962   1.25918    0.020
 5438.00    1.21289   1.26271    0.020
 5439.00    1.24055   1.26781    0.020
 5440.00    1.27653   1.27129    0.020
 5441.00    1.27808   1.27607    0.020
 5442.00    1.26223   1.27722    0.020
 5443.00    1.26505   1.27635    0.020
 5444.00    1.27602   1.27540    0.020
 5445.00    1.27326   1.27252    0.019
 5446.00    1.26534   1.27104    0.019
 5447.00    1.24600   1.26776    0.019
 5448.00    1.22303   1.26419    0.019
 5449.00    1.19997   1.25969    0.019
 5450.00    1.17690   1.25480    0.019
 5451.00    1.17483   1.25192    0.019
 5452.00    1.17733   1.24951    0.019
 5453.00    1.22262   1.24777    0.019
 5454.00    1.27530   1.24605    0.019
 5455.00    1.26667   1.24605    0.019
 5456.00    1.24999   1.24537    0.019
 5457.00    1.20070   1.24482    0.019
 5458.00    1.14840   1.24389    0.019
 5459.00    1.18213   1.24361    0.019
 5460.00    1.22069   1.24585    0.019
 5461.00    1.23560   1.24643    0.019
 5462.00    1.25012   1.24772    0.019
 5463.00    1.27913   1.24840    0.019
 5464.00    1.30601   1.24738    0.019
 5465.00    1.28290   1.24647    0.019
 5466.00    1.25865   1.24450    0.019
 5467.00    1.21976   1.24354    0.019
 5468.00    1.18819   1.24224    0.019
 5469.00    1.22000   1.23892    0.020
 5470.00    1.24097   1.23638    0.020
 5471.00    1.19239   1.23267    0.020
 5472.00    1.15174   1.22727    0.019
 5473.00    1.15085   1.22289    0.019
 5474.00    1.16483   1.21886    0.020
 5475.00    1.23921   1.21676    0.020
 5476.00    1.30967   1.21487    0.020
 5477.00    1.36695   1.21289    0.020
 5478.00    1.37598   1.21271   -2.000
 5479.00    1.24798   1.21062   -2.000
 5480.00    1.17776   1.21140   -2.000
 5481.00    1.24781   1.21568   -2.000
 5482.00    1.32599   1.22022   -2.000
 5483.00    1.42121   1.22400   -2.000
 5484.00    1.44722   1.22568   -2.000
 5485.00    1.34720   1.22924   -2.000
 5486.00    1.32410   1.23291   -2.000
 5487.00    1.42344   1.23755   -2.000
 5488.00    1.35902   1.24193   -2.000
 5489.00    1.06584   1.24476   -2.000
 5490.00    0.88922   1.24661   -2.000
 5491.00    0.85591   1.24706   -2.000
 5492.00    0.91023   1.24889   -2.000
 5493.00    1.05952   1.24966   -2.000
 5494.00    1.13210   1.25063   -2.000
 5495.00    1.13136   1.25113   -2.000
 5496.00    1.16248   1.24979   -2.000
 5497.00    1.22047   1.24847   -2.000
 5498.00    1.26228   1.24718   -2.000
 5499.00    1.29208   1.24571   -2.000
 5500.00    1.29864   1.24270   -2.000
 5501.00    1.29006   1.24078   -2.000
 5502.00    1.24381   1.23917    0.019
 5503.00    1.17607   1.23625    0.018
 5504.00    1.17178   1.23242    0.018
 5505.00    1.19902   1.22934    0.019
 5506.00    1.22395   1.22860    0.019
 5507.00    1.24789   1.22661    0.019
 5508.00    1.23954   1.22479    0.019
 5509.00    1.21930   1.22351    0.019
 5510.00    1.21461   1.22221    0.019
 5511.00    1.21478   1.22375    0.019
 5512.00    1.19075   1.22501    0.019
 5513.00    1.16043   1.22688    0.019
 5514.00    1.14558   1.23018    0.019
 5515.00    1.13402   1.23210    0.019
 5516.00    1.14130   1.23602    0.019
 5517.00    1.15174   1.24022    0.019
 5518.00    1.17623   1.24373    0.019
 5519.00    1.20249   1.24711    0.019
 5520.00    1.22084   1.24949    0.019
 5521.00    1.23849   1.25261    0.019
 5522.00    1.20328   1.25451    0.019
 5523.00    1.16531   1.25433    0.019
 5524.00    1.16563   1.25365    0.019
 5525.00    1.16698   1.25275    0.019
 5526.00    1.19228   1.25110    0.019
 5527.00    1.21610   1.25071    0.019
 5528.00    1.20806   1.25025    0.019
 5529.00    1.20130   1.24915    0.019
 5530.00    1.20998   1.24819    0.019
 5531.00    1.22074   1.24661    0.019
 5532.00    1.24871   1.24823    0.019
 5533.00    1.26860   1.25034    0.019
 5534.00    1.23820   1.25223    0.019
 5535.00    1.21039   1.25467    0.019
 5536.00    1.19526   1.25631    0.019
 5537.00    1.18182   1.25956    0.019
 5538.00    1.17513   1.26218    0.019
 5539.00    1.17095   1.26582    0.021
 5540.00    1.17505   1.26969    0.049
 5541.00    1.18476   1.27166   -1.000
 5542.00    1.21010   1.27482   -1.000
 5543.00    1.22900   1.27806   -1.000
 5544.00    1.23252   1.28081   -1.000
 5545.00    1.23416   1.28294   -1.000
 5546.00    1.23195   1.28469   -1.000
 5547.00    1.22846   1.28674   -1.000
 5548.00    1.22269   1.28825   -1.000
 5549.00    1.22281   1.28868   -1.000
 5550.00    1.23219   1.28882   -1.000
 5551.00    1.23564   1.28904   -1.000
 5552.00    1.23093   1.28825   -1.000
 5553.00    1.22025   1.28651    0.079
 5554.00    1.20234   1.28484    0.025
 5555.00    1.18101   1.28249    0.018
 5556.00    1.15603   1.27895    0.019
 5557.00    1.15029   1.27569    0.019
 5558.00    1.16270   1.27204    0.019
 5559.00    1.17650   1.26871    0.019
 5560.00    1.19147   1.26467    0.019
 5561.00    1.19982   1.25981    0.019
 5562.00    1.20333   1.25712    0.018
 5563.00    1.18350   1.25312    0.018
 5564.00    1.14867   1.24934    0.018
 5565.00    1.17281   1.24643    0.019
 5566.00    1.23010   1.24336    0.019
 5567.00    1.24595   1.24247    0.019
 5568.00    1.24154   1.24056    0.019
 5569.00    1.25643   1.23966    0.019
 5570.00    1.27948   1.23944    0.019
 5571.00    1.26838   1.23891    0.019
 5572.00    1.24494   1.24011    0.019
 5573.00    1.19793   1.24075    0.019
 5574.00    1.14371   1.24215    0.019
 5575.00    1.12466   1.24237    0.018
 5576.00    1.11458   1.24136    0.018
 5577.00    1.13463   1.24177    0.018
 5578.00    1.16093   1.24119    0.018
 5579.00    1.15573   1.23847    0.018
 5580.00    1.14539   1.23491    0.018
 5581.00    1.15629   1.23157    0.018
 5582.00    1.16977   1.22658    0.018
 5583.00    1.16036   1.22143    0.018
 5584.00    1.14903   1.21552    0.018
 5585.00    1.16760   1.20777    0.018
 5586.00    1.18762   1.20315    0.018
 5587.00    1.13197   1.19852    0.018
 5588.00    1.07574   1.19422    0.018
 5589.00    1.05194   1.19134    0.018
 5590.00    1.03179   1.18724    0.018
 5591.00    1.08406   1.18636    0.018
 5592.00    1.13338   1.18655    0.018
 5593.00    1.14848   1.18785    0.018
 5594.00    1.16475   1.19138    0.018
 5595.00    1.19046   1.19320    0.018
 5596.00    1.21070   1.19500    0.019
 5597.00    1.19791   1.19815    0.019
 5598.00    1.18204   1.20257    0.019
 5599.00    1.15149   1.20837    0.019
 5600.00    1.12755   1.21293    0.019
 5601.00    1.12925   1.21545    0.019
 5602.00    1.13322   1.22127    0.019
 5603.00    1.14452   1.22780    0.019
 5604.00    1.16595   1.23310    0.019
 5605.00    1.21513   1.23812    0.019
 5606.00    1.24678   1.24103    0.019
 5607.00    1.23727   1.24606    0.019
 5608.00    1.22635   1.24967    0.019
 5609.00    1.21258   1.25183    0.019
 5610.00    1.20495   1.25318    0.019
 5611.00    1.20817   1.25140    0.019
 5612.00    1.18732   1.24961    0.018
 5613.00    1.12928   1.24536    0.018
 5614.00    1.10025   1.24237    0.018
 5615.00    1.11059   1.24074    0.018
 5616.00    1.11847   1.23666    0.018
 5617.00    1.12341   1.23184    0.018
 5618.00    1.12187   1.22528    0.018
 5619.00    1.11348   1.22295    0.018
 5620.00    1.11846   1.22400    0.018
 5621.00    1.13585   1.22276    0.018
 5622.00    1.15206   1.22069    0.018
 5623.00    1.16730   1.21910    0.018
 5624.00    1.16050   1.22148    0.017
 5625.00    1.13781   1.22495    0.017
 5626.00    1.14319   1.22665    0.017
 5627.00    1.16634   1.22754    0.017
 5628.00    1.19185   1.22880    0.017
 5629.00    1.21865   1.23246    0.017
 5630.00    1.20477   1.23518    0.017
 5631.00    1.17131   1.23626    0.018
 5632.00    1.15908   1.23707    0.017
 5633.00    1.15568   1.23740    0.017
 5634.00    1.16872   1.23722    0.017
 5635.00    1.18760   1.23631    0.017
 5636.00    1.18862   1.23545    0.018
 5637.00    1.18427   1.23419    0.018
 5638.00    1.19666   1.23320    0.018
 5639.00    1.21321   1.23110    0.018
 5640.00    1.17821   1.22947    0.018
 5641.00    1.13279   1.22947    0.018
 5642.00    1.11994   1.22934    0.018
 5643.00    1.11224   1.22990    0.018
 5644.00    1.11544   1.22914    0.018
 5645.00    1.11992   1.22943    0.018
 5646.00    1.15858   1.23086    0.018
 5647.00    1.19998   1.23088    0.018
 5648.00    1.16978   1.23123    0.018
 5649.00    1.13641   1.23120    0.018
 5650.00    1.19460   1.23092    0.018
 5651.00    1.25230   1.22966    0.018
 5652.00    1.23504   1.22709    0.018
 5653.00    1.21811   1.22462    0.018
 5654.00    1.20721   1.22309    0.018
 5655.00    1.19729   1.22098    0.018
 5656.00    1.19829   1.21659    0.018
 5657.00    1.19783   1.21309    0.018
 5658.00    1.18604   1.21169    0.018
 5659.00    1.17579   1.21152    0.018
 5660.00    1.17453   1.21041    0.017
 5661.00    1.16762   1.20762    0.017
 5662.00    1.13444   1.20853    0.017
 5663.00    1.11013   1.21290    0.017
 5664.00    1.11950   1.21625    0.017
 5665.00    1.12405   1.21788    0.017
 5666.00    1.11330   1.22055    0.017
 5667.00    1.11074   1.22602    0.017
 5668.00    1.13017   1.23204    0.017
 5669.00    1.15652   1.23694    0.017
 5670.00    1.19881   1.24061    0.017
 5671.00    1.23455   1.24488    0.017
 5672.00    1.25718   1.24961    0.017
 5673.00    1.25980   1.25293    0.017
 5674.00    1.22761   1.25565    0.017
 5675.00    1.20535   1.25770    0.017
 5676.00    1.19819   1.25911    0.018
 5677.00    1.17852   1.25951    0.018
 5678.00    1.14210   1.25843    0.018
 5679.00    1.12026   1.25745    0.018
 5680.00    1.11561   1.25562    0.018
 5681.00    1.12104   1.25328    0.018
 5682.00    1.13694   1.25128    0.018
 5683.00    1.14562   1.24965    0.018
 5684.00    1.14770   1.24785    0.018
 5685.00    1.14469   1.24513    0.018
 5686.00    1.13757   1.24348    0.018
 5687.00    1.11836   1.24359    0.018
 5688.00    1.09057   1.24482    0.018
 5689.00    1.09731   1.24461    0.018
 5690.00    1.12558   1.24415    0.018
 5691.00    1.14906   1.24406    0.018
 5692.00    1.16994   1.24442    0.018
 5693.00    1.19610   1.24550    0.018
 5694.00    1.22478   1.24407    0.018
 5695.00    1.21602   1.24275    0.018
 5696.00    1.19196   1.24004    0.018
 5697.00    1.16085   1.23653    0.018
 5698.00    1.12729   1.23383    0.018
 5699.00    1.13087   1.22843    0.018
 5700.00    1.14537   1.22380    0.018
 5701.00    1.16543   1.21853    0.018
 5702.00    1.18685   1.21286    0.017
 5703.00    1.16987   1.20913    0.017
 5704.00    1.14534   1.20306    0.017
 5705.00    1.12228   1.19839    0.017
 5706.00    1.09944   1.19636    0.017
 5707.00    1.10026   1.19403    0.017
 5708.00    1.10377   1.19430    0.017
 5709.00    1.11507   1.19415    0.017
 5710.00    1.12695   1.19459    0.017
 5711.00    1.12311   1.19958    0.017
 5712.00    1.11862   1.20429    0.017
 5713.00    1.13731   1.21032    0.017
 5714.00    1.15578   1.21740    0.017
 5715.00    1.15730   1.22332    0.017
 5716.00    1.16060   1.23214    0.017
 5717.00    1.19454   1.24082    0.017
 5718.00    1.22552   1.24796    0.017
 5719.00    1.22513   1.25528    0.017
 5720.00    1.22487   1.26090    0.018
 5721.00    1.22550   1.26682    0.018
 5722.00    1.23238   1.27249    0.018
 5723.00    1.27493   1.27585    0.018
 5724.00    1.31118   1.27794    0.018
 5725.00    1.31884   1.27900    0.018
 5726.00    1.31601   1.28081    0.018
 5727.00    1.27413   1.28245    0.018
 5728.00    1.24084   1.28265    0.018
 5729.00    1.23430   1.28124    0.018
 5730.00    1.23448   1.27958    0.018
 5731.00    1.25241   1.28061    0.018
 5732.00    1.26557   1.28161    0.018
 5733.00    1.26793   1.28148    0.017
 5734.00    1.26134   1.28006    0.017
 5735.00    1.23717   1.27848    0.017
 5736.00    1.22101   1.27958    0.017
 5737.00    1.21860   1.28079    0.017
 5738.00    1.23263   1.28087    0.017
 5739.00    1.27135   1.28008    0.017
 5740.00    1.28539   1.27851    0.000
 5741.00    1.26691   1.27781    0.000
 5742.00    1.25369   1.27807    0.000
 5743.00    1.24659   1.27803    0.000
 5744.00    1.25970   1.27707    0.000
 5745.00    1.29351   1.27455    0.000
 5746.00    1.30666   1.27134    0.000
 5747.00    1.30116   1.27029    0.000
 5748.00    1.28358   1.27041    0.000
 5749.00    1.25640   1.26921    0.000
 5750.00    1.24482   1.26602    0.000
 5751.00    1.24417   1.26223    0.000
 5752.00    1.25409   1.26078    0.000
 5753.00    1.27051   1.26149    0.000
 5754.00    1.25495   1.26144    0.000
 5755.00    1.22224   1.25922    0.000
 5756.00    1.22581   1.25719    0.000
 5757.00    1.24627   1.25726    0.000
 5758.00    1.28976   1.25879    0.000
 5759.00    1.34249   1.26021    0.000
 5760.00    1.32179   1.26016    0.000
 5761.00    1.27594   1.26046    0.000
 5762.00    1.26187   1.26277    0.000
 5763.00    1.25696   1.26521    0.000
 5764.00    1.25895   1.26700    0.000
 5765.00    1.26259   1.26820    0.000
 5766.00    1.28141   1.26962    0.000
 5767.00    1.30316   1.27185    0.000
 5768.00    1.36489   1.27309    0.000
 5769.00    1.43259   1.27315    0.000
 5770.00    1.45674   1.27220    0.000
 5771.00    1.47615   1.27144    0.000
 5772.00    1.45647   1.27001    0.000
 5773.00    1.43399   1.26643    0.000
 5774.00    1.34694   1.26253    0.000
 5775.00    1.25751   1.25790    0.000
 5776.00    1.20648   1.25339    0.000
 5777.00    1.15795   1.24848    0.000
 5778.00    1.19302   1.24096    0.000
 5779.00    1.22624   1.23447    0.000
 5780.00    1.22979   1.23006    0.000
 5781.00    1.23266   1.22573    0.000
 5782.00    1.22869   1.22243    0.000
 5783.00    1.22274   1.21736    0.000
 5784.00    1.20244   1.21395    0.000
 5785.00    1.18687   1.21559    0.000
 5786.00    1.19760   1.21654    0.000
 5787.00    1.21237   1.21914    0.000
 5788.00    1.24503   1.22116    0.000
 5789.00    1.27248   1.22316    0.000
 5790.00    1.28095   1.23012    0.000
 5791.00    1.27785   1.23522   -2.000
 5792.00    1.23947   1.24104   -2.000
 5793.00    1.21032   1.24723   -2.000
 5794.00    1.20512   1.25096   -2.000
 5795.00    1.20818   1.25718   -2.000
 5796.00    1.22969   1.26169   -2.000
 5797.00    1.24038   1.26600   -2.000
 5798.00    1.23014   1.27126   -2.000
 5799.00    1.22595   1.27344   -2.000
 5800.00    1.23197   1.27617   -2.000
 5801.00    1.23065   1.27814   -2.000
 5802.00    1.21846   1.27918   -2.000
 5803.00    1.21684   1.28152   -2.000
 5804.00    1.22895   1.28193   -2.000
 5805.00    1.24292   1.28206   -2.000
 5806.00    1.25901   1.28265   -2.000
 5807.00    1.26805   1.28182   -2.000
 5808.00    1.26998   1.28208   -2.000
 5809.00    1.29173   1.28210   -2.000
 5810.00    1.33114   1.28168   -2.000
 5811.00    1.34765   1.28265    0.000
 5812.00    1.34619   1.28251    0.000
 5813.00    1.33337   1.28267    0.000
 5814.00    1.31274   1.28333    0.000
 5815.00    1.28609   1.28392    0.000
 5816.00    1.25581   1.28615    0.000
 5817.00    1.25024   1.28755    0.000
 5818.00    1.25771   1.28875    0.000
 5819.00    1.26024   1.29032    0.000
 5820.00    1.26050   1.29177    0.000
 5821.00    1.24146   1.29429    0.000
 5822.00    1.21480   1.29610    0.000
 5823.00    1.21503   1.29759    0.000
 5824.00    1.22430   1.29883    0.000
 5825.00    1.23817   1.29968    0.000
 5826.00    1.25334   1.30081    0.000
 5827.00    1.25843   1.30131    0.000
 5828.00    1.26119   1.30164    0.000
 5829.00    1.24060   1.30175    0.000
 5830.00    1.21564   1.30155    0.000
 5831.00    1.21491   1.30101    0.000
 5832.00    1.21767   1.30020    0.000
 5833.00    1.24886   1.29966    0.000
 5834.00    1.28301   1.29951    0.000
 5835.00    1.25855   1.29905    0.000
 5836.00    1.23013   1.29771    0.000
 5837.00    1.22366   1.29665    0.000
 5838.00    1.21792   1.29608    0.000
 5839.00    1.21039   1.29561    0.000
 5840.00    1.20357   1.29433    0.000
 5841.00    1.21951   1.29204    0.000
 5842.00    1.23509   1.29012    0.000
 5843.00    1.24519   1.28826    0.000
 5844.00    1.25474   1.28570    0.000
 5845.00    1.25903   1.28156    0.000
 5846.00    1.26120   1.27677    0.000
 5847.00    1.24851   1.27282    0.000
 5848.00    1.23671   1.26880    0.000
 5849.00    1.22973   1.26395    0.000
 5850.00    1.21981   1.25723    0.000
 5851.00    1.19715   1.25063    0.000
 5852.00    1.17883   1.24654    0.000
 5853.00    1.17597   1.24289    0.000
 5854.00    1.17438   1.23872    0.000
 5855.00    1.17659   1.23288    0.000
 5856.00    1.17943   1.22835    0.000
 5857.00    1.18389   1.22777    0.000
 5858.00    1.19281   1.22742    0.000
 5859.00    1.21153   1.22664    0.000
 5860.00    1.22588   1.22481    0.000
 5861.00    1.23191   1.22483    0.000
 5862.00    1.22137   1.22832    0.000
 5863.00    1.18326   1.23105    0.000
 5864.00    1.16831   1.23269    0.000
 5865.00    1.18711   1.23390    0.000
 5866.00    1.20394   1.23644    0.000
 5867.00    1.21823   1.24046    0.000
 5868.00    1.23263   1.24308    0.000
 5869.00    1.24717   1.24407    0.000
 5870.00    1.23465   1.24467    0.000
 5871.00    1.19520   1.24540    0.000
 5872.00    1.17946   1.24597    0.000
 5873.00    1.18452   1.24491    0.000
 5874.00    1.18719   1.24218    0.000
 5875.00    1.18800   1.23916    0.000
 5876.00    1.18123   1.23493    0.000
 5877.00    1.16932   1.22892    0.000
 5878.00    1.17863   1.22131    0.000
 5879.00    1.20059   1.21289    0.000
 5880.00    1.19463   1.20408    0.000
 5881.00    1.17416   1.19298    0.000
 5882.00    1.14346   1.17819    0.000
 5883.00    1.10814   1.16219    0.000
 5884.00    1.09303   1.14888    0.000
 5885.00    1.08576   1.13517    0.000
 5886.00    1.07417   1.11912    0.000
 5887.00    1.06114   1.10105    0.000
 5888.00    1.05697   1.08148    0.000
 5889.00    1.05525   1.06955    0.000
 5890.00    1.06532   1.06199    0.000
 5891.00    1.07807   1.05209    0.000
 5892.00    1.06960   1.04511    0.000
 5893.00    1.05727   1.03775    0.000
 5894.00    1.05520   1.03581    0.000
 5895.00    1.05457   1.04406    0.000
 5896.00    1.06051   1.05087    0.000
 5897.00    1.06711   1.05864    0.000
 5898.00    1.05803   1.06885    0.000
 5899.00    1.04795   1.07984    0.000
 5900.00    1.09924   1.09648    0.000
 5901.00    1.15220   1.11223    0.017
 5902.00    1.15745   1.12521    0.017
 5903.00    1.16190   1.13941    0.017
 5904.00    1.14361   1.15250    0.017
 5905.00    1.12660   1.16540    0.017
 5906.00    1.12772   1.17655    0.017
 5907.00    1.13181   1.18445    0.017
 5908.00    1.16354   1.19200    0.017
 5909.00    1.19147   1.19856    0.017
 5910.00    1.19356   1.20434    0.017
 5911.00    1.19410   1.20800    0.017
 5912.00    1.18656   1.20926    0.017
 5913.00    1.17939   1.21197    0.016
 5914.00    1.17386   1.21378    0.016
 5915.00    1.17227   1.21524    0.016
 5916.00    1.18451   1.21684    0.016
 5917.00    1.19809   1.21645    0.016
 5918.00    1.21561   1.21827    0.016
 5919.00    1.22000   1.21986    0.016
 5920.00    1.19148   1.21974    0.016
 5921.00    1.17421   1.22164    0.016
 5922.00    1.18122   1.22235    0.016
 5923.00    1.18419   1.22287    0.016
 5924.00    1.17960   1.22495    0.016
 5925.00    1.17505   1.22489    0.016
 5926.00    1.17057   1.22558    0.016
 5927.00    1.17953   1.22605    0.016
 5928.00    1.20779   1.22453    0.016
 5929.00    1.23564   1.22630    0.016
 5930.00    1.26295   1.22719    0.017
 5931.00    1.26211   1.22644    0.017
 5932.00    1.22993   1.22650    0.017
 5933.00    1.20413   1.22501    0.017
 5934.00    1.18460   1.22637    0.017
 5935.00    1.16947   1.22766    0.017
 5936.00    1.15813   1.22655    0.017
 5937.00    1.18791   1.22754    0.017
 5938.00    1.24904   1.22753    0.017
 5939.00    1.27132   1.22729    0.017
 5940.00    1.26757   1.22819    0.017
 5941.00    1.24196   1.22749    0.017
 5942.00    1.20351   1.22763    0.017
 5943.00    1.19141   1.22823    0.016
 5944.00    1.19278   1.22776    0.017
 5945.00    1.18783   1.22750    0.016
 5946.00    1.18007   1.22600    0.016
 5947.00    1.17284   1.22461    0.016
 5948.00    1.16579   1.22529    0.016
 5949.00    1.16925   1.22557    0.016
 5950.00    1.17610   1.22404    0.016
 5951.00    1.18421   1.22213    0.016
 5952.00    1.19267   1.22246    0.016
 5953.00    1.19655   1.22397    0.016
 5954.00    1.19942   1.22409    0.016
 5955.00    1.20583   1.22358    0.016
 5956.00    1.21287   1.22407    0.016
 5957.00    1.22067   1.22669    0.016
 5958.00    1.22858   1.22901    0.016
 5959.00    1.19884   1.23003    0.016
 5960.00    1.16548   1.23211    0.016
 5961.00    1.17114   1.23444    0.016
 5962.00    1.17912   1.23743    0.017
 5963.00    1.18140   1.23953    0.017
 5964.00    1.18327   1.24041    0.017
 5965.00    1.14605   1.24321    0.017
 5966.00    1.10963   1.24510    0.016
 5967.00    1.09386   1.24600    0.016
 5968.00    1.08302   1.24676    0.016
 5969.00    1.13877   1.24627    0.017
 5970.00    1.19262   1.24657    0.017
 5971.00    1.22957   1.24614    0.017
 5972.00    1.25621   1.24457    0.017
 5973.00    1.21494   1.24314    0.017
 5974.00    1.17304   1.24043    0.016
 5975.00    1.12789   1.23834    0.016
 5976.00    1.09247   1.23608    0.016
 5977.00    1.09734   1.23272    0.016
 5978.00    1.10653   1.23103    0.016
 5979.00    1.13053   1.22874    0.016
 5980.00    1.15004   1.22642    0.016
 5981.00    1.15658   1.22453    0.016
 5982.00    1.16196   1.22119    0.016
 5983.00    1.16450   1.22099    0.016
 5984.00    1.16925   1.22166    0.016
 5985.00    1.17868   1.22034    0.016
 5986.00    1.18602   1.22062    0.016
 5987.00    1.18953   1.22064    0.016
 5988.00    1.20179   1.22178    0.016
 5989.00    1.22817   1.22302    0.016
 5990.00    1.25688   1.22210    0.016
 5991.00    1.28889   1.22401    0.016
 5992.00    1.29067   1.22567    0.016
 5993.00    1.25482   1.22555    0.016
 5994.00    1.21610   1.22609    0.016
 5995.00    1.17424   1.22450    0.016
 5996.00    1.15291   1.22412    0.016
 5997.00    1.15145   1.22461    0.017
 5998.00    1.16536   1.22251    0.017
 5999.00    1.19239   1.22212    0.017
 6000.00    1.21228   1.22027    0.017
 6001.00    1.22680   1.21655    0.016
 6002.00    1.22463   1.21642    0.017
 6003.00    1.21142   1.21456    0.017
 6004.00    1.18585   1.21240    0.017
 6005.00    1.15314   1.21129    0.016
 6006.00    1.12402   1.20680    0.016
 6007.00    1.09672   1.20635    0.016
 6008.00    1.10905   1.20727    0.016
 6009.00    1.13864   1.20438    0.016
 6010.00    1.17643   1.20332    0.016
 6011.00    1.21728   1.20122    0.016
 6012.00    1.22416   1.20045    0.016
 6013.00    1.22025   1.20232    0.016
 6014.00    1.20735   1.19975    0.016
 6015.00    1.19208   1.19876    0.016
 6016.00    1.18512   1.20084    0.016
 6017.00    1.17996   1.20048    0.016
 6018.00    1.18805   1.20115    0.016
 6019.00    1.19842   1.20158    0.016
 6020.00    1.20303   1.20257    0.016
 6021.00    1.20689   1.20665    0.016
 6022.00    1.20319   1.20816    0.016
 6023.00    1.19881   1.21056    0.016
 6024.00    1.19355   1.21473    0.016
 6025.00    1.18824   1.21713    0.016
 6026.00    1.17695   1.22180    0.017
 6027.00    1.16586   1.22609    0.017
 6028.00    1.18814   1.22963    0.017
 6029.00    1.21023   1.23416    0.017
 6030.00    1.22801   1.23747    0.017
 6031.00    1.24341   1.24167    0.017
 6032.00    1.22853   1.24536    0.017
 6033.00    1.21686   1.24783    0.016
 6034.00    1.23290   1.25090    0.016
 6035.00    1.24576   1.25320    0.016
 6036.00    1.23830   1.25589    0.016
 6037.00    1.22825   1.25746    0.016
 6038.00    1.20531   1.25822    0.016
 6039.00    1.18960   1.26025    0.016
 6040.00    1.20315   1.26096    0.016
 6041.00    1.21423   1.26208    0.016
 6042.00    1.21704   1.26322    0.016
 6043.00    1.22061   1.26305    0.016
 6044.00    1.22630   1.26402    0.016
 6045.00    1.23962   1.26433    0.016
 6046.00    1.27141   1.26377    0.016
 6047.00    1.28659   1.26361    0.016
 6048.00    1.26708   1.26309    0.016
 6049.00    1.24655   1.26261    0.016
 6050.00    1.22420   1.26162    0.016
 6051.00    1.21716   1.25951    0.016
 6052.00    1.23445   1.25795    0.016
 6053.00    1.24369   1.25671    0.016
 6054.00    1.24171   1.25454    0.017
 6055.00    1.22584   1.25203    0.017
 6056.00    1.19294   1.25032    0.017
 6057.00    1.17792   1.24935    0.016
 6058.00    1.18223   1.24771    0.016
 6059.00    1.18875   1.24623    0.017
 6060.00    1.19736   1.24505    0.017
 6061.00    1.19767   1.24460    0.017
 6062.00    1.19102   1.24538    0.017
 6063.00    1.18294   1.24406    0.016
 6064.00    1.17382   1.24448    0.016
 6065.00    1.16534   1.24765    0.016
 6066.00    1.15729   1.24852    0.016
 6067.00    1.16314   1.24999    0.016
 6068.00    1.17692   1.25095    0.016
 6069.00    1.19290   1.25177    0.016
 6070.00    1.20997   1.25491    0.016
 6071.00    1.22778   1.25481    0.016
 6072.00    1.24591   1.25434    0.016
 6073.00    1.24881   1.25563    0.016
 6074.00    1.24611   1.25439    0.015
 6075.00    1.24167   1.25320    0.015
 6076.00    1.23670   1.25056    0.015
 6077.00    1.23978   1.24693    0.016
 6078.00    1.24496   1.24633    0.016
 6079.00    1.23074   1.24310    0.016
 6080.00    1.21241   1.23782    0.016
 6081.00    1.18636   1.23562    0.016
 6082.00    1.15902   1.23292    0.016
 6083.00    1.16074   1.22961    0.016
 6084.00    1.16612   1.22689    0.016
 6085.00    1.18593   1.22391    0.016
 6086.00    1.20701   1.22334    0.016
 6087.00    1.20394   1.22233    0.016
 6088.00    1.19962   1.21894    0.016
 6089.00    1.18651   1.21848    0.016
 6090.00    1.17316   1.21932    0.016
 6091.00    1.15458   1.21823    0.016
 6092.00    1.13766   1.21715    0.016
 6093.00    1.15610   1.21704    0.016
 6094.00    1.17583   1.21769    0.016
 6095.00    1.21118   1.21716    0.016
 6096.00    1.24304   1.21591    0.016
 6097.00    1.24599   1.21552    0.016
 6098.00    1.24371   1.21570    0.016
 6099.00    1.20900   1.21663    0.016
 6100.00    1.17586   1.21403    0.016
 6101.00    1.15044   1.21155    0.016
 6102.00    1.12867   1.21455    0.015
 6103.00    1.12139   1.21494    0.015
 6104.00    1.11397   1.21467    0.015
 6105.00    1.10608   1.21558    0.016
 6106.00    1.10779   1.21425    0.016
 6107.00    1.13622   1.21765    0.016
 6108.00    1.16538   1.21980    0.016
 6109.00    1.19631   1.21722    0.016
 6110.00    1.22168   1.21985    0.016
 6111.00    1.23560   1.22180    0.016
 6112.00    1.24937   1.22114    0.016
 6113.00    1.26289   1.22242    0.016
 6114.00    1.27025   1.22001    0.016
 6115.00    1.26796   1.21869    0.016
 6116.00    1.25882   1.22035    0.017
 6117.00    1.24026   1.21654    0.017
 6118.00    1.22130   1.21378    0.016
 6119.00    1.20186   1.21317    0.016
 6120.00    1.18479   1.20866    0.016
 6121.00    1.17024   1.20772    0.016
 6122.00    1.16398   1.20731    0.016
 6123.00    1.16553   1.20348    0.016
 6124.00    1.17579   1.20295    0.016
 6125.00    1.19328   1.20149    0.016
 6126.00    1.20730   1.19874    0.016
 6127.00    1.21878   1.19807    0.016
 6128.00    1.22039   1.19639    0.015
 6129.00    1.21567   1.19568    0.015
 6130.00    1.20164   1.19564    0.015
 6131.00    1.18240   1.19337    0.015
 6132.00    1.16498   1.19068    0.015
 6133.00    1.14845   1.19007    0.016
 6134.00    1.15856   1.18859    0.016
 6135.00    1.17990   1.18485    0.016
 6136.00    1.18770   1.18482    0.016
 6137.00    1.19061   1.18659    0.016
 6138.00    1.18102   1.18679    0.016
 6139.00    1.16762   1.18647    0.016
 6140.00    1.16224   1.18549    0.016
 6141.00    1.15889   1.18842    0.016
 6142.00    1.16912   1.19199    0.016
 6143.00    1.18215   1.19191    0.016
 6144.00    1.19070   1.19361    0.016
 6145.00    1.19852   1.19669    0.017
 6146.00    1.19306   1.19886    0.016
 6147.00    1.18598   1.19891    0.016
 6148.00    1.17720   1.19735    0.016
 6149.00    1.16828   1.19765    0.016
 6150.00    1.14580   1.19721    0.016
 6151.00    1.12267   1.19437    0.016
 6152.00    1.09583   1.18993    0.015
 6153.00    1.06920   1.18494    0.015
 6154.00    1.05787   1.18144    0.015
 6155.00    1.04870   1.17588    0.015
 6156.00    1.08193   1.16790    0.016
 6157.00    1.11530   1.16231    0.016
 6158.00    1.15030   1.15661    0.016
 6159.00    1.18106   1.14841    0.016
 6160.00    1.17783   1.14081    0.016
 6161.00    1.17322   1.13498    0.016
 6162.00    1.16034   1.13157    0.016
 6163.00    1.14627   1.12839    0.016
 6164.00    1.12656   1.12277    0.016
 6165.00    1.11044   1.12121    0.016
 6166.00    1.10820   1.12284    0.016
 6167.00    1.10854   1.12013    0.016
 6168.00    1.11716   1.11928    0.016
 6169.00    1.12708   1.12379    0.016
 6170.00    1.14057   1.12802    0.016
 6171.00    1.15238   1.13132    0.016
 6172.00    1.16025   1.13418    0.016
 6173.00    1.15868   1.13866    0.016
 6174.00    1.13801   1.14474    0.016
 6175.00    1.11546   1.14717    0.016
 6176.00    1.08959   1.14995    0.016
 6177.00    1.07353   1.15601    0.016
 6178.00    1.07258   1.15891    0.016
 6179.00    1.07719   1.16081    0.016
 6180.00    1.08933   1.16366    0.016
 6181.00    1.09005   1.16379    0.016
 6182.00    1.07713   1.16457    0.015
 6183.00    1.07813   1.16481    0.015
 6184.00    1.09375   1.16302    0.015
 6185.00    1.12466   1.16321    0.015
 6186.00    1.16974   1.16051    0.015
 6187.00    1.19476   1.15818    0.016
 6188.00    1.20338   1.15962    0.016
 6189.00    1.19422   1.15516    0.016
 6190.00    1.17228   1.15249    0.015
 6191.00    1.16517   1.15531    0.015
 6192.00    1.16743   1.15377    0.015
 6193.00    1.14873   1.15366    0.016
 6194.00    1.11845   1.15439    0.016
 6195.00    1.01385   1.15468    0.016
 6196.00    0.87356   1.15894   -2.000
 6197.00    0.87840   1.15859   -2.000
 6198.00    0.94339   1.15813   -2.000
 6199.00    1.15932   1.16366   -2.000
 6200.00    1.42874   1.16558   -2.000
 6201.00    1.59515   1.16625   -2.000
 6202.00    1.73072   1.16786   -2.000
 6203.00    1.62110   1.16774   -2.000
 6204.00    1.45057   1.16916   -2.000
 6205.00    1.33943   1.16810   -2.000
 6206.00    1.24025   1.16494   -2.000
 6207.00    1.19393   1.16505   -2.000
 6208.00    1.15596   1.16257    0.016
 6209.00    1.15031   1.15828    0.016
 6210.00    1.14844   1.15563    0.016
 6211.00    1.14848   1.15002    0.016
 6212.00    1.14867   1.14558    0.015
 6213.00    1.13136   1.14223    0.015
 6214.00    1.11328   1.13582    0.015
 6215.00    1.10970   1.13282    0.015
 6216.00    1.10636   1.12990    0.015
 6217.00    1.10693   1.12433    0.015
 6218.00    1.10782   1.12243    0.015
 6219.00    1.11470   1.11945    0.015
 6220.00    1.12118   1.11642    0.015
 6221.00    1.12339   1.11661    0.015
 6222.00    1.12670   1.11391    0.016
 6223.00    1.13856   1.11315    0.016
 6224.00    1.15080   1.11469    0.016
 6225.00    1.16531   1.11202    0.016
 6226.00    1.17741   1.11152    0.016
 6227.00    1.17834   1.11251    0.016
 6228.00    1.17712   1.11048    0.017
 6229.00    1.16771   1.11086    0.016
 6230.00    1.15555   1.11115    0.016
 6231.00    1.13466   1.11004    0.016
 6232.00    1.11738   1.11132    0.016
 6233.00    1.10975   1.11075    0.016
 6234.00    1.11079   1.11009    0.016
 6235.00    1.13177   1.11045    0.015
 6236.00    1.15365   1.10873    0.015
 6237.00    1.17732   1.10833    0.015
 6238.00    1.17941   1.10740    0.015
 6239.00    1.14402   1.10670    0.015
 6240.00    1.11265   1.10754    0.015
 6241.00    1.08737   1.10462    0.015
 6242.00    1.07918   1.10374    0.015
 6243.00    1.09380   1.10393    0.015
 6244.00    1.10714   1.10054    0.015
 6245.00    1.11899   1.10020    0.015
 6246.00    1.12969   1.09916    0.015
 6247.00    1.13918   1.09677    0.016
 6248.00    1.13475   1.09711    0.016
 6249.00    1.11757   1.09450    0.016
 6250.00    1.08947   1.09220    0.016
 6251.00    1.05256   1.09241    0.015
 6252.00    1.03541   1.09011    0.016
 6253.00    1.03227   1.08898    0.016
 6254.00    1.04517   1.08952    0.016
 6255.00    1.06804   1.08882    0.016
 6256.00    1.07777   1.08812    0.016
 6257.00    1.08034   1.08904    0.016
 6258.00    1.08031   1.09148    0.016
 6259.00    1.07904   1.09254    0.016
 6260.00    1.10897   1.09440    0.017
 6261.00    1.15161   1.09905    0.018
 6262.00    1.20015   1.10250    0.019
 6263.00    1.25076   1.10516    0.019
 6264.00    1.25593   1.10869    0.019
 6265.00    1.24778   1.11324    0.019
 6266.00    1.23047   1.11819    0.018
 6267.00    1.21095   1.12104    0.017
 6268.00    1.20175   1.12415    0.016
 6269.00    1.19458   1.12833    0.015
 6270.00    1.19753   1.13134    0.015
 6271.00    1.20203   1.13338    0.015
 6272.00    1.20625   1.13475    0.016
 6273.00    1.21044   1.13760    0.016
 6274.00    1.19299   1.14006    0.016
 6275.00    1.17391   1.13971    0.016
 6276.00    1.15763   1.14172    0.015
 6277.00    1.14147   1.14369    0.015
 6278.00    1.14057   1.14325    0.016
 6279.00    1.13954   1.14555    0.016
 6280.00    1.12889   1.14630    0.000
 6281.00    1.12030   1.14664    0.000
 6282.00    1.14688   1.14975    0.000
 6283.00    1.17204   1.14930    0.000
 6284.00    1.18226   1.15013    0.000
 6285.00    1.19114   1.15256    0.000
 6286.00    1.19000   1.15154    0.000
 6287.00    1.18753   1.15281    0.000
 6288.00    1.17748   1.15299    0.000
 6289.00    1.16708   1.15150    0.000
 6290.00    1.15507   1.15272    0.000
 6291.00    1.14659   1.15055    0.000
 6292.00    1.15116   1.14851    0.000
 6293.00    1.15640   1.14864    0.000
 6294.00    1.16372   1.14576    0.000
 6295.00    1.16673   1.14387    0.000
 6296.00    1.15833   1.14226    0.000
 6297.00    1.15108   1.13971    0.000
 6298.00    1.14639   1.13926    0.000
 6299.00    1.14834   1.13752    0.000
 6300.00    1.16329   1.13567    0.000
 6301.00    1.16675   1.13628    0.000
 6302.00    1.15053   1.13610    0.000
 6303.00    1.13685   1.13549    0.000
 6304.00    1.12697   1.13575    0.000
 6305.00    1.12849   1.13651    0.000
 6306.00    1.14503   1.13724    0.000
 6307.00    1.16020   1.13699    0.000
 6308.00    1.17379   1.13715    0.000
 6309.00    1.17551   1.13738    0.000
 6310.00    1.16510   1.13644    0.000
 6311.00    1.15758   1.13696    0.000
 6312.00    1.15267   1.13669    0.000
 6313.00    1.14688   1.13422    0.000
 6314.00    1.14037   1.13468    0.000
 6315.00    1.12559   1.13523    0.000
 6316.00    1.10503   1.13329    0.000
 6317.00    1.09229   1.13324    0.000
 6318.00    1.08435   1.13420    0.000
 6319.00    1.09017   1.13531    0.000
 6320.00    1.10337   1.13652    0.000
 6321.00    1.12604   1.13711    0.015
 6322.00    1.15312   1.13930    0.015
 6323.00    1.15689   1.14230    0.015
 6324.00    1.15133   1.14395    0.015
 6325.00    1.14550   1.14486    0.015
 6326.00    1.13958   1.14777    0.015
 6327.00    1.13955   1.15061    0.015
 6328.00    1.14122   1.15027    0.015
 6329.00    1.13502   1.15162    0.015
 6330.00    1.12696   1.15292    0.016
 6331.00    1.12344   1.15162    0.016
 6332.00    1.12080   1.15271    0.015
 6333.00    1.12135   1.15167    0.016
 6334.00    1.12236   1.14887    0.016
 6335.00    1.13562   1.15022    0.016
 6336.00    1.15020   1.14909    0.016
 6337.00    1.16102   1.14646    0.015
 6338.00    1.17157   1.14706    0.015
 6339.00    1.16049   1.14587    0.015
 6340.00    1.14862   1.14533    0.015
 6341.00    1.14612   1.14560    0.015
 6342.00    1.14368   1.14331    0.015
 6343.00    1.14191   1.14464    0.015
 6344.00    1.14071   1.14627    0.015
 6345.00    1.14869   1.14392    0.015
 6346.00    1.15737   1.14486    0.015
 6347.00    1.17316   1.14594    0.015
 6348.00    1.18833   1.14432    0.015
 6349.00    1.19904   1.14391    0.015
 6350.00    1.21002   1.14211    0.015
 6351.00    1.22249   1.14083    0.015
 6352.00    1.22820   1.14003    0.016
 6353.00    1.20396   1.13554    0.016
 6354.00    1.18363   1.13312    0.016
 6355.00    1.17752   1.13240    0.016
 6356.00    1.16939   1.12784    0.016
 6357.00    1.15508   1.12442    0.016
 6358.00    1.13808   1.12326    0.016
 6359.00    1.11407   1.12096    0.016
 6360.00    1.09608   1.11934    0.016
 6361.00    1.09147   1.11849    0.016
 6362.00    1.09169   1.11866    0.016
 6363.00    1.10123   1.12088    0.016
 6364.00    1.11201   1.12209    0.016
 6365.00    1.12490   1.12368    0.016
 6366.00    1.13515   1.12846    0.015
 6367.00    1.14151   1.13239    0.015
 6368.00    1.14688   1.13539    0.015
 6369.00    1.15097   1.14037    0.015
 6370.00    1.16115   1.14499    0.015
 6371.00    1.17830   1.14922    0.015
 6372.00    1.18064   1.15359    0.015
 6373.00    1.16805   1.15636    0.015
 6374.00    1.14906   1.15995    0.015
 6375.00    1.12438   1.16355    0.015
 6376.00    1.11644   1.16417    0.016
 6377.00    1.12162   1.16594    0.016
 6378.00    1.12491   1.16838    0.016
 6379.00    1.12692   1.16792    0.015
 6380.00    1.12596   1.16823    0.015
 6381.00    1.12323   1.16918    0.016
 6382.00    1.13114   1.16841    0.016
 6383.00    1.14467   1.16803    0.016
 6384.00    1.16630   1.16745    0.016
 6385.00    1.19163   1.16631    0.015
 6386.00    1.19604   1.16597    0.015
 6387.00    1.19221   1.16467    0.015
 6388.00    1.18058   1.16244    0.015
 6389.00    1.16633   1.16178    0.015
 6390.00    1.15127   1.16122    0.015
 6391.00    1.13597   1.15854    0.015
 6392.00    1.13268   1.15690    0.015
 6393.00    1.13216   1.15765    0.015
 6394.00    1.15392   1.15575    0.015
 6395.00    1.17982   1.15270    0.015
 6396.00    1.19155   1.15411    0.015
 6397.00    1.20125   1.15402    0.015
 6398.00    1.19060   1.15112    0.015
 6399.00    1.17783   1.15232    0.015
 6400.00    1.15840   1.15279    0.015
 6401.00    1.13853   1.15228    0.015
 6402.00    1.13269   1.15351    0.016
 6403.00    1.12731   1.15169    0.016
 6404.00    1.13953   1.15319    0.016
 6405.00    1.15117   1.15577    0.016
 6406.00    1.14415   1.15152    0.016
 6407.00    1.13786   1.15297    0.016
 6408.00    1.14262   1.15640    0.016
 6409.00    1.14822   1.15197    0.016
 6410.00    1.16200   1.15247    0.015
 6411.00    1.17198   1.15513    0.015
 6412.00    1.15539   1.15271    0.015
 6413.00    1.14095   1.15302    0.015
 6414.00    1.13815   1.15336    0.015
 6415.00    1.13717   1.15238    0.015
 6416.00    1.14403   1.15341    0.015
 6417.00    1.14531   1.15282    0.015
 6418.00    1.12671   1.15326    0.015
 6419.00    1.11116   1.15502    0.015
 6420.00    1.10471   1.15435    0.015
 6421.00    1.10677   1.15550    0.015
 6422.00    1.13047   1.15726    0.015
 6423.00    1.15228   1.15704    0.015
 6424.00    1.16990   1.15852    0.015
 6425.00    1.18027   1.15929    0.016
 6426.00    1.17685   1.15899    0.016
 6427.00    1.16718   1.16065    0.016
 6428.00    1.14715   1.16077    0.016
 6429.00    1.14196   1.16079    0.017
 6430.00    1.15835   1.16197    0.016
 6431.00    1.17302   1.16151    0.016
 6432.00    1.18548   1.16302    0.016
 6433.00    1.19312   1.16363    0.016
 6434.00    1.19533   1.16166    0.016
 6435.00    1.18972   1.16411    0.016
 6436.00    1.17633   1.16518    0.016
 6437.00    1.16782   1.16324    0.016
 6438.00    1.16358   1.16571    0.015
 6439.00    1.15228   1.16634    0.015
 6440.00    1.13553   1.16517    0.015
 6441.00    1.12413   1.16672    0.015
 6442.00    1.11636   1.16633    0.015
 6443.00    1.11189   1.16669    0.015
 6444.00    1.10939   1.16610    0.015
 6445.00    1.10669   1.16307    0.015
 6446.00    1.10391   1.16467    0.015
 6447.00    1.09842   1.16353    0.015
 6448.00    1.09171   1.15947    0.016
 6449.00    1.08419   1.16115    0.016
 6450.00    1.07634   1.16016    0.016
 6451.00    1.07521   1.15731    0.016
 6452.00    1.07628   1.15856    0.016
 6453.00    1.08042   1.15768    0.016
 6454.00    1.08540   1.15653    0.016
 6455.00    1.09577   1.15775    0.016
 6456.00    1.10736   1.15800    0.016
 6457.00    1.11244   1.15780    0.016
 6458.00    1.11634   1.15798    0.016
 6459.00    1.10883   1.15922    0.015
 6460.00    1.09973   1.16016    0.015
 6461.00    1.10454   1.16049    0.015
 6462.00    1.11074   1.16243    0.015
 6463.00    1.12066   1.16325    0.015
 6464.00    1.13082   1.16309    0.015
 6465.00    1.12097   1.16454    0.015
 6466.00    1.11058   1.16477    0.015
 6467.00    1.10958   1.16502    0.015
 6468.00    1.10946   1.16659    0.015
 6469.00    1.13393   1.16617    0.015
 6470.00    1.15799   1.16590    0.015
 6471.00    1.17633   1.16667    0.016
 6472.00    1.19220   1.16594    0.016
 6473.00    1.18522   1.16542    0.016
 6474.00    1.18107   1.16544    0.016
 6475.00    1.19612   1.16454    0.016
 6476.00    1.20819   1.16322    0.016
 6477.00    1.20464   1.16150    0.016
 6478.00    1.19349   1.15966    0.016
 6479.00    1.15030   1.15815    0.016
 6480.00    1.12043   1.15563    0.016
 6481.00    1.13701   1.15249    0.016
 6482.00    1.15119   1.15002    0.015
 6483.00    1.15832   1.14694    0.015
 6484.00    1.16368   1.14277    0.015
 6485.00    1.16461   1.13835    0.015
 6486.00    1.16774   1.13379    0.015
 6487.00    1.17562   1.12947    0.015
 6488.00    1.17922   1.12396    0.015
 6489.00    1.17484   1.11722    0.015
 6490.00    1.16311   1.11263    0.015
 6491.00    1.13937   1.10737    0.015
 6492.00    1.12135   1.10104    0.015
 6493.00    1.11151   1.09814    0.015
 6494.00    1.10962   1.09410    0.015
 6495.00    1.11775   1.09032    0.015
 6496.00    1.11265   1.09035    0.015
 6497.00    1.09285   1.08868    0.015
 6498.00    1.08502   1.08894    0.015
 6499.00    1.08891   1.09216    0.016
 6500.00    1.10502   1.09320    0.016
 6501.00    1.13169   1.09726    0.016
 6502.00    1.15113   1.10294    0.016
 6503.00    1.16505   1.10585    0.016
 6504.00    1.17447   1.11126    0.016
 6505.00    1.18086   1.11746    0.016
 6506.00    1.18397   1.12180    0.016
 6507.00    1.18516   1.12672    0.015
 6508.00    1.18972   1.13112    0.015
 6509.00    1.19601   1.13515    0.015
 6510.00    1.19545   1.13827    0.015
 6511.00    1.19187   1.14041    0.015
 6512.00    1.18430   1.14339    0.015
 6513.00    1.17520   1.14460    0.015
 6514.00    1.17775   1.14510    0.015
 6515.00    1.18406   1.14714    0.015
 6516.00    1.19133   1.14750    0.015
 6517.00    1.19885   1.14768    0.015
 6518.00    1.20458   1.14845    0.015
 6519.00    1.20991   1.14831    0.016
 6520.00    1.19404   1.14942    0.016
 6521.00    1.17443   1.14956    0.016
 6522.00    1.16439   1.14875    0.016
 6523.00    1.15565   1.15047    0.016
 6524.00    1.16297   1.15074    0.016
 6525.00    1.17184   1.15008    0.016
 6526.00    1.18084   1.15166    0.016
 6527.00    1.18984   1.15163    0.016
 6528.00    1.19852   1.15120    0.000
 6529.00    1.20707   1.15231    0.000
 6530.00    1.19873   1.15248    0.000
 6531.00    1.19038   1.15274    0.000
 6532.00    1.18196   1.15281    0.000
 6533.00    1.17404   1.15237    0.000
 6534.00    1.17292   1.15301    0.000
 6535.00    1.17249   1.15253    0.000
 6536.00    1.17827   1.15148    0.000
 6537.00    1.18454   1.15137    0.000
 6538.00    1.19407   1.14972    0.000
 6539.00    1.20119   1.14831    0.000
 6540.00    1.19598   1.14714    0.000
 6541.00    1.19010   1.14373    0.000
 6542.00    1.18147   1.14154    0.000
 6543.00    1.17583   1.13918    0.000
 6544.00    1.18037   1.13470    0.000
 6545.00    1.19035   1.13150    0.000
 6546.00    1.21597   1.12707    0.000
 6547.00    1.22843   1.12151    0.000
 6548.00    1.20854   1.11725    0.000
 6549.00    1.18831   1.11102    0.000
 6550.00    1.16737   1.10457    0.000
 6551.00    1.15628   1.09850    0.000
 6552.00    1.16334   1.09078    0.000
 6553.00    1.16840   1.08477    0.000
 6554.00    1.17024   1.07663    0.000
 6555.00    1.16386   1.06708    0.000
 6556.00    1.14588   1.06289    0.000
 6557.00    1.13788   1.05385    0.000
 6558.00    1.14228   1.04265    0.000
 6559.00    1.15514   1.04162    0.000
 6560.00    1.17726   1.03621    0.000
 6561.00    1.18802   1.02751    0.000
 6562.00    1.18780   1.02880    0.000
 6563.00    1.16779   1.02689    0.000
 6564.00    1.13093   1.02281    0.000
 6565.00    1.10493   1.02703    0.000
 6566.00    1.08706   1.02903    0.000
 6567.00    1.09657   1.03041    0.000
 6568.00    1.12412   1.03702    0.000
 6569.00    1.14173   1.04123    0.000
 6570.00    1.15361   1.04633    0.000
 6571.00    1.15426   1.05462    0.000
 6572.00    1.14925   1.05939    0.000
 6573.00    1.14298   1.06556    0.000
 6574.00    1.13614   1.07400    0.000
 6575.00    1.14562   1.07781    0.000
 6576.00    1.16118   1.08294    0.000
 6577.00    1.19390   1.09104    0.000
 6578.00    1.23206   1.09427    0.000
 6579.00    1.25644   1.09750    0.000
 6580.00    1.27717   1.10355    0.000
 6581.00    1.26734   1.10519    0.000
 6582.00    1.25091   1.10699    0.000
 6583.00    1.24470   1.11142    0.000
 6584.00    1.24023   1.11162    0.000
 6585.00    1.22766   1.11187    0.000
 6586.00    1.21404   1.11459    0.000
 6587.00    1.18742   1.11376    0.000
 6588.00    1.15962   1.11258    0.000
 6589.00    1.15728   1.11390    0.000
 6590.00    1.15635   1.11305    0.000
 6591.00    1.15162   1.11152    0.000
 6592.00    1.14674   1.11195    0.000
 6593.00    1.13486   1.11107    0.000
 6594.00    1.12349   1.10978    0.000
 6595.00    1.12395   1.11035    0.000
 6596.00    1.12604   1.11005    0.000
 6597.00    1.14898   1.10943    0.000
 6598.00    1.17148   1.11017    0.000
 6599.00    1.19028   1.11020    0.000
 6600.00    1.20446   1.11025    0.000
 6601.00    1.18919   1.11109    0.000
 6602.00    1.17544   1.11130    0.000
 6603.00    1.16926   1.11192    0.000
 6604.00    1.16604   1.11267    0.000
 6605.00    1.17478   1.11278    0.000
 6606.00    1.18049   1.11375    0.000
 6607.00    1.17609   1.11495    0.000
 6608.00    1.16712   1.11531    0.000
 6609.00    1.14521   1.11612    0.015
 6610.00    1.12981   1.11762    0.015
 6611.00    1.13016   1.11854    0.016
 6612.00    1.13131   1.11939    0.016
 6613.00    1.13412   1.12088    0.015
 6614.00    1.13504   1.12192    0.015
 6615.00    1.13250   1.12276    0.016
 6616.00    1.13327   1.12368    0.016
 6617.00    1.13926   1.12405    0.016
 6618.00    1.14942   1.12466    0.015
 6619.00    1.16537   1.12451    0.015
 6620.00    1.16841   1.12359    0.015
 6621.00    1.15563   1.12374    0.015
 6622.00    1.14641   1.12242    0.015
 6623.00    1.14104   1.12034    0.015
 6624.00    1.14157   1.11994    0.015
 6625.00    1.14772   1.11754    0.015
 6626.00    1.14605   1.11471    0.015
 6627.00    1.13781   1.11415    0.015
 6628.00    1.13415   1.11149    0.015
 6629.00    1.13388   1.10862    0.015
 6630.00    1.14335   1.10826    0.015
 6631.00    1.15915   1.10602    0.015
 6632.00    1.16208   1.10367    0.015
 6633.00    1.15771   1.10387    0.016
 6634.00    1.15057   1.10252    0.016
 6635.00    1.14205   1.10071    0.016
 6636.00    1.15343   1.10135    0.016
 6637.00    1.17334   1.10118    0.016
 6638.00    1.16417   1.10010    0.016
 6639.00    1.14434   1.10082    0.016
 6640.00    1.13958   1.10124    0.016
 6641.00    1.13950   1.10098    0.015
 6642.00    1.16024   1.10174    0.015
 6643.00    1.18637   1.10208    0.015
 6644.00    1.18597   1.10227    0.015
 6645.00    1.17998   1.10295    0.015
 6646.00    1.17154   1.10283    0.015
 6647.00    1.16268   1.10326    0.015
 6648.00    1.16748   1.10374    0.015
 6649.00    1.17400   1.10289    0.014
 6650.00    1.15516   1.10328    0.015
 6651.00    1.13411   1.10350    0.015
 6652.00    1.11731   1.10185    0.015
 6653.00    1.10072   1.10186    0.015
 6654.00    1.11157   1.10168    0.015
 6655.00    1.12295   1.09921    0.015
 6656.00    1.13825   1.09875    0.015
 6657.00    1.15252   1.09838    0.015
 6658.00    1.14494   1.09559    0.016
 6659.00    1.13623   1.09482    0.016
 6660.00    1.11377   1.09421    0.016
 6661.00    1.09432   1.09171    0.015
 6662.00    1.09973   1.09132    0.016
 6663.00    1.10749   1.09071    0.016
 6664.00    1.12983   1.08871    0.015
 6665.00    1.14757   1.08909    0.015
 6666.00    1.14302   1.08869    0.015
 6667.00    1.13481   1.08718    0.015
 6668.00    1.11216   1.08845    0.015
 6669.00    1.09447   1.08818    0.015
 6670.00    1.09304   1.08649    0.015
 6671.00    1.09748   1.08829    0.015
 6672.00    1.11826   1.08847    0.015
 6673.00    1.14128   1.08659    0.015
 6674.00    1.16964   1.08824    0.015
 6675.00    1.18437   1.08850    0.015
 6676.00    1.17112   1.08667    0.015
 6677.00    1.15376   1.08812    0.015
 6678.00    1.12907   1.08850    0.015
 6679.00    1.11660   1.08707    0.015
 6680.00    1.12322   1.08840    0.016
 6681.00    1.13273   1.08894    0.016
 6682.00    1.14620   1.08818    0.016
 6683.00    1.13808   1.08956    0.016
 6684.00    1.10387   1.09007    0.016
 6685.00    1.08796   1.08964    0.015
 6686.00    1.09154   1.09100    0.015
 6687.00    1.10280   1.09125    0.015
 6688.00    1.12127   1.09055    0.015
 6689.00    1.12436   1.09165    0.015
 6690.00    1.11471   1.09145    0.015
 6691.00    1.11096   1.09026    0.015
 6692.00    1.11152   1.09100    0.015
 6693.00    1.11332   1.09025    0.015
 6694.00    1.11593   1.08866    0.015
 6695.00    1.11854   1.08911    0.015
 6696.00    1.12116   1.08785    0.000
 6697.00    1.12293   1.08623    0.000
 6698.00    1.12428   1.08668    0.000
 6699.00    1.11529   1.08508    0.000
 6700.00    1.10195   1.08368    0.000
 6701.00    1.09094   1.08408    0.000
 6702.00    1.08078   1.08211    0.000
 6703.00    1.06120   1.08090    0.000
 6704.00    1.03876   1.08110    0.000
 6705.00    1.03094   1.07878    0.000
 6706.00    1.02683   1.07746    0.000
 6707.00    1.02810   1.07714    0.000
 6708.00    1.03047   1.07467    0.000
 6709.00    1.05280   1.07315    0.000
 6710.00    1.07837   1.07221    0.000
 6711.00    1.13098   1.06992    0.000
 6712.00    1.18686   1.06847    0.000
 6713.00    1.20201   1.06733    0.000
 6714.00    1.21379   1.06559    0.000
 6715.00    1.20403   1.06454    0.000
 6716.00    1.19325   1.06390    0.000
 6717.00    1.16591   1.06315    0.000
 6718.00    1.13884   1.06280    0.000
 6719.00    1.14009   1.06309    0.000
 6720.00    1.14007   1.06345    0.000
 6721.00    1.11544   1.06384    0.000
 6722.00    1.09319   1.06502    0.000
 6723.00    1.09828   1.06610    0.000
 6724.00    1.10530   1.06691    0.000
 6725.00    1.12774   1.06853    0.000
 6726.00    1.14981   1.06974    0.000
 6727.00    1.16963   1.07048    0.000
 6728.00    1.18339   1.07186    0.000
 6729.00    1.16842   1.07264    0.000
 6730.00    1.15762   1.07301    0.000
 6731.00    1.16294   1.07367    0.000
 6732.00    1.16267   1.07360    0.000
 6733.00    1.14443   1.07347    0.000
 6734.00    1.12470   1.07336    0.000
 6735.00    1.10089   1.07241    0.000
 6736.00    1.08417   1.07178    0.000
 6737.00    1.08402   1.07112    0.000
 6738.00    1.08463   1.06958    0.000
 6739.00    1.08676   1.06856    0.000
 6740.00    1.09436   1.06782    0.000
 6741.00    1.11158   1.06615    0.000
 6742.00    1.12045   1.06491    0.000
 6743.00    1.11647   1.06458    0.000
 6744.00    1.11076   1.06326    0.000
 6745.00    1.10273   1.06205    0.000
 6746.00    1.10199   1.06255    0.000
 6747.00    1.10994   1.06192    0.000
 6748.00    1.12295   1.06101    0.000
 6749.00    1.14125   1.06254    0.000
 6750.00    1.14869   1.06272    0.000
 6751.00    1.14607   1.06230    0.000
 6752.00    1.14903   1.06474    0.000
 6753.00    1.15655   1.06554    0.016
 6754.00    1.15215   1.06561    0.017
 6755.00    1.13919   1.06855    0.017
 6756.00    1.12385   1.06948    0.017
 6757.00    1.10700   1.06974    0.017
 6758.00    1.09785   1.07259    0.017
 6759.00    1.09296   1.07322    0.017
 6760.00    1.12308   1.07327    0.018
 6761.00    1.16999   1.07553    0.018
 6762.00    1.22297   1.07565    0.019
 6763.00    1.27845   1.07529    0.019
 6764.00    1.30473   1.07686    0.019
 6765.00    1.32068   1.07667    0.019
 6766.00    1.33051   1.07602    0.019
 6767.00    1.33852   1.07712    0.018
 6768.00    1.33864   1.07703    0.018
 6769.00    1.33681   1.07634    0.018
 6770.00    1.31726   1.07722    0.018
 6771.00    1.29415   1.07751    0.017
 6772.00    1.26277   1.07688    0.017
 6773.00    1.23010   1.07752    0.017
 6774.00    1.21902   1.07814    0.016
 6775.00    1.21045   1.07733    0.016
 6776.00    1.19667   1.07746    0.016
 6777.00    1.18248   1.07806    0.016
 6778.00    1.21394   1.07680    0.016
 6779.00    1.24739   1.07618    0.017
 6780.00    1.21630   1.07653    0.017
 6781.00    1.18448   1.07481    0.017
 6782.00    1.15026   1.07352    0.017
 6783.00    1.11815   1.07373    0.017
 6784.00    1.12419   1.07190    0.017
 6785.00    1.13001   1.07033    0.017
 6786.00    1.13334   1.07069    0.017
 6787.00    1.13666   1.06922    0.017
 6788.00    1.13990   1.06785    0.017
 6789.00    1.14615   1.06859    0.017
 6790.00    1.17002   1.06774    0.017
 6791.00    1.19082   1.06686    0.018
 6792.00    1.19746   1.06793    0.017
 6793.00    1.20428   1.06761    0.017
 6794.00    1.21175   1.06734    0.017
 6795.00    1.20786   1.06852    0.016
 6796.00    1.16813   1.06842    0.016
 6797.00    1.13745   1.06871    0.016
 6798.00    1.13102   1.06972    0.016
 6799.00    1.13024   1.06952    0.016
 6800.00    1.14241   1.07028    0.016
 6801.00    1.14750   1.07090    0.016
 6802.00    1.13851   1.07043    0.017
 6803.00    1.11903   1.07150    0.017
 6804.00    1.08135   1.07166    0.017
 6805.00    1.05713   1.07098    0.017
 6806.00    1.05332   1.07218    0.017
 6807.00    1.05572   1.07196    0.017
 6808.00    1.06639   1.07131    0.017
 6809.00    1.07274   1.07252    0.017
 6810.00    1.07399   1.07213    0.017
 6811.00    1.08192   1.07179    0.017
 6812.00    1.09675   1.07294    0.017
 6813.00    1.12392   1.07259    0.017
 6814.00    1.16235   1.07271    0.017
 6815.00    1.17137   1.07377    0.017
 6816.00    1.15675   1.07363    0.017
 6817.00    1.12895   1.07411    0.016
 6818.00    1.09184   1.07505    0.016
 6819.00    1.10011   1.07510    0.016
 6820.00    1.13656   1.07568    0.016
 6821.00    1.15758   1.07641    0.016
 6822.00    1.17022   1.07648    0.016
 6823.00    1.18733   1.07683    0.016
 6824.00    1.20654   1.07724    0.016
 6825.00    1.20089   1.07709    0.017
 6826.00    1.18512   1.07700    0.017
 6827.00    1.19247   1.07698    0.017
 6828.00    1.20785   1.07636    0.017
 6829.00    1.23156   1.07574    0.017
 6830.00    1.25770   1.07527    0.018
 6831.00    1.22678   1.07408    0.018
 6832.00    1.18203   1.07298    0.017
 6833.00    1.15170   1.07212    0.017
 6834.00    1.12418   1.07047    0.016
 6835.00    1.15651   1.06908    0.016
 6836.00    1.19795   1.06808    0.017
 6837.00    1.22553   1.06632    0.017
 6838.00    1.25155   1.06492    0.017
 6839.00    1.24181   1.06415    0.017
 6840.00    1.22941   1.06271    0.018
 6841.00    1.17366   1.06155    0.017
 6842.00    1.11619   1.06132    0.017
 6843.00    1.11291   1.06045    0.017
 6844.00    1.11166   1.05952    0.016
 6845.00    1.17621   1.05987    0.016
 6846.00    1.23447   1.05950    0.017
 6847.00    1.18644   1.05848    0.017
 6848.00    1.14034   1.05916    0.017
 6849.00    1.11434   1.05895    0.017
 6850.00    1.09416   1.05745    0.017
 6851.00    1.11725   1.05812    0.017
 6852.00    1.13758   1.05784    0.017
 6853.00    1.14227   1.05572    0.017
 6854.00    1.14968   1.05616    0.016
 6855.00    1.16938   1.05589    0.016
 6856.00    1.17748   1.05343    0.016
 6857.00    1.14264   1.05360    0.016
 6858.00    1.10570   1.05359    0.016
 6859.00    1.06229   1.05133    0.016
 6860.00    1.04187   1.05129    0.016
 6861.00    1.08194   1.05171    0.016
 6862.00    1.11188   1.05010    0.016
 6863.00    1.11891   1.04989    0.016
 6864.00    1.12613   1.05068    0.016
 6865.00    1.13370   1.04991    0.017
 6866.00    1.15186   1.04965    0.017
 6867.00    1.18809   1.05057    0.017
 6868.00    1.19715   1.05057    0.018
 6869.00    1.16559   1.05041    0.018
 6870.00    1.12715   1.05132    0.018
 6871.00    1.07965   1.05182    0.017
 6872.00    1.06150   1.05196    0.017
 6873.00    1.07731   1.05290    0.016
 6874.00    1.09447   1.05367    0.016
 6875.00    1.11304   1.05412    0.016
 6876.00    1.11560   1.05530    0.016
 6877.00    1.10377   1.05620    0.016
 6878.00    1.09946   1.05685    0.016
 6879.00    1.10112   1.05845    0.016
 6880.00    1.09400   1.05955    0.016
 6881.00    1.08077   1.06017    0.016
 6882.00    1.08355   1.06226    0.016
 6883.00    1.09612   1.06374    0.016
 6884.00    1.10681   1.06418    0.016
 6885.00    1.11649   1.06655    0.016
 6886.00    1.10647   1.06851    0.016
 6887.00    1.08729   1.06873    0.016
 6888.00    1.09339   1.07102    0.016
 6889.00    1.10957   1.07330    0.017
 6890.00    1.12876   1.07336    0.017
 6891.00    1.14897   1.07520    0.017
 6892.00    1.14585   1.07747    0.017
 6893.00    1.13605   1.07750    0.017
 6894.00    1.12297   1.07870    0.017
 6895.00    1.10912   1.08061    0.017
 6896.00    1.12144   1.08074    0.017
 6897.00    1.13874   1.08135    0.016
 6898.00    1.14643   1.08274    0.016
 6899.00    1.15270   1.08301    0.016
 6900.00    1.13667   1.08316    0.016
 6901.00    1.11824   1.08402    0.016
 6902.00    1.11477   1.08435    0.016
 6903.00    1.11236   1.08405    0.016
 6904.00    1.12137   1.08450    0.016
 6905.00    1.13078   1.08472    0.016
 6906.00    1.13831   1.08388    0.017
 6907.00    1.14524   1.08402    0.017
 6908.00    1.13172   1.08403    0.017
 6909.00    1.11775   1.08259    0.017
 6910.00    1.09660   1.08253    0.017
 6911.00    1.07606   1.08237    0.017
 6912.00    1.06159   1.08043    0.017
 6913.00    1.04856   1.08027    0.017
 6914.00    1.04588   1.08008    0.016
 6915.00    1.04538   1.07795    0.016
 6916.00    1.05687   1.07772    0.016
 6917.00    1.07199   1.07764    0.016
 6918.00    1.10310   1.07566    0.016
 6919.00    1.12444   1.07537    0.016
 6920.00    1.11033   1.07544    0.016
 6921.00    1.10324   1.07386    0.016
 6922.00    1.11744   1.07350    0.016
 6923.00    1.12833   1.07373    0.016
 6924.00    1.13062   1.07268    0.016
 6925.00    1.12684   1.07225    0.016
 6926.00    1.10953   1.07267    0.016
 6927.00    1.10290   1.07218    0.016
 6928.00    1.11685   1.07172    0.017
 6929.00    1.12891   1.07236    0.017
 6930.00    1.13779   1.07238    0.017
 6931.00    1.13867   1.07184    0.017
 6932.00    1.12780   1.07267    0.017
 6933.00    1.12087   1.07303    0.017
 6934.00    1.11904   1.07230    0.017
 6935.00    1.11994   1.07317    0.017
 6936.00    1.12396   1.07367    0.017
 6937.00    1.12360   1.07258    0.017
 6938.00    1.11882   1.07337    0.017
 6939.00    1.11461   1.07381    0.016
 6940.00    1.11088   1.07226    0.016
 6941.00    1.08194   1.07293    0.016
 6942.00    1.03329   1.07329    0.016
 6943.00    1.03935   1.07135    0.016
 6944.00    1.08303   1.07200    0.016
 6945.00    1.11886   1.07246    0.017
 6946.00    1.14996   1.07035    0.017
 6947.00    1.16303   1.07114    0.017
 6948.00    1.16661   1.07196    0.018
 6949.00    1.15967   1.07005    0.018
 6950.00    1.14793   1.07111    0.018
 6951.00    1.15165   1.07243    0.018
 6952.00    1.16145   1.07105    0.018
 6953.00    1.15938   1.07241    0.018
 6954.00    1.15335   1.07416    0.017
 6955.00    1.16106   1.07345    0.017
 6956.00    1.17263   1.07505    0.017
 6957.00    1.13454   1.07693    0.017
 6958.00    1.08497   1.07674    0.017
 6959.00    1.07445   1.07844    0.017
 6960.00    1.07118   1.08000    0.017
 6961.00    1.09316   1.07992    0.017
 6962.00    1.11876   1.08150    0.017
 6963.00    1.13503   1.08233    0.017
 6964.00    1.15033   1.08184    0.017
 6965.00    1.17687   1.08303    0.017
 6966.00    1.20416   1.08292    0.017
 6967.00    1.19745   1.08156    0.017
 6968.00    1.18965   1.08221    0.018
 6969.00    1.16175   1.08129    0.018
 6970.00    1.13450   1.07897    0.018
 6971.00    1.12711   1.07909    0.018
 6972.00    1.12153   1.07790    0.018
 6973.00    1.14276   1.07497    0.018
 6974.00    1.15458   1.07483    0.017
 6975.00    1.07607   1.07416    0.017
 6976.00    1.00912   1.07139    0.017
 6977.00    1.02260   1.07137    0.017
 6978.00    1.03677   1.07186    0.017
 6979.00    1.05471   1.07003    0.016
 6980.00    1.06823   1.07040    0.016
 6981.00    1.06269   1.07212    0.016
 6982.00    1.06584   1.07161    0.016
 6983.00    1.09989   1.07236    0.016
 6984.00    1.13592   1.07476    0.017
 6985.00    1.17786   1.07529    0.017
 6986.00    1.20242   1.07613    0.017
 6987.00    1.18284   1.07836    0.017
 6988.00    1.16794   1.07924    0.018
 6989.00    1.16324   1.07979    0.018
 6990.00    1.14755   1.08122    0.018
 6991.00    1.11102   1.08177    0.018
 6992.00    1.08644   1.08172    0.018
 6993.00    1.08165   1.08218    0.018
 6994.00    1.07708   1.08210    0.017
 6995.00    1.07282   1.08137    0.017
 6996.00    1.08041   1.08102    0.017
 6997.00    1.10313   1.08045    0.017
 6998.00    1.11790   1.07918    0.017
 6999.00    1.12374   1.07834    0.017
 7000.00    1.11575   1.07760    0.017
 7001.00    1.09406   1.07614    0.017
 7002.00    1.08692   1.07502    0.017
 7003.00    1.09253   1.07440    0.017
 7004.00    1.10800   1.07311    0.017
 7005.00    1.13106   1.07184    0.017
 7006.00    1.11980   1.07143    0.018
 7007.00    1.08528   1.07055    0.018
 7008.00    1.08496   1.06916    0.018
 7009.00    1.10495   1.06892    0.018
 7010.00    1.09888   1.06859    0.018
 7011.00    1.07933   1.06710    0.018
 7012.00    1.07651   1.06694    0.018
 7013.00    1.08120   1.06724    0.019
 7014.00    1.07303   1.06578    0.018
 7015.00    1.05989   1.06565    0.018
 7016.00    1.07283   1.06661    0.018
 7017.00    1.09433   1.06545    0.017
 7018.00    1.07411   1.06536    0.017
 7019.00    1.04241   1.06689    0.017
 7020.00    1.09100   1.06628    0.017
 7021.00    1.15775   1.06629    0.017
 7022.00    1.15312   1.06823    0.017
 7023.00    1.13560   1.06828    0.017
 7024.00    1.13019   1.06847    0.017
 7025.00    1.12645   1.07063    0.018
 7026.00    1.14932   1.07131    0.018
 7027.00    1.17484   1.07167    0.018
 7028.00    1.16188   1.07403    0.018
 7029.00    1.14651   1.07523    0.019
 7030.00    1.15234   1.07563    0.019
 7031.00    1.15856   1.07825    0.019
 7032.00    1.10999   1.08001    0.019
 7033.00    1.06411   1.08023    0.018
 7034.00    1.09232   1.08306    0.018
 7035.00    1.11906   1.08548    0.018
 7036.00    1.12524   1.08538    0.018
 7037.00    1.12919   1.08807    0.018
 7038.00    1.11273   1.09105    0.018
 7039.00    1.09802   1.09056    0.018
 7040.00    1.09508   1.09249    0.018
 7041.00    1.09650   1.09545    0.018
 7042.00    1.12064   1.09446    0.018
 7043.00    1.14918   1.09497    0.018
 7044.00    1.19626   1.09694    0.018
 7045.00    1.22232   1.09513    0.018
 7046.00    1.17526   1.09386    0.019
 7047.00    1.14805   1.09396    0.019
 7048.00    1.17890   1.09096    0.019
 7049.00    1.19886   1.08803    0.019
 7050.00    1.19162   1.08605   -2.000
 7051.00    1.17575   1.08173   -2.000
 7052.00    1.14128   1.07765   -2.000
 7053.00    1.11936   1.07423   -2.000
 7054.00    1.12090   1.06898   -2.000
 7055.00    1.13615   1.06446   -2.000
 7056.00    1.17374   1.06077   -2.000
 7057.00    1.18823   1.05541   -2.000
 7058.00    1.16967   1.05108   -2.000
 7059.00    1.17490   1.04821   -2.000
 7060.00    1.21006   1.04369   -2.000
 7061.00    1.23256   1.03998   -2.000
 7062.00    1.24100   1.03856   -2.000
 7063.00    1.27418   1.03555   -2.000
 7064.00    1.33157   1.03269   -2.000
 7065.00    1.30682   1.03277   -2.000
 7066.00    1.21123   1.03147   -2.000
 7067.00    1.15476   1.02943   -2.000
 7068.00    1.12801   1.03060   -2.000
 7069.00    1.13249   1.03069   -2.000
 7070.00    1.15781   1.02918   -2.000
 7071.00    1.21909   1.03070   -2.000
 7072.00    1.30140   1.03145   -2.000
 7073.00    1.30508   1.02998   -2.000
 7074.00    1.26869   1.03096   -2.000
 7075.00    1.25230   1.03147   -2.000
 7076.00    1.24475   1.02941   -2.000
 7077.00    1.27250   1.02912   -2.000
 7078.00    1.31363   1.02867   -2.000
 7079.00    1.27983   1.02559   -2.000
 7080.00    1.22190   1.02372   -2.000
 7081.00    1.23443   1.02216   -2.000
 7082.00    1.26593   1.01802   -2.000
 7083.00    1.25592   1.01486   -2.000
 7084.00    1.23673   1.01265   -2.000
 7085.00    1.24423   1.00797   -2.000
 7086.00    1.25642   1.00423   -2.000
 7087.00    1.24299   1.00224   -2.000
 7088.00    1.22612   0.99785   -2.000
 7089.00    1.18322   0.99436   -2.000
 7090.00    1.13784   0.99329   -2.000
 7091.00    1.15800   0.98999   -2.000
 7092.00    1.18200   0.98737   -2.000
 7093.00    1.13893   0.98748   -2.000
 7094.00    1.09490   0.98565   -2.000
 7095.00    1.14532   0.98412   -2.000
 7096.00    1.19362   0.98512   -2.000
 7097.00    1.18913   0.98467   -2.000
 7098.00    1.18200   0.98401   -2.000
 7099.00    1.13968   0.98529   -2.000
 7100.00    1.09895   0.98582   -2.000
 7101.00    1.07231   0.98567   -2.000
 7102.00    1.05163   0.98664   -2.000
 7103.00    1.06993   0.98758   -2.000
 7104.00    1.08747   0.98766   -2.000
 7105.00    1.10110   0.98804   -2.000
 7106.00    1.11249   0.98890   -2.000
 7107.00    1.11461   0.98904   -2.000
 7108.00    1.10168   0.98892   -2.000
 7109.00    1.03741   0.98943   -2.000
 7110.00    1.00296   0.98950   -2.000
 7111.00    1.05419   0.98910   -2.000
 7112.00    1.07751   0.98920   -2.000
 7113.00    1.03240   0.98909   -2.000
 7114.00    1.01792   0.98853   -2.000
 7115.00    1.06828   0.98820   -2.000
 7116.00    1.09681   0.98778   -2.000
 7117.00    1.08522   0.98697   -2.000
 7118.00    1.07149   0.98626   -2.000
 7119.00    1.05432   0.98555   -2.000
 7120.00    1.08032   0.98434   -2.000
 7121.00    1.16716   0.98318   -2.000
 7122.00    1.20052   0.98232   -2.000
 7123.00    1.16754   0.98094   -2.000
 7124.00    1.14546   0.97945   -2.000
 7125.00    1.13531   0.97859   -2.000
 7126.00    1.13567   0.97748   -2.000
 7127.00    1.14616   0.97603   -2.000
 7128.00    1.13423   0.97533   -2.000
 7129.00    1.10322   0.97499   -2.000
 7130.00    1.07913   0.97398   -2.000
 7131.00    1.06021   0.97342   -2.000
 7132.00    1.09903   0.97415   -2.000
 7133.00    1.17584   0.97395   -2.000
 7134.00    1.14617   0.97327   -2.000
 7135.00    1.05516   0.97496   -2.000
 7136.00    1.08789   0.97563   -2.000
 7137.00    1.18271   0.97451   -2.000
 7138.00    1.20603   0.97670   -2.000
 7139.00    1.19828   0.97812   -2.000
 7140.00    1.17429   0.97639   -2.000
 7141.00    1.14423   0.97851   -2.000
 7142.00    1.11179   0.98051   -2.000
 7143.00    1.07860   0.97830   -2.000
 7144.00    1.02838   0.98007   -2.000
 7145.00    0.97367   0.98257   -2.000
 7146.00    1.00265   0.98011   -2.000
 7147.00    1.04967   0.98138   -2.000
 7148.00    1.10682   0.98446   -2.000
 7149.00    1.16570   0.98215   -2.000
 7150.00    1.15252   0.98273   -2.000
 7151.00    1.13001   0.98625   -2.000
 7152.00    1.17257   0.98464   -2.000
 7153.00    1.22105   0.98447   -2.000
 7154.00    1.18626   0.98789   -2.000
 7155.00    1.14692   0.98717   -2.000
 7156.00    1.11968   0.98633   -2.000
 7157.00    1.09269   0.98915   -2.000
 7158.00    1.06481   0.98936   -2.000
 7159.00    1.04368   0.98802   -2.000
 7160.00    1.17576   0.99000   -2.000
 7161.00    1.30152   0.99113   -2.000
 7162.00    1.34766   0.98974   -2.000
 7163.00    1.37981   0.99088   -2.000
 7164.00    1.29255   0.99261   -2.000
 7165.00    1.20620   0.99156   -2.000
 7166.00    1.12559   0.99218   -2.000
 7167.00    1.07907   0.99410   -2.000
 7168.00    1.20177   0.99357   -2.000
 7169.00    1.30471   0.99398   -2.000
 7170.00    1.32812   0.99560   -2.000
 7171.00    1.31045   0.99518   -2.000
 7172.00    1.15555   0.99534   -2.000
 7173.00    1.04968   0.99658   -2.000
 7174.00    1.08211   0.99592   -2.000
 7175.00    1.10012   0.99535   -2.000
 7176.00    1.08334   0.99589   -2.000
 7177.00    1.10158   0.99512   -2.000
 7178.00    1.19273   0.99400   -2.000
 7179.00    1.23689   0.99364   -2.000
 7180.00    1.19600   0.99264   -2.000
 7181.00    1.16434   0.99120   -2.000
 7182.00    1.14731   0.99010   -2.000
 7183.00    1.10350   0.98930   -2.000
 7184.00    1.02250   0.98817   -2.000
 7185.00    1.00901   0.98644   -2.000
 7186.00    1.07806   0.98599   -2.000
 7187.00    1.12866   0.98580   -2.000
 7188.00    1.15937   0.98377   -2.000
 7189.00    1.13893   0.98365   -2.000
 7190.00    1.06987   0.98474   -2.000
 7191.00    1.08692   0.98280   -2.000
 7192.00    1.17617   0.98272   -2.000
 7193.00    1.17885   0.98491   -2.000
 7194.00    1.11763   0.98363   -2.000
 7195.00    1.03628   0.98323   -2.000
 7196.00    0.94189   0.98580   -2.000
 7197.00    0.91968   0.98535   -2.000
 7198.00    0.93843   0.98454   -2.000
 7199.00    1.01581   0.98698   -2.000
 7200.00    1.12216   0.98744   -2.000
 7201.00    1.22335   0.98614   -2.000
 7202.00    1.32235   0.98796   -2.000
 7203.00    1.23086   0.98929   -2.000
 7204.00    1.06968   0.98779   -2.000
 7205.00    0.96781   0.98862   -2.000
 7206.00    0.88431   0.99078   -2.000
 7207.00    0.92151   0.98992   -2.000
 7208.00    0.98986   0.98974   -2.000
 7209.00    0.98782   0.99239   -2.000
 7210.00    0.97096   0.99269   -2.000
 7211.00    0.99692   0.99192   -2.000
 7212.00    1.02998   0.99495   -2.000
 7213.00    1.10618   0.99651   -2.000
 7214.00    1.18777   0.99540   -2.000
 7215.00    1.20033   0.99839   -2.000
 7216.00    1.20690   1.00121   -2.000
 7217.00    1.11335   1.00047   -2.000
 7218.00    1.01470   1.00299   -2.000
