###################################################################
## OUTPUT of StarlightChains_v04.for    [Cid@UFSC - 01/Apr/2007] ##
###################################################################

## Some input info
KUG0210-078._36_37.txt                   [arq_obs]
Base.CB07.vall.4m                        [arq_base]
Masks.EmLines.NEW.gm                     [arq_masks]
StCv04.C11.config                        [arq_config]
   66                                    [N_base]
    0                                    [N_YAV_components = # of components with extra extinction!]
    0                                    [i_FitPowerLaw (1/0 = Yes/No)]
-9.99                                    [alpha_PowerLaw]
CCM                                      [red_law_option]
 1.458241                                [q_norm = A(l_norm)/A(V)]

## (Re)Sampling Parameters
 3741.00                                 [l_ini (A)]
 7218.00                                 [l_fin (A)]
    1.00                                 [dl    (A)]     (OBS: dl_cushion =    50.00 A)

## Normalization info
 4020.00                                 [l_norm (A) - for base]
 4010.00                                 [llow_norm (A) - window for f_obs]
 4060.00                                 [lupp_norm (A) - window for f_obs]
2.154728E-17                             [fobs_norm (in input units)]

## S/N
 3691.00                                 [llow_SN (A) - window for S/N]
 7268.00                                 [lupp_SN (A) - window for S/N]
   5.050                                 [S/N in S/N window]
   4.108                                 [S/N in norm. window]
   0.035                                 [S/N_err in S/N window]
   0.028                                 [S/N_err in norm. window]
  1.0000                                 [fscale_chi2]

## etc...
    -2007601                             [idum_orig]
  2432                                   [NOl_eff]
  2393                                   [Nl_eff]
    39    NSIGMA                         [Ntot_cliped & clip_method]
  5825820                                [Nglobal_steps]
   7                                     [N_chains]
  12                                     [NEX0s_base = N_base in EX0s-fits]
 0   0   1       39   2.0   5.670E+03    [Clip-Bug, RC-Crash & Burn-In warning-flags, n_censored_weights, wei_nsig_threshold & wei_limit]
    44     43.011     42.197      0.813  [idt_all, wdt_TotTime, wdt_UsrTime & wdt_SysTime (sec)]

## Synthesis Results - Best model ##

 9.44283E-06                             [chi2/Nl_eff]
     5.98227                             [adev (%)]

   110.32098                             [sum-of-x (%)]
 1.49846E-17                             [Flux_tot (units of input spectrum!)]
 7.96108E-13                             [Mini_tot (???)]
 4.17661E-13                             [Mcor_tot (???)]

 -11.70                                  [v0_min  (km/s)]
 204.72                                  [vd_min  (km/s)]
-0.3436                                  [AV_min  (mag)]
 0.0000                                  [YAV_min (mag)]

# j     x_j(%)      Mini_j(%)     Mcor_j(%)     age_j(yr)     Z_j      (L/M)_j    YAV?  Mstars   component_j        a/Fe...       SSP_chi2r SSP_adev(%)   SSP_AV   SSP_x(%)
  1      0.0000     0.0000E+00    0.0000E+00    1.000000E+06  0.00400  1.094E-02    0   1.0000   age020_m42            0.0000     3.3300E-05    11.0573   3.6335    89.7772
  2      0.0000     0.0000E+00    0.0000E+00    3.160000E+06  0.00400  4.007E-02    0   0.9999   age045_m42            0.0000     2.7083E-05    10.0153   2.8804    96.8418
  3      0.0000     0.0000E+00    0.0000E+00    5.010000E+06  0.00400  2.539E-02    0   0.9488   age055_m42            0.0000     2.9862E-05    10.4550   3.2143    94.0010
  4      0.0000     0.0000E+00    0.0000E+00    6.610000E+06  0.00400  2.620E-02    0   0.9220   age061_m42            0.0000     2.7121E-05     9.9705   2.8078    96.9794
  5      0.0000     0.0000E+00    0.0000E+00    1.000000E+07  0.00400  1.322E-02    0   0.8862   age070_m42            0.0000     3.1628E-05    10.9012   2.5292    98.3050
  6      0.0000     0.0000E+00    0.0000E+00    1.445000E+07  0.00400  7.883E-03    0   0.8571   age078_m42            0.0000     3.2825E-05    11.0972   2.8640    95.6510
  7      0.0000     0.0000E+00    0.0000E+00    2.512000E+07  0.00400  5.251E-03    0   0.8174   age090_m42            0.0000     3.2154E-05    11.0492   2.4013    98.7329
  8      0.0000     0.0000E+00    0.0000E+00    4.000000E+07  0.00400  3.649E-03    0   0.7851   age104_m42            0.0000     3.0339E-05    10.7006   2.1692    99.8018
  9      0.0000     0.0000E+00    0.0000E+00    5.500000E+07  0.00400  3.098E-03    0   0.7629   age110_m42            0.0000     2.7501E-05    10.0420   2.3172   100.3348
 10      0.0000     0.0000E+00    0.0000E+00    1.015200E+08  0.00400  2.228E-03    0   0.7207   age116_m42            0.0000     2.5753E-05     9.6249   2.3327   100.8720
 11      0.0000     0.0000E+00    0.0000E+00    2.861200E+08  0.00400  1.093E-03    0   0.6648   age125_m42            0.0000     2.5775E-05     9.9316   1.7545   103.8862
 12      0.0000     0.0000E+00    0.0000E+00    5.088000E+08  0.00400  6.597E-04    0   0.6365   age130_m42            0.0000     2.2640E-05     9.1560   1.7384   105.3441
 13      0.0000     0.0000E+00    0.0000E+00    1.434000E+09  0.00400  2.132E-04    0   0.5798   age139_m42            0.0000     1.7625E-05     8.0370   0.7585   107.9145
 14      0.0000     0.0000E+00    0.0000E+00    4.250000E+09  0.00400  5.895E-05    0   0.5377   age158_m42            0.0000     1.4867E-05     7.4296   0.3262   103.8310
 15      0.0000     0.0000E+00    0.0000E+00    7.500000E+09  0.00400  3.510E-05    0   0.5212   age171_m42            0.0000     1.3757E-05     7.1751   0.1372   103.3598
 16      0.0000     0.0000E+00    0.0000E+00    1.300000E+10  0.00400  2.005E-05    0   0.5034   age193_m42            0.0000     1.3104E-05     7.0080  -0.0275   102.9459
 17      0.0000     0.0000E+00    0.0000E+00    1.800000E+10  0.00400  1.525E-05    0   0.4967   age213_m42            0.0000     1.3481E-05     7.1085  -0.0510   102.4253
 18      0.0000     0.0000E+00    0.0000E+00    1.000000E+06  0.00800  1.238E-02    0   1.0000   age020_m52            0.0000     3.3274E-05    11.0500   3.6298    89.9540
 19      0.0000     0.0000E+00    0.0000E+00    3.160000E+06  0.00800  3.074E-02    0   0.9966   age045_m52            0.0000     3.2786E-05    10.9481   3.5506    90.8334
 20      0.0000     0.0000E+00    0.0000E+00    5.010000E+06  0.00800  2.668E-02    0   0.9443   age055_m52            0.0000     3.0798E-05    10.6000   3.2993    93.0451
 21      0.0000     0.0000E+00    0.0000E+00    6.610000E+06  0.00800  2.136E-02    0   0.9177   age061_m52            0.0000     2.9349E-05    10.5075   2.0354    99.4091
 22      0.0000     0.0000E+00    0.0000E+00    1.000000E+07  0.00800  1.215E-02    0   0.8827   age070_m52            0.0000     3.4384E-05    11.5026   2.7073    97.8498
 23      0.0000     0.0000E+00    0.0000E+00    1.445000E+07  0.00800  8.717E-03    0   0.8552   age078_m52            0.0000     3.2479E-05    11.0104   2.8233    97.1000
 24      0.0000     0.0000E+00    0.0000E+00    2.512000E+07  0.00800  5.592E-03    0   0.8162   age090_m52            0.0000     3.2476E-05    11.1135   2.4560   100.0317
 25      0.0000     0.0000E+00    0.0000E+00    4.000000E+07  0.00800  3.896E-03    0   0.7841   age104_m52            0.0000     3.0093E-05    10.6876   2.3637   101.1397
 26      0.0000     0.0000E+00    0.0000E+00    1.015200E+08  0.00800  2.148E-03    0   0.7226   age116_m52            0.0000     2.6446E-05     9.8972   2.2994   101.4665
 27      0.0000     0.0000E+00    0.0000E+00    2.861200E+08  0.00800  9.925E-04    0   0.6683   age125_m52            0.0000     2.2467E-05     9.1394   1.7997   106.4122
 28      0.0000     0.0000E+00    0.0000E+00    9.047900E+08  0.00800  3.141E-04    0   0.6138   age135_m52            0.0000     1.6331E-05     7.8086   0.9815   111.9499
 29      0.0000     0.0000E+00    0.0000E+00    1.434000E+09  0.00800  1.719E-04    0   0.5853   age139_m52            0.0000     1.5254E-05     7.7339   0.4029   109.4542
 30      0.0000     0.0000E+00    0.0000E+00    2.500000E+09  0.00800  7.872E-05    0   0.5600   age150_m52            0.0000     1.2447E-05     6.8515   0.1429   106.8878
 31      0.0000     0.0000E+00    0.0000E+00    4.250000E+09  0.00800  4.336E-05    0   0.5426   age158_m52            0.0000     1.2559E-05     6.8781   0.1315   105.8006
 32      0.0000     0.0000E+00    0.0000E+00    6.250000E+09  0.00800  3.159E-05    0   0.5319   age166_m52            0.0000     1.1300E-05     6.5273  -0.0737   106.1897
 33      0.0000     0.0000E+00    0.0000E+00    1.300000E+10  0.00800  1.361E-05    0   0.5073   age193_m52            0.0000     1.0508E-05     6.2846  -0.5472   106.0390
 34      0.0000     0.0000E+00    0.0000E+00    1.800000E+10  0.00800  9.886E-06    0   0.4990   age213_m52            0.0000     1.0322E-05     6.2718  -0.6609   106.0184
 35      0.0000     0.0000E+00    0.0000E+00    1.000000E+06  0.02000  1.544E-02    0   1.0000   age020_m62            0.0000     3.3455E-05    11.0693   3.6269    90.1417
 36      0.0000     0.0000E+00    0.0000E+00    3.160000E+06  0.02000  3.762E-02    0   0.9858   age045_m62            0.0000     3.3525E-05    11.0488   3.5624    91.0211
 37      0.0000     0.0000E+00    0.0000E+00    5.010000E+06  0.02000  3.296E-02    0   0.9342   age055_m62            0.0000     2.8162E-05    10.1193   3.1687    95.4660
 38      0.0000     0.0000E+00    0.0000E+00    8.710000E+06  0.02000  1.154E-02    0   0.8861   age067_m62            0.0000     5.0891E-05    15.0072   2.1669    98.9468
 39      0.0000     0.0000E+00    0.0000E+00    1.445000E+07  0.02000  7.663E-03    0   0.8472   age078_m62            0.0000     3.8041E-05    12.4765   2.3496    99.7236
 40      0.0000     0.0000E+00    0.0000E+00    2.512000E+07  0.02000  4.532E-03    0   0.8099   age090_m62            0.0000     3.8763E-05    12.6874   2.3400    99.3921
 41      0.0000     0.0000E+00    0.0000E+00    5.500000E+07  0.02000  2.733E-03    0   0.7595   age110_m62            0.0000     2.9965E-05    10.6421   2.3533   100.2759
 42      0.0000     0.0000E+00    0.0000E+00    1.609000E+08  0.02000  1.369E-03    0   0.6985   age120_m62            0.0000     2.4935E-05     9.5332   2.1774   104.0640
 43      0.0000     0.0000E+00    0.0000E+00    2.861200E+08  0.02000  9.013E-04    0   0.6714   age125_m62            0.0000     2.2474E-05     8.9352   1.9143   107.7550
 44     14.9233     5.0639E-01    6.2248E-01    5.088000E+08  0.02000  5.028E-04    0   0.6449   age130_m62            0.0000     1.8048E-05     7.9430   1.5219   111.6541
 45      3.8717     2.7206E-01    3.2043E-01    9.047900E+08  0.02000  2.428E-04    0   0.6179   age135_m62            0.0000     1.3856E-05     7.1292   0.9369   111.2155
 46      0.0000     0.0000E+00    0.0000E+00    1.434000E+09  0.02000  1.263E-04    0   0.5908   age139_m62            0.0000     1.2604E-05     6.8419   0.4979   109.5246
 47      0.0000     0.0000E+00    0.0000E+00    2.500000E+09  0.02000  5.985E-05    0   0.5673   age150_m62            0.0000     1.1149E-05     6.4689   0.1299   108.4664
 48      0.0000     0.0000E+00    0.0000E+00    4.250000E+09  0.02000  3.271E-05    0   0.5468   age158_m62            0.0000     9.9276E-06     6.1615  -0.1784   108.1698
 49     31.2817     3.9243E+01    3.8650E+01    1.000000E+10  0.02000  1.360E-05    0   0.5167   age181_m62            0.0000     1.0185E-05     6.2290  -0.5363   108.5733
 50      0.0000     0.0000E+00    0.0000E+00    1.800000E+10  0.02000  7.124E-06    0   0.5013   age213_m62            0.0000     1.1369E-05     6.6502  -0.7558   108.4029
 51      0.0000     0.0000E+00    0.0000E+00    1.000000E+06  0.05000  2.592E-02    0   0.9998   age020_m72            0.0000     3.4253E-05    11.1852   3.6209    90.0728
 52      0.0000     0.0000E+00    0.0000E+00    3.160000E+06  0.05000  4.845E-02    0   0.9577   age045_m72            0.0000     3.1173E-05    10.6557   3.4405    92.4691
 53      0.0000     0.0000E+00    0.0000E+00    5.010000E+06  0.05000  3.072E-02    0   0.9147   age055_m72            0.0000     3.6487E-05    12.1440   2.9380    96.1771
 54      0.0000     0.0000E+00    0.0000E+00    6.610000E+06  0.05000  1.455E-02    0   0.8877   age061_m72            0.0000     6.5731E-05    18.3217   2.1788    99.4863
 55      0.0000     0.0000E+00    0.0000E+00    1.000000E+07  0.05000  9.074E-03    0   0.8524   age070_m72            0.0000     3.8825E-05    13.2132   3.1113    96.0662
 56      0.0000     0.0000E+00    0.0000E+00    2.512000E+07  0.05000  4.250E-03    0   0.7902   age090_m72            0.0000     3.5212E-05    12.2082   2.8064    98.0835
 57      0.0000     0.0000E+00    0.0000E+00    4.000000E+07  0.05000  3.087E-03    0   0.7618   age104_m72            0.0000     3.5304E-05    12.2455   2.5698    99.8333
 58      0.0000     0.0000E+00    0.0000E+00    1.015200E+08  0.05000  1.700E-03    0   0.7096   age116_m72            0.0000     2.7688E-05    10.1871   2.3126   103.4263
 59      0.0000     0.0000E+00    0.0000E+00    2.861200E+08  0.05000  7.384E-04    0   0.6633   age125_m72            0.0000     1.9845E-05     8.3243   1.7723   109.8782
 60      0.0000     0.0000E+00    0.0000E+00    5.088000E+08  0.05000  3.819E-04    0   0.6372   age130_m72            0.0000     1.4917E-05     7.2117   1.2785   112.3153
 61      0.0000     0.0000E+00    0.0000E+00    9.047900E+08  0.05000  1.676E-04    0   0.6110   age135_m72            0.0000     1.1402E-05     6.5370   0.5877   110.6644
 62      0.0000     0.0000E+00    0.0000E+00    1.434000E+09  0.05000  8.837E-05    0   0.5874   age139_m72            0.0000     1.1038E-05     6.4103   0.1233   110.3397
 63     14.8229     5.9745E+00    6.3750E+00    2.500000E+09  0.05000  4.233E-05    0   0.5598   age150_m72            0.0000     1.0064E-05     6.2146  -0.1881   109.5171
 64     45.4215     5.4004E+01    5.4032E+01    6.250000E+09  0.05000  1.435E-05    0   0.5249   age166_m72            0.0000     1.0513E-05     6.3951  -0.6408   108.5062
 65      0.0000     0.0000E+00    0.0000E+00    1.300000E+10  0.05000  6.513E-06    0   0.5036   age193_m72            0.0000     1.2484E-05     7.0439  -0.9311   110.2820
 66      0.0000     0.0000E+00    0.0000E+00    1.800000E+10  0.05000  4.527E-06    0   0.4945   age213_m72            0.0000     1.5055E-05     7.1636  -1.0000   106.3467


## Synthesis Results - Average & Chains ##

# j      x_j: min, <> & last-chain-values for 1 ...  7 chains
  1      0.0000      0.2317      0.0000      0.0627      0.0053      0.0004      0.1202      0.0000      0.0266
  2      0.0000      0.2608      0.0019      0.0000      0.0000      0.0519      0.0000      0.0078      0.0241
  3      0.0000      0.2043      0.0000      0.0133      0.0131      0.0000      0.0000      0.0498      0.0316
  4      0.0000      0.2928      0.0248      0.0061      0.0124      0.0000      0.1240      0.0000      0.0348
  5      0.0000      0.2628      0.0000      0.0152      0.0239      0.0000      0.0000      0.0218      0.0198
  6      0.0000      0.3442      0.0000      0.0000      0.0391      0.0000      0.0690      0.0000      0.0052
  7      0.0000      0.3044      0.0603      0.0292      0.0164      0.0107      0.0623      0.0355      0.0110
  8      0.0000      0.2800      0.0224      0.1101      0.0000      0.0000      0.0600      0.0000      0.0000
  9      0.0000      1.5959      1.9252      1.7859      1.6959      1.4232      1.7724      1.9808      2.4400
 10      0.0000      2.1061      2.2690      2.3136      2.1760      1.9306      2.4163      2.6163      3.1591
 11      0.0000      0.3137      0.0046      0.0389      0.0000      0.0376      0.0657      0.0487      0.0000
 12      0.0000      1.4586      1.4687      1.5601      1.1241      1.4908      1.5538      1.7657      2.1974
 13      0.0000      0.2166      0.0932      0.0572      0.0046      0.0179      0.1790      0.0450      0.0436
 14      0.0000      0.2468      0.0077      0.0256      0.0287      0.0169      0.3431      0.0689      0.0029
 15      0.0000      0.2776      0.0256      0.0000      0.0044      0.0541      0.2784      0.0245      0.0569
 16      0.0000     11.6026     14.2552     12.7549     14.4861     13.3122     12.7086     11.5499      9.8485
 17      0.0000      0.2930      0.0000      0.0000      0.0447      0.0000      0.1191      0.0860      0.0312
 18      0.0000      0.3373      0.0000      0.0016      0.0538      0.0092      0.1161      0.0336      0.0430
 19      0.0000      0.2359      0.0186      0.0000      0.0172      0.0000      0.1504      0.0031      0.0601
 20      0.0000      0.1988      0.0004      0.0171      0.0151      0.0063      0.1281      0.0000      0.0515
 21      0.0000      0.2744      0.0557      0.0008      0.0000      0.0000      0.0589      0.0137      0.0000
 22      0.0000      0.3420      0.0000      0.0913      0.0000      0.0321      0.0220      0.0032      0.0160
 23      0.0000      0.1887      0.0466      0.0021      0.0000      0.0164      0.0402      0.0000      0.0058
 24      0.0000      0.3163      0.0000      0.0000      0.0162      0.0000      0.1098      0.0289      0.0026
 25      0.0000      0.2674      0.0802      0.0000      0.0000      0.0008      0.0129      0.0456      0.0151
 26      0.0000      0.3263      0.0000      0.0309      0.0000      0.0149      0.0000      0.0000      0.0000
 27      0.0000      0.2475      0.0353      0.0470      0.0096      0.0398      0.0099      0.0246      0.0698
 28      0.0000      0.3248      0.0708      0.0258      0.0340      0.0030      0.1452      0.0012      0.0174
 29      0.0000      0.2617      0.1508      0.0000      0.0000      0.0650      0.1342      0.0347      0.0000
 30      0.0000      0.3444      0.2303      0.0000      0.0000      0.0064      0.0000      0.0000      0.0038
 31      0.0000      0.1913      0.0342      0.0000      0.0039      0.0000      0.0000      0.0000      0.0384
 32      0.0000      0.2938      0.0955      0.0487      0.0140      0.0000      0.1373      0.0000      0.0052
 33      0.0000      0.2187      0.0301      0.0068      0.0000      0.0440      0.0127      0.0000      0.0000
 34      0.0000      0.2910      0.0000      0.0051      0.0241      0.0086      0.1374      0.0460      0.0278
 35      0.0000      0.2323      0.0000      0.0077      0.0111      0.0159      0.0006      0.0000      0.0068
 36      0.0000      0.2569      0.0000      0.0210      0.0180      0.0269      0.1825      0.0000      0.0000
 37      0.0000      0.2860      0.0000      0.0573      0.0529      0.0318      0.2815      0.0177      0.0086
 38      0.0000      0.2964      0.0259      0.0148      0.0129      0.0084      0.0344      0.0011      0.0867
 39      0.0000      0.2411      0.1096      0.0000      0.0765      0.0147      0.2504      0.0000      0.0000
 40      0.0000      0.3162      0.0163      0.0000      0.0095      0.0072      0.0586      0.0000      0.0000
 41      0.0000      0.2233      0.0857      0.0000      0.0168      0.0182      0.0000      0.0313      0.0000
 42      0.0000      0.3235      0.0865      0.0104      0.0174      0.0164      0.0878      0.0069      0.0112
 43      0.0000      0.3387      0.4497      0.2854      0.3422      0.0000      0.0979      0.3920      0.5681
 44     14.9233      1.9896      2.0128      2.0861      2.1042      2.2056      2.0565      1.9551      1.9025
 45      3.8717      2.5623      2.3376      2.6567      2.5676      2.6744      2.8087      3.0463      3.0187
 46      0.0000      0.3620      0.3221      0.1532      0.2603      0.3353      0.3188      0.3329      0.3021
 47      0.0000      1.2144      0.9131      1.4131      1.2505      1.6454      1.1435      1.2380      0.8968
 48      0.0000     29.8415     34.4317     34.8141     34.1641     34.0375     34.4802     36.6409     35.0910
 49     31.2817      4.9003      5.8325      5.4175      5.8825      6.0512      5.5674      4.3765      4.9045
 50      0.0000      0.3260      0.1793      0.1216      0.0895      0.2638      0.0991      0.1302      0.0753
 51      0.0000      4.7019      4.4393      5.2614      5.2816      5.2867      4.8381      5.2932      5.1077
 52      0.0000      0.2497      0.0000      0.0087      0.0000      0.0000      0.0000      0.0300      0.0395
 53      0.0000      0.3427      0.0000      0.0221      0.0316      0.0000      0.0000      0.0000      0.0511
 54      0.0000      0.3207      0.1118      0.0419      0.0007      0.0116      0.0136      0.0000      0.0200
 55      0.0000      0.2207      0.0863      0.0000      0.0000      0.0000      0.0962      0.0067      0.0000
 56      0.0000      0.2728      0.0000      0.0316      0.0516      0.0582      0.1691      0.0400      0.0181
 57      0.0000      0.2228      0.0888      0.1254      0.0068      0.0000      0.0452      0.0470      0.0000
 58      0.0000      0.2600      0.0000      0.0000      0.0106      0.0415      0.1308      0.0061      0.0198
 59      0.0000      0.2082      0.1082      0.0053      0.0000      0.0533      0.2539      0.0619      0.0000
 60      0.0000      0.3358      0.0233      0.0000      0.0613      0.0416      0.1146      0.0236      0.0043
 61      0.0000      0.3277      0.1110      0.1173      0.0596      0.0855      0.0000      0.1421      0.0994
 62      0.0000      0.2955      0.0000      0.0000      0.0000      0.0125      0.0840      0.0000      0.0498
 63     14.8229     29.7532     33.6500     34.6450     34.2281     34.6067     32.2504     34.0188     36.8154
 64     45.4215      1.4014      1.6909      1.6591      1.5771      1.7505      1.5354      1.5627      0.6738
 65      0.0000      0.2729      0.1006      0.0493      0.0356      0.1198      0.0000      0.0720      0.0661
 66      0.0000      0.2608      0.0279      0.0818      0.0739      0.1966      0.1366      0.1126      0.0176

# j      m_j: min, <> & last-chain-values for 1 ...  7 chains
  1  0.0000E+00  1.3450E-03  0.0000E+00  3.4197E-04  2.8339E-05  2.2148E-06  6.6183E-04  0.0000E+00  1.5471E-04
  2  0.0000E+00  4.1318E-04  2.7143E-06  0.0000E+00  0.0000E+00  7.4541E-05  0.0000E+00  1.1816E-05  3.8234E-05
  3  0.0000E+00  4.8487E-04  0.0000E+00  2.9615E-05  2.8530E-05  0.0000E+00  0.0000E+00  1.1367E-04  7.5140E-05
  4  0.0000E+00  6.5423E-04  5.0825E-05  1.2830E-05  2.5522E-05  0.0000E+00  2.6276E-04  0.0000E+00  7.7832E-05
  5  0.0000E+00  1.1184E-03  0.0000E+00  6.0791E-05  9.3257E-05  0.0000E+00  0.0000E+00  8.9282E-05  8.4244E-05
  6  0.0000E+00  2.3762E-03  0.0000E+00  0.0000E+00  2.4779E-04  0.0000E+00  4.5194E-04  0.0000E+00  3.5749E-05
  7  0.0000E+00  3.0086E-03  5.4717E-04  2.7069E-04  1.4887E-04  9.6086E-05  5.8390E-04  3.3803E-04  1.0880E-04
  8  0.0000E+00  3.8247E-03  2.8105E-04  1.4126E-03  0.0000E+00  0.0000E+00  7.7772E-04  0.0000E+00  0.0000E+00
  9  0.0000E+00  2.4954E-02  2.7658E-02  2.6222E-02  2.4358E-02  2.0171E-02  2.6292E-02  2.9797E-02  3.8192E-02
 10  0.0000E+00  4.3258E-02  4.2819E-02  4.4621E-02  4.1055E-02  3.5942E-02  4.7084E-02  5.1697E-02  6.4953E-02
 11  0.0000E+00  1.2116E-02  1.6324E-04  1.4116E-03  0.0000E+00  1.3152E-03  2.4064E-03  1.8100E-03  0.0000E+00
 12  0.0000E+00  8.9363E-02  8.2671E-02  8.9749E-02  6.3261E-02  8.2782E-02  9.0309E-02  1.0407E-01  1.3476E-01
 13  0.0000E+00  3.7407E-02  1.4789E-02  9.2766E-03  7.2338E-04  2.7995E-03  2.9321E-02  7.4748E-03  7.5393E-03
 14  0.0000E+00  1.4297E-01  4.1034E-03  1.3932E-02  1.5276E-02  8.8718E-03  1.8852E-01  3.8368E-02  1.6742E-03
 15  0.0000E+00  2.6175E-01  2.2214E-02  0.0000E+00  3.8120E-03  4.6235E-02  2.4907E-01  2.2193E-02  5.3705E-02
 16  0.0000E+00  1.8497E+01  2.0880E+01  1.9094E+01  2.1214E+01  1.9236E+01  1.9221E+01  1.7714E+01  1.5717E+01
 17  0.0000E+00  6.0590E-01  0.0000E+00  0.0000E+00  8.4891E-02  0.0000E+00  2.3371E-01  1.7114E-01  6.4684E-02
 18  0.0000E+00  1.7303E-03  0.0000E+00  7.5200E-06  2.5333E-04  4.2774E-05  5.6505E-04  1.6591E-04  2.2097E-04
 19  0.0000E+00  4.8563E-04  3.5205E-05  0.0000E+00  3.2564E-05  0.0000E+00  2.9364E-04  6.2235E-06  1.2381E-04
 20  0.0000E+00  4.4689E-04  8.5990E-07  3.6139E-05  3.1079E-05  1.2790E-05  2.7320E-04  0.0000E+00  1.1586E-04
 21  0.0000E+00  7.4858E-04  1.3958E-04  2.0547E-06  0.0000E+00  0.0000E+00  1.5244E-04  3.6030E-05  0.0000E+00
 22  0.0000E+00  1.5775E-03  0.0000E+00  3.9536E-04  0.0000E+00  1.3424E-04  9.6347E-05  1.4227E-05  7.3701E-05
 23  0.0000E+00  1.1757E-03  2.6692E-04  1.2216E-05  0.0000E+00  9.2559E-05  2.3777E-04  0.0000E+00  3.6123E-05
 24  0.0000E+00  2.9311E-03  0.0000E+00  0.0000E+00  1.3779E-04  0.0000E+00  9.6583E-04  2.5748E-04  2.3881E-05
 25  0.0000E+00  3.4177E-03  9.4190E-04  0.0000E+00  0.0000E+00  9.1330E-06  1.5638E-04  5.6103E-04  1.9289E-04
 26  0.0000E+00  6.9710E-03  0.0000E+00  6.2067E-04  0.0000E+00  2.8817E-04  0.0000E+00  0.0000E+00  0.0000E+00
 27  0.0000E+00  1.0581E-02  1.3866E-03  1.8863E-03  3.7730E-04  1.5439E-03  4.0322E-04  1.0110E-03  2.9864E-03
 28  0.0000E+00  4.0300E-02  8.0703E-03  3.0108E-03  3.8699E-03  3.3582E-04  1.7094E-02  1.4309E-04  2.1642E-03
 29  0.0000E+00  5.6587E-02  2.9955E-02  0.0000E+00  0.0000E+00  1.2740E-02  2.7516E-02  7.2218E-03  0.0000E+00
 30  0.0000E+00  1.5555E-01  9.5598E-02  0.0000E+00  0.0000E+00  2.6156E-03  0.0000E+00  0.0000E+00  1.6963E-03
 31  0.0000E+00  1.5203E-01  2.4946E-02  0.0000E+00  2.8633E-03  0.0000E+00  0.0000E+00  0.0000E+00  3.0560E-02
 32  0.0000E+00  3.1413E-01  9.3785E-02  4.8898E-02  1.3731E-02  0.0000E+00  1.3928E-01  0.0000E+00  5.5960E-03
 33  0.0000E+00  5.1755E-01  6.5402E-02  1.5172E-02  0.0000E+00  9.4300E-02  2.8592E-02  0.0000E+00  0.0000E+00
 34  0.0000E+00  9.3263E-01  0.0000E+00  1.5447E-02  7.0868E-02  2.5028E-02  4.1772E-01  1.4196E-01  8.9261E-02
 35  0.0000E+00  9.5522E-04  0.0000E+00  2.9744E-05  4.2047E-05  5.9179E-05  2.3442E-06  0.0000E+00  2.8190E-05
 36  0.0000E+00  4.2746E-04  0.0000E+00  3.2871E-05  2.7534E-05  4.0548E-05  2.8801E-04  0.0000E+00  0.0000E+00
 37  0.0000E+00  5.1471E-04  0.0000E+00  9.6814E-05  8.7517E-05  5.1936E-05  4.8061E-04  3.0715E-05  1.5411E-05
 38  0.0000E+00  1.4449E-03  1.1624E-04  6.7581E-05  5.7756E-05  3.7197E-05  1.5899E-04  5.3239E-06  4.2320E-04
 39  0.0000E+00  1.6926E-03  7.0676E-04  0.0000E+00  4.9343E-04  9.3550E-05  1.6679E-03  0.0000E+00  0.0000E+00
 40  0.0000E+00  3.5882E-03  1.6954E-04  0.0000E+00  9.8744E-05  7.3618E-05  6.3048E-04  0.0000E+00  0.0000E+00
 41  0.0000E+00  3.9400E-03  1.3888E-03  0.0000E+00  2.7176E-04  2.9079E-04  0.0000E+00  5.3099E-04  0.0000E+00
 42  0.0000E+00  1.0480E-02  2.5751E-03  3.1615E-04  5.1747E-04  4.8244E-04  2.6980E-03  2.1512E-04  3.6320E-04
 43  0.0000E+00  1.6020E-02  1.9543E-02  1.2678E-02  1.4868E-02  0.0000E+00  4.3934E-03  1.7838E-02  2.6899E-02
 44  6.2248E-01  1.6204E-01  1.5061E-01  1.5953E-01  1.5741E-01  1.6282E-01  1.5889E-01  1.5319E-01  1.5510E-01
 45  3.2043E-01  4.1405E-01  3.4707E-01  4.0311E-01  3.8112E-01  3.9172E-01  4.3058E-01  4.7358E-01  4.8830E-01
 46  0.0000E+00  1.0754E-01  8.7905E-02  4.2731E-02  7.1011E-02  9.0278E-02  8.9839E-02  9.5127E-02  8.9832E-02
 47  0.0000E+00  7.3091E-01  5.0494E-01  7.9860E-01  6.9134E-01  8.9761E-01  6.5290E-01  7.1684E-01  5.4029E-01
 48  0.0000E+00  3.1676E+01  3.3579E+01  3.4699E+01  3.3311E+01  3.2747E+01  3.4721E+01  3.7416E+01  3.7285E+01
 49  3.8650E+01  1.1822E+01  1.2928E+01  1.2272E+01  1.3035E+01  1.3232E+01  1.2742E+01  1.0157E+01  1.1844E+01
 50  0.0000E+00  1.4566E+00  7.3602E-01  5.1003E-01  3.6732E-01  1.0683E+00  4.2003E-01  5.5970E-01  3.3669E-01
 51  0.0000E+00  1.1516E-02  9.9898E-03  1.2100E-02  1.1882E-02  1.1736E-02  1.1242E-02  1.2472E-02  1.2523E-02
 52  0.0000E+00  3.1343E-04  0.0000E+00  1.0244E-05  0.0000E+00  0.0000E+00  0.0000E+00  3.6236E-05  4.9601E-05
 53  0.0000E+00  6.4792E-04  0.0000E+00  3.9164E-05  5.4923E-05  0.0000E+00  0.0000E+00  0.0000E+00  9.6636E-05
 54  0.0000E+00  1.2423E-03  3.9796E-04  1.5258E-04  2.4241E-06  4.0824E-05  5.0121E-05  0.0000E+00  7.7377E-05
 55  0.0000E+00  1.3163E-03  4.7278E-04  0.0000E+00  0.0000E+00  0.0000E+00  5.4434E-04  3.8663E-05  0.0000E+00
 56  0.0000E+00  3.2206E-03  0.0000E+00  3.5040E-04  5.5940E-04  6.2322E-04  1.8945E-03  4.5465E-04  2.1343E-04
 57  0.0000E+00  3.4904E-03  1.2787E-03  1.8458E-03  9.7960E-05  0.0000E+00  6.7152E-04  7.0802E-04  0.0000E+00
 58  0.0000E+00  6.8904E-03  0.0000E+00  0.0000E+00  2.5764E-04  9.9647E-04  3.2890E-03  1.5511E-04  5.2446E-04
 59  0.0000E+00  1.1876E-02  5.6686E-03  2.8400E-04  0.0000E+00  2.7541E-03  1.3738E-02  3.3982E-03  0.0000E+00
 60  0.0000E+00  3.5577E-02  2.2678E-03  0.0000E+00  5.9644E-03  3.9950E-03  1.1519E-02  2.4027E-03  4.5579E-04
 61  0.0000E+00  7.5859E-02  2.3606E-02  2.5504E-02  1.2675E-02  1.7948E-02  0.0000E+00  3.1641E-02  2.3034E-02
 62  0.0000E+00  1.2471E-01  0.0000E+00  0.0000E+00  0.0000E+00  4.7830E-03  3.3636E-02  0.0000E+00  2.1021E-02
 63  6.3750E+00  2.4985E+01  2.5962E+01  2.7317E+01  2.6402E+01  2.6340E+01  2.5692E+01  2.7482E+01  3.0946E+01
 64  5.4032E+01  3.2550E+00  3.6083E+00  3.6183E+00  3.3648E+00  3.6852E+00  3.3832E+00  3.4917E+00  1.5666E+00
 65  0.0000E+00  1.3399E+00  4.5388E-01  2.2722E-01  1.6071E-01  5.3315E-01  0.0000E+00  3.3992E-01  3.2473E-01
 66  0.0000E+00  1.8089E+00  1.7802E-01  5.3264E-01  4.7062E-01  1.2358E+00  8.9874E-01  7.5155E-01  1.2244E-01

# AV, chi2 & Mass for <> & i_chain = 1 ...  7 solutions
AV      -0.3436      0.0235      0.0110      0.0236      0.0123      0.0019      0.0481      0.0388      0.0599
chi2 9.4428E-06  1.7557E-05  1.1066E-05  1.1145E-05  1.1128E-05  1.1026E-05  1.1384E-05  1.1170E-05  1.1239E-05
Mass 4.1766E-13  3.5023E-13  3.7483E-13  3.7304E-13  3.7558E-13  3.7533E-13  3.8156E-13  3.7161E-13  3.6738E-13
 -11.70                                  [v0_min (km/s) before EX0s...]
 204.72                                  [vd_min (km/s) before EX0s...]


## Synthetic spectrum (Best Model) ##l_obs f_obs f_syn wei
 3478    [Nl_obs]
 3741.00    0.62346   0.51078    0.000
 3742.00    0.52611   0.50305    0.000
 3743.00    0.34884   0.48203    0.000
 3744.00    0.24851   0.45359    0.000
 3745.00    0.19301   0.42418    0.057
 3746.00    0.24006   0.39952    0.054
 3747.00    0.33917   0.38440    0.050
 3748.00    0.31863   0.38257    0.050
 3749.00    0.24547   0.39631    0.051
 3750.00    0.32341   0.42520    0.052
 3751.00    0.45839   0.46520    0.052
 3752.00    0.47520   0.50892    0.051
 3753.00    0.45415   0.54741    0.049
 3754.00    0.51235   0.57276    0.049
 3755.00    0.59178   0.58082    0.048
 3756.00    0.63914   0.57285    0.048
 3757.00    0.67946   0.55495    0.048
 3758.00    0.54676   0.53543    0.047
 3759.00    0.38385   0.52107    0.045
 3760.00    0.35482   0.51454    0.063
 3761.00    0.34357   0.51433    0.111
 3762.00    0.28668   0.51691    0.067
 3763.00    0.22550   0.51930    0.045
 3764.00    0.34989   0.52043    0.046
 3765.00    0.48499   0.52111    0.047
 3766.00    0.44690   0.52320    0.047
 3767.00    0.40634   0.52868    0.047
 3768.00    0.56450   0.53877    0.050
 3769.00    0.71357   0.55353    0.053
 3770.00    0.64163   0.57181    0.051
 3771.00    0.57401   0.59161    0.050
 3772.00    0.56305   0.61079    0.049
 3773.00    0.54649   0.62777    0.047
 3774.00    0.48070   0.64199    0.045
 3775.00    0.41809   0.65418    0.043
 3776.00    0.37612   0.66592    0.044
 3777.00    0.34944   0.67858    0.044
 3778.00    0.40013   0.69255    0.044
 3779.00    0.46984   0.70689    0.045
 3780.00    0.61740   0.71937    0.048
 3781.00    0.73735   0.72705    0.050
 3782.00    0.76370   0.72699    0.049
 3783.00    0.76247   0.71710    0.048
 3784.00    0.68239   0.69694    0.048
 3785.00    0.60578   0.66839    0.047
 3786.00    0.53764   0.63569    0.047
 3787.00    0.51380   0.60418    0.048
 3788.00    0.58332   0.57836    0.052
 3789.00    0.64963   0.56007    0.054
 3790.00    0.71007   0.54812    0.050
 3791.00    0.71403   0.53919    0.047
 3792.00    0.62758   0.52958    0.046
 3793.00    0.57427   0.51718    0.046
 3794.00    0.56751   0.50236    0.046
 3795.00    0.53855   0.48757    0.046
 3796.00    0.48215   0.47634    0.044
 3797.00    0.42557   0.47238    0.044
 3798.00    0.36879   0.47857    0.044
 3799.00    0.39205   0.49575    0.045
 3800.00    0.49223   0.52214    0.046
 3801.00    0.50261   0.55342    0.046
 3802.00    0.43690   0.58411    0.045
 3803.00    0.44716   0.60931    0.045
 3804.00    0.51411   0.62635    0.046
 3805.00    0.56718   0.63567    0.046
 3806.00    0.61116   0.64023    0.046
 3807.00    0.65135   0.64332    0.047
 3808.00    0.68937   0.64631    0.049
 3809.00    0.71146   0.64782    0.050
 3810.00    0.72559   0.64455    0.052
 3811.00    0.61994   0.63353    0.051
 3812.00    0.46248   0.61416    0.048
 3813.00    0.46826   0.58899    0.046
 3814.00    0.53459   0.56262    0.045
 3815.00    0.64597   0.53932    0.045
 3816.00    0.77153   0.52107    0.046
 3817.00    0.64275   0.50732    0.048
 3818.00    0.44725   0.49609    0.050
 3819.00    0.45899   0.48565    0.047
 3820.00    0.51514   0.47529    0.044
 3821.00    0.47132   0.46471    0.043
 3822.00    0.41053   0.45355    0.043
 3823.00    0.33114   0.44146    0.042
 3824.00    0.24937   0.42863    0.042
 3825.00    0.27074   0.41605    0.041
 3826.00    0.30136   0.40517    0.041
 3827.00    0.32261   0.39710    0.044
 3828.00    0.34336   0.39162    0.048
 3829.00    0.34148   0.38705    0.047
 3830.00    0.33921   0.38144    0.046
 3831.00    0.34135   0.37410    0.045
 3832.00    0.34443   0.36609    0.044
 3833.00    0.36829   0.35933    0.044
 3834.00    0.39616   0.35540    0.044
 3835.00    0.47371   0.35489    0.045
 3836.00    0.54878   0.35766    0.047
 3837.00    0.60292   0.36356    0.057
 3838.00    0.64917   0.37330    0.068
 3839.00    0.64580   0.38834    0.054
 3840.00    0.62675   0.40977    0.046
 3841.00    0.53036   0.43707    0.044
 3842.00    0.43448   0.46761    0.043
 3843.00    0.34060   0.49729    0.043
 3844.00    0.28287   0.52233    0.043
 3845.00    0.34537   0.54046    0.044
 3846.00    0.40786   0.55117    0.045
 3847.00    0.47032   0.55579    0.000
 3848.00    0.50435   0.55649    0.000
 3849.00    0.47009   0.55535    0.000
 3850.00    0.43328   0.55382    0.000
 3851.00    0.39117   0.55209    0.000
 3852.00    0.38621   0.54933    0.000
 3853.00    0.44827   0.54447    0.000
 3854.00    0.49664   0.53657    0.000
 3855.00    0.52343   0.52550    0.000
 3856.00    0.49648   0.51288    0.000
 3857.00    0.39515   0.50170    0.000
 3858.00    0.30709   0.49507    0.000
 3859.00    0.23519   0.49554    0.000
 3860.00    0.30493   0.50413    0.000
 3861.00    0.52681   0.51942    0.000
 3862.00    0.68797   0.53791    0.000
 3863.00    0.79162   0.55502    0.000
 3864.00    0.77998   0.56659    0.000
 3865.00    0.67203   0.57037    0.000
 3866.00    0.67746   0.56664    0.000
 3867.00    0.76627   0.55744    0.000
 3868.00    0.80219   0.54543    0.000
 3869.00    0.80395   0.53341    0.000
 3870.00    0.72339   0.52415    0.000
 3871.00    0.59630   0.52012    0.000
 3872.00    0.54677   0.52243    0.000
 3873.00    0.53541   0.52979    0.000
 3874.00    0.49879   0.53869    0.000
 3875.00    0.45145   0.54472    0.000
 3876.00    0.43997   0.54481    0.000
 3877.00    0.44155   0.53857    0.000
 3878.00    0.41855   0.52841    0.000
 3879.00    0.38796   0.51808    0.000
 3880.00    0.39265   0.51045    0.000
 3881.00    0.40638   0.50632    0.040
 3882.00    0.53624   0.50423    0.042
 3883.00    0.69037   0.50184    0.043
 3884.00    0.63548   0.49808    0.045
 3885.00    0.54613   0.49388    0.048
 3886.00    0.54914   0.49146    0.046
 3887.00    0.56358   0.49383    0.045
 3888.00    0.52851   0.50424    0.043
 3889.00    0.48919   0.52410    0.042
 3890.00    0.47737   0.55098    0.042
 3891.00    0.46693   0.58003    0.042
 3892.00    0.42651   0.60665    0.042
 3893.00    0.38781   0.62762    0.041
 3894.00    0.49183   0.64185    0.042
 3895.00    0.58672   0.65051    0.042
 3896.00    0.49480   0.65584    0.041
 3897.00    0.42096   0.65977    0.041
 3898.00    0.56103   0.66328    0.041
 3899.00    0.68114   0.66612    0.041
 3900.00    0.63858   0.66740    0.040
 3901.00    0.60677   0.66687    0.039
 3902.00    0.64057   0.66515    0.039
 3903.00    0.66627   0.66338    0.038
 3904.00    0.65300   0.66340    0.036
 3905.00    0.64864   0.66818    0.035
 3906.00    0.67918   0.68024    0.036
 3907.00    0.70119   0.69919    0.037
 3908.00    0.69537   0.72262    0.038
 3909.00    0.69241   0.74694    0.039
 3910.00    0.69734   0.76780    0.040
 3911.00    0.70218   0.78210    0.041
 3912.00    0.70683   0.78890    0.041
 3913.00    0.70653   0.78855    0.040
 3914.00    0.69614   0.78159    0.041
 3915.00    0.69896   0.76854    0.042
 3916.00    0.72527   0.75051    0.042
 3917.00    0.74707   0.72888    0.042
 3918.00    0.76187   0.70521    0.043
 3919.00    0.78109   0.68177    0.043
 3920.00    0.80636   0.66071    0.043
 3921.00    0.78078   0.64307    0.043
 3922.00    0.69413   0.62854    0.042
 3923.00    0.65323   0.61501    0.042
 3924.00    0.66078   0.59883    0.042
 3925.00    0.62109   0.57628    0.042
 3926.00    0.53728   0.54547    0.043
 3927.00    0.44591   0.50687    0.043
 3928.00    0.34832   0.46328    0.042
 3929.00    0.36923   0.41873    0.042
 3930.00    0.47604   0.37726    0.044
 3931.00    0.52200   0.34282    0.045
 3932.00    0.52923   0.31873    0.045
 3933.00    0.52404   0.30763    0.044
 3934.00    0.51194   0.31108    0.043
 3935.00    0.45941   0.32896    0.042
 3936.00    0.38733   0.35908    0.043
 3937.00    0.48364   0.39731    0.043
 3938.00    0.65037   0.43846    0.044
 3939.00    0.66826   0.47764    0.044
 3940.00    0.63293   0.51170    0.045
 3941.00    0.58671   0.53989    0.044
 3942.00    0.53720   0.56348    0.044
 3943.00    0.56415   0.58514    0.044
 3944.00    0.61031   0.60762    0.043
 3945.00    0.62471   0.63208    0.043
 3946.00    0.63263   0.65811    0.043
 3947.00    0.72050   0.68425    0.044
 3948.00    0.82118   0.70784    0.044
 3949.00    0.78823   0.72691    0.044
 3950.00    0.73933   0.74171    0.044
 3951.00    0.72593   0.75278    0.044
 3952.00    0.71542   0.75945    0.045
 3953.00    0.61574   0.76098    0.044
 3954.00    0.51196   0.75763    0.043
 3955.00    0.60043   0.75017    0.043
 3956.00    0.69202   0.73785    0.044
 3957.00    0.81857   0.71867    0.044
 3958.00    0.93332   0.69212    0.045
 3959.00    0.82465   0.65883    0.044
 3960.00    0.72021   0.61884    0.000
 3961.00    0.66351   0.57283    0.000
 3962.00    0.60967   0.52323    0.000
 3963.00    0.57839   0.47375    0.000
 3964.00    0.53382   0.42766    0.000
 3965.00    0.41036   0.38630    0.000
 3966.00    0.30704   0.35076    0.000
 3967.00    0.29823   0.32381    0.000
 3968.00    0.29934   0.30926    0.000
 3969.00    0.33845   0.31008    0.000
 3970.00    0.37673   0.32714    0.000
 3971.00    0.41230   0.35901    0.000
 3972.00    0.48639   0.40262    0.000
 3973.00    0.66476   0.45413    0.000
 3974.00    0.81865   0.50984    0.000
 3975.00    0.91570   0.56664    0.000
 3976.00    0.91851   0.62200    0.000
 3977.00    0.73202   0.67347    0.000
 3978.00    0.61704   0.71880    0.000
 3979.00    0.62712   0.75651    0.000
 3980.00    0.67374   0.78601    0.000
 3981.00    0.77629   0.80766    0.044
 3982.00    0.81580   0.82326    0.044
 3983.00    0.77055   0.83570    0.044
 3984.00    0.85730   0.84805    0.044
 3985.00    1.10037   0.86194    0.045
 3986.00    1.15578   0.87707    0.045
 3987.00    1.01524   0.89212    0.045
 3988.00    0.96075   0.90574    0.044
 3989.00    0.98553   0.91734    0.044
 3990.00    1.00474   0.92634    0.044
 3991.00    1.01943   0.93215    0.043
 3992.00    0.95487   0.93533    0.043
 3993.00    0.83369   0.93629    0.043
 3994.00    0.88197   0.93506    0.043
 3995.00    1.03649   0.93299    0.043
 3996.00    1.08325   0.93282    0.043
 3997.00    1.07096   0.93721    0.043
 3998.00    1.05856   0.94691    0.043
 3999.00    1.04611   0.96029    0.042
 4000.00    1.13051   0.97371    0.043
 4001.00    1.25471   0.98230    0.043
 4002.00    1.20977   0.98242    0.043
 4003.00    1.10541   0.97480    0.043
 4004.00    1.04286   0.96354    0.043
 4005.00    0.99270   0.95333    0.043
 4006.00    1.02944   0.94871    0.044
 4007.00    1.08753   0.95338    0.044
 4008.00    1.08788   0.96737    0.044
 4009.00    1.07674   0.98587    0.044
 4010.00    1.18359   1.00360    0.043
 4011.00    1.30877   1.01831    0.043
 4012.00    1.24581   1.03002    0.043
 4013.00    1.16122   1.03929    0.042
 4014.00    1.05762   1.04664    0.042
 4015.00    0.95255   1.05241    0.043
 4016.00    0.98329   1.05685    0.043
 4017.00    1.01976   1.05999    0.044
 4018.00    0.97181   1.06159    0.043
 4019.00    0.92351   1.06202    0.043
 4020.00    0.89406   1.06171    0.042
 4021.00    0.87490   1.05990    0.042
 4022.00    1.03724   1.05668    0.043
 4023.00    1.17582   1.05391    0.043
 4024.00    1.05880   1.05265    0.043
 4025.00    0.96237   1.05169    0.043
 4026.00    1.02235   1.04863    0.043
 4027.00    1.06781   1.04059    0.043
 4028.00    1.02958   1.02455    0.043
 4029.00    0.96814   0.99982    0.044
 4030.00    0.80030   0.96986    0.043
 4031.00    0.71156   0.94154    0.042
 4032.00    0.91954   0.92349    0.042
 4033.00    1.09247   0.92200    0.042
 4034.00    1.15547   0.93725    0.042
 4035.00    1.15839   0.96493    0.042
 4036.00    1.00146   0.99851    0.041
 4037.00    0.90144   1.03005    0.041
 4038.00    0.93138   1.05212    0.041
 4039.00    0.96722   1.05971    0.042
 4040.00    1.01472   1.05156    0.042
 4041.00    1.03275   1.03008    0.043
 4042.00    1.00000   1.00011    0.043
 4043.00    0.97933   0.96759    0.043
 4044.00    0.97687   0.93836    0.043
 4045.00    0.93540   0.91855    0.043
 4046.00    0.84223   0.91446    0.043
 4047.00    0.80124   0.92915    0.043
 4048.00    0.82116   0.95809    0.043
 4049.00    0.93514   0.99005    0.043
 4050.00    1.14595   1.01425    0.043
 4051.00    1.21289   1.02610    0.044
 4052.00    1.14919   1.02553    0.043
 4053.00    1.06557   1.01491    0.043
 4054.00    0.96601   0.99881    0.043
 4055.00    0.94274   0.98193    0.043
 4056.00    0.97319   0.96746    0.043
 4057.00    1.04117   0.95669    0.043
 4058.00    1.13233   0.94853    0.043
 4059.00    1.09669   0.94115    0.043
 4060.00    0.99262   0.93351    0.043
 4061.00    0.92758   0.92437    0.065
 4062.00    0.88083   0.91335    0.291
 4063.00    0.89137   0.90315   -1.000
 4064.00    0.92506   0.89896   -1.000
 4065.00    0.91352   0.90515   -1.000
 4066.00    0.88640   0.92049   -1.000
 4067.00    0.88279   0.93799   -1.000
 4068.00    0.88600   0.95189   -1.000
 4069.00    0.87228   0.96093   -1.000
 4070.00    0.85451   0.96448   -1.000
 4071.00    0.95618   0.96150   -1.000
 4072.00    1.08101   0.95367   -1.000
 4073.00    1.13857   0.94569   -1.000
 4074.00    1.18599   0.94016   -1.000
 4075.00    1.10512   0.93539    0.091
 4076.00    1.01006   0.93127    0.043
 4077.00    1.01308   0.93176    0.042
 4078.00    1.02328   0.94122    0.042
 4079.00    0.88688   0.96048    0.042
 4080.00    0.74488   0.98545    0.042
 4081.00    0.74693   1.00956    0.041
 4082.00    0.75613   1.02816    0.041
 4083.00    1.00475   1.04020    0.041
 4084.00    1.23715   1.04861    0.041
 4085.00    1.20204   1.05788    0.041
 4086.00    1.15949   1.07002    0.041
 4087.00    1.04031   1.08369    0.041
 4088.00    0.93042   1.09556    0.041
 4089.00    0.88869   1.10151    0.041
 4090.00    0.86476   1.09855    0.041
 4091.00    0.94067   1.08664    0.041
 4092.00    1.00849   1.06768    0.000
 4093.00    1.04017   1.04353    0.000
 4094.00    1.03457   1.01572    0.000
 4095.00    0.89202   0.98482    0.000
 4096.00    0.79911   0.95099    0.000
 4097.00    0.85884   0.91702    0.000
 4098.00    0.89776   0.88659    0.000
 4099.00    0.88231   0.86169    0.000
 4100.00    0.86982   0.84385    0.000
 4101.00    0.86395   0.83522    0.000
 4102.00    0.83902   0.83845    0.000
 4103.00    0.77699   0.85502    0.000
 4104.00    0.79335   0.88177    0.000
 4105.00    0.94271   0.91169    0.000
 4106.00    1.06307   0.93889    0.000
 4107.00    1.14030   0.96009    0.000
 4108.00    1.19848   0.97403    0.000
 4109.00    1.23179   0.98240    0.000
 4110.00    1.18079   0.98867    0.000
 4111.00    1.03275   0.99589    0.000
 4112.00    0.93812   1.00563    0.000
 4113.00    0.89773   1.01725    0.040
 4114.00    0.95203   1.02843    0.040
 4115.00    1.09111   1.03612    0.041
 4116.00    1.16121   1.03849    0.041
 4117.00    1.17688   1.03608    0.041
 4118.00    1.13268   1.03036    0.058
 4119.00    1.04694   1.02349    0.211
 4120.00    0.99608   1.01898   -1.000
 4121.00    0.96645   1.01893   -1.000
 4122.00    0.99989   1.02134   -1.000
 4123.00    1.06685   1.02362   -1.000
 4124.00    1.03331   1.02482   -1.000
 4125.00    0.95342   1.02390   -1.000
 4126.00    1.00039   1.01872    0.111
 4127.00    1.09773   1.00786    0.046
 4128.00    1.11396   0.99286    0.040
 4129.00    1.10274   0.97680    0.040
 4130.00    1.03124   0.96256    0.040
 4131.00    0.94259   0.95236    0.040
 4132.00    0.91056   0.94825    0.040
 4133.00    0.89183   0.95232    0.039
 4134.00    0.94820   0.96596    0.039
 4135.00    1.01874   0.98657    0.040
 4136.00    1.02729   1.00884    0.040
 4137.00    1.02679   1.02646    0.041
 4138.00    1.04449   1.03406    0.040
 4139.00    1.06412   1.03077    0.040
 4140.00    1.10449   1.01810    0.040
 4141.00    1.14630   0.99865    0.040
 4142.00    1.08386   0.97684    0.041
 4143.00    1.01783   0.95780    0.041
 4144.00    1.13292   0.94705    0.041
 4145.00    1.24360   0.94806    0.041
 4146.00    1.19632   0.95779    0.041
 4147.00    1.15188   0.96842    0.041
 4148.00    1.15120   0.97471    0.041
 4149.00    1.13663   0.97569    0.041
 4150.00    0.98507   0.97219    0.040
 4151.00    0.86134   0.96668    0.040
 4152.00    0.93519   0.96163    0.040
 4153.00    1.00237   0.95797    0.040
 4154.00    1.03310   0.95688    0.040
 4155.00    1.02743   0.95987    0.040
 4156.00    0.86262   0.96834    0.039
 4157.00    0.71981   0.98199    0.039
 4158.00    0.65608   0.99951    0.038
 4159.00    0.64418   1.01917    0.037
 4160.00    0.78867   1.03735    0.038
 4161.00    0.89271   1.05077    0.038
 4162.00    0.89286   1.05848    0.039
 4163.00    0.92374   1.06099    0.039
 4164.00    1.02254   1.05760    0.039
 4165.00    1.06966   1.04838    0.039
 4166.00    1.01778   1.03601    0.039
 4167.00    1.02308   1.02226    0.039
 4168.00    1.12396   1.00745    0.039
 4169.00    1.15372   0.99271    0.039
 4170.00    1.07931   0.97782    0.039
 4171.00    1.01547   0.96114    0.039
 4172.00    0.96524   0.94358    0.039
 4173.00    0.91124   0.92885    0.039
 4174.00    0.85295   0.92142    0.039
 4175.00    0.88499   0.92211    0.039
 4176.00    1.00744   0.92771    0.039
 4177.00    1.06968   0.93507    0.039
 4178.00    1.07877   0.94306    0.039
 4179.00    1.02944   0.95201    0.039
 4180.00    0.93469   0.96190    0.038
 4181.00    0.92030   0.97096    0.038
 4182.00    0.96088   0.97781    0.038
 4183.00    0.97308   0.98334    0.038
 4184.00    0.96827   0.98871    0.038
 4185.00    0.89497   0.99331    0.038
 4186.00    0.78585   0.99628    0.038
 4187.00    0.84828   0.99716    0.038
 4188.00    0.98852   0.99835    0.038
 4189.00    1.03629   1.00411    0.038
 4190.00    1.04797   1.01308    0.038
 4191.00    0.98950   1.01929    0.038
 4192.00    0.90773   1.01964    0.038
 4193.00    0.86054   1.01489    0.038
 4194.00    0.82299   1.00442    0.038
 4195.00    0.85331   0.98634    0.039
 4196.00    0.89921   0.96353    0.039
 4197.00    0.94053   0.94260    0.039
 4198.00    0.98101   0.92789    0.039
 4199.00    0.98177   0.92058    0.039
 4200.00    0.97690   0.92181    0.039
 4201.00    1.05871   0.93108    0.038
 4202.00    1.14935   0.94556    0.038
 4203.00    1.06671   0.96465    0.038
 4204.00    0.97278   0.98835    0.038
 4205.00    0.95328   1.01291    0.037
 4206.00    0.93617   1.03483    0.037
 4207.00    0.98141   1.05268    0.037
 4208.00    1.02420   1.06481    0.038
 4209.00    0.99524   1.07011    0.038
 4210.00    0.97294   1.06868    0.038
 4211.00    1.04774   1.06296    0.040
 4212.00    1.10371   1.05654    0.042
 4213.00    0.98168   1.05076    0.041
 4214.00    0.88795   1.04631    0.040
 4215.00    0.98883   1.04559    0.040
 4216.00    1.06930   1.05115    0.040
 4217.00    1.04134   1.06438    0.040
 4218.00    1.02789   1.08072    0.040
 4219.00    1.07644   1.08938    0.038
 4220.00    1.10912   1.08301    0.037
 4221.00    1.08590   1.06072    0.037
 4222.00    1.03191   1.02439    0.037
 4223.00    0.88681   0.97806    0.037
 4224.00    0.79684   0.93062    0.037
 4225.00    0.84599   0.89241    0.037
 4226.00    0.90112   0.87068    0.037
 4227.00    0.96925   0.86977    0.037
 4228.00    1.03391   0.89151    0.036
 4229.00    1.09203   0.92993    0.036
 4230.00    1.11273   0.97004    0.036
 4231.00    1.07182   1.00038    0.035
 4232.00    1.04393   1.01792    0.035
 4233.00    1.03483   1.02275    0.035
 4234.00    1.00738   1.01989    0.035
 4235.00    0.95665   1.01713    0.035
 4236.00    0.95811   1.01690    0.035
 4237.00    1.01799   1.02072    0.035
 4238.00    1.09958   1.03224    0.035
 4239.00    1.20258   1.05005    0.035
 4240.00    1.18034   1.07061    0.035
 4241.00    1.04909   1.09244    0.035
 4242.00    0.96572   1.11250    0.035
 4243.00    0.91907   1.12538    0.036
 4244.00    0.95505   1.12896    0.036
 4245.00    1.04671   1.12407    0.037
 4246.00    1.13604   1.10926    0.037
 4247.00    1.22399   1.08545    0.037
 4248.00    1.22700   1.05863    0.038
 4249.00    1.18628   1.03505    0.038
 4250.00    1.15362   1.01752    0.038
 4251.00    1.12455   1.00685    0.038
 4252.00    1.06400   1.00492    0.038
 4253.00    0.99137   1.00916    0.038
 4254.00    0.98203   1.01264    0.037
 4255.00    0.99330   1.01397    0.037
 4256.00    0.99014   1.01717    0.036
 4257.00    0.98305   1.02299    0.036
 4258.00    0.99618   1.02763    0.036
 4259.00    1.01385   1.02991    0.037
 4260.00    0.96436   1.03542    0.037
 4261.00    0.90286   1.04939    0.036
 4262.00    1.01900   1.07278    0.037
 4263.00    1.15945   1.10100    0.038
 4264.00    1.11595   1.12330    0.038
 4265.00    1.05447   1.13096    0.037
 4266.00    0.99823   1.12254    0.037
 4267.00    0.94230   1.09913    0.037
 4268.00    0.93030   1.06230    0.036
 4269.00    0.91926   1.01877    0.035
 4270.00    0.86474   0.97716    0.036
 4271.00    0.81088   0.94303    0.036
 4272.00    0.77425   0.92233    0.036
 4273.00    0.74761   0.92138    0.036
 4274.00    0.85835   0.93868    0.036
 4275.00    0.96378   0.96516    0.037
 4276.00    1.02101   0.99622    0.037
 4277.00    1.07602   1.02891    0.037
 4278.00    1.11625   1.05572    0.037
 4279.00    1.16384   1.07117    0.037
 4280.00    1.24952   1.07479    0.037
 4281.00    1.31795   1.07050    0.037
 4282.00    1.31438   1.06402   -2.000
 4283.00    1.26224   1.05553   -2.000
 4284.00    1.04243   1.04312   -2.000
 4285.00    0.83026   1.02686   -2.000
 4286.00    0.64029   1.00742   -2.000
 4287.00    0.56368   0.98882   -2.000
 4288.00    0.76824   0.97372   -2.000
 4289.00    0.98329   0.96140   -2.000
 4290.00    1.22073   0.95294   -2.000
 4291.00    1.32095   0.95242   -2.000
 4292.00    1.16638   0.95948   -2.000
 4293.00    1.05752   0.96639   -2.000
 4294.00    1.02280   0.96470   -2.000
 4295.00    0.97735   0.95128   -2.000
 4296.00    0.91665   0.92979   -2.000
 4297.00    0.84533   0.90245   -2.000
 4298.00    0.76069   0.87050    0.037
 4299.00    0.71941   0.83827    0.037
 4300.00    0.72595   0.81040    0.037
 4301.00    0.75151   0.79158    0.037
 4302.00    0.79558   0.78144    0.037
 4303.00    0.85309   0.77414    0.037
 4304.00    0.92214   0.76766    0.036
 4305.00    0.90489   0.76279    0.037
 4306.00    0.82243   0.75893    0.038
 4307.00    0.79947   0.75840    0.038
 4308.00    0.81603   0.76511    0.038
 4309.00    0.88946   0.78318    0.038
 4310.00    0.99597   0.81685    0.039
 4311.00    1.00177   0.86523    0.038
 4312.00    0.95652   0.92355    0.036
 4313.00    0.96188   0.98721    0.035
 4314.00    0.98943   1.05184    0.035
 4315.00    0.98836   1.11258    0.035
 4316.00    0.97650   1.16612    0.036
 4317.00    1.04280   1.20689    0.036
 4318.00    1.13410   1.22559    0.036
 4319.00    1.20060   1.21983    0.036
 4320.00    1.26049   1.19469    0.036
 4321.00    1.21672   1.15648    0.036
 4322.00    1.15028   1.11294    0.036
 4323.00    1.07220   1.07231    0.036
 4324.00    0.99211   1.03943    0.036
 4325.00    1.03257   1.02098    0.036
 4326.00    1.08897   1.02367    0.036
 4327.00    1.07948   1.04910    0.036
 4328.00    1.06384   1.09096    0.036
 4329.00    1.20123   1.13538    0.036
 4330.00    1.34737   1.17052    0.000
 4331.00    1.26707   1.19247    0.000
 4332.00    1.18165   1.20243    0.000
 4333.00    1.11406   1.20030    0.000
 4334.00    1.04915   1.18353    0.000
 4335.00    1.04891   1.15294    0.000
 4336.00    1.04791   1.11241    0.000
 4337.00    1.03695   1.06567    0.000
 4338.00    1.03164   1.01976    0.000
 4339.00    1.07573   0.98672    0.000
 4340.00    1.11178   0.97301    0.000
 4341.00    1.09588   0.97799    0.000
 4342.00    1.09390   1.00142    0.000
 4343.00    1.16208   1.03794    0.000
 4344.00    1.20750   1.07661    0.000
 4345.00    1.16007   1.11134    0.000
 4346.00    1.14875   1.13966    0.000
 4347.00    1.25964   1.15704    0.000
 4348.00    1.31776   1.16328    0.000
 4349.00    1.22526   1.16235    0.000
 4350.00    1.16249   1.15508    0.000
 4351.00    1.17217   1.14156    0.036
 4352.00    1.18074   1.12843    0.044
 4353.00    1.18699   1.12617    0.111
 4354.00    1.17256   1.13718   -1.000
 4355.00    1.12033   1.15435   -1.000
 4356.00    1.07709   1.17270   -1.000
 4357.00    1.04823   1.19184   -1.000
 4358.00    1.03171   1.20964   -1.000
 4359.00    1.03249   1.22442   -1.000
 4360.00    1.08822   1.23937    0.159
 4361.00    1.21175   1.25722    0.049
 4362.00    1.32796   1.27409    0.036
 4363.00    1.43621   1.28448    0.036
 4364.00    1.40901   1.28794    0.036
 4365.00    1.25189   1.28649    0.036
 4366.00    1.20680   1.27888    0.036
 4367.00    1.25648   1.26333    0.036
 4368.00    1.23136   1.24300    0.036
 4369.00    1.15051   1.22328    0.036
 4370.00    1.13380   1.20581    0.036
 4371.00    1.15905   1.18951    0.036
 4372.00    1.14539   1.17531    0.036
 4373.00    1.10942   1.16379    0.036
 4374.00    1.10543   1.15415    0.036
 4375.00    1.11739   1.14777    0.036
 4376.00    1.14540   1.14704    0.036
 4377.00    1.18034   1.14876    0.036
 4378.00    1.15212   1.14400    0.036
 4379.00    1.10054   1.12599    0.035
 4380.00    1.03847   1.09591    0.035
 4381.00    0.97311   1.06006    0.035
 4382.00    0.96885   1.02425    0.035
 4383.00    0.98057   0.99215    0.035
 4384.00    1.02706   0.97102    0.035
 4385.00    1.08098   0.97048    0.035
 4386.00    1.11167   0.99088    0.035
 4387.00    1.13844   1.02090    0.035
 4388.00    1.13088   1.04909    0.035
 4389.00    1.11894   1.07239    0.035
 4390.00    1.15097   1.09266    0.035
 4391.00    1.18693   1.11199    0.035
 4392.00    1.18015   1.13220    0.035
 4393.00    1.17110   1.15216    0.035
 4394.00    1.16616   1.16879    0.035
 4395.00    1.16094   1.18098    0.035
 4396.00    1.12581   1.19148    0.035
 4397.00    1.09556   1.20171    0.035
 4398.00    1.17223   1.20489    0.035
 4399.00    1.23373   1.19397    0.036
 4400.00    1.10768   1.17211    0.036
 4401.00    1.00545   1.14721    0.036
 4402.00    1.10372   1.12521    0.036
 4403.00    1.18387   1.10622    0.036
 4404.00    1.15050   1.08744    0.036
 4405.00    1.12090   1.07464    0.036
 4406.00    1.10992   1.07903    0.036
 4407.00    1.11311   1.10068    0.036
 4408.00    1.17290   1.12857    0.036
 4409.00    1.21710   1.15592    0.035
 4410.00    1.20959   1.18225    0.036
 4411.00    1.20518   1.20448    0.036
 4412.00    1.20943   1.21745    0.036
 4413.00    1.23550   1.22091    0.036
 4414.00    1.31386   1.21768    0.036
 4415.00    1.35307   1.21132    0.036
 4416.00    1.31128   1.20952    0.036
 4417.00    1.28134   1.21694    0.036
 4418.00    1.27274   1.22899    0.036
 4419.00    1.26888   1.24057    0.036
 4420.00    1.27246   1.24867    0.035
 4421.00    1.26794   1.25017    0.035
 4422.00    1.25221   1.24532    0.036
 4423.00    1.23449   1.23912    0.036
 4424.00    1.21437   1.23636    0.035
 4425.00    1.17359   1.23592    0.035
 4426.00    1.11067   1.23477    0.036
 4427.00    1.12063   1.23325    0.036
 4428.00    1.19953   1.23169    0.036
 4429.00    1.25948   1.22809    0.036
 4430.00    1.30363   1.21961    0.036
 4431.00    1.33255   1.20842    0.037
 4432.00    1.35028   1.20158    0.037
 4433.00    1.33816   1.19958    0.037
 4434.00    1.30681   1.19911    0.036
 4435.00    1.20266   1.20161    0.036
 4436.00    1.05746   1.21031    0.036
 4437.00    1.08103   1.22545    0.036
 4438.00    1.18745   1.24168    0.036
 4439.00    1.30815   1.25286    0.037
 4440.00    1.43491   1.25772    0.037
 4441.00    1.38490   1.25724    0.037
 4442.00    1.27064   1.25499    0.037
 4443.00    1.20842   1.25693    0.037
 4444.00    1.16221   1.26645    0.037
 4445.00    1.21113   1.28198    0.037
 4446.00    1.28441   1.29814    0.037
 4447.00    1.31993   1.30858    0.036
 4448.00    1.34757   1.31140    0.036
 4449.00    1.41137   1.30784    0.036
 4450.00    1.48113   1.29562    0.036
 4451.00    1.36253   1.27480    0.036
 4452.00    1.22072   1.25043    0.036
 4453.00    1.24146   1.22366    0.036
 4454.00    1.27602   1.19409    0.036
 4455.00    1.20318   1.16532    0.035
 4456.00    1.12503   1.14279    0.035
 4457.00    1.21667   1.12972    0.035
 4458.00    1.30852   1.12441    0.035
 4459.00    1.24479   1.12438    0.035
 4460.00    1.18742   1.12989    0.035
 4461.00    1.25904   1.14077    0.000
 4462.00    1.32052   1.15541    0.000
 4463.00    1.26268   1.17436    0.000
 4464.00    1.22143   1.19572    0.000
 4465.00    1.31462   1.21286    0.000
 4466.00    1.40018   1.22473    0.000
 4467.00    1.43928   1.23574    0.000
 4468.00    1.44760   1.24803    0.000
 4469.00    1.30827   1.26138    0.000
 4470.00    1.19553   1.27623    0.000
 4471.00    1.18661   1.29524    0.000
 4472.00    1.20481   1.31831    0.000
 4473.00    1.31119   1.34168    0.000
 4474.00    1.37851   1.36059    0.000
 4475.00    1.33838   1.37061    0.000
 4476.00    1.29138   1.37111    0.000
 4477.00    1.22817   1.36548    0.000
 4478.00    1.19239   1.35568    0.000
 4479.00    1.21244   1.34141    0.000
 4480.00    1.25202   1.32525    0.000
 4481.00    1.32620   1.31387    0.000
 4482.00    1.32740   1.31250    0.035
 4483.00    1.21541   1.32061    0.035
 4484.00    1.20623   1.33296    0.035
 4485.00    1.33708   1.34297    0.035
 4486.00    1.43039   1.34733    0.035
 4487.00    1.47870   1.34590    0.036
 4488.00    1.41000   1.33798    0.036
 4489.00    1.21760   1.32448    0.035
 4490.00    1.17725   1.31000    0.035
 4491.00    1.27868   1.29999    0.035
 4492.00    1.36052   1.29582    0.035
 4493.00    1.42625   1.29460    0.035
 4494.00    1.40065   1.29389    0.035
 4495.00    1.30897   1.29565    0.036
 4496.00    1.25764   1.30411    0.035
 4497.00    1.23195   1.31960    0.035
 4498.00    1.27606   1.34050    0.035
 4499.00    1.35893   1.36447    0.035
 4500.00    1.32242   1.38776    0.035
 4501.00    1.22824   1.40822    0.035
 4502.00    1.29018   1.42669    0.035
 4503.00    1.41725   1.44601    0.035
 4504.00    1.46395   1.46406    0.035
 4505.00    1.48196   1.47490    0.035
 4506.00    1.43767   1.47773    0.035
 4507.00    1.37459   1.47493    0.035
 4508.00    1.37334   1.46843    0.035
 4509.00    1.38758   1.45971    0.036
 4510.00    1.42917   1.44939    0.035
 4511.00    1.47631   1.43766    0.035
 4512.00    1.46737   1.42395    0.035
 4513.00    1.44950   1.40883    0.035
 4514.00    1.41771   1.39591    0.035
 4515.00    1.38428   1.38844    0.035
 4516.00    1.37628   1.38677    0.035
 4517.00    1.37035   1.38778    0.035
 4518.00    1.34704   1.38740    0.035
 4519.00    1.32294   1.38634    0.035
 4520.00    1.32662   1.38521    0.035
 4521.00    1.33029   1.37907    0.035
 4522.00    1.31550   1.36347    0.035
 4523.00    1.30117   1.33819    0.035
 4524.00    1.29534   1.30861    0.035
 4525.00    1.28293   1.27934    0.035
 4526.00    1.19686   1.25032    0.035
 4527.00    1.12362   1.22440    0.035
 4528.00    1.15073   1.20587    0.035
 4529.00    1.18200   1.19576    0.034
 4530.00    1.23796   1.19338    0.034
 4531.00    1.28733   1.19781    0.034
 4532.00    1.30585   1.20928    0.035
 4533.00    1.32716   1.22655    0.035
 4534.00    1.35910   1.24415    0.035
 4535.00    1.37552   1.26104    0.034
 4536.00    1.34244   1.28067    0.035
 4537.00    1.32556   1.30441    0.035
 4538.00    1.35245   1.32718    0.035
 4539.00    1.37016   1.34065    0.035
 4540.00    1.36662   1.34421    0.035
 4541.00    1.35069   1.34345    0.035
 4542.00    1.30994   1.34295    0.034
 4543.00    1.26212   1.34258    0.034
 4544.00    1.20196   1.33797    0.035
 4545.00    1.19583   1.32822    0.035
 4546.00    1.27224   1.31947    0.035
 4547.00    1.33665   1.31510    0.034
 4548.00    1.38495   1.31113    0.035
 4549.00    1.39692   1.30489    0.035
 4550.00    1.36595   1.29919    0.000
 4551.00    1.34500   1.29910    0.000
 4552.00    1.33451   1.30421    0.000
 4553.00    1.33559   1.31102    0.000
 4554.00    1.34732   1.32020    0.000
 4555.00    1.33695   1.33335    0.000
 4556.00    1.30866   1.35100    0.000
 4557.00    1.30016   1.37207    0.000
 4558.00    1.30578   1.39150    0.000
 4559.00    1.39027   1.40336    0.000
 4560.00    1.52411   1.40678    0.000
 4561.00    1.50833   1.40490    0.000
 4562.00    1.41071   1.40125    0.000
 4563.00    1.36063   1.39631    0.000
 4564.00    1.33314   1.38951    0.000
 4565.00    1.29363   1.38479    0.000
 4566.00    1.24918   1.38591    0.000
 4567.00    1.31305   1.39147    0.000
 4568.00    1.41487   1.39875    0.000
 4569.00    1.46935   1.40492    0.000
 4570.00    1.50984   1.40809    0.000
 4571.00    1.48916   1.40810    0.000
 4572.00    1.45350   1.40731    0.000
 4573.00    1.28468   1.40973    0.000
 4574.00    1.08946   1.41215    0.000
 4575.00    1.21263   1.40706    0.000
 4576.00    1.38508   1.39548    0.000
 4577.00    1.37969   1.38271    0.000
 4578.00    1.35395   1.36936    0.000
 4579.00    1.34761   1.35346    0.000
 4580.00    1.34275   1.33660    0.000
 4581.00    1.45521   1.32432    0.000
 4582.00    1.57256   1.32004    0.000
 4583.00    1.48778   1.32277    0.000
 4584.00    1.40288   1.32913    0.000
 4585.00    1.38833   1.33773    0.000
 4586.00    1.37709   1.34787    0.000
 4587.00    1.42386   1.35807    0.000
 4588.00    1.46061   1.36747    0.000
 4589.00    1.39021   1.37345    0.000
 4590.00    1.31131   1.37284    0.000
 4591.00    1.16810   1.36520    0.000
 4592.00    1.07662   1.35412    0.000
 4593.00    1.28249   1.34399    0.000
 4594.00    1.43352   1.33641    0.000
 4595.00    1.33406   1.33052    0.000
 4596.00    1.27413   1.32561    0.000
 4597.00    1.36211   1.32394    0.000
 4598.00    1.40952   1.32619    0.000
 4599.00    1.33001   1.33024    0.000
 4600.00    1.28488   1.33393    0.000
 4601.00    1.33100   1.33666    0.000
 4602.00    1.36980   1.34269    0.000
 4603.00    1.39188   1.35364    0.000
 4604.00    1.40957   1.36732    0.000
 4605.00    1.41862   1.38249    0.000
 4606.00    1.39823   1.39854    0.000
 4607.00    1.32722   1.41593    0.000
 4608.00    1.31066   1.43329    0.000
 4609.00    1.37610   1.44689    0.000
 4610.00    1.39605   1.45440    0.000
 4611.00    1.35582   1.45626    0.000
 4612.00    1.33225   1.45507    0.000
 4613.00    1.32809   1.45408    0.000
 4614.00    1.36377   1.45386    0.000
 4615.00    1.44038   1.45423    0.000
 4616.00    1.47975   1.45570    0.000
 4617.00    1.48538   1.45794    0.000
 4618.00    1.46960   1.46007    0.000
 4619.00    1.43672   1.46077    0.000
 4620.00    1.39857   1.46095    0.000
 4621.00    1.35671   1.46207    0.000
 4622.00    1.38891   1.46248    0.000
 4623.00    1.46677   1.46092    0.000
 4624.00    1.45225   1.45885    0.000
 4625.00    1.38798   1.45585    0.000
 4626.00    1.43931   1.45208    0.000
 4627.00    1.54470   1.45029    0.000
 4628.00    1.53264   1.44917    0.000
 4629.00    1.47323   1.44469    0.000
 4630.00    1.52006   1.43807    0.000
 4631.00    1.60343   1.43305    0.000
 4632.00    1.51731   1.42728    0.000
 4633.00    1.38208   1.41551    0.000
 4634.00    1.33458   1.40018    0.000
 4635.00    1.30809   1.38682    0.000
 4636.00    1.35750   1.37529    0.000
 4637.00    1.42157   1.36467    0.000
 4638.00    1.37149   1.35531    0.000
 4639.00    1.30427   1.34767    0.000
 4640.00    1.33975   1.34160    0.000
 4641.00    1.38653   1.33617    0.000
 4642.00    1.36506   1.32962    0.000
 4643.00    1.33863   1.31970    0.000
 4644.00    1.32710   1.30749    0.000
 4645.00    1.31613   1.29667    0.000
 4646.00    1.31152   1.28907    0.000
 4647.00    1.30661   1.28552    0.000
 4648.00    1.28997   1.28924    0.000
 4649.00    1.27552   1.30070    0.000
 4650.00    1.29695   1.31487    0.000
 4651.00    1.32021   1.32831    0.000
 4652.00    1.36222   1.34058    0.000
 4653.00    1.39832   1.35214    0.000
 4654.00    1.39122   1.36298    0.000
 4655.00    1.37984   1.37274    0.000
 4656.00    1.34461   1.38325    0.000
 4657.00    1.30404   1.39478    0.000
 4658.00    1.23961   1.40544    0.000
 4659.00    1.21647   1.41224    0.000
 4660.00    1.34459   1.41199    0.000
 4661.00    1.43002   1.40208    0.000
 4662.00    1.38449   1.38073    0.000
 4663.00    1.34198   1.35106    0.000
 4664.00    1.30735   1.32090    0.000
 4665.00    1.29746   1.29601    0.000
 4666.00    1.34299   1.27616    0.000
 4667.00    1.34706   1.26151    0.000
 4668.00    1.27060   1.25705    0.000
 4669.00    1.22042   1.26617    0.000
 4670.00    1.21474   1.28452    0.000
 4671.00    1.25676   1.30532    0.000
 4672.00    1.36957   1.32518    0.000
 4673.00    1.41813   1.34139    0.000
 4674.00    1.38289   1.35204    0.000
 4675.00    1.34852   1.35809    0.000
 4676.00    1.31515   1.36072    0.000
 4677.00    1.30500   1.35889    0.000
 4678.00    1.31838   1.35223    0.000
 4679.00    1.31729   1.34472    0.000
 4680.00    1.30327   1.33992    0.000
 4681.00    1.29918   1.33790    0.000
 4682.00    1.30292   1.33844    0.000
 4683.00    1.28498   1.34173    0.000
 4684.00    1.25204   1.34664    0.000
 4685.00    1.26979   1.35082    0.000
 4686.00    1.31831   1.35317    0.000
 4687.00    1.35230   1.35355    0.000
 4688.00    1.37857   1.35266    0.000
 4689.00    1.36059   1.35226    0.000
 4690.00    1.32223   1.35314    0.000
 4691.00    1.33049   1.35478    0.000
 4692.00    1.35720   1.35725    0.000
 4693.00    1.35454   1.36005    0.000
 4694.00    1.34195   1.36045    0.000
 4695.00    1.35044   1.35779    0.000
 4696.00    1.36491   1.35343    0.000
 4697.00    1.34153   1.34536    0.000
 4698.00    1.30928   1.33140    0.000
 4699.00    1.28313   1.31519    0.000
 4700.00    1.25812   1.30389    0.000
 4701.00    1.23649   1.29786    0.000
 4702.00    1.21534   1.29236    0.000
 4703.00    1.30898   1.28722    0.000
 4704.00    1.41475   1.28652    0.000
 4705.00    1.39245   1.29069    0.000
 4706.00    1.36136   1.29556    0.000
 4707.00    1.28366   1.29978    0.000
 4708.00    1.20437   1.30477    0.000
 4709.00    1.25746   1.31124    0.000
 4710.00    1.31045   1.31840    0.000
 4711.00    1.35382   1.32749    0.000
 4712.00    1.39428   1.33933    0.000
 4713.00    1.39001   1.35106    0.000
 4714.00    1.38864   1.36191    0.000
 4715.00    1.41569   1.37562    0.000
 4716.00    1.44002   1.39478    0.000
 4717.00    1.44505   1.41528    0.000
 4718.00    1.44709   1.43158    0.000
 4719.00    1.43291   1.44413    0.000
 4720.00    1.42477   1.45515    0.000
 4721.00    1.44294   1.46190    0.000
 4722.00    1.46250   1.46004    0.000
 4723.00    1.48705   1.44943    0.000
 4724.00    1.49790   1.43419    0.000
 4725.00    1.46751   1.41682    0.000
 4726.00    1.45243   1.39611    0.000
 4727.00    1.47659   1.37216    0.000
 4728.00    1.47473   1.35013    0.000
 4729.00    1.41547   1.33614    0.000
 4730.00    1.38009   1.33102    0.000
 4731.00    1.39037   1.33228    0.000
 4732.00    1.43016   1.33739    0.000
 4733.00    1.51917   1.34568    0.000
 4734.00    1.53318   1.35743    0.000
 4735.00    1.43754   1.37055    0.000
 4736.00    1.39164   1.38046    0.000
 4737.00    1.40970   1.38634    0.000
 4738.00    1.45005   1.39414    0.000
 4739.00    1.51566   1.40508    0.000
 4740.00    1.47935   1.41272    0.000
 4741.00    1.34121   1.41567    0.000
 4742.00    1.31308   1.42074    0.000
 4743.00    1.38190   1.42982    0.000
 4744.00    1.45148   1.43689    0.000
 4745.00    1.52165   1.43996    0.000
 4746.00    1.49970   1.44328    0.000
 4747.00    1.41486   1.44757    0.000
 4748.00    1.38866   1.44782    0.000
 4749.00    1.39753   1.44294    0.000
 4750.00    1.41723   1.43624    0.000
 4751.00    1.44258   1.42877    0.000
 4752.00    1.46961   1.41909    0.000
 4753.00    1.49740   1.40848    0.000
 4754.00    1.47434   1.39998    0.000
 4755.00    1.43148   1.39428    0.000
 4756.00    1.43259   1.39073    0.000
 4757.00    1.44827   1.38733    0.000
 4758.00    1.42401   1.38250    0.000
 4759.00    1.38865   1.37652    0.000
 4760.00    1.35587   1.36942    0.000
 4761.00    1.32368   1.35872    0.031
 4762.00    1.35389   1.34422    0.032
 4763.00    1.39552   1.33154    0.032
 4764.00    1.36909   1.32470    0.032
 4765.00    1.33308   1.32245    0.032
 4766.00    1.32178   1.32434    0.032
 4767.00    1.31299   1.33180    0.032
 4768.00    1.37063   1.34444    0.032
 4769.00    1.43257   1.36029    0.032
 4770.00    1.42546   1.37784    0.032
 4771.00    1.41636   1.39377    0.032
 4772.00    1.45541   1.40611    0.032
 4773.00    1.49415   1.41840    0.032
 4774.00    1.52417   1.43234    0.032
 4775.00    1.54784   1.44297    0.032
 4776.00    1.47982   1.44697    0.032
 4777.00    1.41516   1.44812    0.032
 4778.00    1.38209   1.44771    0.032
 4779.00    1.35364   1.44146    0.032
 4780.00    1.35678   1.43025    0.031
 4781.00    1.36902   1.41912    0.031
 4782.00    1.42949   1.40730    0.030
 4783.00    1.46808   1.39324    0.030
 4784.00    1.41348   1.38209    0.031
 4785.00    1.36634   1.37665    0.031
 4786.00    1.34546   1.37296    0.031
 4787.00    1.34728   1.37126    0.032
 4788.00    1.41618   1.37610    0.032
 4789.00    1.47187   1.38633    0.032
 4790.00    1.49430   1.39892    0.032
 4791.00    1.51433   1.41402    0.032
 4792.00    1.52914   1.43018    0.032
 4793.00    1.52949   1.44438    0.032
 4794.00    1.50261   1.45530    0.031
 4795.00    1.47651   1.46132    0.031
 4796.00    1.45166   1.46090    0.032
 4797.00    1.46495   1.45641    0.032
 4798.00    1.53321   1.45153    0.032
 4799.00    1.54414   1.44659    0.032
 4800.00    1.48243   1.44135    0.032
 4801.00    1.44019   1.43768    0.032
 4802.00    1.41969   1.43666    0.032
 4803.00    1.46946   1.43530    0.033
 4804.00    1.58843   1.43017    0.033
 4805.00    1.58408   1.42314    0.033
 4806.00    1.47261   1.41834    0.032
 4807.00    1.42068   1.41556    0.032
 4808.00    1.41432   1.41280    0.032
 4809.00    1.42635   1.41252    0.032
 4810.00    1.45074   1.41709    0.033
 4811.00    1.47475   1.42434    0.033
 4812.00    1.49854   1.43197    0.033
 4813.00    1.49907   1.44058    0.033
 4814.00    1.48765   1.45034    0.032
 4815.00    1.47236   1.45985    0.032
 4816.00    1.45534   1.46773    0.033
 4817.00    1.44564   1.47317    0.033
 4818.00    1.43873   1.47519    0.033
 4819.00    1.41033   1.47218    0.032
 4820.00    1.37492   1.46420    0.033
 4821.00    1.36753   1.45444    0.033
 4822.00    1.36776   1.44484    0.033
 4823.00    1.34526   1.43356    0.033
 4824.00    1.31769   1.42180    0.033
 4825.00    1.35045   1.41507    0.033
 4826.00    1.39397   1.41365    0.033
 4827.00    1.43556   1.41162    0.033
 4828.00    1.47688   1.40652    0.034
 4829.00    1.42142   1.40272    0.033
 4830.00    1.35655   1.40320    0.033
 4831.00    1.38008   1.40382    0.033
 4832.00    1.40897   1.40125    0.033
 4833.00    1.36681   1.40003    0.033
 4834.00    1.32327   1.40283    0.033
 4835.00    1.37148   1.40370    0.032
 4836.00    1.41793   1.39942    0.032
 4837.00    1.41823   1.39484    0.033
 4838.00    1.41677   1.39191    0.033
 4839.00    1.39130   1.38641    0.033
 4840.00    1.36839   1.37932    0.033
 4841.00    1.36859   1.37718    0.033
 4842.00    1.36840   1.37991    0.032
 4843.00    1.36568   1.38164    0.032
 4844.00    1.35035   1.38180    0.033
 4845.00    1.26990   1.38410    0.033
 4846.00    1.23045   1.38775    0.033
 4847.00    1.36167   1.38783    0.033
 4848.00    1.46136   1.38231    0.000
 4849.00    1.45244   1.37502    0.000
 4850.00    1.42371   1.36827    0.000
 4851.00    1.33752   1.35709    0.000
 4852.00    1.27690   1.33902    0.000
 4853.00    1.27957   1.31951    0.000
 4854.00    1.27850   1.29900    0.000
 4855.00    1.26947   1.27227    0.000
 4856.00    1.26574   1.24128    0.000
 4857.00    1.27184   1.21195    0.000
 4858.00    1.26005   1.18555    0.000
 4859.00    1.21931   1.16274    0.000
 4860.00    1.23020   1.14522    0.000
 4861.00    1.31441   1.13505    0.000
 4862.00    1.29954   1.13754    0.000
 4863.00    1.16086   1.15300    0.000
 4864.00    1.11526   1.17240    0.000
 4865.00    1.17214   1.19145    0.000
 4866.00    1.27552   1.21175    0.000
 4867.00    1.42405   1.22752    0.000
 4868.00    1.41575   1.23408    0.000
 4869.00    1.27314   1.23826    0.000
 4870.00    1.22886   1.24323    0.000
 4871.00    1.25876   1.24426    0.000
 4872.00    1.33940   1.24616    0.000
 4873.00    1.45367   1.25814    0.000
 4874.00    1.43573   1.27605    0.000
 4875.00    1.34105   1.29299    0.032
 4876.00    1.31142   1.31162    0.031
 4877.00    1.31470   1.33052    0.032
 4878.00    1.36764   1.34331    0.032
 4879.00    1.44234   1.35191    0.032
 4880.00    1.48846   1.35778    0.032
 4881.00    1.52382   1.35413    0.032
 4882.00    1.50550   1.34212    0.032
 4883.00    1.47005   1.33081    0.033
 4884.00    1.41413   1.32016    0.033
 4885.00    1.35276   1.30595    0.032
 4886.00    1.28426   1.29155    0.032
 4887.00    1.21420   1.28191    0.031
 4888.00    1.25551   1.27886    0.032
 4889.00    1.31613   1.28433    0.032
 4890.00    1.34077   1.29676    0.032
 4891.00    1.36067   1.31403    0.032
 4892.00    1.45030   1.33918    0.032
 4893.00    1.54641   1.37190    0.032
 4894.00    1.56345   1.40402    0.032
 4895.00    1.57602   1.42950    0.032
 4896.00    1.45518   1.44736    0.032
 4897.00    1.33278   1.45833    0.031
 4898.00    1.37158   1.46354    0.032
 4899.00    1.41015   1.46125    0.032
 4900.00    1.44344   1.45234    0.032
 4901.00    1.47385   1.44486    0.032
 4902.00    1.46699   1.44181    0.031
 4903.00    1.46140   1.43717    0.031
 4904.00    1.46676   1.43016    0.032
 4905.00    1.46821   1.42569    0.032
 4906.00    1.44441   1.42190    0.032
 4907.00    1.41460   1.41392    0.032
 4908.00    1.35453   1.40432    0.032
 4909.00    1.30748   1.39689    0.032
 4910.00    1.31347   1.39061    0.031
 4911.00    1.32204   1.38584    0.031
 4912.00    1.33935   1.38453    0.031
 4913.00    1.35685   1.38287    0.031
 4914.00    1.37490   1.37568    0.031
 4915.00    1.38273   1.36281    0.031
 4916.00    1.36572   1.34506    0.031
 4917.00    1.35271   1.32249    0.032
 4918.00    1.34809   1.29882    0.031
 4919.00    1.34498   1.27945    0.031
 4920.00    1.34460   1.26654    0.031
 4921.00    1.33428   1.26326    0.032
 4922.00    1.30810   1.27409    0.031
 4923.00    1.31304   1.29551    0.031
 4924.00    1.36154   1.31941    0.031
 4925.00    1.40934   1.34579    0.031
 4926.00    1.45628   1.37608    0.032
 4927.00    1.47870   1.40296    0.032
 4928.00    1.47452   1.42180    0.032
 4929.00    1.47343   1.43365    0.031
 4930.00    1.47529   1.43669    0.031
 4931.00    1.45931   1.43190    0.031
 4932.00    1.42827   1.42343    0.031
 4933.00    1.42475   1.40889    0.031
 4934.00    1.44170   1.38849    0.031
 4935.00    1.44113   1.37125    0.032
 4936.00    1.42910   1.36113    0.031
 4937.00    1.40010   1.35502    0.031
 4938.00    1.36139   1.35262    0.032
 4939.00    1.38972   1.35756    0.032
 4940.00    1.45142   1.37266    0.000
 4941.00    1.49417   1.39353    0.000
 4942.00    1.52877   1.41204    0.000
 4943.00    1.56813   1.42901    0.000
 4944.00    1.60925   1.44821    0.000
 4945.00    1.56158   1.46365    0.000
 4946.00    1.48614   1.47151    0.000
 4947.00    1.51863   1.47800    0.000
 4948.00    1.57929   1.48467    0.000
 4949.00    1.50810   1.48486    0.000
 4950.00    1.40882   1.47774    0.000
 4951.00    1.47160   1.46872    0.000
 4952.00    1.56167   1.45692    0.000
 4953.00    1.51805   1.43650    0.000
 4954.00    1.45742   1.40978    0.000
 4955.00    1.44251   1.38898    0.000
 4956.00    1.43166   1.37684    0.000
 4957.00    1.44683   1.36469    0.000
 4958.00    1.46337   1.35602    0.000
 4959.00    1.44940   1.36189    0.000
 4960.00    1.43582   1.37617    0.000
 4961.00    1.49782   1.38427    0.000
 4962.00    1.55486   1.38700    0.000
 4963.00    1.50393   1.39136    0.000
 4964.00    1.45476   1.39359    0.000
 4965.00    1.42733   1.38854    0.000
 4966.00    1.40224   1.38195    0.000
 4967.00    1.39668   1.38043    0.000
 4968.00    1.39192   1.38280    0.000
 4969.00    1.39218   1.38723    0.000
 4970.00    1.39227   1.39441    0.000
 4971.00    1.39155   1.40368    0.000
 4972.00    1.38029   1.41207    0.000
 4973.00    1.32703   1.41723    0.000
 4974.00    1.28240   1.41719    0.000
 4975.00    1.26634   1.40988    0.000
 4976.00    1.26421   1.39657    0.000
 4977.00    1.30103   1.37938    0.000
 4978.00    1.33152   1.35655    0.000
 4979.00    1.34685   1.32891    0.000
 4980.00    1.32746   1.30472    0.000
 4981.00    1.23638   1.28706    0.000
 4982.00    1.20512   1.27199    0.000
 4983.00    1.28134   1.26336    0.000
 4984.00    1.30200   1.26746    0.000
 4985.00    1.23535   1.27933    0.000
 4986.00    1.22835   1.29262    0.000
 4987.00    1.30362   1.30845    0.000
 4988.00    1.34950   1.32610    0.000
 4989.00    1.35967   1.34116    0.000
 4990.00    1.33763   1.35066    0.000
 4991.00    1.28110   1.35634    0.000
 4992.00    1.28302   1.36166    0.000
 4993.00    1.34012   1.36440    0.000
 4994.00    1.34746   1.36192    0.000
 4995.00    1.31338   1.35741    0.000
 4996.00    1.30264   1.35128    0.000
 4997.00    1.30899   1.34065    0.000
 4998.00    1.27789   1.32675    0.000
 4999.00    1.22268   1.31131    0.000
 5000.00    1.22042   1.29506    0.000
 5001.00    1.24797   1.28002    0.000
 5002.00    1.32608   1.26596    0.000
 5003.00    1.42897   1.25358    0.000
 5004.00    1.47041   1.24738    0.000
 5005.00    1.48584   1.24604    0.000
 5006.00    1.41531   1.24422    0.000
 5007.00    1.31362   1.24413    0.000
 5008.00    1.32098   1.24791    0.000
 5009.00    1.36181   1.24859    0.000
 5010.00    1.33563   1.24316    0.000
 5011.00    1.29235   1.23619    0.000
 5012.00    1.30417   1.23003    0.000
 5013.00    1.32745   1.22299    0.000
 5014.00    1.33437   1.21509    0.000
 5015.00    1.33863   1.21092    0.000
 5016.00    1.35587   1.21353    0.000
 5017.00    1.37472   1.21902    0.000
 5018.00    1.27709   1.22345    0.000
 5019.00    1.16962   1.23010    0.000
 5020.00    1.21896   1.24117    0.000
 5021.00    1.27597   1.25177    0.000
 5022.00    1.33844   1.25966    0.000
 5023.00    1.39930   1.26880    0.000
 5024.00    1.35689   1.27881    0.000
 5025.00    1.31671   1.28865    0.000
 5026.00    1.32124   1.30011    0.000
 5027.00    1.32758   1.31121    0.000
 5028.00    1.35506   1.32138    0.000
 5029.00    1.38097   1.33402    0.032
 5030.00    1.39417   1.34721    0.032
 5031.00    1.40903   1.35395    0.032
 5032.00    1.43394   1.35343    0.032
 5033.00    1.43655   1.34916    0.031
 5034.00    1.33253   1.34060    0.031
 5035.00    1.25144   1.32338    0.032
 5036.00    1.25968   1.29972    0.032
 5037.00    1.25127   1.27742    0.032
 5038.00    1.18889   1.25884    0.032
 5039.00    1.17493   1.24621    0.031
 5040.00    1.29386   1.24202    0.031
 5041.00    1.38230   1.24532    0.031
 5042.00    1.39907   1.25794    0.032
 5043.00    1.40085   1.27947    0.032
 5044.00    1.37217   1.29960    0.031
 5045.00    1.34354   1.31261    0.031
 5046.00    1.31500   1.32405    0.031
 5047.00    1.29949   1.33230    0.032
 5048.00    1.30412   1.33104    0.032
 5049.00    1.31048   1.32578    0.032
 5050.00    1.31916   1.32545    0.032
 5051.00    1.34304   1.32933    0.032
 5052.00    1.38510   1.33459    0.032
 5053.00    1.41473   1.34388    0.032
 5054.00    1.43123   1.35895    0.032
 5055.00    1.46896   1.37561    0.032
 5056.00    1.52643   1.38930    0.032
 5057.00    1.50278   1.40040    0.032
 5058.00    1.41257   1.40972    0.031
 5059.00    1.35374   1.41455    0.031
 5060.00    1.31760   1.41243    0.031
 5061.00    1.37230   1.40342    0.031
 5062.00    1.48460   1.39114    0.032
 5063.00    1.48759   1.37883    0.032
 5064.00    1.42998   1.36300    0.032
 5065.00    1.39110   1.34435    0.032
 5066.00    1.36124   1.33230    0.031
 5067.00    1.37431   1.32775    0.031
 5068.00    1.40525   1.32106    0.031
 5069.00    1.37525   1.31404    0.031
 5070.00    1.32356   1.31603    0.031
 5071.00    1.28888   1.31974    0.030
 5072.00    1.25931   1.31510    0.030
 5073.00    1.30586   1.30935    0.030
 5074.00    1.37142   1.30857    0.031
 5075.00    1.36737   1.30245    0.031
 5076.00    1.34922   1.28628    0.031
 5077.00    1.29066   1.27258    0.031
 5078.00    1.22568   1.26518    0.030
 5079.00    1.20953   1.25479    0.030
 5080.00    1.19915   1.24371    0.030
 5081.00    1.21507   1.24350    0.030
 5082.00    1.23310   1.25237    0.030
 5083.00    1.28878   1.26127    0.029
 5084.00    1.34616   1.27240    0.029
 5085.00    1.37569   1.29008    0.029
 5086.00    1.40341   1.30930    0.030
 5087.00    1.35683   1.32427    0.030
 5088.00    1.31440   1.33677    0.029
 5089.00    1.34913   1.34966    0.029
 5090.00    1.38161   1.35987    0.029
 5091.00    1.38917   1.36370    0.030
 5092.00    1.38321   1.36270    0.030
 5093.00    1.27201   1.35904    0.030
 5094.00    1.19687   1.35085    0.030
 5095.00    1.33415   1.33683    0.030
 5096.00    1.43595   1.32090    0.030
 5097.00    1.37213   1.30874    0.030
 5098.00    1.30600   1.29957    0.030
 5099.00    1.23105   1.29143    0.029
 5100.00    1.18809   1.28731    0.029
 5101.00    1.24688   1.28847    0.029
 5102.00    1.28896   1.29085    0.030
 5103.00    1.28602   1.29083    0.030
 5104.00    1.29059   1.28890    0.030
 5105.00    1.31254   1.28769    0.030
 5106.00    1.32216   1.28608    0.030
 5107.00    1.30712   1.28151    0.030
 5108.00    1.28935   1.28022    0.030
 5109.00    1.26683   1.28523    0.031
 5110.00    1.28073   1.29142    0.031
 5111.00    1.35018   1.30022    0.031
 5112.00    1.38888   1.31409    0.031
 5113.00    1.38635   1.32833    0.031
 5114.00    1.38633   1.34086    0.032
 5115.00    1.38926   1.35232    0.032
 5116.00    1.38401   1.35919    0.032
 5117.00    1.37024   1.35940    0.033
 5118.00    1.36329   1.35465    0.032
 5119.00    1.36259   1.34431    0.032
 5120.00    1.35048   1.32706    0.032
 5121.00    1.32914   1.30690    0.032
 5122.00    1.30335   1.28788    0.032
 5123.00    1.27439   1.26930    0.031
 5124.00    1.26701   1.25212    0.031
 5125.00    1.27310   1.24091    0.031
 5126.00    1.25607   1.23600    0.031
 5127.00    1.22641   1.23458    0.032
 5128.00    1.24972   1.23833    0.032
 5129.00    1.29816   1.24667    0.031
 5130.00    1.30468   1.25546    0.031
 5131.00    1.29404   1.26508    0.032
 5132.00    1.28472   1.27612    0.031
 5133.00    1.27586   1.28244    0.031
 5134.00    1.27137   1.28428    0.031
 5135.00    1.26817   1.28536    0.031
 5136.00    1.26628   1.28099    0.031
 5137.00    1.26470   1.27395    0.031
 5138.00    1.26183   1.26830    0.031
 5139.00    1.25870   1.25846    0.031
 5140.00    1.24344   1.24901    0.031
 5141.00    1.22631   1.24669    0.031
 5142.00    1.21380   1.24240    0.031
 5143.00    1.20181   1.23482    0.031
 5144.00    1.19744   1.23372    0.030
 5145.00    1.19366   1.23467    0.029
 5146.00    1.21593   1.23183    0.030
 5147.00    1.23928   1.23000    0.030
 5148.00    1.23002   1.23053    0.030
 5149.00    1.22196   1.23180    0.030
 5150.00    1.27567   1.23399    0.030
 5151.00    1.32315   1.23716    0.030
 5152.00    1.26259   1.24348    0.030
 5153.00    1.20958   1.25361    0.030
 5154.00    1.23684   1.26533    0.030
 5155.00    1.26954   1.27734    0.030
 5156.00    1.34324   1.28866    0.030
 5157.00    1.39916   1.29877    0.030
 5158.00    1.35329   1.30391    0.030
 5159.00    1.32643   1.29910    0.030
 5160.00    1.38611   1.28672    0.030
 5161.00    1.42141   1.26731    0.031
 5162.00    1.36572   1.23606    0.030
 5163.00    1.30286   1.19614    0.030
 5164.00    1.21765   1.15403    0.030
 5165.00    1.13570   1.11064    0.030
 5166.00    1.06239   1.06936    0.030
 5167.00    1.00576   1.03678    0.030
 5168.00    0.98706   1.01154    0.030
 5169.00    0.95400   0.99310    0.030
 5170.00    0.89267   0.98888    0.030
 5171.00    0.87546   0.99919    0.030
 5172.00    0.93395   1.01542    0.030
 5173.00    1.02770   1.03665    0.030
 5174.00    1.17442   1.06748    0.031
 5175.00    1.24717   1.10006    0.031
 5176.00    1.22219   1.12287    0.030
 5177.00    1.20584   1.13753    0.030
 5178.00    1.19953   1.14748    0.030
 5179.00    1.18951   1.14600    0.030
 5180.00    1.17569   1.13058    0.030
 5181.00    1.16044   1.11433    0.030
 5182.00    1.14389   1.10566    0.030
 5183.00    1.12893   1.10050    0.031
 5184.00    1.11525   1.10186    0.031
 5185.00    1.16243   1.11501    0.031
 5186.00    1.25230   1.13688    0.030
 5187.00    1.26218   1.16116    0.030
 5188.00    1.22285   1.18072    0.030
 5189.00    1.22308   1.19505    0.030
 5190.00    1.24456   1.20981    0.000
 5191.00    1.26635   1.21968    0.000
 5192.00    1.28828   1.21927    0.000
 5193.00    1.27649   1.22223    0.000
 5194.00    1.25114   1.23331    0.000
 5195.00    1.23412   1.24100    0.000
 5196.00    1.21996   1.24821    0.000
 5197.00    1.16508   1.26141    0.000
 5198.00    1.09844   1.27137    0.000
 5199.00    1.16855   1.27322    0.000
 5200.00    1.27133   1.27245    0.000
 5201.00    1.24070   1.26531    0.000
 5202.00    1.18439   1.24776    0.000
 5203.00    1.18371   1.22911    0.000
 5204.00    1.19135   1.21217    0.000
 5205.00    1.17526   1.19188    0.000
 5206.00    1.15657   1.17736    0.000
 5207.00    1.06669   1.17586    0.000
 5208.00    0.97167   1.17979    0.000
 5209.00    1.10259   1.18872    0.000
 5210.00    1.24195   1.20765    0.000
 5211.00    1.28494   1.23009    0.030
 5212.00    1.32573   1.24925    0.030
 5213.00    1.30281   1.26799    0.030
 5214.00    1.28364   1.28568    0.030
 5215.00    1.32511   1.29898    0.030
 5216.00    1.36358   1.30907    0.031
 5217.00    1.37138   1.31681    0.030
 5218.00    1.38083   1.32206    0.030
 5219.00    1.40217   1.32351    0.029
 5220.00    1.41401   1.31890    0.029
 5221.00    1.37287   1.30890    0.030
 5222.00    1.32977   1.29595    0.030
 5223.00    1.27791   1.27829    0.030
 5224.00    1.22957   1.25819    0.030
 5225.00    1.19405   1.24527    0.029
 5226.00    1.16999   1.23792    0.029
 5227.00    1.18101   1.23287    0.029
 5228.00    1.21893   1.23830    0.029
 5229.00    1.32682   1.25089    0.030
 5230.00    1.40811   1.26174    0.030
 5231.00    1.42991   1.27559    0.029
 5232.00    1.42065   1.29248    0.029
 5233.00    1.35118   1.30601    0.030
 5234.00    1.33333   1.31950    0.030
 5235.00    1.40275   1.33533    0.030
 5236.00    1.42984   1.34909    0.030
 5237.00    1.39426   1.36179    0.030
 5238.00    1.37313   1.37531    0.030
 5239.00    1.37083   1.38503    0.030
 5240.00    1.37484   1.38945    0.029
 5241.00    1.38611   1.39198    0.030
 5242.00    1.38570   1.39208    0.030
 5243.00    1.37349   1.38480    0.030
 5244.00    1.35255   1.37238    0.030
 5245.00    1.32384   1.36224    0.030
 5246.00    1.33750   1.35051    0.030
 5247.00    1.38447   1.33327    0.030
 5248.00    1.39288   1.32060    0.030
 5249.00    1.37463   1.31512    0.030
 5250.00    1.35338   1.31008    0.030
 5251.00    1.33030   1.30773    0.029
 5252.00    1.33953   1.31237    0.030
 5253.00    1.36586   1.32150    0.031
 5254.00    1.35967   1.33093    0.032
 5255.00    1.33854   1.33918    0.032
 5256.00    1.36916   1.34594    0.032
 5257.00    1.42024   1.34860    0.031
 5258.00    1.36784   1.34275    0.031
 5259.00    1.28058   1.32693    0.031
 5260.00    1.26019   1.30354    0.031
 5261.00    1.25872   1.27497    0.031
 5262.00    1.27949   1.24083    0.031
 5263.00    1.30546   1.20303    0.031
 5264.00    1.18821   1.17153    0.031
 5265.00    1.04411   1.14848    0.031
 5266.00    1.11023   1.12621    0.031
 5267.00    1.20680   1.11278    0.032
 5268.00    1.14261   1.11679    0.031
 5269.00    1.06151   1.12458    0.031
 5270.00    1.21062   1.13442    0.031
 5271.00    1.37542   1.15904    0.031
 5272.00    1.33605   1.18865    0.031
 5273.00    1.28983   1.21369    0.032
 5274.00    1.28845   1.24319    0.031
 5275.00    1.28961   1.27384    0.031
 5276.00    1.37033   1.29650    0.030
 5277.00    1.44187   1.31497    0.030
 5278.00    1.37357   1.33056    0.030
 5279.00    1.31191   1.34034    0.030
 5280.00    1.31503   1.34616    0.030
 5281.00    1.32402   1.35058    0.029
 5282.00    1.37440   1.35681    0.029
 5283.00    1.40922   1.36646    0.029
 5284.00    1.35965   1.37774    0.029
 5285.00    1.33221   1.39200    0.030
 5286.00    1.40094   1.40970    0.030
 5287.00    1.44862   1.42568    0.030
 5288.00    1.42101   1.43766    0.029
 5289.00    1.40963   1.44609    0.029
 5290.00    1.44696   1.44849    0.029
 5291.00    1.46836   1.44347    0.029
 5292.00    1.44902   1.43265    0.030
 5293.00    1.43324   1.41737    0.030
 5294.00    1.42530   1.39793    0.029
 5295.00    1.40634   1.37701    0.029
 5296.00    1.36638   1.35991    0.029
 5297.00    1.33591   1.34717    0.030
 5298.00    1.32124   1.33850    0.030
 5299.00    1.31596   1.33895    0.030
 5300.00    1.32438   1.34846    0.030
 5301.00    1.35778   1.36133    0.030
 5302.00    1.42324   1.37809    0.030
 5303.00    1.46097   1.39917    0.030
 5304.00    1.46736   1.41866    0.030
 5305.00    1.44967   1.43520    0.030
 5306.00    1.40798   1.45041    0.030
 5307.00    1.40114   1.46140    0.030
 5308.00    1.42496   1.46793    0.031
 5309.00    1.43111   1.47223    0.031
 5310.00    1.42358   1.47252    0.030
 5311.00    1.48532   1.46930    0.030
 5312.00    1.59427   1.46514    0.031
 5313.00    1.58737   1.45821    0.031
 5314.00    1.51128   1.44928    0.030
 5315.00    1.48221   1.44142    0.030
 5316.00    1.47764   1.43271    0.031
 5317.00    1.48119   1.42231    0.030
 5318.00    1.48840   1.41209    0.030
 5319.00    1.48744   1.40132    0.030
 5320.00    1.48331   1.38774    0.030
 5321.00    1.39726   1.37002    0.030
 5322.00    1.28414   1.35009    0.029
 5323.00    1.30585   1.33042    0.029
 5324.00    1.36495   1.30828    0.030
 5325.00    1.33146   1.28503    0.029
 5326.00    1.27685   1.26946    0.029
 5327.00    1.25502   1.26165    0.029
 5328.00    1.23917   1.25790    0.029
 5329.00    1.27890   1.26364    0.029
 5330.00    1.32642   1.28008    0.029
 5331.00    1.32150   1.30032    0.029
 5332.00    1.31130   1.32174    0.029
 5333.00    1.30941   1.34299    0.029
 5334.00    1.30805   1.36020    0.029
 5335.00    1.35105   1.37252    0.029
 5336.00    1.39536   1.37896    0.028
 5337.00    1.43746   1.37787    0.028
 5338.00    1.47615   1.37454    0.028
 5339.00    1.41748   1.37162    0.028
 5340.00    1.35746   1.36577    0.028
 5341.00    1.27800   1.36149    0.028
 5342.00    1.20775   1.36196    0.028
 5343.00    1.22368   1.36217    0.028
 5344.00    1.23802   1.36369    0.027
 5345.00    1.24157   1.36810    0.027
 5346.00    1.25260   1.37155    0.027
 5347.00    1.30313   1.37686    0.027
 5348.00    1.34849   1.38640    0.028
 5349.00    1.37192   1.39660    0.028
 5350.00    1.40168   1.40882    0.028
 5351.00    1.45359   1.42587    0.029
 5352.00    1.48469   1.44397    0.029
 5353.00    1.45440   1.46001    0.029
 5354.00    1.44524   1.47564    0.028
 5355.00    1.48916   1.48925    0.029
 5356.00    1.48896   1.49698    0.029
 5357.00    1.39329   1.50002    0.029
 5358.00    1.35206   1.49868    0.029
 5359.00    1.41311   1.49120    0.029
 5360.00    1.45731   1.48023    0.030
 5361.00    1.47388   1.46628    0.029
 5362.00    1.45136   1.44828    0.029
 5363.00    1.37264   1.43024    0.030
 5364.00    1.32318   1.41212    0.030
 5365.00    1.31072   1.39213    0.030
 5366.00    1.30354   1.37464    0.030
 5367.00    1.30222   1.35986    0.029
 5368.00    1.32639   1.34619   -2.000
 5369.00    1.37561   1.33875   -2.000
 5370.00    1.38965   1.33843   -2.000
 5371.00    1.37319   1.34179   -2.000
 5372.00    1.42775   1.35196   -2.000
 5373.00    1.53657   1.36856   -2.000
 5374.00    1.53371   1.38463   -2.000
 5375.00    1.45587   1.40052   -2.000
 5376.00    1.40127   1.41643   -2.000
 5377.00    1.36035   1.42627   -2.000
 5378.00    1.36671   1.43178   -2.000
 5379.00    1.39733   1.43605   -2.000
 5380.00    1.42526   1.43525   -2.000
 5381.00    1.45200   1.43192   -2.000
 5382.00    1.44529   1.43020   -2.000
 5383.00    1.42581   1.42607    0.029
 5384.00    1.40407   1.42008    0.028
 5385.00    1.38159   1.41566    0.028
 5386.00    1.36363   1.40904    0.028
 5387.00    1.34691   1.39918    0.027
 5388.00    1.33773   1.38925    0.027
 5389.00    1.33024   1.37836    0.027
 5390.00    1.37049   1.36527    0.027
 5391.00    1.41922   1.35186    0.027
 5392.00    1.37407   1.34070    0.027
 5393.00    1.31620   1.33070    0.027
 5394.00    1.27869   1.32000    0.027
 5395.00    1.24315   1.31335    0.027
 5396.00    1.27232   1.31134    0.028
 5397.00    1.30538   1.30741    0.028
 5398.00    1.30713   1.30477    0.028
 5399.00    1.30835   1.30627    0.027
 5400.00    1.35616   1.30385    0.027
 5401.00    1.40153   1.29746    0.027
 5402.00    1.38419   1.29234    0.028
 5403.00    1.36690   1.28506    0.028
 5404.00    1.35025   1.27586    0.027
 5405.00    1.33231   1.27055    0.027
 5406.00    1.30272   1.26875    0.028
 5407.00    1.28156   1.27027    0.028
 5408.00    1.31610   1.27854    0.028
 5409.00    1.35124   1.29156    0.028
 5410.00    1.38944   1.30678    0.028
 5411.00    1.41201   1.32538    0.028
 5412.00    1.36970   1.34515    0.028
 5413.00    1.34920   1.36337    0.028
 5414.00    1.40357   1.37985    0.028
 5415.00    1.44976   1.39318    0.028
 5416.00    1.47227   1.40342    0.028
 5417.00    1.46950   1.41001    0.028
 5418.00    1.40430   1.41172    0.028
 5419.00    1.36674   1.41192    0.028
 5420.00    1.38805   1.41044    0.028
 5421.00    1.38590   1.40530    0.028
 5422.00    1.34038   1.40144    0.028
 5423.00    1.33582   1.39792    0.028
 5424.00    1.39746   1.39136    0.028
 5425.00    1.42246   1.38638    0.028
 5426.00    1.39555   1.38015    0.028
 5427.00    1.39448   1.37013    0.028
 5428.00    1.42561   1.36241    0.028
 5429.00    1.41586   1.35306    0.028
 5430.00    1.36116   1.34155    0.028
 5431.00    1.31051   1.33607    0.028
 5432.00    1.26381   1.33324    0.027
 5433.00    1.27209   1.33205    0.027
 5434.00    1.32737   1.33837    0.027
 5435.00    1.37473   1.34999    0.027
 5436.00    1.41611   1.36413    0.027
 5437.00    1.45567   1.38112    0.027
 5438.00    1.49402   1.39852    0.027
 5439.00    1.48852   1.41319    0.027
 5440.00    1.45762   1.42301    0.027
 5441.00    1.45126   1.42662    0.027
 5442.00    1.45729   1.42442    0.027
 5443.00    1.45158   1.41684    0.027
 5444.00    1.44076   1.40501    0.027
 5445.00    1.44472   1.39348    0.027
 5446.00    1.45423   1.38347    0.026
 5447.00    1.44783   1.37444    0.027
 5448.00    1.43638   1.37001    0.027
 5449.00    1.42078   1.36823    0.027
 5450.00    1.40408   1.36594    0.027
 5451.00    1.39663   1.36515    0.027
 5452.00    1.39119   1.36355    0.027
 5453.00    1.36973   1.36039    0.027
 5454.00    1.34551   1.35918    0.027
 5455.00    1.36567   1.35839    0.027
 5456.00    1.39165   1.35812    0.027
 5457.00    1.39067   1.36060    0.027
 5458.00    1.38720   1.36362    0.028
 5459.00    1.39435   1.36626    0.028
 5460.00    1.40210   1.36786    0.028
 5461.00    1.37689   1.36882    0.028
 5462.00    1.35110   1.37052    0.028
 5463.00    1.34139   1.37030    0.028
 5464.00    1.33422   1.36986    0.028
 5465.00    1.38658   1.37211    0.028
 5466.00    1.43507   1.37288    0.028
 5467.00    1.43385   1.37109    0.028
 5468.00    1.42652   1.36964    0.027
 5469.00    1.36626   1.36686    0.027
 5470.00    1.31912   1.35920    0.026
 5471.00    1.35610   1.34950    0.027
 5472.00    1.38282   1.34141    0.027
 5473.00    1.35815   1.33063    0.027
 5474.00    1.34023   1.31855    0.027
 5475.00    1.34970   1.31212    0.027
 5476.00    1.36255   1.30763    0.027
 5477.00    1.38680   1.30359    0.027
 5478.00    1.41644   1.30514   -2.000
 5479.00    1.46139   1.31057   -2.000
 5480.00    1.48761   1.31679   -2.000
 5481.00    1.46836   1.32420   -2.000
 5482.00    1.48223   1.33369   -2.000
 5483.00    1.56548   1.34349   -2.000
 5484.00    1.59498   1.35045   -2.000
 5485.00    1.52659   1.35666   -2.000
 5486.00    1.47053   1.36336   -2.000
 5487.00    1.43410   1.36637   -2.000
 5488.00    1.36856   1.36770   -2.000
 5489.00    1.26236   1.37112   -2.000
 5490.00    1.24597   1.37238   -2.000
 5491.00    1.33999   1.37185   -2.000
 5492.00    1.34821   1.37390   -2.000
 5493.00    1.26344   1.37526   -2.000
 5494.00    1.27030   1.37425   -2.000
 5495.00    1.36476   1.37441   -2.000
 5496.00    1.41487   1.37517   -2.000
 5497.00    1.42759   1.37342   -2.000
 5498.00    1.43775   1.37067   -2.000
 5499.00    1.44601   1.36898   -2.000
 5500.00    1.42967   1.36546   -2.000
 5501.00    1.39729   1.35983   -2.000
 5502.00    1.39538   1.35593    0.027
 5503.00    1.41086   1.35163    0.027
 5504.00    1.42916   1.34607    0.027
 5505.00    1.44885   1.34339    0.027
 5506.00    1.45254   1.34045    0.027
 5507.00    1.44935   1.33637    0.027
 5508.00    1.40179   1.33516    0.027
 5509.00    1.33788   1.33277    0.027
 5510.00    1.33905   1.32954    0.027
 5511.00    1.36053   1.32960    0.027
 5512.00    1.38518   1.33009    0.027
 5513.00    1.41066   1.33244    0.027
 5514.00    1.39185   1.33871    0.027
 5515.00    1.36363   1.34694    0.027
 5516.00    1.35677   1.35736    0.027
 5517.00    1.35350   1.36841    0.027
 5518.00    1.39951   1.37887    0.027
 5519.00    1.45176   1.38792    0.027
 5520.00    1.41882   1.39315    0.027
 5521.00    1.37836   1.39527    0.026
 5522.00    1.37703   1.39392    0.026
 5523.00    1.37774   1.38868    0.027
 5524.00    1.33216   1.38210    0.026
 5525.00    1.28618   1.37405    0.026
 5526.00    1.27443   1.36584    0.026
 5527.00    1.26475   1.36047    0.026
 5528.00    1.29952   1.35650    0.026
 5529.00    1.33400   1.35439    0.026
 5530.00    1.36508   1.35598    0.026
 5531.00    1.39195   1.35883    0.026
 5532.00    1.38375   1.36154    0.025
 5533.00    1.38178   1.36581    0.025
 5534.00    1.41851   1.37085    0.025
 5535.00    1.45018   1.37441    0.026
 5536.00    1.45706   1.37882    0.025
 5537.00    1.44896   1.38438    0.025
 5538.00    1.38136   1.38831    0.025
 5539.00    1.32619   1.39268    0.025
 5540.00    1.31204   1.39707    0.025
 5541.00    1.31293   1.39966    0.026
 5542.00    1.35575   1.40275    0.026
 5543.00    1.37837   1.40533    0.026
 5544.00    1.35280   1.40726    0.027
 5545.00    1.34128   1.41106    0.034
 5546.00    1.35871   1.41451    0.086
 5547.00    1.37285   1.41743   -1.000
 5548.00    1.38108   1.42155   -1.000
 5549.00    1.38872   1.42389   -1.000
 5550.00    1.39545   1.42423   -1.000
 5551.00    1.40099   1.42399   -1.000
 5552.00    1.40490   1.42152   -1.000
 5553.00    1.40655   1.41777    0.113
 5554.00    1.40546   1.41366    0.035
 5555.00    1.41884   1.40861    0.026
 5556.00    1.44770   1.40414    0.026
 5557.00    1.44903   1.39937    0.027
 5558.00    1.42442   1.39392    0.027
 5559.00    1.41264   1.38940    0.026
 5560.00    1.41150   1.38367    0.026
 5561.00    1.42961   1.37725    0.026
 5562.00    1.46179   1.37201    0.026
 5563.00    1.44795   1.36580    0.026
 5564.00    1.40456   1.35980    0.026
 5565.00    1.41346   1.35603    0.026
 5566.00    1.45174   1.35244    0.026
 5567.00    1.46574   1.34914    0.026
 5568.00    1.46787   1.34903    0.026
 5569.00    1.44807   1.34995    0.026
 5570.00    1.41900   1.34975    0.025
 5571.00    1.40381   1.35330    0.025
 5572.00    1.39364   1.35824    0.025
 5573.00    1.37547   1.36025    0.025
 5574.00    1.35485   1.36578    0.025
 5575.00    1.44157   1.37220    0.025
 5576.00    1.55562   1.37388    0.025
 5577.00    1.58895   1.37729    0.025
 5578.00    1.60557   1.37998    0.025
 5579.00    1.55331   1.37648    0.025
 5580.00    1.48981   1.37245    0.025
 5581.00    1.46916   1.36602    0.025
 5582.00    1.45374   1.35382    0.025
 5583.00    1.41815   1.34099    0.025
 5584.00    1.38087   1.32663    0.026
 5585.00    1.39659   1.31077    0.026
 5586.00    1.41489   1.29754    0.026
 5587.00    1.38985   1.28663    0.026
 5588.00    1.36395   1.27982    0.026
 5589.00    1.32510   1.27756    0.026
 5590.00    1.28841   1.27914    0.026
 5591.00    1.29451   1.28523    0.026
 5592.00    1.30386   1.29229    0.026
 5593.00    1.35094   1.30033    0.027
 5594.00    1.38685   1.30887    0.027
 5595.00    1.33305   1.31389    0.027
 5596.00    1.28642   1.31779    0.027
 5597.00    1.28313   1.32045    0.027
 5598.00    1.28102   1.31982    0.027
 5599.00    1.28453   1.32078    0.027
 5600.00    1.28544   1.32348    0.027
 5601.00    1.27624   1.32689    0.027
 5602.00    1.27630   1.33506    0.027
 5603.00    1.30635   1.34637    0.027
 5604.00    1.33345   1.35912    0.027
 5605.00    1.35243   1.37371    0.027
 5606.00    1.37546   1.38707    0.026
 5607.00    1.40797   1.39780    0.026
 5608.00    1.42479   1.40529    0.026
 5609.00    1.40978   1.40754    0.025
 5610.00    1.40106   1.40445    0.025
 5611.00    1.40346   1.39786    0.025
 5612.00    1.38923   1.38727    0.025
 5613.00    1.34932   1.37391    0.024
 5614.00    1.31614   1.36182    0.024
 5615.00    1.29211   1.35005    0.024
 5616.00    1.28584   1.34018    0.024
 5617.00    1.30078   1.33523    0.025
 5618.00    1.30202   1.33160    0.025
 5619.00    1.28879   1.32952    0.024
 5620.00    1.29492   1.33069    0.024
 5621.00    1.31902   1.33153    0.024
 5622.00    1.34932   1.33166    0.024
 5623.00    1.38469   1.33378    0.024
 5624.00    1.37665   1.33673    0.024
 5625.00    1.33729   1.33999    0.024
 5626.00    1.30039   1.34622    0.024
 5627.00    1.26503   1.35370    0.024
 5628.00    1.31428   1.36068    0.024
 5629.00    1.41033   1.36851    0.025
 5630.00    1.44810   1.37466    0.025
 5631.00    1.45782   1.37733    0.026
 5632.00    1.45416   1.37789    0.025
 5633.00    1.44496   1.37577    0.025
 5634.00    1.40518   1.37086    0.026
 5635.00    1.35455   1.36476    0.026
 5636.00    1.32814   1.35831    0.026
 5637.00    1.30899   1.35241    0.025
 5638.00    1.33528   1.34742    0.026
 5639.00    1.37290   1.34403    0.026
 5640.00    1.37971   1.34289    0.026
 5641.00    1.38031   1.34262    0.025
 5642.00    1.36580   1.34433    0.025
 5643.00    1.34889   1.34789    0.025
 5644.00    1.31077   1.35088    0.025
 5645.00    1.27015   1.35508    0.025
 5646.00    1.31271   1.35960    0.025
 5647.00    1.36191   1.36242    0.025
 5648.00    1.34490   1.36535    0.025
 5649.00    1.32495   1.36671    0.025
 5650.00    1.31175   1.36556    0.025
 5651.00    1.29919   1.36404    0.025
 5652.00    1.31396   1.35975    0.025
 5653.00    1.32793   1.35240    0.025
 5654.00    1.32724   1.34532    0.024
 5655.00    1.32479   1.33657    0.024
 5656.00    1.30284   1.32696    0.024
 5657.00    1.28124   1.31992    0.024
 5658.00    1.26231   1.31364    0.024
 5659.00    1.24990   1.30998    0.024
 5660.00    1.27571   1.31093    0.024
 5661.00    1.29119   1.31276    0.024
 5662.00    1.25863   1.31673    0.024
 5663.00    1.23873   1.32433    0.024
 5664.00    1.26698   1.33147    0.024
 5665.00    1.29993   1.33797    0.024
 5666.00    1.34784   1.34584    0.024
 5667.00    1.38189   1.35339    0.024
 5668.00    1.37866   1.36042    0.025
 5669.00    1.37291   1.36797    0.025
 5670.00    1.36137   1.37544    0.025
 5671.00    1.36320   1.38316    0.025
 5672.00    1.39175   1.39060    0.025
 5673.00    1.41738   1.39657    0.025
 5674.00    1.43795   1.40100    0.026
 5675.00    1.44212   1.40353    0.026
 5676.00    1.42135   1.40382    0.026
 5677.00    1.39380   1.40136    0.026
 5678.00    1.35717   1.39652    0.026
 5679.00    1.35788   1.39036    0.026
 5680.00    1.40257   1.38313    0.026
 5681.00    1.41808   1.37537    0.026
 5682.00    1.40329   1.36773    0.026
 5683.00    1.38910   1.36149    0.026
 5684.00    1.37549   1.35741    0.026
 5685.00    1.37291   1.35459    0.025
 5686.00    1.37924   1.35377    0.025
 5687.00    1.39821   1.35625    0.025
 5688.00    1.42616   1.36041    0.025
 5689.00    1.42102   1.36523    0.025
 5690.00    1.39525   1.37146    0.024
 5691.00    1.36640   1.37755    0.024
 5692.00    1.33587   1.38220    0.024
 5693.00    1.34977   1.38471    0.024
 5694.00    1.38470   1.38490    0.024
 5695.00    1.39615   1.38276    0.024
 5696.00    1.39802   1.37757    0.024
 5697.00    1.38876   1.37074    0.024
 5698.00    1.37563   1.36220    0.024
 5699.00    1.37293   1.35302    0.024
 5700.00    1.37331   1.34437    0.025
 5701.00    1.33432   1.33430    0.024
 5702.00    1.28575   1.32572    0.024
 5703.00    1.27319   1.31801    0.024
 5704.00    1.26772   1.30861    0.024
 5705.00    1.25731   1.30157    0.024
 5706.00    1.24613   1.29496    0.024
 5707.00    1.24173   1.28890    0.024
 5708.00    1.23809   1.28746    0.024
 5709.00    1.25479   1.28718    0.025
 5710.00    1.27303   1.29095    0.025
 5711.00    1.29396   1.30047    0.025
 5712.00    1.31499   1.31032    0.024
 5713.00    1.35094   1.32422    0.025
 5714.00    1.38569   1.34100    0.026
 5715.00    1.36597   1.35512    0.026
 5716.00    1.34739   1.37067    0.025
 5717.00    1.34853   1.38577    0.025
 5718.00    1.35170   1.39663    0.025
 5719.00    1.37640   1.40693    0.025
 5720.00    1.39562   1.41565    0.025
 5721.00    1.37381   1.42056    0.025
 5722.00    1.35733   1.42381    0.025
 5723.00    1.37135   1.42548    0.025
 5724.00    1.38602   1.42464    0.024
 5725.00    1.40367   1.42258    0.024
 5726.00    1.42078   1.41973    0.024
 5727.00    1.43588   1.41611    0.023
 5728.00    1.44452   1.41352    0.023
 5729.00    1.43305   1.41150    0.024
 5730.00    1.42023   1.40973    0.024
 5731.00    1.40384   1.40953    0.024
 5732.00    1.38525   1.41036    0.024
 5733.00    1.36166   1.41180    0.024
 5734.00    1.35547   1.41281    0.023
 5735.00    1.38347   1.41382    0.023
 5736.00    1.41865   1.41553    0.024
 5737.00    1.46613   1.41574    0.024
 5738.00    1.48951   1.41530    0.024
 5739.00    1.47675   1.41539    0.024
 5740.00    1.47376   1.41466    0.000
 5741.00    1.48366   1.41401    0.000
 5742.00    1.49433   1.41328    0.000
 5743.00    1.50591   1.41165    0.000
 5744.00    1.52567   1.41061    0.000
 5745.00    1.55382   1.40889    0.000
 5746.00    1.55305   1.40567    0.000
 5747.00    1.52614   1.40249    0.000
 5748.00    1.50269   1.39840    0.000
 5749.00    1.48200   1.39385    0.000
 5750.00    1.47078   1.39001    0.000
 5751.00    1.46621   1.38588    0.000
 5752.00    1.46736   1.38280    0.000
 5753.00    1.47202   1.38184    0.000
 5754.00    1.45419   1.38110    0.000
 5755.00    1.42430   1.38109    0.000
 5756.00    1.39027   1.38239    0.000
 5757.00    1.35430   1.38267    0.000
 5758.00    1.35949   1.38297    0.000
 5759.00    1.38120   1.38440    0.000
 5760.00    1.39866   1.38456    0.000
 5761.00    1.41467   1.38544    0.000
 5762.00    1.43265   1.38879    0.000
 5763.00    1.45120   1.39247    0.000
 5764.00    1.46798   1.39770    0.000
 5765.00    1.48434   1.40421    0.000
 5766.00    1.47461   1.40949    0.000
 5767.00    1.45987   1.41455    0.000
 5768.00    1.46241   1.41865    0.000
 5769.00    1.46753   1.41934    0.000
 5770.00    1.47196   1.41845    0.000
 5771.00    1.47631   1.41705    0.000
 5772.00    1.48255   1.41285    0.000
 5773.00    1.48893   1.40774    0.000
 5774.00    1.50397   1.40236    0.000
 5775.00    1.51933   1.39417    0.000
 5776.00    1.47180   1.38489    0.000
 5777.00    1.42494   1.37472    0.000
 5778.00    1.41142   1.36249    0.000
 5779.00    1.39946   1.34978    0.000
 5780.00    1.41254   1.33691    0.000
 5781.00    1.42085   1.32567    0.000
 5782.00    1.38086   1.31780    0.000
 5783.00    1.34848   1.31217    0.000
 5784.00    1.37125   1.31090    0.000
 5785.00    1.39305   1.31368    0.000
 5786.00    1.40944   1.31938    0.000
 5787.00    1.42233   1.32906    0.000
 5788.00    1.41975   1.33829    0.000
 5789.00    1.42015   1.34843    0.000
 5790.00    1.43142   1.36057    0.000
 5791.00    1.45010   1.36962   -2.000
 5792.00    1.49134   1.37816   -2.000
 5793.00    1.52228   1.38632   -2.000
 5794.00    1.52647   1.39267   -2.000
 5795.00    1.51292   1.39916   -2.000
 5796.00    1.45977   1.40427   -2.000
 5797.00    1.44148   1.40874   -2.000
 5798.00    1.49061   1.41298   -2.000
 5799.00    1.53394   1.41587   -2.000
 5800.00    1.56749   1.41806   -2.000
 5801.00    1.56885   1.41862   -2.000
 5802.00    1.52261   1.41880   -2.000
 5803.00    1.47790   1.41856   -2.000
 5804.00    1.43518   1.41610   -2.000
 5805.00    1.42051   1.41460   -2.000
 5806.00    1.43795   1.41381   -2.000
 5807.00    1.46335   1.41194   -2.000
 5808.00    1.49681   1.41179   -2.000
 5809.00    1.50173   1.41225   -2.000
 5810.00    1.48126   1.41211   -2.000
 5811.00    1.46211   1.41226    0.000
 5812.00    1.44399   1.41222    0.000
 5813.00    1.43558   1.41273    0.000
 5814.00    1.43387   1.41325    0.000
 5815.00    1.43346   1.41406    0.000
 5816.00    1.43384   1.41638    0.000
 5817.00    1.43253   1.41953    0.000
 5818.00    1.43032   1.42333    0.000
 5819.00    1.42658   1.42740    0.000
 5820.00    1.42214   1.43185    0.000
 5821.00    1.45416   1.43628    0.000
 5822.00    1.50057   1.43945    0.000
 5823.00    1.52501   1.44174    0.000
 5824.00    1.54205   1.44370    0.000
 5825.00    1.52519   1.44487    0.000
 5826.00    1.49876   1.44496    0.000
 5827.00    1.47808   1.44499    0.000
 5828.00    1.45873   1.44491    0.000
 5829.00    1.45876   1.44356    0.000
 5830.00    1.46241   1.44176    0.000
 5831.00    1.46306   1.44025    0.000
 5832.00    1.46327   1.43826    0.000
 5833.00    1.47112   1.43581    0.000
 5834.00    1.47977   1.43408    0.000
 5835.00    1.48303   1.43316    0.000
 5836.00    1.48591   1.43291    0.000
 5837.00    1.45133   1.43329    0.000
 5838.00    1.41551   1.43392    0.000
 5839.00    1.41100   1.43547    0.000
 5840.00    1.40756   1.43696    0.000
 5841.00    1.43739   1.43669    0.000
 5842.00    1.46501   1.43550    0.000
 5843.00    1.45938   1.43368    0.000
 5844.00    1.45230   1.42996    0.000
 5845.00    1.43113   1.42457    0.000
 5846.00    1.41125   1.41834    0.000
 5847.00    1.40050   1.41091    0.000
 5848.00    1.39742   1.40263    0.000
 5849.00    1.43582   1.39443    0.000
 5850.00    1.46116   1.38595    0.000
 5851.00    1.42988   1.37689    0.000
 5852.00    1.40397   1.36783    0.000
 5853.00    1.39724   1.35966    0.000
 5854.00    1.39310   1.35274    0.000
 5855.00    1.39671   1.34634    0.000
 5856.00    1.40060   1.34163    0.000
 5857.00    1.40523   1.33919    0.000
 5858.00    1.39640   1.33927    0.000
 5859.00    1.35803   1.34198    0.000
 5860.00    1.32766   1.34468    0.000
 5861.00    1.31250   1.34874    0.000
 5862.00    1.31031   1.35482    0.000
 5863.00    1.32967   1.36082    0.000
 5864.00    1.34368   1.36670    0.000
 5865.00    1.34990   1.37184    0.000
 5866.00    1.35012   1.37679    0.000
 5867.00    1.34265   1.38190    0.000
 5868.00    1.33830   1.38657    0.000
 5869.00    1.33746   1.39012    0.000
 5870.00    1.35516   1.39277    0.000
 5871.00    1.39131   1.39464    0.000
 5872.00    1.43230   1.39548    0.000
 5873.00    1.47755   1.39461    0.000
 5874.00    1.48046   1.39202    0.000
 5875.00    1.45063   1.38802    0.000
 5876.00    1.40830   1.38252    0.000
 5877.00    1.35749   1.37660    0.000
 5878.00    1.33843   1.36914    0.000
 5879.00    1.33831   1.35977    0.000
 5880.00    1.34273   1.34960    0.000
 5881.00    1.34953   1.33727    0.000
 5882.00    1.35484   1.32181    0.000
 5883.00    1.35948   1.30253    0.000
 5884.00    1.31512   1.27838    0.000
 5885.00    1.25175   1.25080    0.000
 5886.00    1.19427   1.22194    0.000
 5887.00    1.13873   1.18973    0.000
 5888.00    1.14179   1.15761    0.000
 5889.00    1.16104   1.13171    0.000
 5890.00    1.14754   1.10890    0.000
 5891.00    1.12659   1.09262    0.000
 5892.00    1.15640   1.08606    0.000
 5893.00    1.19545   1.08364    0.000
 5894.00    1.22635   1.09122    0.000
 5895.00    1.25610   1.10852    0.000
 5896.00    1.26413   1.12762    0.000
 5897.00    1.26997   1.15259    0.000
 5898.00    1.28016   1.17971    0.000
 5899.00    1.29061   1.20550    0.000
 5900.00    1.30424   1.23503    0.000
 5901.00    1.31786   1.26319    0.024
 5902.00    1.29399   1.28550    0.023
 5903.00    1.27129   1.30473    0.023
 5904.00    1.28174   1.32072    0.023
 5905.00    1.29057   1.33243    0.023
 5906.00    1.27626   1.34128    0.023
 5907.00    1.26194   1.34766    0.023
 5908.00    1.24761   1.35092    0.022
 5909.00    1.24091   1.35212    0.022
 5910.00    1.28604   1.35272    0.023
 5911.00    1.32851   1.35170    0.023
 5912.00    1.35700   1.34945    0.023
 5913.00    1.37277   1.34748    0.023
 5914.00    1.33470   1.34550    0.023
 5915.00    1.30856   1.34542    0.023
 5916.00    1.32415   1.34588    0.023
 5917.00    1.34277   1.34631    0.023
 5918.00    1.37032   1.34960    0.023
 5919.00    1.38522   1.35285    0.024
 5920.00    1.36838   1.35604    0.024
 5921.00    1.35160   1.35987    0.024
 5922.00    1.33491   1.36199    0.024
 5923.00    1.32232   1.36371    0.024
 5924.00    1.31741   1.36491    0.024
 5925.00    1.32860   1.36389    0.024
 5926.00    1.36617   1.36331    0.024
 5927.00    1.38492   1.36242    0.024
 5928.00    1.37667   1.36000    0.023
 5929.00    1.36685   1.35894    0.023
 5930.00    1.35507   1.35772    0.023
 5931.00    1.36344   1.35719    0.023
 5932.00    1.39425   1.35720    0.023
 5933.00    1.41053   1.35676    0.023
 5934.00    1.41254   1.35869    0.023
 5935.00    1.41148   1.36051    0.023
 5936.00    1.40775   1.36166    0.023
 5937.00    1.39635   1.36293    0.023
 5938.00    1.37910   1.36346    0.023
 5939.00    1.36730   1.36463    0.023
 5940.00    1.35916   1.36554    0.023
 5941.00    1.37156   1.36542    0.023
 5942.00    1.39601   1.36573    0.022
 5943.00    1.41573   1.36551    0.022
 5944.00    1.43302   1.36432    0.023
 5945.00    1.43291   1.36364    0.023
 5946.00    1.42509   1.36248    0.023
 5947.00    1.40372   1.36003    0.023
 5948.00    1.37718   1.35784    0.023
 5949.00    1.36487   1.35607    0.023
 5950.00    1.35716   1.35370    0.023
 5951.00    1.36348   1.35100    0.023
 5952.00    1.37359   1.34924    0.023
 5953.00    1.36424   1.34910    0.023
 5954.00    1.35056   1.35010    0.023
 5955.00    1.35780   1.35104    0.023
 5956.00    1.36874   1.35251    0.023
 5957.00    1.35212   1.35633    0.023
 5958.00    1.33178   1.36109    0.024
 5959.00    1.33197   1.36548    0.024
 5960.00    1.33412   1.36992    0.024
 5961.00    1.36926   1.37434    0.023
 5962.00    1.40637   1.37913    0.023
 5963.00    1.42606   1.38294    0.023
 5964.00    1.44506   1.38581    0.024
 5965.00    1.42658   1.38888    0.024
 5966.00    1.40831   1.39091    0.023
 5967.00    1.39560   1.39292    0.023
 5968.00    1.38441   1.39433    0.023
 5969.00    1.39371   1.39435    0.023
 5970.00    1.40318   1.39421    0.022
 5971.00    1.41410   1.39260    0.022
 5972.00    1.42303   1.38950    0.022
 5973.00    1.41891   1.38547    0.022
 5974.00    1.41396   1.38025    0.022
 5975.00    1.40477   1.37504    0.022
 5976.00    1.39759   1.36971    0.022
 5977.00    1.39871   1.36458    0.022
 5978.00    1.39885   1.36039    0.022
 5979.00    1.39560   1.35586    0.022
 5980.00    1.39128   1.35268    0.022
 5981.00    1.38391   1.35017    0.023
 5982.00    1.37927   1.34713    0.023
 5983.00    1.38137   1.34621    0.023
 5984.00    1.37516   1.34611    0.023
 5985.00    1.35131   1.34658    0.023
 5986.00    1.33624   1.34859    0.023
 5987.00    1.33736   1.35077    0.023
 5988.00    1.34660   1.35474    0.023
 5989.00    1.36894   1.35931    0.023
 5990.00    1.37931   1.36251    0.023
 5991.00    1.37276   1.36569    0.023
 5992.00    1.35712   1.36780    0.023
 5993.00    1.33018   1.36893    0.023
 5994.00    1.32045   1.36881    0.023
 5995.00    1.32960   1.36679    0.023
 5996.00    1.34224   1.36487    0.023
 5997.00    1.35825   1.36256    0.023
 5998.00    1.36401   1.35925    0.023
 5999.00    1.36102   1.35665    0.023
 6000.00    1.34328   1.35319    0.023
 6001.00    1.31444   1.34935    0.022
 6002.00    1.29424   1.34717    0.022
 6003.00    1.27973   1.34401    0.022
 6004.00    1.29066   1.34147    0.022
 6005.00    1.31629   1.33915    0.022
 6006.00    1.32699   1.33528    0.022
 6007.00    1.33017   1.33423    0.022
 6008.00    1.35417   1.33373    0.022
 6009.00    1.38724   1.33276    0.023
 6010.00    1.40605   1.33267    0.023
 6011.00    1.41951   1.33092    0.023
 6012.00    1.42714   1.33049    0.023
 6013.00    1.43293   1.33118    0.024
 6014.00    1.42179   1.32976    0.024
 6015.00    1.40617   1.32810    0.023
 6016.00    1.38117   1.32671    0.023
 6017.00    1.35415   1.32553    0.024
 6018.00    1.32904   1.32586    0.024
 6019.00    1.30427   1.32600    0.024
 6020.00    1.32011   1.32683    0.024
 6021.00    1.34125   1.33020    0.024
 6022.00    1.35766   1.33358    0.024
 6023.00    1.37364   1.33862    0.024
 6024.00    1.38297   1.34471    0.024
 6025.00    1.39192   1.35078    0.024
 6026.00    1.37949   1.35837    0.023
 6027.00    1.36662   1.36510    0.022
 6028.00    1.35672   1.37199    0.022
 6029.00    1.34824   1.37857    0.023
 6030.00    1.37258   1.38373    0.022
 6031.00    1.39611   1.38894    0.021
 6032.00    1.40935   1.39304    0.022
 6033.00    1.42065   1.39608    0.022
 6034.00    1.41524   1.39822    0.022
 6035.00    1.41295   1.39940    0.022
 6036.00    1.43065   1.40053    0.022
 6037.00    1.44585   1.40067    0.022
 6038.00    1.44856   1.40051    0.023
 6039.00    1.44490   1.40083    0.023
 6040.00    1.41548   1.40082    0.022
 6041.00    1.39460   1.40193    0.022
 6042.00    1.40244   1.40321    0.023
 6043.00    1.41108   1.40447    0.023
 6044.00    1.42199   1.40644    0.023
 6045.00    1.43232   1.40785    0.024
 6046.00    1.44124   1.40902    0.024
 6047.00    1.45295   1.40948    0.023
 6048.00    1.47051   1.40893    0.023
 6049.00    1.47382   1.40736    0.023
 6050.00    1.45125   1.40491    0.024
 6051.00    1.42855   1.40134    0.024
 6052.00    1.40565   1.39733    0.024
 6053.00    1.39739   1.39349    0.024
 6054.00    1.40955   1.38939    0.023
 6055.00    1.41605   1.38586    0.023
 6056.00    1.41560   1.38268    0.023
 6057.00    1.40925   1.38029    0.023
 6058.00    1.39651   1.37839    0.022
 6059.00    1.38714   1.37661    0.022
 6060.00    1.38097   1.37510    0.022
 6061.00    1.37216   1.37392    0.022
 6062.00    1.36112   1.37382    0.022
 6063.00    1.37177   1.37349    0.022
 6064.00    1.39849   1.37496    0.023
 6065.00    1.42261   1.37844    0.022
 6066.00    1.44503   1.38264    0.022
 6067.00    1.45624   1.38867    0.022
 6068.00    1.46105   1.39408    0.022
 6069.00    1.46101   1.39972    0.022
 6070.00    1.45857   1.40550    0.022
 6071.00    1.45262   1.40874    0.023
 6072.00    1.44516   1.41017    0.023
 6073.00    1.42395   1.40922    0.023
 6074.00    1.39768   1.40587    0.023
 6075.00    1.37476   1.40128    0.023
 6076.00    1.35288   1.39456    0.023
 6077.00    1.36574   1.38705    0.023
 6078.00    1.38762   1.38015    0.023
 6079.00    1.39850   1.37289    0.023
 6080.00    1.40707   1.36631    0.023
 6081.00    1.38939   1.36113    0.023
 6082.00    1.36733   1.35693    0.023
 6083.00    1.36544   1.35417    0.022
 6084.00    1.36608   1.35224    0.022
 6085.00    1.37691   1.35042    0.022
 6086.00    1.38864   1.34991    0.023
 6087.00    1.37996   1.34970    0.022
 6088.00    1.37023   1.34905    0.022
 6089.00    1.35431   1.34921    0.022
 6090.00    1.33875   1.34964    0.022
 6091.00    1.35727   1.35062    0.022
 6092.00    1.37508   1.35202    0.022
 6093.00    1.37775   1.35364    0.021
 6094.00    1.37988   1.35502    0.021
 6095.00    1.37553   1.35542    0.022
 6096.00    1.37137   1.35492    0.022
 6097.00    1.36876   1.35378    0.022
 6098.00    1.36391   1.35174    0.022
 6099.00    1.34523   1.34882    0.022
 6100.00    1.32933   1.34382    0.022
 6101.00    1.32701   1.33904    0.022
 6102.00    1.32434   1.33784    0.023
 6103.00    1.32026   1.33731    0.023
 6104.00    1.31444   1.33881    0.023
 6105.00    1.30289   1.34111    0.023
 6106.00    1.30123   1.34379    0.023
 6107.00    1.32709   1.35027    0.023
 6108.00    1.35477   1.35637    0.023
 6109.00    1.38678   1.36088    0.023
 6110.00    1.41150   1.36510    0.023
 6111.00    1.42123   1.36781    0.023
 6112.00    1.42457   1.36980    0.023
 6113.00    1.41649   1.37055    0.023
 6114.00    1.41511   1.36790    0.023
 6115.00    1.42422   1.36400    0.023
 6116.00    1.42137   1.35985    0.022
 6117.00    1.40208   1.35396    0.022
 6118.00    1.38203   1.34755    0.022
 6119.00    1.36103   1.34080    0.021
 6120.00    1.34576   1.33369    0.021
 6121.00    1.33659   1.32986    0.022
 6122.00    1.32455   1.32793    0.022
 6123.00    1.30983   1.32668    0.022
 6124.00    1.30796   1.32772    0.022
 6125.00    1.31673   1.32881    0.022
 6126.00    1.33739   1.33130    0.022
 6127.00    1.36672   1.33461    0.022
 6128.00    1.38970   1.33637    0.022
 6129.00    1.40861   1.33667    0.022
 6130.00    1.39692   1.33446    0.022
 6131.00    1.36809   1.33089    0.022
 6132.00    1.34416   1.32570    0.022
 6133.00    1.32263   1.31887    0.022
 6134.00    1.32243   1.31082    0.023
 6135.00    1.33122   1.30217    0.023
 6136.00    1.34193   1.29750    0.023
 6137.00    1.35332   1.29617    0.024
 6138.00    1.37291   1.29740    0.024
 6139.00    1.39499   1.30081    0.024
 6140.00    1.39991   1.30545    0.023
 6141.00    1.40047   1.31383    0.023
 6142.00    1.41289   1.32329    0.023
 6143.00    1.42776   1.33165    0.023
 6144.00    1.42337   1.33836    0.022
 6145.00    1.41585   1.34255    0.022
 6146.00    1.40505   1.34558    0.022
 6147.00    1.39384   1.34672    0.022
 6148.00    1.39488   1.34587    0.022
 6149.00    1.39694   1.34427    0.021
 6150.00    1.40370   1.34136    0.021
 6151.00    1.41069   1.33797    0.022
 6152.00    1.39682   1.33324    0.021
 6153.00    1.38198   1.32700    0.021
 6154.00    1.32843   1.31990    0.022
 6155.00    1.27629   1.31080    0.022
 6156.00    1.25203   1.30050    0.022
 6157.00    1.22918   1.28882    0.023
 6158.00    1.22260   1.27559    0.023
 6159.00    1.21623   1.26143    0.023
 6160.00    1.21154   1.24821    0.023
 6161.00    1.20743   1.23751    0.023
 6162.00    1.20679   1.22955    0.023
 6163.00    1.20619   1.22498    0.023
 6164.00    1.20580   1.22276    0.023
 6165.00    1.20783   1.22397    0.023
 6166.00    1.21919   1.22741    0.022
 6167.00    1.23037   1.23158    0.022
 6168.00    1.24094   1.23745    0.022
 6169.00    1.25240   1.24464    0.022
 6170.00    1.26629   1.25244    0.022
 6171.00    1.27906   1.26000    0.022
 6172.00    1.28918   1.26738    0.022
 6173.00    1.29789   1.27451    0.022
 6174.00    1.30373   1.28222    0.021
 6175.00    1.31184   1.28953    0.021
 6176.00    1.32398   1.29632    0.022
 6177.00    1.32555   1.30254    0.022
 6178.00    1.31082   1.30699    0.022
 6179.00    1.29645   1.31076    0.021
 6180.00    1.28256   1.31321    0.022
 6181.00    1.28033   1.31407    0.022
 6182.00    1.29198   1.31357    0.022
 6183.00    1.30570   1.31097    0.022
 6184.00    1.32160   1.30590    0.022
 6185.00    1.33626   1.30004    0.022
 6186.00    1.34977   1.29375    0.023
 6187.00    1.34583   1.28721    0.023
 6188.00    1.32760   1.28161    0.023
 6189.00    1.29859   1.27554    0.023
 6190.00    1.26181   1.27237    0.023
 6191.00    1.25814   1.27274    0.023
 6192.00    1.27538   1.27402    0.023
 6193.00    1.29663   1.27771    0.023
 6194.00    1.32011   1.28199    0.023
 6195.00    1.33587   1.28721    0.023
 6196.00    1.34794   1.29310   -2.000
 6197.00    1.43572   1.29733   -2.000
 6198.00    1.55489   1.30140   -2.000
 6199.00    1.54243   1.30557   -2.000
 6200.00    1.48330   1.30940   -2.000
 6201.00    1.29779   1.31289   -2.000
 6202.00    1.07447   1.31560   -2.000
 6203.00    1.01543   1.31762   -2.000
 6204.00    0.99721   1.31929   -2.000
 6205.00    1.05983   1.31995   -2.000
 6206.00    1.13873   1.31861   -2.000
 6207.00    1.20809   1.31550   -2.000
 6208.00    1.27596   1.31011    0.023
 6209.00    1.28022   1.30276    0.023
 6210.00    1.27704   1.29453    0.022
 6211.00    1.26266   1.28434    0.022
 6212.00    1.24740   1.27372    0.022
 6213.00    1.25346   1.26389    0.022
 6214.00    1.26046   1.25506    0.021
 6215.00    1.25127   1.24889    0.021
 6216.00    1.24228   1.24420    0.022
 6217.00    1.25143   1.24041    0.022
 6218.00    1.26247   1.23903    0.023
 6219.00    1.30818   1.23928    0.023
 6220.00    1.35059   1.24114    0.023
 6221.00    1.35663   1.24384    0.023
 6222.00    1.35955   1.24519    0.022
 6223.00    1.33833   1.24645    0.022
 6224.00    1.31704   1.24689    0.022
 6225.00    1.29531   1.24654    0.022
 6226.00    1.27881   1.24562    0.022
 6227.00    1.28657   1.24348    0.022
 6228.00    1.29441   1.24056    0.022
 6229.00    1.30253   1.23796    0.022
 6230.00    1.31109   1.23740    0.022
 6231.00    1.32104   1.23736    0.022
 6232.00    1.32610   1.23940    0.022
 6233.00    1.31804   1.24151    0.021
 6234.00    1.30677   1.24357    0.021
 6235.00    1.28811   1.24560    0.021
 6236.00    1.27443   1.24546    0.021
 6237.00    1.27065   1.24518    0.021
 6238.00    1.26240   1.24252    0.021
 6239.00    1.24637   1.23935    0.022
 6240.00    1.23221   1.23597    0.022
 6241.00    1.22089   1.23111    0.022
 6242.00    1.21476   1.22820    0.022
 6243.00    1.21555   1.22608    0.022
 6244.00    1.22182   1.22502    0.022
 6245.00    1.23452   1.22557    0.023
 6246.00    1.24417   1.22658    0.023
 6247.00    1.25065   1.22751    0.023
 6248.00    1.24287   1.22764    0.022
 6249.00    1.22205   1.22623    0.022
 6250.00    1.21418   1.22284    0.022
 6251.00    1.21675   1.21872    0.022
 6252.00    1.22575   1.21355    0.022
 6253.00    1.23931   1.20887    0.022
 6254.00    1.25099   1.20404    0.022
 6255.00    1.26150   1.20000    0.022
 6256.00    1.24775   1.19832    0.022
 6257.00    1.22082   1.19874    0.022
 6258.00    1.23331   1.20308    0.022
 6259.00    1.26442   1.20861    0.023
 6260.00    1.32546   1.21623    0.024
 6261.00    1.39869   1.22495    0.026
 6262.00    1.39944   1.23310    0.026
 6263.00    1.37497   1.24080    0.027
 6264.00    1.31403   1.24791    0.026
 6265.00    1.24239   1.25485    0.026
 6266.00    1.24237   1.26016    0.025
 6267.00    1.25975   1.26395    0.024
 6268.00    1.27232   1.26707    0.023
 6269.00    1.28393   1.26980    0.023
 6270.00    1.28639   1.27229    0.023
 6271.00    1.28744   1.27453    0.023
 6272.00    1.30450   1.27616    0.022
 6273.00    1.32337   1.27714    0.022
 6274.00    1.31881   1.27778    0.022
 6275.00    1.31249   1.27780    0.022
 6276.00    1.29717   1.27755    0.022
 6277.00    1.28150   1.27725    0.022
 6278.00    1.29478   1.27600    0.022
 6279.00    1.30844   1.27582    0.021
 6280.00    1.32884   1.27663    0.000
 6281.00    1.34771   1.27814    0.000
 6282.00    1.34038   1.28126    0.000
 6283.00    1.33326   1.28380    0.000
 6284.00    1.32833   1.28728    0.000
 6285.00    1.32106   1.29112    0.000
 6286.00    1.29633   1.29415    0.000
 6287.00    1.27187   1.29706    0.000
 6288.00    1.24894   1.29767    0.000
 6289.00    1.23477   1.29674    0.000
 6290.00    1.26032   1.29478    0.000
 6291.00    1.28451   1.29111    0.000
 6292.00    1.30365   1.28729    0.000
 6293.00    1.32117   1.28249    0.000
 6294.00    1.33364   1.27640    0.000
 6295.00    1.34171   1.27048    0.000
 6296.00    1.33819   1.26517    0.000
 6297.00    1.33220   1.26131    0.000
 6298.00    1.32066   1.25836    0.000
 6299.00    1.30965   1.25585    0.000
 6300.00    1.29971   1.25497    0.000
 6301.00    1.29425   1.25607    0.000
 6302.00    1.29644   1.25875    0.000
 6303.00    1.30739   1.26226    0.000
 6304.00    1.33143   1.26625    0.000
 6305.00    1.34620   1.27091    0.000
 6306.00    1.34875   1.27480    0.000
 6307.00    1.34764   1.27759    0.000
 6308.00    1.34230   1.27865    0.000
 6309.00    1.33479   1.27809    0.000
 6310.00    1.32507   1.27597    0.000
 6311.00    1.33268   1.27250    0.000
 6312.00    1.35592   1.26813    0.000
 6313.00    1.37334   1.26231    0.000
 6314.00    1.38613   1.25759    0.000
 6315.00    1.37210   1.25359    0.000
 6316.00    1.33930   1.24973    0.000
 6317.00    1.31147   1.24883    0.000
 6318.00    1.28668   1.24994    0.000
 6319.00    1.29292   1.25291    0.000
 6320.00    1.31578   1.25696    0.000
 6321.00    1.33890   1.26211    0.022
 6322.00    1.36216   1.26933    0.022
 6323.00    1.36918   1.27554    0.022
 6324.00    1.36969   1.28205    0.022
 6325.00    1.35878   1.28764    0.022
 6326.00    1.34398   1.29181    0.023
 6327.00    1.33198   1.29540    0.023
 6328.00    1.32080   1.29611    0.022
 6329.00    1.33485   1.29636    0.022
 6330.00    1.35488   1.29520    0.022
 6331.00    1.33928   1.29285    0.022
 6332.00    1.31685   1.28956    0.021
 6333.00    1.28964   1.28443    0.021
 6334.00    1.26171   1.27994    0.021
 6335.00    1.27850   1.27610    0.021
 6336.00    1.30015   1.27348    0.021
 6337.00    1.33343   1.27106    0.021
 6338.00    1.36755   1.27006    0.021
 6339.00    1.35662   1.27000    0.021
 6340.00    1.34406   1.26982    0.021
 6341.00    1.29806   1.27053    0.021
 6342.00    1.25294   1.27148    0.021
 6343.00    1.24290   1.27412    0.021
 6344.00    1.23399   1.27682    0.022
 6345.00    1.24313   1.27920    0.022
 6346.00    1.25269   1.28215    0.022
 6347.00    1.26665   1.28452    0.022
 6348.00    1.28077   1.28619    0.022
 6349.00    1.29613   1.28713    0.022
 6350.00    1.30888   1.28690    0.022
 6351.00    1.30716   1.28512    0.022
 6352.00    1.30937   1.28095    0.022
 6353.00    1.32891   1.27489    0.022
 6354.00    1.33934   1.26851    0.022
 6355.00    1.31664   1.26092    0.022
 6356.00    1.29350   1.25217    0.022
 6357.00    1.26901   1.24367    0.022
 6358.00    1.25715   1.23659    0.021
 6359.00    1.27802   1.23080    0.021
 6360.00    1.30129   1.22665    0.021
 6361.00    1.32992   1.22549    0.022
 6362.00    1.35100   1.22720    0.022
 6363.00    1.35749   1.23117    0.022
 6364.00    1.34949   1.23733    0.022
 6365.00    1.31706   1.24547    0.022
 6366.00    1.29347   1.25518    0.022
 6367.00    1.28290   1.26478    0.022
 6368.00    1.28691   1.27420    0.022
 6369.00    1.30981   1.28331    0.022
 6370.00    1.32787   1.29165    0.022
 6371.00    1.34039   1.29875    0.022
 6372.00    1.34756   1.30371    0.022
 6373.00    1.34936   1.30742    0.022
 6374.00    1.36150   1.30958    0.023
 6375.00    1.38285   1.31051    0.022
 6376.00    1.38882   1.31002    0.022
 6377.00    1.38273   1.30903    0.022
 6378.00    1.36090   1.30809    0.022
 6379.00    1.32823   1.30641    0.022
 6380.00    1.32681   1.30557    0.022
 6381.00    1.34425   1.30496    0.021
 6382.00    1.35771   1.30442    0.021
 6383.00    1.36908   1.30416    0.021
 6384.00    1.37308   1.30414    0.021
 6385.00    1.37371   1.30438    0.021
 6386.00    1.37093   1.30375    0.021
 6387.00    1.36679   1.30274    0.021
 6388.00    1.34647   1.30113    0.021
 6389.00    1.32072   1.29845    0.020
 6390.00    1.30694   1.29489    0.021
 6391.00    1.29652   1.29022    0.021
 6392.00    1.30157   1.28664    0.022
 6393.00    1.31021   1.28442    0.022
 6394.00    1.31440   1.28222    0.022
 6395.00    1.31775   1.28080    0.022
 6396.00    1.31541   1.27956    0.023
 6397.00    1.31225   1.27868    0.023
 6398.00    1.26342   1.27710    0.043
 6399.00    1.20983   1.27859    0.730
 6400.00    1.16364   1.28212   -1.000
 6401.00    1.11795   1.28419   -1.000
 6402.00    1.15112   1.28632   -1.000
 6403.00    1.18686   1.28751   -1.000
 6404.00    1.21425   1.28843   -1.000
 6405.00    1.24153   1.28803   -1.000
 6406.00    1.26521   1.28742   -1.000
 6407.00    1.28790   1.28805   -1.000
 6408.00    1.29572   1.28734   -1.000
 6409.00    1.30342   1.28515    0.437
 6410.00    1.30987   1.28349    0.037
 6411.00    1.31411   1.28274    0.021
 6412.00    1.30284   1.28178    0.021
 6413.00    1.29375   1.28116    0.021
 6414.00    1.29633   1.28162    0.021
 6415.00    1.30117   1.28186    0.021
 6416.00    1.31574   1.28149    0.021
 6417.00    1.32424   1.28126    0.022
 6418.00    1.31116   1.28160    0.022
 6419.00    1.30155   1.28242    0.022
 6420.00    1.30233   1.28440    0.022
 6421.00    1.30349   1.28781    0.022
 6422.00    1.30564   1.29051    0.022
 6423.00    1.30274   1.29323    0.022
 6424.00    1.28878   1.29587    0.022
 6425.00    1.29373   1.29808    0.022
 6426.00    1.33464   1.29937    0.022
 6427.00    1.37352   1.29961    0.022
 6428.00    1.40903   1.29866    0.022
 6429.00    1.41719   1.29629    0.022
 6430.00    1.38558   1.29486    0.022
 6431.00    1.34838   1.29375    0.022
 6432.00    1.30404   1.29310    0.022
 6433.00    1.29479   1.29281    0.021
 6434.00    1.32508   1.29287    0.021
 6435.00    1.34760   1.29350    0.021
 6436.00    1.36240   1.29417    0.021
 6437.00    1.37306   1.29567    0.022
 6438.00    1.38009   1.29915    0.022
 6439.00    1.39132   1.30288    0.022
 6440.00    1.40580   1.30581    0.022
 6441.00    1.40803   1.30823    0.022
 6442.00    1.40193   1.30979    0.022
 6443.00    1.38574   1.31016    0.022
 6444.00    1.36354   1.30906    0.022
 6445.00    1.34919   1.30661    0.022
 6446.00    1.33891   1.30250    0.023
 6447.00    1.34012   1.29615    0.023
 6448.00    1.34650   1.28933    0.023
 6449.00    1.35713   1.28521    0.023
 6450.00    1.36940   1.28206    0.023
 6451.00    1.36221   1.28045    0.023
 6452.00    1.34862   1.28026    0.022
 6453.00    1.33840   1.28065    0.022
 6454.00    1.32911   1.28224    0.022
 6455.00    1.34186   1.28514    0.021
 6456.00    1.35961   1.28919    0.021
 6457.00    1.36762   1.29256    0.021
 6458.00    1.37387   1.29452    0.021
 6459.00    1.36613   1.29553    0.021
 6460.00    1.35644   1.29463    0.021
 6461.00    1.35011   1.29367    0.022
 6462.00    1.34410   1.29471    0.022
 6463.00    1.33229   1.29529    0.021
 6464.00    1.32011   1.29642    0.021
 6465.00    1.31665   1.29731    0.021
 6466.00    1.31356   1.29881    0.022
 6467.00    1.34595   1.29957    0.022
 6468.00    1.37806   1.30077    0.022
 6469.00    1.40239   1.30235    0.022
 6470.00    1.42432   1.30324    0.022
 6471.00    1.41240   1.30449    0.022
 6472.00    1.40149   1.30456    0.022
 6473.00    1.39989   1.30414    0.022
 6474.00    1.39729   1.30319    0.022
 6475.00    1.38793   1.30266    0.022
 6476.00    1.37881   1.30109    0.022
 6477.00    1.37094   1.29910    0.022
 6478.00    1.36391   1.29698    0.021
 6479.00    1.36040   1.29409    0.021
 6480.00    1.35721   1.29056    0.021
 6481.00    1.35511   1.28779    0.021
 6482.00    1.35343   1.28587    0.021
 6483.00    1.35299   1.28366    0.021
 6484.00    1.35468   1.28125    0.021
 6485.00    1.36169   1.27805    0.021
 6486.00    1.36623   1.27386    0.021
 6487.00    1.36546   1.26781    0.021
 6488.00    1.35593   1.25978    0.021
 6489.00    1.32999   1.25005    0.022
 6490.00    1.30730   1.23818    0.022
 6491.00    1.28991   1.22518    0.022
 6492.00    1.27337   1.21087    0.022
 6493.00    1.25805   1.19817    0.022
 6494.00    1.24157   1.18870    0.022
 6495.00    1.22364   1.18192    0.022
 6496.00    1.23014   1.18005    0.022
 6497.00    1.26379   1.18122    0.022
 6498.00    1.30229   1.18698    0.022
 6499.00    1.34554   1.19595    0.022
 6500.00    1.36059   1.20700    0.022
 6501.00    1.35128   1.22017    0.022
 6502.00    1.33546   1.23310    0.021
 6503.00    1.31470   1.24594    0.021
 6504.00    1.30937   1.25705    0.021
 6505.00    1.31438   1.26653    0.021
 6506.00    1.32584   1.27400    0.021
 6507.00    1.34108   1.27951    0.021
 6508.00    1.35941   1.28359    0.021
 6509.00    1.37932   1.28614    0.021
 6510.00    1.39392   1.28707    0.021
 6511.00    1.40617   1.28707    0.021
 6512.00    1.40476   1.28614    0.022
 6513.00    1.39817   1.28444    0.022
 6514.00    1.37704   1.28243    0.022
 6515.00    1.35122   1.28079    0.021
 6516.00    1.35268   1.27945    0.022
 6517.00    1.36151   1.27843    0.022
 6518.00    1.36383   1.27888    0.022
 6519.00    1.36472   1.27955    0.022
 6520.00    1.37004   1.28078    0.022
 6521.00    1.37614   1.28207    0.022
 6522.00    1.39144   1.28357    0.022
 6523.00    1.40799   1.28490    0.022
 6524.00    1.40654   1.28554    0.022
 6525.00    1.40337   1.28579    0.021
 6526.00    1.38821   1.28594    0.021
 6527.00    1.37233   1.28588    0.020
 6528.00    1.35934   1.28554    0.000
 6529.00    1.34659   1.28510    0.000
 6530.00    1.35727   1.28473    0.000
 6531.00    1.36780   1.28480    0.000
 6532.00    1.37463   1.28538    0.000
 6533.00    1.38072   1.28669    0.000
 6534.00    1.37698   1.28806    0.000
 6535.00    1.37260   1.28915    0.000
 6536.00    1.36248   1.29008    0.000
 6537.00    1.35421   1.29060    0.000
 6538.00    1.35806   1.29043    0.000
 6539.00    1.35943   1.28896    0.000
 6540.00    1.34811   1.28644    0.000
 6541.00    1.33874   1.28293    0.000
 6542.00    1.33742   1.27824    0.000
 6543.00    1.34360   1.27323    0.000
 6544.00    1.37535   1.26724    0.000
 6545.00    1.40138   1.26185    0.000
 6546.00    1.41096   1.25674    0.000
 6547.00    1.41229   1.25142    0.000
 6548.00    1.39338   1.24629    0.000
 6549.00    1.37228   1.24048    0.000
 6550.00    1.34656   1.23459    0.000
 6551.00    1.32608   1.22757    0.000
 6552.00    1.31525   1.21944    0.000
 6553.00    1.30249   1.21026    0.000
 6554.00    1.28663   1.19944    0.000
 6555.00    1.27292   1.18765    0.000
 6556.00    1.26224   1.17396    0.000
 6557.00    1.26209   1.15934    0.000
 6558.00    1.27505   1.14380    0.000
 6559.00    1.29688   1.12881    0.000
 6560.00    1.32844   1.11517    0.000
 6561.00    1.34223   1.10439    0.000
 6562.00    1.33883   1.10071    0.000
 6563.00    1.31568   1.10150    0.000
 6564.00    1.27570   1.10630    0.000
 6565.00    1.25784   1.11484    0.000
 6566.00    1.25656   1.12609    0.000
 6567.00    1.27917   1.13871    0.000
 6568.00    1.31753   1.15179    0.000
 6569.00    1.34460   1.16522    0.000
 6570.00    1.36515   1.17711    0.000
 6571.00    1.37424   1.18728    0.000
 6572.00    1.37756   1.19634    0.000
 6573.00    1.36904   1.20365    0.000
 6574.00    1.35536   1.21066    0.000
 6575.00    1.34593   1.21710    0.000
 6576.00    1.33809   1.22310    0.000
 6577.00    1.33985   1.22861    0.000
 6578.00    1.34466   1.23371    0.000
 6579.00    1.35800   1.23833    0.000
 6580.00    1.37359   1.24258    0.000
 6581.00    1.39376   1.24650    0.000
 6582.00    1.41492   1.24939    0.000
 6583.00    1.41201   1.25167    0.000
 6584.00    1.40498   1.25293    0.000
 6585.00    1.38000   1.25330    0.000
 6586.00    1.35270   1.25301    0.000
 6587.00    1.35504   1.25136    0.000
 6588.00    1.36009   1.24893    0.000
 6589.00    1.33710   1.24536    0.000
 6590.00    1.31255   1.24142    0.000
 6591.00    1.29809   1.23721    0.000
 6592.00    1.28392   1.23408    0.000
 6593.00    1.27685   1.23250    0.000
 6594.00    1.27049   1.23156    0.000
 6595.00    1.28050   1.23209    0.000
 6596.00    1.29089   1.23359    0.000
 6597.00    1.30622   1.23616    0.000
 6598.00    1.32033   1.23940    0.000
 6599.00    1.32400   1.24266    0.000
 6600.00    1.32747   1.24543    0.000
 6601.00    1.32969   1.24722    0.000
 6602.00    1.33087   1.24817    0.000
 6603.00    1.32686   1.24778    0.000
 6604.00    1.31983   1.24680    0.000
 6605.00    1.30065   1.24524    0.000
 6606.00    1.28509   1.24394    0.000
 6607.00    1.28164   1.24301    0.000
 6608.00    1.28310   1.24320    0.000
 6609.00    1.29844   1.24460    0.022
 6610.00    1.31802   1.24662    0.023
 6611.00    1.34783   1.24971    0.022
 6612.00    1.37089   1.25310    0.022
 6613.00    1.37984   1.25732    0.022
 6614.00    1.38576   1.26119    0.022
 6615.00    1.38616   1.26458    0.022
 6616.00    1.38251   1.26733    0.021
 6617.00    1.37242   1.26918    0.021
 6618.00    1.35903   1.27016    0.021
 6619.00    1.34106   1.26969    0.021
 6620.00    1.33949   1.26823    0.021
 6621.00    1.35799   1.26560    0.021
 6622.00    1.37444   1.26259    0.022
 6623.00    1.38866   1.25883    0.022
 6624.00    1.38327   1.25527    0.022
 6625.00    1.35922   1.25137    0.022
 6626.00    1.34210   1.24744    0.022
 6627.00    1.33081   1.24363    0.022
 6628.00    1.31948   1.23982    0.022
 6629.00    1.30812   1.23630    0.022
 6630.00    1.30504   1.23301    0.022
 6631.00    1.30734   1.23040    0.022
 6632.00    1.31101   1.22841    0.023
 6633.00    1.31548   1.22771    0.023
 6634.00    1.32667   1.22769    0.023
 6635.00    1.34118   1.22821    0.022
 6636.00    1.34012   1.22913    0.022
 6637.00    1.33239   1.23044    0.021
 6638.00    1.31653   1.23178    0.021
 6639.00    1.29770   1.23309    0.021
 6640.00    1.29162   1.23426    0.021
 6641.00    1.28951   1.23492    0.021
 6642.00    1.30072   1.23568    0.021
 6643.00    1.31537   1.23659    0.021
 6644.00    1.32329   1.23729    0.021
 6645.00    1.32979   1.23801    0.021
 6646.00    1.32351   1.23875    0.022
 6647.00    1.31511   1.23974    0.022
 6648.00    1.31158   1.24070    0.022
 6649.00    1.30866   1.24158    0.022
 6650.00    1.30135   1.24203    0.022
 6651.00    1.29367   1.24237    0.022
 6652.00    1.27945   1.24244    0.022
 6653.00    1.26489   1.24195    0.022
 6654.00    1.28084   1.24095    0.022
 6655.00    1.29707   1.23912    0.022
 6656.00    1.29514   1.23707    0.022
 6657.00    1.29207   1.23415    0.022
 6658.00    1.26515   1.23095    0.022
 6659.00    1.24147   1.22705    0.021
 6660.00    1.25676   1.22351    0.021
 6661.00    1.27056   1.21999    0.021
 6662.00    1.27203   1.21713    0.021
 6663.00    1.27485   1.21546    0.021
 6664.00    1.28599   1.21436    0.021
 6665.00    1.29723   1.21470    0.020
 6666.00    1.30893   1.21581    0.021
 6667.00    1.31606   1.21799    0.021
 6668.00    1.30513   1.22042    0.021
 6669.00    1.29907   1.22297    0.021
 6670.00    1.30902   1.22497    0.021
 6671.00    1.31597   1.22634    0.021
 6672.00    1.31461   1.22684    0.021
 6673.00    1.31313   1.22612    0.021
 6674.00    1.31136   1.22424    0.022
 6675.00    1.30626   1.22207    0.022
 6676.00    1.29433   1.21961    0.022
 6677.00    1.27910   1.21779    0.022
 6678.00    1.25794   1.21687    0.022
 6679.00    1.24442   1.21642    0.021
 6680.00    1.24282   1.21721    0.021
 6681.00    1.25248   1.21877    0.021
 6682.00    1.27760   1.22111    0.021
 6683.00    1.29167   1.22382    0.021
 6684.00    1.29240   1.22638    0.021
 6685.00    1.28758   1.22894    0.021
 6686.00    1.27687   1.23087    0.021
 6687.00    1.28089   1.23254    0.021
 6688.00    1.29874   1.23308    0.021
 6689.00    1.31029   1.23296    0.021
 6690.00    1.31662   1.23205    0.021
 6691.00    1.31435   1.23046    0.021
 6692.00    1.30582   1.22827    0.022
 6693.00    1.29414   1.22582    0.022
 6694.00    1.28044   1.22326    0.022
 6695.00    1.28078   1.22090    0.022
 6696.00    1.28899   1.21918    0.000
 6697.00    1.28036   1.21759    0.000
 6698.00    1.26354   1.21674    0.000
 6699.00    1.27379   1.21589    0.000
 6700.00    1.29542   1.21545    0.000
 6701.00    1.30979   1.21507    0.000
 6702.00    1.32153   1.21481    0.000
 6703.00    1.29783   1.21448    0.000
 6704.00    1.26333   1.21395    0.000
 6705.00    1.23504   1.21330    0.000
 6706.00    1.20833   1.21190    0.000
 6707.00    1.23776   1.21035    0.000
 6708.00    1.27875   1.20805    0.000
 6709.00    1.33720   1.20517    0.000
 6710.00    1.39847   1.20198    0.000
 6711.00    1.40296   1.19818    0.000
 6712.00    1.40058   1.19442    0.000
 6713.00    1.37087   1.19064    0.000
 6714.00    1.33889   1.18740    0.000
 6715.00    1.34802   1.18518    0.000
 6716.00    1.35910   1.18384    0.000
 6717.00    1.36009   1.18397    0.000
 6718.00    1.36044   1.18490    0.000
 6719.00    1.33263   1.18714    0.000
 6720.00    1.30693   1.18991    0.000
 6721.00    1.32243   1.19332    0.000
 6722.00    1.33937   1.19677    0.000
 6723.00    1.37287   1.20021    0.000
 6724.00    1.39738   1.20338    0.000
 6725.00    1.35020   1.20622    0.000
 6726.00    1.30517   1.20880    0.000
 6727.00    1.27302   1.21077    0.000
 6728.00    1.25195   1.21232    0.000
 6729.00    1.28341   1.21323    0.000
 6730.00    1.30793   1.21379    0.000
 6731.00    1.30566   1.21377    0.000
 6732.00    1.29649   1.21340    0.000
 6733.00    1.26515   1.21240    0.000
 6734.00    1.24539   1.21097    0.000
 6735.00    1.25723   1.20912    0.000
 6736.00    1.25791   1.20699    0.000
 6737.00    1.23251   1.20487    0.000
 6738.00    1.21361   1.20252    0.000
 6739.00    1.20783   1.20031    0.000
 6740.00    1.21450   1.19813    0.000
 6741.00    1.24305   1.19624    0.000
 6742.00    1.25644   1.19437    0.000
 6743.00    1.24649   1.19290    0.000
 6744.00    1.24687   1.19128    0.000
 6745.00    1.26122   1.19012    0.000
 6746.00    1.27189   1.18885    0.000
 6747.00    1.27820   1.18825    0.000
 6748.00    1.28312   1.18789    0.000
 6749.00    1.28660   1.18792    0.000
 6750.00    1.28399   1.18896    0.000
 6751.00    1.27574   1.19026    0.000
 6752.00    1.27314   1.19269    0.000
 6753.00    1.27514   1.19553    0.023
 6754.00    1.28663   1.19909    0.023
 6755.00    1.30494   1.20281    0.024
 6756.00    1.29599   1.20662    0.024
 6757.00    1.26984   1.21017    0.024
 6758.00    1.23505   1.21303    0.024
 6759.00    1.19549   1.21535    0.025
 6760.00    1.23240   1.21653    0.025
 6761.00    1.30596   1.21691    0.026
 6762.00    1.37310   1.21613    0.027
 6763.00    1.43757   1.21456    0.027
 6764.00    1.42771   1.21245    0.027
 6765.00    1.39156   1.21022    0.026
 6766.00    1.38199   1.20808    0.025
 6767.00    1.38035   1.20623    0.025
 6768.00    1.39306   1.20527    0.024
 6769.00    1.40933   1.20503    0.024
 6770.00    1.38754   1.20597    0.024
 6771.00    1.35813   1.20755    0.023
 6772.00    1.36398   1.20993    0.023
 6773.00    1.37537   1.21248    0.022
 6774.00    1.37616   1.21498    0.023
 6775.00    1.37572   1.21725    0.023
 6776.00    1.32535   1.21852    0.023
 6777.00    1.27103   1.21906    0.023
 6778.00    1.28889   1.21813    0.023
 6779.00    1.30989   1.21629    0.024
 6780.00    1.31207   1.21329    0.024
 6781.00    1.31314   1.21000    0.025
 6782.00    1.27113   1.20646    0.024
 6783.00    1.23315   1.20317    0.024
 6784.00    1.26824   1.20061    0.024
 6785.00    1.30340   1.19846    0.024
 6786.00    1.33939   1.19735    0.024
 6787.00    1.37023   1.19680    0.024
 6788.00    1.36146   1.19705    0.024
 6789.00    1.35483   1.19743    0.024
 6790.00    1.36073   1.19808    0.024
 6791.00    1.35847   1.19892    0.024
 6792.00    1.31851   1.19949    0.023
 6793.00    1.28931   1.20038    0.023
 6794.00    1.30083   1.20100    0.023
 6795.00    1.31007   1.20184    0.023
 6796.00    1.31213   1.20264    0.023
 6797.00    1.31859   1.20359    0.023
 6798.00    1.33683   1.20456    0.023
 6799.00    1.35059   1.20543    0.023
 6800.00    1.35403   1.20614    0.024
 6801.00    1.35495   1.20682    0.024
 6802.00    1.35085   1.20718    0.024
 6803.00    1.33810   1.20715    0.024
 6804.00    1.31038   1.20714    0.024
 6805.00    1.28350   1.20674    0.024
 6806.00    1.25788   1.20618    0.023
 6807.00    1.24954   1.20567    0.023
 6808.00    1.26424   1.20518    0.023
 6809.00    1.28118   1.20470    0.023
 6810.00    1.30076   1.20440    0.023
 6811.00    1.32139   1.20408    0.023
 6812.00    1.34311   1.20434    0.023
 6813.00    1.34899   1.20475    0.023
 6814.00    1.34039   1.20543    0.023
 6815.00    1.31128   1.20624    0.023
 6816.00    1.26564   1.20718    0.023
 6817.00    1.24541   1.20839    0.023
 6818.00    1.24318   1.20979    0.023
 6819.00    1.26638   1.21117    0.023
 6820.00    1.30537   1.21245    0.023
 6821.00    1.32718   1.21353    0.023
 6822.00    1.33965   1.21436    0.024
 6823.00    1.34996   1.21480    0.023
 6824.00    1.35925   1.21478    0.023
 6825.00    1.34401   1.21455    0.023
 6826.00    1.31878   1.21431    0.023
 6827.00    1.31577   1.21376    0.024
 6828.00    1.32046   1.21311    0.024
 6829.00    1.33382   1.21219    0.024
 6830.00    1.34971   1.21134    0.023
 6831.00    1.37413   1.21025    0.023
 6832.00    1.40062   1.20877    0.023
 6833.00    1.39715   1.20667    0.023
 6834.00    1.38783   1.20412    0.023
 6835.00    1.36592   1.20078    0.023
 6836.00    1.34209   1.19714    0.024
 6837.00    1.35234   1.19309    0.024
 6838.00    1.36641   1.18928    0.024
 6839.00    1.35463   1.18605    0.024
 6840.00    1.34093   1.18369    0.024
 6841.00    1.30724   1.18245    0.024
 6842.00    1.27275   1.18224    0.024
 6843.00    1.30009   1.18317    0.024
 6844.00    1.32767   1.18499    0.024
 6845.00    1.34801   1.18736    0.024
 6846.00    1.36637   1.18984    0.024
 6847.00    1.35129   1.19212    0.024
 6848.00    1.34005   1.19376    0.023
 6849.00    1.36887   1.19463    0.023
 6850.00    1.39300   1.19439    0.023
 6851.00    1.38234   1.19307    0.023
 6852.00    1.36681   1.19116    0.023
 6853.00    1.32368   1.18880    0.022
 6854.00    1.28889   1.18601    0.022
 6855.00    1.29178   1.18339    0.022
 6856.00    1.29356   1.18090    0.022
 6857.00    1.29117   1.17879    0.022
 6858.00    1.28093   1.17735    0.022
 6859.00    1.24635   1.17673    0.023
 6860.00    1.22045   1.17672    0.023
 6861.00    1.21737   1.17690    0.023
 6862.00    1.22352   1.17743    0.023
 6863.00    1.25051   1.17785    0.023
 6864.00    1.26727   1.17831    0.023
 6865.00    1.26403   1.17866    0.024
 6866.00    1.25897   1.17902    0.024
 6867.00    1.25083   1.17904    0.024
 6868.00    1.25793   1.17892    0.024
 6869.00    1.28779   1.17889    0.024
 6870.00    1.30636   1.17904    0.024
 6871.00    1.31010   1.17931    0.023
 6872.00    1.31669   1.17983    0.023
 6873.00    1.32658   1.18058    0.023
 6874.00    1.32489   1.18159    0.023
 6875.00    1.31140   1.18244    0.023
 6876.00    1.27788   1.18341    0.022
 6877.00    1.22632   1.18404    0.022
 6878.00    1.21001   1.18479    0.023
 6879.00    1.22166   1.18530    0.024
 6880.00    1.23151   1.18620    0.024
 6881.00    1.24011   1.18712    0.024
 6882.00    1.26964   1.18837    0.024
 6883.00    1.31199   1.19006    0.024
 6884.00    1.32668   1.19229    0.024
 6885.00    1.32658   1.19495    0.024
 6886.00    1.32924   1.19787    0.024
 6887.00    1.33319   1.20103    0.024
 6888.00    1.32106   1.20405    0.023
 6889.00    1.30249   1.20680    0.023
 6890.00    1.29925   1.20921    0.023
 6891.00    1.30123   1.21105    0.023
 6892.00    1.32813   1.21242    0.023
 6893.00    1.36217   1.21329    0.023
 6894.00    1.34726   1.21389    0.023
 6895.00    1.32075   1.21416    0.023
 6896.00    1.28072   1.21434    0.022
 6897.00    1.23810   1.21455    0.022
 6898.00    1.24868   1.21491    0.022
 6899.00    1.26712   1.21542    0.023
 6900.00    1.26543   1.21599    0.023
 6901.00    1.26157   1.21679    0.023
 6902.00    1.26067   1.21751    0.023
 6903.00    1.25998   1.21840    0.024
 6904.00    1.25263   1.21888    0.023
 6905.00    1.24505   1.21925    0.023
 6906.00    1.20970   1.21909    0.023
 6907.00    1.17567   1.21853    0.023
 6908.00    1.19050   1.21735    0.023
 6909.00    1.20718   1.21580    0.024
 6910.00    1.25308   1.21384    0.023
 6911.00    1.29486   1.21163    0.023
 6912.00    1.29521   1.20964    0.023
 6913.00    1.29144   1.20752    0.023
 6914.00    1.25800   1.20609    0.022
 6915.00    1.22829   1.20480    0.022
 6916.00    1.21919   1.20421    0.022
 6917.00    1.21521   1.20378    0.023
 6918.00    1.23385   1.20359    0.023
 6919.00    1.25445   1.20343    0.023
 6920.00    1.28219   1.20302    0.023
 6921.00    1.30289   1.20264    0.023
 6922.00    1.30220   1.20190    0.023
 6923.00    1.29216   1.20126    0.023
 6924.00    1.25795   1.20042    0.023
 6925.00    1.23658   1.19976    0.024
 6926.00    1.24376   1.19924    0.024
 6927.00    1.24479   1.19896    0.024
 6928.00    1.23396   1.19907    0.024
 6929.00    1.24215   1.19939    0.024
 6930.00    1.28232   1.20009    0.024
 6931.00    1.29260   1.20096    0.023
 6932.00    1.25888   1.20197    0.023
 6933.00    1.23802   1.20302    0.023
 6934.00    1.23381   1.20408    0.023
 6935.00    1.23931   1.20504    0.023
 6936.00    1.25588   1.20578    0.023
 6937.00    1.28338   1.20617    0.023
 6938.00    1.32189   1.20616    0.023
 6939.00    1.32969   1.20558    0.023
 6940.00    1.31025   1.20474    0.023
 6941.00    1.30277   1.20341    0.023
 6942.00    1.30465   1.20198    0.023
 6943.00    1.29540   1.20042    0.024
 6944.00    1.27850   1.19892    0.024
 6945.00    1.26824   1.19750    0.024
 6946.00    1.26198   1.19638    0.024
 6947.00    1.25027   1.19552    0.024
 6948.00    1.23570   1.19497    0.024
 6949.00    1.21832   1.19478    0.024
 6950.00    1.19965   1.19488    0.024
 6951.00    1.21668   1.19538    0.024
 6952.00    1.24772   1.19615    0.024
 6953.00    1.25648   1.19736    0.023
 6954.00    1.25779   1.19883    0.023
 6955.00    1.22309   1.20076    0.023
 6956.00    1.17828   1.20290    0.023
 6957.00    1.18037   1.20528    0.023
 6958.00    1.19331   1.20776    0.022
 6959.00    1.22063   1.21013    0.023
 6960.00    1.25062   1.21242    0.023
 6961.00    1.27320   1.21443    0.024
 6962.00    1.29473   1.21630    0.024
 6963.00    1.30662   1.21765    0.024
 6964.00    1.31752   1.21879    0.024
 6965.00    1.31276   1.21922    0.024
 6966.00    1.30694   1.21938    0.025
 6967.00    1.28849   1.21885    0.025
 6968.00    1.26965   1.21767    0.025
 6969.00    1.30130   1.21566    0.025
 6970.00    1.33191   1.21278    0.025
 6971.00    1.33044   1.20915    0.025
 6972.00    1.32498   1.20463    0.025
 6973.00    1.26027   1.19978    0.024
 6974.00    1.20215   1.19493    0.023
 6975.00    1.20731   1.19049    0.024
 6976.00    1.21337   1.18681    0.024
 6977.00    1.22569   1.18441    0.023
 6978.00    1.23826   1.18346    0.023
 6979.00    1.25216   1.18415    0.023
 6980.00    1.26494   1.18634    0.023
 6981.00    1.27288   1.18981    0.024
 6982.00    1.27482   1.19411    0.024
 6983.00    1.25544   1.19877    0.024
 6984.00    1.24687   1.20340    0.024
 6985.00    1.27055   1.20767    0.025
 6986.00    1.28256   1.21132    0.025
 6987.00    1.26494   1.21415    0.025
 6988.00    1.24455   1.21619    0.025
 6989.00    1.21810   1.21749    0.025
 6990.00    1.20344   1.21824    0.025
 6991.00    1.21114   1.21838    0.024
 6992.00    1.22174   1.21807    0.024
 6993.00    1.23715   1.21716    0.024
 6994.00    1.25479   1.21585    0.024
 6995.00    1.27568   1.21416    0.024
 6996.00    1.27486   1.21217    0.024
 6997.00    1.24636   1.20988    0.023
 6998.00    1.23356   1.20733    0.023
 6999.00    1.23845   1.20485    0.023
 7000.00    1.24971   1.20244    0.024
 7001.00    1.26729   1.20038    0.024
 7002.00    1.29164   1.19861    0.025
 7003.00    1.32192   1.19730    0.025
 7004.00    1.31720   1.19634    0.025
 7005.00    1.28551   1.19567    0.025
 7006.00    1.24764   1.19527    0.025
 7007.00    1.20559   1.19490    0.025
 7008.00    1.19353   1.19453    0.025
 7009.00    1.19929   1.19380    0.025
 7010.00    1.22044   1.19287    0.025
 7011.00    1.24956   1.19166    0.024
 7012.00    1.25541   1.19053    0.025
 7013.00    1.25083   1.18924    0.025
 7014.00    1.25398   1.18821    0.025
 7015.00    1.26012   1.18735    0.024
 7016.00    1.25521   1.18702    0.024
 7017.00    1.24668   1.18695    0.024
 7018.00    1.23643   1.18744    0.024
 7019.00    1.22569   1.18811    0.024
 7020.00    1.23284   1.18917    0.024
 7021.00    1.24404   1.19013    0.025
 7022.00    1.24030   1.19128    0.025
 7023.00    1.23386   1.19233    0.025
 7024.00    1.23637   1.19356    0.025
 7025.00    1.24012   1.19479    0.026
 7026.00    1.21054   1.19622    0.026
 7027.00    1.17766   1.19770    0.026
 7028.00    1.19014   1.19937    0.026
 7029.00    1.20547   1.20096    0.025
 7030.00    1.20828   1.20258    0.025
 7031.00    1.21076   1.20404    0.025
 7032.00    1.21985   1.20550    0.025
 7033.00    1.23101   1.20691    0.025
 7034.00    1.29895   1.20861    0.025
 7035.00    1.35867   1.21045    0.025
 7036.00    1.30286   1.21279    0.025
 7037.00    1.25255   1.21549    0.024
 7038.00    1.25289   1.21882    0.025
 7039.00    1.25208   1.22248    0.025
 7040.00    1.24353   1.22652    0.025
 7041.00    1.24659   1.23052    0.025
 7042.00    1.31040   1.23425    0.026
 7043.00    1.35472   1.23738    0.026
 7044.00    1.31700   1.23951    0.026
 7045.00    1.28813   1.24047    0.026
 7046.00    1.29006   1.23995    0.026
 7047.00    1.28830   1.23796    0.026
 7048.00    1.27574   1.23436    0.027
 7049.00    1.26679   1.22939    0.027
 7050.00    1.26686   1.22314   -2.000
 7051.00    1.26977   1.21593   -2.000
 7052.00    1.27877   1.20813   -2.000
 7053.00    1.27765   1.20011   -2.000
 7054.00    1.25765   1.19230   -2.000
 7055.00    1.25849   1.18492   -2.000
 7056.00    1.29335   1.17828   -2.000
 7057.00    1.29599   1.17240   -2.000
 7058.00    1.25257   1.16737   -2.000
 7059.00    1.25199   1.16309   -2.000
 7060.00    1.30533   1.15951   -2.000
 7061.00    1.35281   1.15659   -2.000
 7062.00    1.39379   1.15427   -2.000
 7063.00    1.39792   1.15251   -2.000
 7064.00    1.36601   1.15124   -2.000
 7065.00    1.35916   1.15061   -2.000
 7066.00    1.37393   1.15060   -2.000
 7067.00    1.36560   1.15135   -2.000
 7068.00    1.33973   1.15278   -2.000
 7069.00    1.33594   1.15494   -2.000
 7070.00    1.34691   1.15764   -2.000
 7071.00    1.39247   1.16073   -2.000
 7072.00    1.45828   1.16393   -2.000
 7073.00    1.43877   1.16696   -2.000
 7074.00    1.37578   1.16947   -2.000
 7075.00    1.38449   1.17117   -2.000
 7076.00    1.42485   1.17178   -2.000
 7077.00    1.44500   1.17115   -2.000
 7078.00    1.45749   1.16916   -2.000
 7079.00    1.42930   1.16574   -2.000
 7080.00    1.38801   1.16100   -2.000
 7081.00    1.38593   1.15509   -2.000
 7082.00    1.39441   1.14833   -2.000
 7083.00    1.35042   1.14099   -2.000
 7084.00    1.29484   1.13358   -2.000
 7085.00    1.28779   1.12628   -2.000
 7086.00    1.28926   1.11965   -2.000
 7087.00    1.28808   1.11372   -2.000
 7088.00    1.28654   1.10889   -2.000
 7089.00    1.24328   1.10509   -2.000
 7090.00    1.19606   1.10244   -2.000
 7091.00    1.24637   1.10093   -2.000
 7092.00    1.30240   1.10031   -2.000
 7093.00    1.25217   1.10078   -2.000
 7094.00    1.19992   1.10171   -2.000
 7095.00    1.22874   1.10361   -2.000
 7096.00    1.25477   1.10549   -2.000
 7097.00    1.21169   1.10809   -2.000
 7098.00    1.17015   1.11025   -2.000
 7099.00    1.14906   1.11280   -2.000
 7100.00    1.13213   1.11463   -2.000
 7101.00    1.15212   1.11650   -2.000
 7102.00    1.17309   1.11758   -2.000
 7103.00    1.20053   1.11845   -2.000
 7104.00    1.22313   1.11865   -2.000
 7105.00    1.22106   1.11857   -2.000
 7106.00    1.21451   1.11811   -2.000
 7107.00    1.18950   1.11746   -2.000
 7108.00    1.16506   1.11677   -2.000
 7109.00    1.14254   1.11613   -2.000
 7110.00    1.13237   1.11570   -2.000
 7111.00    1.15770   1.11549   -2.000
 7112.00    1.16352   1.11556   -2.000
 7113.00    1.12144   1.11584   -2.000
 7114.00    1.09732   1.11623   -2.000
 7115.00    1.11123   1.11662   -2.000
 7116.00    1.14582   1.11680   -2.000
 7117.00    1.21842   1.11675   -2.000
 7118.00    1.25401   1.11622   -2.000
 7119.00    1.23012   1.11528   -2.000
 7120.00    1.22938   1.11378   -2.000
 7121.00    1.26126   1.11180   -2.000
 7122.00    1.29645   1.10944   -2.000
 7123.00    1.33574   1.10668   -2.000
 7124.00    1.37096   1.10383   -2.000
 7125.00    1.40172   1.10083   -2.000
 7126.00    1.35172   1.09813   -2.000
 7127.00    1.22383   1.09569   -2.000
 7128.00    1.20753   1.09391   -2.000
 7129.00    1.28613   1.09278   -2.000
 7130.00    1.28537   1.09250   -2.000
 7131.00    1.22517   1.09308   -2.000
 7132.00    1.18100   1.09439   -2.000
 7133.00    1.14736   1.09642   -2.000
 7134.00    1.10479   1.09877   -2.000
 7135.00    1.05708   1.10143   -2.000
 7136.00    1.09670   1.10390   -2.000
 7137.00    1.18015   1.10620   -2.000
 7138.00    1.24092   1.10797   -2.000
 7139.00    1.29186   1.10924   -2.000
 7140.00    1.31778   1.10985   -2.000
 7141.00    1.33438   1.10992   -2.000
 7142.00    1.27519   1.10946   -2.000
 7143.00    1.19206   1.10865   -2.000
 7144.00    1.19588   1.10766   -2.000
 7145.00    1.22263   1.10672   -2.000
 7146.00    1.23201   1.10601   -2.000
 7147.00    1.23765   1.10575   -2.000
 7148.00    1.20648   1.10606   -2.000
 7149.00    1.16902   1.10702   -2.000
 7150.00    1.13815   1.10856   -2.000
 7151.00    1.10814   1.11060   -2.000
 7152.00    1.17218   1.11287   -2.000
 7153.00    1.24475   1.11522   -2.000
 7154.00    1.23033   1.11728   -2.000
 7155.00    1.21116   1.11894   -2.000
 7156.00    1.21294   1.11992   -2.000
 7157.00    1.21584   1.12023   -2.000
 7158.00    1.28172   1.11986   -2.000
 7159.00    1.34531   1.11888   -2.000
 7160.00    1.35723   1.11760   -2.000
 7161.00    1.36989   1.11613   -2.000
 7162.00    1.39202   1.11494   -2.000
 7163.00    1.39822   1.11408   -2.000
 7164.00    1.26848   1.11398   -2.000
 7165.00    1.15073   1.11455   -2.000
 7166.00    1.10899   1.11596   -2.000
 7167.00    1.09486   1.11795   -2.000
 7168.00    1.21778   1.12040   -2.000
 7169.00    1.30913   1.12297   -2.000
 7170.00    1.27334   1.12537   -2.000
 7171.00    1.23104   1.12735   -2.000
 7172.00    1.16703   1.12863   -2.000
 7173.00    1.12295   1.12916   -2.000
 7174.00    1.13509   1.12883   -2.000
 7175.00    1.16526   1.12777   -2.000
 7176.00    1.23892   1.12604   -2.000
 7177.00    1.27356   1.12386   -2.000
 7178.00    1.22696   1.12137   -2.000
 7179.00    1.20113   1.11875   -2.000
 7180.00    1.21289   1.11609   -2.000
 7181.00    1.19699   1.11352   -2.000
 7182.00    1.13730   1.11103   -2.000
 7183.00    1.10690   1.10869   -2.000
 7184.00    1.11720   1.10645   -2.000
 7185.00    1.08902   1.10443   -2.000
 7186.00    1.01380   1.10256   -2.000
 7187.00    1.02623   1.10110   -2.000
 7188.00    1.13315   1.09995   -2.000
 7189.00    1.19216   1.09939   -2.000
 7190.00    1.20562   1.09926   -2.000
 7191.00    1.18192   1.09979   -2.000
 7192.00    1.12709   1.10073   -2.000
 7193.00    1.12769   1.10218   -2.000
 7194.00    1.16922   1.10388   -2.000
 7195.00    1.17645   1.10578   -2.000
 7196.00    1.16144   1.10769   -2.000
 7197.00    1.15054   1.10946   -2.000
 7198.00    1.14197   1.11100   -2.000
 7199.00    1.21334   1.11214   -2.000
 7200.00    1.32419   1.11290   -2.000
 7201.00    1.32124   1.11314   -2.000
 7202.00    1.26971   1.11303   -2.000
 7203.00    1.18307   1.11250   -2.000
 7204.00    1.08357   1.11184   -2.000
 7205.00    1.06539   1.11107   -2.000
 7206.00    1.07240   1.11051   -2.000
 7207.00    1.06059   1.11026   -2.000
 7208.00    1.04391   1.11045   -2.000
 7209.00    1.01557   1.11122   -2.000
 7210.00    0.98476   1.11244   -2.000
 7211.00    1.01801   1.11420   -2.000
 7212.00    1.06190   1.11621   -2.000
 7213.00    1.12760   1.11853   -2.000
 7214.00    1.19602   1.12084   -2.000
 7215.00    1.17445   1.12321   -2.000
 7216.00    1.14510   1.12541   -2.000
 7217.00    1.11301   1.12756   -2.000
 7218.00    1.08078   1.12951   -2.000
