###################################################################
## OUTPUT of StarlightChains_v04.for    [Cid@UFSC - 01/Apr/2007] ##
###################################################################

## Some input info
KUG0210-078._32_40.txt                   [arq_obs]
Base.CB07.vall.4m                        [arq_base]
Masks.EmLines.NEW.gm                     [arq_masks]
StCv04.C11.config                        [arq_config]
   66                                    [N_base]
    0                                    [N_YAV_components = # of components with extra extinction!]
    0                                    [i_FitPowerLaw (1/0 = Yes/No)]
-9.99                                    [alpha_PowerLaw]
CCM                                      [red_law_option]
 1.458241                                [q_norm = A(l_norm)/A(V)]

## (Re)Sampling Parameters
 3741.00                                 [l_ini (A)]
 7218.00                                 [l_fin (A)]
    1.00                                 [dl    (A)]     (OBS: dl_cushion =    50.00 A)

## Normalization info
 4020.00                                 [l_norm (A) - for base]
 4010.00                                 [llow_norm (A) - window for f_obs]
 4060.00                                 [lupp_norm (A) - window for f_obs]
1.498869E-17                             [fobs_norm (in input units)]

## S/N
 3691.00                                 [llow_SN (A) - window for S/N]
 7268.00                                 [lupp_SN (A) - window for S/N]
   4.980                                 [S/N in S/N window]
   4.575                                 [S/N in norm. window]
   0.022                                 [S/N_err in S/N window]
   0.020                                 [S/N_err in norm. window]
  1.0000                                 [fscale_chi2]

## etc...
    -2007488                             [idum_orig]
  2429                                   [NOl_eff]
  2423                                   [Nl_eff]
     6    NSIGMA                         [Ntot_cliped & clip_method]
  2241960                                [Nglobal_steps]
   7                                     [N_chains]
  35                                     [NEX0s_base = N_base in EX0s-fits]
 0   0   1        6   2.0   1.501E+03    [Clip-Bug, RC-Crash & Burn-In warning-flags, n_censored_weights, wei_nsig_threshold & wei_limit]
    44     43.662     43.060      0.602  [idt_all, wdt_TotTime, wdt_UsrTime & wdt_SysTime (sec)]

## Synthesis Results - Best model ##

 8.74555E-06                             [chi2/Nl_eff]
    10.30297                             [adev (%)]

   109.91634                             [sum-of-x (%)]
 6.00811E-18                             [Flux_tot (units of input spectrum!)]
 6.33607E-13                             [Mini_tot (???)]
 3.18507E-13                             [Mcor_tot (???)]

 -20.82                                  [v0_min  (km/s)]
 278.54                                  [vd_min  (km/s)]
-0.7511                                  [AV_min  (mag)]
 0.0000                                  [YAV_min (mag)]

# j     x_j(%)      Mini_j(%)     Mcor_j(%)     age_j(yr)     Z_j      (L/M)_j    YAV?  Mstars   component_j        a/Fe...       SSP_chi2r SSP_adev(%)   SSP_AV   SSP_x(%)
  1      0.0000     0.0000E+00    0.0000E+00    1.000000E+06  0.00400  1.094E-02    0   1.0000   age020_m42            0.0000     1.9035E-05    15.8451   3.4560    88.3378
  2      0.1520     3.2723E-05    6.5090E-05    3.160000E+06  0.00400  4.007E-02    0   0.9999   age045_m42            0.0000     1.6349E-05    14.7481   2.7132    95.1102
  3      0.0000     0.0000E+00    0.0000E+00    5.010000E+06  0.00400  2.539E-02    0   0.9488   age055_m42            0.0000     1.7516E-05    15.2476   3.0415    92.4671
  4      0.0000     0.0000E+00    0.0000E+00    6.610000E+06  0.00400  2.620E-02    0   0.9220   age061_m42            0.0000     1.6370E-05    14.7780   2.6393    95.3592
  5      0.0986     6.4373E-05    1.1349E-04    1.000000E+07  0.00400  1.322E-02    0   0.8862   age070_m42            0.0000     1.8107E-05    16.0720   2.3761    96.8250
  6      0.0000     0.0000E+00    0.0000E+00    1.445000E+07  0.00400  7.883E-03    0   0.8571   age078_m42            0.0000     1.8635E-05    16.2238   2.7050    94.2510
  7      0.0000     0.0000E+00    0.0000E+00    2.512000E+07  0.00400  5.251E-03    0   0.8174   age090_m42            0.0000     1.8320E-05    16.2758   2.2491    97.3140
  8      0.0000     0.0000E+00    0.0000E+00    4.000000E+07  0.00400  3.649E-03    0   0.7851   age104_m42            0.0000     1.7561E-05    15.9203   2.0162    98.3586
  9      0.0000     0.0000E+00    0.0000E+00    5.500000E+07  0.00400  3.098E-03    0   0.7629   age110_m42            0.0000     1.6466E-05    15.1310   2.1582    98.7413
 10      0.0000     0.0000E+00    0.0000E+00    1.015200E+08  0.00400  2.228E-03    0   0.7207   age116_m42            0.0000     1.5783E-05    14.5932   2.1701    99.2141
 11      7.4906     5.9123E-02    7.8189E-02    2.861200E+08  0.00400  1.093E-03    0   0.6648   age125_m42            0.0000     1.5783E-05    14.7931   1.5973   102.2827
 12      0.5362     7.0125E-03    8.8791E-03    5.088000E+08  0.00400  6.597E-04    0   0.6365   age130_m42            0.0000     1.4507E-05    13.8985   1.5758   103.5872
 13      0.0000     0.0000E+00    0.0000E+00    1.434000E+09  0.00400  2.132E-04    0   0.5798   age139_m42            0.0000     1.2275E-05    12.9359   0.5991   106.0199
 14      0.0000     0.0000E+00    0.0000E+00    4.250000E+09  0.00400  5.895E-05    0   0.5377   age158_m42            0.0000     1.1054E-05    12.2585   0.1510   102.1485
 15      0.0000     0.0000E+00    0.0000E+00    7.500000E+09  0.00400  3.510E-05    0   0.5212   age171_m42            0.0000     1.0587E-05    11.9118  -0.0441   101.6904
 16      0.0000     0.0000E+00    0.0000E+00    1.300000E+10  0.00400  2.005E-05    0   0.5034   age193_m42            0.0000     1.0304E-05    11.6613  -0.2157   101.3273
 17      0.0000     0.0000E+00    0.0000E+00    1.800000E+10  0.00400  1.525E-05    0   0.4967   age213_m42            0.0000     1.0456E-05    11.7894  -0.2359   100.7859
 18      0.0000     0.0000E+00    0.0000E+00    1.000000E+06  0.00800  1.238E-02    0   1.0000   age020_m52            0.0000     1.9026E-05    15.8389   3.4523    88.5122
 19      0.0000     0.0000E+00    0.0000E+00    3.160000E+06  0.00800  3.074E-02    0   0.9966   age045_m52            0.0000     1.8727E-05    15.7001   3.3747    89.3587
 20      0.0000     0.0000E+00    0.0000E+00    5.010000E+06  0.00800  2.668E-02    0   0.9443   age055_m52            0.0000     1.7878E-05    15.4207   3.1266    91.5515
 21      0.0000     0.0000E+00    0.0000E+00    6.610000E+06  0.00800  2.136E-02    0   0.9177   age061_m52            0.0000     1.7254E-05    15.8446   1.8796    97.8747
 22      0.0000     0.0000E+00    0.0000E+00    1.000000E+07  0.00800  1.215E-02    0   0.8827   age070_m52            0.0000     1.9139E-05    16.6692   2.5616    96.3589
 23      0.0000     0.0000E+00    0.0000E+00    1.445000E+07  0.00800  8.717E-03    0   0.8552   age078_m52            0.0000     1.8402E-05    16.1679   2.6712    95.5721
 24      0.0000     0.0000E+00    0.0000E+00    2.512000E+07  0.00800  5.592E-03    0   0.8162   age090_m52            0.0000     1.8293E-05    16.3035   2.3112    98.5230
 25      1.3949     3.0888E-03    4.8180E-03    4.000000E+07  0.00800  3.896E-03    0   0.7841   age104_m52            0.0000     1.7343E-05    15.8012   2.2158    99.5651
 26      0.0000     0.0000E+00    0.0000E+00    1.015200E+08  0.00800  2.148E-03    0   0.7226   age116_m52            0.0000     1.5976E-05    14.9126   2.1427    99.8317
 27      0.0000     0.0000E+00    0.0000E+00    2.861200E+08  0.00800  9.925E-04    0   0.6683   age125_m52            0.0000     1.4438E-05    13.8876   1.6399   104.6039
 28      0.0000     0.0000E+00    0.0000E+00    9.047900E+08  0.00800  3.141E-04    0   0.6138   age135_m52            0.0000     1.1633E-05    12.3468   0.8217   109.7609
 29      5.1774     2.5983E-01    3.0253E-01    1.434000E+09  0.00800  1.719E-04    0   0.5853   age139_m52            0.0000     1.0994E-05    12.3264   0.2435   107.4296
 30      2.9347     3.2162E-01    3.5828E-01    2.500000E+09  0.00800  7.872E-05    0   0.5600   age150_m52            0.0000     9.9786E-06    11.4870  -0.0341   104.9253
 31      3.0992     6.1662E-01    6.6558E-01    4.250000E+09  0.00800  4.336E-05    0   0.5426   age158_m52            0.0000     1.0027E-05    11.5180  -0.0495   103.9325
 32      0.0000     0.0000E+00    0.0000E+00    6.250000E+09  0.00800  3.159E-05    0   0.5319   age166_m52            0.0000     9.5034E-06    11.0444  -0.2636   104.3634
 33      4.8046     3.0455E+00    3.0734E+00    1.300000E+10  0.00800  1.361E-05    0   0.5073   age193_m52            0.0000     9.1277E-06    10.5660  -0.7453   104.1911
 34      0.0000     0.0000E+00    0.0000E+00    1.800000E+10  0.00800  9.886E-06    0   0.4990   age213_m52            0.0000     8.9963E-06    10.2655  -0.8673   104.1638
 35      0.0000     0.0000E+00    0.0000E+00    1.000000E+06  0.02000  1.544E-02    0   1.0000   age020_m62            0.0000     1.9111E-05    15.8638   3.4487    88.7056
 36      0.0000     0.0000E+00    0.0000E+00    3.160000E+06  0.02000  3.762E-02    0   0.9858   age045_m62            0.0000     1.9015E-05    15.7906   3.3865    89.5277
 37      0.0000     0.0000E+00    0.0000E+00    5.010000E+06  0.02000  3.296E-02    0   0.9342   age055_m62            0.0000     1.6857E-05    14.8789   2.9941    93.8831
 38      0.0000     0.0000E+00    0.0000E+00    8.710000E+06  0.02000  1.154E-02    0   0.8861   age067_m62            0.0000     2.5652E-05    20.2159   2.0473    97.8397
 39      0.0000     0.0000E+00    0.0000E+00    1.445000E+07  0.02000  7.663E-03    0   0.8472   age078_m62            0.0000     2.0463E-05    17.5767   2.2144    98.3125
 40      0.0000     0.0000E+00    0.0000E+00    2.512000E+07  0.02000  4.532E-03    0   0.8099   age090_m62            0.0000     2.0707E-05    17.7060   2.2062    98.0581
 41      0.0000     0.0000E+00    0.0000E+00    5.500000E+07  0.02000  2.733E-03    0   0.7595   age110_m62            0.0000     1.7426E-05    15.8289   2.2003    98.7871
 42      0.0000     0.0000E+00    0.0000E+00    1.609000E+08  0.02000  1.369E-03    0   0.6985   age120_m62            0.0000     1.5507E-05    14.4915   2.0162   102.3857
 43      1.8000     1.7229E-02    2.3011E-02    2.861200E+08  0.02000  9.013E-04    0   0.6714   age125_m62            0.0000     1.4437E-05    13.7250   1.7522   105.9203
 44      0.5937     1.0187E-02    1.3069E-02    5.088000E+08  0.02000  5.028E-04    0   0.6449   age130_m62            0.0000     1.2448E-05    12.4305   1.3556   109.4706
 45      0.0000     0.0000E+00    0.0000E+00    9.047900E+08  0.02000  2.428E-04    0   0.6179   age135_m62            0.0000     1.0635E-05    11.7034   0.7610   109.1496
 46      4.5534     3.1102E-01    3.6553E-01    1.434000E+09  0.02000  1.263E-04    0   0.5908   age139_m62            0.0000     1.0055E-05    11.5216   0.3161   107.5913
 47      0.0000     0.0000E+00    0.0000E+00    2.500000E+09  0.02000  5.985E-05    0   0.5673   age150_m62            0.0000     9.4520E-06    11.0181  -0.0618   106.5342
 48      0.0000     0.0000E+00    0.0000E+00    4.250000E+09  0.02000  3.271E-05    0   0.5468   age158_m62            0.0000     9.0016E-06    10.4561  -0.3830   106.2278
 49      0.0000     0.0000E+00    0.0000E+00    1.000000E+10  0.02000  1.360E-05    0   0.5167   age181_m62            0.0000     8.9031E-06    10.0581  -0.7534   106.6035
 50     17.2642     2.0906E+01    2.0849E+01    1.800000E+10  0.02000  7.124E-06    0   0.5013   age213_m62            0.0000     9.1666E-06    10.0265  -0.9814   106.3822
 51      0.0000     0.0000E+00    0.0000E+00    1.000000E+06  0.05000  2.592E-02    0   0.9998   age020_m72            0.0000     1.9420E-05    15.9960   3.4413    88.6858
 52      0.0000     0.0000E+00    0.0000E+00    3.160000E+06  0.05000  4.845E-02    0   0.9577   age045_m72            0.0000     1.8043E-05    15.3533   3.2623    90.9932
 53      0.0000     0.0000E+00    0.0000E+00    5.010000E+06  0.05000  3.072E-02    0   0.9147   age055_m72            0.0000     1.9902E-05    16.9293   2.7909    94.6792
 54      0.0000     0.0000E+00    0.0000E+00    6.610000E+06  0.05000  1.455E-02    0   0.8877   age061_m72            0.0000     3.0900E-05    22.4619   2.0806    98.5436
 55      0.0000     0.0000E+00    0.0000E+00    1.000000E+07  0.05000  9.074E-03    0   0.8524   age070_m72            0.0000     2.0871E-05    17.2770   2.9571    94.6247
 56      0.0000     0.0000E+00    0.0000E+00    2.512000E+07  0.05000  4.250E-03    0   0.7902   age090_m72            0.0000     1.9324E-05    16.7073   2.6593    96.6598
 57      0.0000     0.0000E+00    0.0000E+00    4.000000E+07  0.05000  3.087E-03    0   0.7618   age104_m72            0.0000     1.9278E-05    16.7714   2.4323    98.3165
 58      0.0000     0.0000E+00    0.0000E+00    1.015200E+08  0.05000  1.700E-03    0   0.7096   age116_m72            0.0000     1.6451E-05    15.0834   2.1633   101.7446
 59      0.0000     0.0000E+00    0.0000E+00    2.861200E+08  0.05000  7.384E-04    0   0.6633   age125_m72            0.0000     1.3300E-05    13.0099   1.6097   107.7999
 60      0.0000     0.0000E+00    0.0000E+00    5.088000E+08  0.05000  3.819E-04    0   0.6372   age130_m72            0.0000     1.1180E-05    11.8619   1.1030   110.1586
 61      0.0000     0.0000E+00    0.0000E+00    9.047900E+08  0.05000  1.676E-04    0   0.6110   age135_m72            0.0000     9.5349E-06    10.9561   0.3932   108.7388
 62      9.1360     8.9188E-01    1.0422E+00    1.434000E+09  0.05000  8.837E-05    0   0.5874   age139_m72            0.0000     9.3262E-06    10.9019  -0.0684   108.3548
 63      0.0000     0.0000E+00    0.0000E+00    2.500000E+09  0.05000  4.233E-05    0   0.5598   age150_m72            0.0000     8.8899E-06    10.3451  -0.3929   107.4998
 64      5.8814     3.5358E+00    3.6920E+00    6.250000E+09  0.05000  1.435E-05    0   0.5249   age166_m72            0.0000     8.9331E-06    10.0795  -0.8572   106.4201
 65     27.0848     3.5876E+01    3.5941E+01    1.300000E+10  0.05000  6.513E-06    0   0.5036   age193_m72            0.0000     9.9846E-06    10.2360  -1.0000   102.8402
 66     17.9146     3.4139E+01    3.3583E+01    1.800000E+10  0.05000  4.527E-06    0   0.4945   age213_m72            0.0000     1.2157E-05    11.3179  -1.0000    97.1979


## Synthesis Results - Average & Chains ##

# j      x_j: min, <> & last-chain-values for 1 ...  7 chains
  1      0.0000      1.9030      0.0000      0.4112      0.0000      0.2104      0.0000      1.9780      0.0000
  2      0.1520      3.6127     12.3256     15.1648      6.1595     10.4124     14.9030     11.5202     10.1418
  3      0.0000      1.5334      3.6095      2.9220      2.5066      2.2199      3.4330      3.5351      0.0000
  4      0.0000      1.3959      0.0326      0.0000      0.0000      0.2799      0.3397      0.6416      1.0548
  5      0.0986      2.0628      0.9894      0.4337      0.0000      0.8383      0.4157      0.0000      3.3459
  6      0.0000      1.5902      0.6476      2.0696      0.6320      0.6843      0.0000      0.0000      0.8812
  7      0.0000      1.3551      1.8206      3.1247      0.7560      2.0110      0.9131      2.7965      0.5412
  8      0.0000      1.0471      0.0000      0.1645      0.0800      0.4779      0.9963      0.0000      0.0000
  9      0.0000      1.4136      1.0032      0.3267      1.3167      1.3127      3.5325      0.6001      0.0000
 10      0.0000      1.1272      1.4379      0.2337      1.1493      0.4620      0.6216      1.0596      0.0000
 11      7.4906      1.8692      1.6011      1.0347      0.0000      1.5270      0.3866      1.7776      2.2948
 12      0.5362      0.9802      0.5739      0.6037      0.0000      0.0000      0.2862      0.0000      2.1148
 13      0.0000      1.2500      0.0341      0.6456      0.3737      0.3900      1.1893      1.8216      0.0000
 14      0.0000      1.5209      0.2401      0.7599      0.8598      2.8861      0.1576      2.3434      1.1639
 15      0.0000      1.1643      1.5534      0.2831      0.0000      1.1529      0.0000      0.6656      0.0000
 16      0.0000      1.1129      0.5998      1.0926      0.0000      0.0000      0.9426      1.2919      0.0000
 17      0.0000      1.7050      0.0015      0.6478      4.4543      0.0000      4.9022      0.4224      4.2698
 18      0.0000      1.1822      1.3022      0.0000      0.0000      0.9746      1.1207      0.9532      0.2176
 19      0.0000      1.7347      0.0000      0.0000      2.2576      0.0323      0.0612      0.6493      0.0000
 20      0.0000      0.9084      0.3515      0.0000      0.0000      0.9104      0.0000      0.1758      0.5836
 21      0.0000      1.3825      0.0000      0.1032      0.0000      1.5242      1.2204      0.0000      0.0000
 22      0.0000      1.5695      0.0000      1.8757      0.0000      1.2284      0.9501      0.6815      0.6091
 23      0.0000      1.3547      1.1253      0.2725      0.1678      0.2690      0.0000      0.6530      0.2100
 24      0.0000      1.7638      0.2798      0.7293      1.5076      0.2657      0.5404      0.0310      0.0000
 25      1.3949      1.6642      1.9703      2.0300      0.0629      1.1264      1.6727      0.4581      0.5124
 26      0.0000      1.7971      0.0000      0.2192      1.4187      2.2533      0.0000      0.2403      1.7849
 27      0.0000      1.4520      0.0000      0.1723      0.0000      1.1232      0.1642      1.3357      0.0000
 28      0.0000      1.4038      2.3316      0.0413      2.8944      0.4359      0.0000      1.6779      0.1203
 29      5.1774      1.8631      1.7940      0.3587      0.8303      1.5858      0.5800      0.9847      4.1482
 30      2.9347      1.5714      0.0820      0.9222      6.3412      0.0000      0.0818      0.0000      4.5619
 31      3.0992      1.6175      0.0000      0.4343      0.3406      0.0000      1.8562      0.0000      8.5695
 32      0.0000      1.2073      3.5474      0.0113      0.0000      2.9720      0.0000      0.0751      2.7691
 33      4.8046      1.8432      0.1763      0.1432      0.0000      1.1804      0.0000      1.0466      1.3508
 34      0.0000      0.9420      0.3091      0.4087      6.2785      1.7060      0.0000      0.3644      0.0000
 35      0.0000      1.7059      0.5563      1.2918      0.0000      1.7921      0.8941      0.2761      1.3037
 36      0.0000      1.0694      0.3224      0.0612      0.7808      0.1668      0.0000      1.2954      0.6260
 37      0.0000      1.1638      1.6584      0.0000      0.0000      0.0000      0.0000      1.9704      0.2913
 38      0.0000      1.4122      0.0473      0.5236      3.0062      2.0282      4.1013      0.5457      0.0000
 39      0.0000      1.3970      1.8717      1.5210      1.6953      1.7626      0.4871      0.6237      1.3255
 40      0.0000      1.4499      1.1034      0.3856      1.1796      1.1983      0.0000      2.1999      1.6368
 41      0.0000      1.3610      0.5040      0.9233      1.1344      1.7562      0.1635      1.2125      2.3162
 42      0.0000      1.7669      0.0000      0.0000      0.0000      1.2846      0.0000      1.4585      0.0000
 43      1.8000      1.6409      0.3368      0.4402      0.0000      1.1349      0.8658      1.0179      1.7796
 44      0.5937      1.3946      0.6974      1.1065      2.8653      0.3911      1.7105      1.4682      2.5569
 45      0.0000      1.2700      0.0000      0.0000      0.0000      0.7844      0.9122      0.1870      0.2673
 46      4.5534      1.2280      0.0000      0.3534      0.0000      1.4717      1.5867      0.4169      1.1518
 47      0.0000      1.5781      0.9144      0.0000      1.3796      1.0805      0.0000      1.0571      0.0000
 48      0.0000      1.0704      0.4426      1.9268      0.0000      1.0876      1.3598      0.3687      3.1039
 49      0.0000      1.5861      5.0912      6.1009      4.6767      7.9260      5.5213      4.6917      3.9089
 50     17.2642      2.1751      3.7692      5.1058      3.3831      4.4245      4.5801      4.9442      2.3382
 51      0.0000      1.2382      0.8454      0.6549      4.6875      0.0000      0.0863      1.0350      0.0287
 52      0.0000      1.3223      0.0000      0.6140      0.1784      0.0000      1.4845      0.0000      0.0000
 53      0.0000      0.9764      0.3445      0.5342      0.4181      0.7122      0.0000      0.0000      0.0000
 54      0.0000      1.7283      0.0000      0.5676      0.4733      0.0000      0.1315      0.0768      1.1532
 55      0.0000      1.4442      5.5827      3.9976      3.3168      3.0906      1.5078      0.0000      1.0729
 56      0.0000      1.0969      0.0000      0.5000      0.3149      0.0000      2.0294      0.0000      0.0000
 57      0.0000      1.1589      0.0000      0.3710      0.0000      0.0000      0.0000      0.5798      0.0000
 58      0.0000      1.4499      1.8130      1.1463      0.5165      0.0198      0.0000      0.3387      0.0000
 59      0.0000      1.3734      1.4886      1.5644      1.2528      0.2163      1.6137      2.5535      0.0000
 60      0.0000      1.3681      0.9919      0.7396      0.5806      0.0000      3.5342      0.8026      0.0633
 61      0.0000      1.6392      0.1197      1.9299      3.0674      2.1644      0.4668      2.1741      0.4558
 62      9.1360      1.5539      1.6907      1.4105      3.8443      0.0000      0.9186      0.0000      5.0139
 63      0.0000      1.7281      4.3813      0.3748      0.7441      0.0000      1.0229      1.3746      0.0000
 64      5.8814      3.0802      9.1496     10.8566      9.7836     12.3992      9.2985      9.5659      5.4296
 65     27.0848      1.6021      2.9088      0.7133      1.1655      1.4173      0.0000      1.8805      2.1036
 66     17.9146      3.3720     16.3738     17.6888     10.5832     10.1848     16.2848     17.3096     11.7093

# j      m_j: min, <> & last-chain-values for 1 ...  7 chains
  1  0.0000E+00  1.4366E-02  0.0000E+00  1.1965E-03  0.0000E+00  7.4767E-04  0.0000E+00  5.8007E-03  0.0000E+00
  2  6.5090E-05  7.4454E-03  1.0131E-02  1.2046E-02  5.8719E-03  1.0101E-02  1.2679E-02  9.2231E-03  1.0296E-02
  3  0.0000E+00  4.7324E-03  4.4428E-03  3.4759E-03  3.5784E-03  3.2249E-03  4.3738E-03  4.2382E-03  0.0000E+00
  4  0.0000E+00  4.0570E-03  3.7812E-05  0.0000E+00  0.0000E+00  3.8293E-04  4.0754E-04  7.2437E-04  1.5102E-03
  5  1.1349E-04  1.1420E-02  2.1845E-03  9.2543E-04  0.0000E+00  2.1847E-03  9.5004E-04  0.0000E+00  9.1248E-03
  6  0.0000E+00  1.4279E-02  2.3193E-03  7.1633E-03  2.6253E-03  2.8925E-03  0.0000E+00  0.0000E+00  3.8979E-03
  7  0.0000E+00  1.7422E-02  9.3350E-03  1.5484E-02  4.4955E-03  1.2170E-02  4.8459E-03  1.3967E-02  3.4273E-03
  8  0.0000E+00  1.8606E-02  0.0000E+00  1.1269E-03  6.5796E-04  3.9969E-03  7.3082E-03  0.0000E+00  0.0000E+00
  9  0.0000E+00  2.8750E-02  8.1369E-03  2.5612E-03  1.2387E-02  1.2567E-02  2.9659E-02  4.7410E-03  0.0000E+00
 10  0.0000E+00  3.0112E-02  1.5321E-02  2.4060E-03  1.4202E-02  5.8091E-03  6.8553E-03  1.0997E-02  0.0000E+00
 11  7.8189E-02  9.3895E-02  3.2077E-02  2.0034E-02  0.0000E+00  3.6106E-02  8.0175E-03  3.4688E-02  5.6784E-02
 12  8.8791E-03  7.8104E-02  1.8239E-02  1.8542E-02  0.0000E+00  0.0000E+00  9.4140E-03  0.0000E+00  8.3012E-02
 13  0.0000E+00  2.8074E-01  3.0573E-03  5.5893E-02  3.8822E-02  4.1228E-02  1.1027E-01  1.5893E-01  0.0000E+00
 14  0.0000E+00  1.1457E+00  7.2145E-02  2.2066E-01  2.9962E-01  1.0234E+00  4.9004E-02  6.8578E-01  4.3192E-01
 15  0.0000E+00  1.4278E+00  7.5976E-01  1.3383E-01  0.0000E+00  6.6554E-01  0.0000E+00  3.1708E-01  0.0000E+00
 16  0.0000E+00  2.3077E+00  4.9599E-01  8.7330E-01  0.0000E+00  0.0000E+00  8.0690E-01  1.0407E+00  0.0000E+00
 17  0.0000E+00  4.5864E+00  1.6265E-03  6.7162E-01  5.5424E+00  0.0000E+00  5.4437E+00  4.4138E-01  5.6577E+00
 18  0.0000E+00  7.8869E-03  3.4647E-03  0.0000E+00  0.0000E+00  3.0603E-03  3.0865E-03  2.4701E-03  7.1524E-04
 19  0.0000E+00  4.6448E-03  0.0000E+00  0.0000E+00  2.7961E-03  4.0771E-05  6.7647E-05  6.7534E-04  0.0000E+00
 20  0.0000E+00  2.6554E-03  4.0983E-04  0.0000E+00  0.0000E+00  1.2527E-03  0.0000E+00  1.9962E-04  8.4031E-04
 21  0.0000E+00  4.9053E-03  0.0000E+00  1.4121E-04  0.0000E+00  2.5457E-03  1.7877E-03  0.0000E+00  0.0000E+00
 22  0.0000E+00  9.4171E-03  0.0000E+00  4.3381E-03  0.0000E+00  3.4693E-03  2.3533E-03  1.5884E-03  1.8001E-03
 23  0.0000E+00  1.0977E-02  3.6364E-03  8.5119E-04  6.2895E-04  1.0261E-03  0.0000E+00  2.0555E-03  8.3810E-04
 24  0.0000E+00  2.1262E-02  1.3451E-03  3.3888E-03  8.4062E-03  1.5079E-03  2.6894E-03  1.4523E-04  0.0000E+00
 25  4.8180E-03  2.7661E-02  1.3062E-02  1.3006E-02  4.8340E-04  8.8130E-03  1.1478E-02  2.9578E-03  4.1953E-03
 26  0.0000E+00  4.9928E-02  0.0000E+00  2.3475E-03  1.8233E-02  2.9469E-02  0.0000E+00  2.5935E-03  2.4428E-02
 27  0.0000E+00  8.0745E-02  0.0000E+00  3.6941E-03  0.0000E+00  2.9402E-02  3.7703E-03  2.8856E-02  0.0000E+00
 28  0.0000E+00  2.2656E-01  1.5008E-01  2.5665E-03  2.1608E-01  3.3112E-02  0.0000E+00  1.0520E-01  9.5642E-03
 29  3.0253E-01  5.2391E-01  2.0120E-01  3.8883E-02  1.0800E-01  2.0991E-01  6.7326E-02  1.0757E-01  5.7462E-01
 30  3.5828E-01  9.2320E-01  1.9205E-02  2.0884E-01  1.7233E+00  0.0000E+00  1.9828E-02  0.0000E+00  1.3203E+00
 31  6.6558E-01  1.6717E+00  0.0000E+00  1.7301E-01  1.6283E-01  0.0000E+00  7.9193E-01  0.0000E+00  4.3627E+00
 32  0.0000E+00  1.6788E+00  1.9674E+00  6.0576E-03  0.0000E+00  1.9454E+00  0.0000E+00  4.0588E-02  1.8968E+00
 33  3.0734E+00  5.6740E+00  2.1645E-01  1.6990E-01  0.0000E+00  1.7105E+00  0.0000E+00  1.2516E+00  2.0484E+00
 34  0.0000E+00  3.9271E+00  5.1393E-01  6.5664E-01  1.2107E+01  3.3476E+00  0.0000E+00  5.9008E-01  0.0000E+00
 35  0.0000E+00  9.1250E-03  1.1867E-03  2.6634E-03  0.0000E+00  4.5122E-03  1.9743E-03  5.7382E-04  3.4351E-03
 36  0.0000E+00  2.3144E-03  2.7829E-04  5.1029E-05  7.8161E-04  1.6993E-04  0.0000E+00  1.0891E-03  6.6741E-04
 37  0.0000E+00  2.7243E-03  1.5483E-03  0.0000E+00  0.0000E+00  0.0000E+00  0.0000E+00  1.7918E-03  3.3595E-04
 38  0.0000E+00  8.9555E-03  1.1970E-04  1.2799E-03  8.8185E-03  6.0542E-03  1.0737E-02  1.3444E-03  0.0000E+00
 39  0.0000E+00  1.2756E-02  6.8158E-03  5.3531E-03  7.1603E-03  7.5756E-03  1.8360E-03  2.2123E-03  5.9621E-03
 40  0.0000E+00  2.1399E-02  6.4952E-03  2.1938E-03  8.0535E-03  8.3247E-03  0.0000E+00  1.2613E-02  1.1900E-02
 41  0.0000E+00  3.1237E-02  4.6134E-03  8.1677E-03  1.2043E-02  1.8973E-02  1.5490E-03  1.0811E-02  2.6187E-02
 42  0.0000E+00  7.4453E-02  0.0000E+00  0.0000E+00  0.0000E+00  2.5481E-02  0.0000E+00  2.3875E-02  0.0000E+00
 43  2.3011E-02  1.0095E-01  8.2631E-03  1.0440E-02  0.0000E+00  3.2866E-02  2.1989E-02  2.4328E-02  5.3933E-02
 44  1.3069E-02  1.4773E-01  2.9463E-02  4.5180E-02  1.4040E-01  1.9499E-02  7.4801E-02  6.0417E-02  1.3342E-01
 45  0.0000E+00  2.6693E-01  0.0000E+00  0.0000E+00  0.0000E+00  7.7608E-02  7.9151E-02  1.5265E-02  2.7673E-02
 46  3.6553E-01  4.7439E-01  0.0000E+00  5.2630E-02  0.0000E+00  2.6763E-01  2.5306E-01  6.2560E-02  2.1919E-01
 47  0.0000E+00  1.2354E+00  2.8550E-01  0.0000E+00  4.9957E-01  3.9816E-01  0.0000E+00  3.2146E-01  0.0000E+00
 48  0.0000E+00  1.4778E+00  2.4373E-01  1.0253E+00  0.0000E+00  7.0680E-01  7.7502E-01  1.9775E-01  2.1109E+00
 49  0.0000E+00  4.9769E+00  6.3712E+00  7.3787E+00  6.7878E+00  1.1707E+01  7.1518E+00  5.7188E+00  6.0418E+00
 50  2.0849E+01  1.2641E+01  8.7362E+00  1.1437E+01  9.0946E+00  1.2104E+01  1.0988E+01  1.1162E+01  6.6938E+00
 51  0.0000E+00  3.9444E-03  1.0741E-03  8.0413E-04  6.9073E-03  0.0000E+00  1.1351E-04  1.2808E-03  4.4990E-05
 52  0.0000E+00  2.1586E-03  0.0000E+00  3.8634E-04  1.3474E-04  0.0000E+00  1.0005E-03  0.0000E+00  0.0000E+00
 53  0.0000E+00  2.4010E-03  3.3786E-04  5.0633E-04  4.7562E-04  8.2440E-04  0.0000E+00  0.0000E+00  0.0000E+00
 54  0.0000E+00  8.7084E-03  0.0000E+00  1.1023E-03  1.1030E-03  0.0000E+00  2.7354E-04  1.5035E-04  2.8624E-03
 55  0.0000E+00  1.1204E-02  1.7274E-02  1.1954E-02  1.1903E-02  1.1287E-02  4.8292E-03  0.0000E+00  4.1004E-03
 56  0.0000E+00  1.6843E-02  0.0000E+00  2.9595E-03  2.2369E-03  0.0000E+00  1.2865E-02  0.0000E+00  0.0000E+00
 57  0.0000E+00  2.3619E-02  0.0000E+00  2.9141E-03  0.0000E+00  0.0000E+00  0.0000E+00  4.5903E-03  0.0000E+00
 58  0.0000E+00  4.9984E-02  2.4927E-02  1.5232E-02  8.2362E-03  3.2059E-04  0.0000E+00  4.5354E-03  0.0000E+00
 59  0.0000E+00  1.0189E-01  4.4046E-02  4.4737E-02  4.2994E-02  7.5518E-03  4.9423E-02  7.3592E-02  0.0000E+00
 60  0.0000E+00  1.8853E-01  5.4510E-02  3.9283E-02  3.7011E-02  0.0000E+00  2.0105E-01  4.2961E-02  4.2988E-03
 61  0.0000E+00  4.9352E-01  1.4377E-02  2.2396E-01  4.2721E-01  3.0674E-01  5.8018E-02  2.5429E-01  6.7599E-02
 62  1.0422E+00  8.5305E-01  3.7016E-01  2.9847E-01  9.7620E-01  0.0000E+00  2.0818E-01  0.0000E+00  1.3559E+00
 63  0.0000E+00  1.8874E+00  1.9085E+00  1.5777E-01  3.7594E-01  0.0000E+00  4.6123E-01  5.8322E-01  0.0000E+00
 64  3.6920E+00  9.3049E+00  1.1024E+01  1.2642E+01  1.3672E+01  1.7632E+01  1.1596E+01  1.1226E+01  8.0800E+00
 65  3.5941E+01  1.0231E+01  7.4083E+00  1.7558E+00  3.4427E+00  4.2604E+00  0.0000E+00  4.6650E+00  6.6174E+00
 66  3.3583E+01  3.0420E+01  5.8912E+01  6.1509E+01  4.4164E+01  4.3250E+01  6.0648E+01  6.0663E+01  5.2036E+01

# AV, chi2 & Mass for <> & i_chain = 1 ...  7 solutions
AV      -0.7511      0.2497      0.1986      0.2312      0.2196      0.2748      0.2713      0.2221      0.2307
chi2 8.7456E-06  4.0110E-05  1.2378E-05  1.2756E-05  1.2389E-05  1.2683E-05  1.2670E-05  1.2453E-05  1.2004E-05
Mass 3.1851E-13  2.5381E-13  5.9416E-13  6.4231E-13  5.2693E-13  5.5770E-13  6.3289E-13  6.2956E-13  5.0225E-13
 -20.82                                  [v0_min (km/s) before EX0s...]
 278.54                                  [vd_min (km/s) before EX0s...]


## Synthetic spectrum (Best Model) ##l_obs f_obs f_syn wei
 3478    [Nl_obs]
 3741.00    1.03710   0.47961    0.000
 3742.00    1.05942   0.47632    0.000
 3743.00    0.83478   0.46509    0.000
 3744.00    0.65077   0.45143    0.000
 3745.00    0.49041   0.43685    0.034
 3746.00    0.51135   0.42277    0.035
 3747.00    0.62435   0.41669    0.035
 3748.00    0.44071   0.42171    0.035
 3749.00    0.12662   0.43286    0.034
 3750.00    0.16408   0.45023    0.034
 3751.00    0.33426   0.47603    0.034
 3752.00    0.23411   0.50379    0.034
 3753.00    0.04732   0.52625    0.034
 3754.00   -0.06891   0.54196    0.000
 3755.00   -0.16624   0.55203    0.000
 3756.00   -0.00597   0.55620    0.000
 3757.00    0.21085   0.55343    0.033
 3758.00    0.35579   0.54635    0.033
 3759.00    0.48818   0.54015    0.033
 3760.00    0.52281   0.53524    0.040
 3761.00    0.54444   0.53105    0.053
 3762.00    0.64542   0.53047    0.042
 3763.00    0.75385   0.53107    0.033
 3764.00    0.70686   0.53067    0.032
 3765.00    0.65091   0.53500    0.032
 3766.00    0.61276   0.54353    0.031
 3767.00    0.57501   0.54968    0.031
 3768.00    0.53379   0.55866    0.030
 3769.00    0.50040   0.57531    0.030
 3770.00    0.65736   0.59205    0.030
 3771.00    0.80111   0.60602    0.030
 3772.00    0.77169   0.62242    0.030
 3773.00    0.73706   0.64070    0.030
 3774.00    0.65678   0.65616    0.029
 3775.00    0.59404   0.66891    0.029
 3776.00    0.64498   0.68259    0.029
 3777.00    0.68184   0.69708    0.029
 3778.00    0.64737   0.70847    0.028
 3779.00    0.61063   0.71604    0.028
 3780.00    0.56461   0.72209    0.029
 3781.00    0.49448   0.72495    0.029
 3782.00    0.34257   0.71954    0.029
 3783.00    0.21844   0.70631    0.030
 3784.00    0.17379   0.69025    0.030
 3785.00    0.18986   0.67101    0.031
 3786.00    0.35426   0.64619    0.031
 3787.00    0.42919   0.62076    0.031
 3788.00    0.31555   0.60051    0.031
 3789.00    0.27020   0.58168    0.031
 3790.00    0.34995   0.56235    0.031
 3791.00    0.42780   0.54648    0.031
 3792.00    0.50260   0.53342    0.031
 3793.00    0.49583   0.52062    0.031
 3794.00    0.37450   0.50859    0.030
 3795.00    0.35769   0.49910    0.030
 3796.00    0.47008   0.49463    0.030
 3797.00    0.50932   0.49693    0.030
 3798.00    0.46886   0.50414    0.030
 3799.00    0.37596   0.51653    0.030
 3800.00    0.23266   0.53600    0.030
 3801.00    0.15812   0.55841    0.030
 3802.00    0.14187   0.57947    0.030
 3803.00    0.17207   0.59881    0.030
 3804.00    0.23694   0.61571    0.030
 3805.00    0.35506   0.62886    0.030
 3806.00    0.50810   0.63755    0.029
 3807.00    0.60996   0.64156    0.030
 3808.00    0.68246   0.64236    0.030
 3809.00    0.71097   0.64010    0.029
 3810.00    0.71749   0.63250    0.029
 3811.00    0.54838   0.62123    0.029
 3812.00    0.30333   0.60768    0.028
 3813.00    0.27075   0.59033    0.028
 3814.00    0.31697   0.57201    0.028
 3815.00    0.39616   0.55550    0.028
 3816.00    0.48570   0.53859    0.028
 3817.00    0.43852   0.52205    0.029
 3818.00    0.35548   0.50941    0.031
 3819.00    0.34673   0.49868    0.029
 3820.00    0.35390   0.48693    0.028
 3821.00    0.38798   0.47555    0.028
 3822.00    0.42663   0.46607    0.028
 3823.00    0.36648   0.45680    0.028
 3824.00    0.29365   0.44629    0.028
 3825.00    0.30980   0.43616    0.028
 3826.00    0.33394   0.42783    0.029
 3827.00    0.41424   0.42012    0.029
 3828.00    0.49756   0.41159    0.030
 3829.00    0.34620   0.40291    0.029
 3830.00    0.19166   0.39550    0.029
 3831.00    0.16527   0.38867    0.030
 3832.00    0.14995   0.38183    0.030
 3833.00    0.38044   0.37698    0.030
 3834.00    0.60161   0.37490    0.031
 3835.00    0.70700   0.37520    0.031
 3836.00    0.78201   0.37983    0.031
 3837.00    0.60038   0.38870    0.031
 3838.00    0.46674   0.40055    0.030
 3839.00    0.63497   0.41735    0.030
 3840.00    0.73432   0.43799    0.030
 3841.00    0.49386   0.45938    0.030
 3842.00    0.31787   0.48187    0.030
 3843.00    0.40001   0.50387    0.030
 3844.00    0.48004   0.52261    0.030
 3845.00    0.55307   0.53881    0.030
 3846.00    0.61510   0.55089    0.030
 3847.00    0.64626   0.55764    0.000
 3848.00    0.64514   0.56277    0.000
 3849.00    0.56647   0.56556    0.000
 3850.00    0.47998   0.56359    0.000
 3851.00    0.37728   0.56119    0.000
 3852.00    0.32425   0.55904    0.000
 3853.00    0.36082   0.55281    0.000
 3854.00    0.41603   0.54519    0.000
 3855.00    0.50066   0.53961    0.000
 3856.00    0.59729   0.53345    0.000
 3857.00    0.71054   0.52772    0.000
 3858.00    0.72323   0.52651    0.000
 3859.00    0.61339   0.52855    0.000
 3860.00    0.55768   0.53260    0.000
 3861.00    0.56011   0.54005    0.000
 3862.00    0.62531   0.54895    0.000
 3863.00    0.74997   0.55661    0.000
 3864.00    0.75793   0.56233    0.000
 3865.00    0.66839   0.56545    0.000
 3866.00    0.63194   0.56548    0.000
 3867.00    0.63452   0.56298    0.000
 3868.00    0.64588   0.55895    0.000
 3869.00    0.66292   0.55431    0.000
 3870.00    0.66814   0.55049    0.000
 3871.00    0.66667   0.54857    0.000
 3872.00    0.60612   0.54782    0.000
 3873.00    0.51650   0.54803    0.000
 3874.00    0.40132   0.54910    0.000
 3875.00    0.27526   0.54867    0.000
 3876.00    0.29184   0.54631    0.000
 3877.00    0.36038   0.54411    0.000
 3878.00    0.37025   0.54020    0.000
 3879.00    0.36204   0.53313    0.000
 3880.00    0.50265   0.52761    0.000
 3881.00    0.68146   0.52423    0.028
 3882.00    0.77760   0.51780    0.028
 3883.00    0.85644   0.51113    0.029
 3884.00    0.79670   0.50990    0.029
 3885.00    0.71411   0.51018    0.028
 3886.00    0.55718   0.50989    0.028
 3887.00    0.39103   0.51624    0.029
 3888.00    0.45530   0.53007    0.029
 3889.00    0.53929   0.54503    0.029
 3890.00    0.45607   0.56244    0.029
 3891.00    0.36451   0.58414    0.029
 3892.00    0.42397   0.60394    0.028
 3893.00    0.48309   0.61982    0.028
 3894.00    0.35978   0.63467    0.027
 3895.00    0.24943   0.64646    0.027
 3896.00    0.40409   0.65284    0.027
 3897.00    0.54727   0.65783    0.027
 3898.00    0.55458   0.66362    0.026
 3899.00    0.56026   0.66585    0.026
 3900.00    0.55263   0.66588    0.026
 3901.00    0.57467   0.66963    0.025
 3902.00    0.77794   0.67380    0.025
 3903.00    0.94007   0.67529    0.024
 3904.00    0.90428   0.68117    0.024
 3905.00    0.84222   0.69247    0.023
 3906.00    0.67725   0.70313    0.023
 3907.00    0.58749   0.71569    0.023
 3908.00    0.74291   0.73248    0.024
 3909.00    0.84265   0.74808    0.025
 3910.00    0.78884   0.75986    0.025
 3911.00    0.71941   0.76888    0.026
 3912.00    0.61306   0.77445    0.026
 3913.00    0.52853   0.77353    0.026
 3914.00    0.48851   0.76596    0.027
 3915.00    0.52347   0.75535    0.028
 3916.00    0.69161   0.74098    0.029
 3917.00    0.81572   0.72171    0.029
 3918.00    0.87143   0.70221    0.029
 3919.00    0.82869   0.68349    0.029
 3920.00    0.65164   0.66335    0.029
 3921.00    0.57395   0.64419    0.029
 3922.00    0.61560   0.62635    0.029
 3923.00    0.66439   0.60652    0.029
 3924.00    0.72073   0.58464    0.029
 3925.00    0.73628   0.56065    0.029
 3926.00    0.71372   0.53268    0.029
 3927.00    0.69510   0.50194    0.029
 3928.00    0.67973   0.47035    0.029
 3929.00    0.62226   0.43893    0.029
 3930.00    0.53428   0.41080    0.029
 3931.00    0.45159   0.38867    0.029
 3932.00    0.37227   0.37374    0.029
 3933.00    0.31162   0.36811    0.029
 3934.00    0.26136   0.37232    0.029
 3935.00    0.31671   0.38486    0.028
 3936.00    0.42319   0.40518    0.028
 3937.00    0.56459   0.43134    0.029
 3938.00    0.72058   0.45945    0.029
 3939.00    0.56472   0.48871    0.029
 3940.00    0.29731   0.51840    0.028
 3941.00    0.27470   0.54507    0.028
 3942.00    0.32608   0.56994    0.028
 3943.00    0.39772   0.59564    0.028
 3944.00    0.47444   0.61930    0.028
 3945.00    0.47467   0.64117    0.028
 3946.00    0.45931   0.66430    0.028
 3947.00    0.70361   0.68627    0.028
 3948.00    0.98949   0.70544    0.029
 3949.00    0.95249   0.72244    0.029
 3950.00    0.87695   0.73597    0.028
 3951.00    0.74560   0.74650    0.028
 3952.00    0.60970   0.75270    0.028
 3953.00    0.69064   0.75212    0.029
 3954.00    0.78154   0.74784    0.029
 3955.00    0.60199   0.73936    0.029
 3956.00    0.42304   0.72282    0.028
 3957.00    0.45600   0.70089    0.029
 3958.00    0.49088   0.67447    0.029
 3959.00    0.56221   0.64164    0.029
 3960.00    0.61164   0.60491    0.000
 3961.00    0.41433   0.56525    0.000
 3962.00    0.25986   0.52333    0.000
 3963.00    0.44210   0.48267    0.000
 3964.00    0.59702   0.44454    0.000
 3965.00    0.58978   0.41036    0.000
 3966.00    0.58015   0.38354    0.000
 3967.00    0.55933   0.36577    0.000
 3968.00    0.54197   0.35830    0.000
 3969.00    0.53787   0.36263    0.000
 3970.00    0.56431   0.37850    0.000
 3971.00    0.68838   0.40498    0.000
 3972.00    0.76329   0.44118    0.000
 3973.00    0.70505   0.48409    0.000
 3974.00    0.69344   0.53072    0.000
 3975.00    0.79013   0.57962    0.000
 3976.00    0.79006   0.62765    0.000
 3977.00    0.59567   0.67230    0.000
 3978.00    0.54032   0.71299    0.000
 3979.00    0.72818   0.74836    0.000
 3980.00    0.92340   0.77832    0.000
 3981.00    1.12987   0.80332    0.030
 3982.00    1.23889   0.82424    0.030
 3983.00    1.21688   0.84251    0.030
 3984.00    1.21917   0.85770    0.030
 3985.00    1.25024   0.87215    0.030
 3986.00    1.20190   0.88636    0.030
 3987.00    1.07062   0.89720    0.030
 3988.00    0.95824   0.90776    0.029
 3989.00    0.86327   0.91814    0.028
 3990.00    0.82488   0.92437    0.028
 3991.00    0.83242   0.92933    0.028
 3992.00    0.89930   0.93371    0.028
 3993.00    1.00856   0.93600    0.029
 3994.00    1.00215   0.93819    0.029
 3995.00    0.92322   0.94035    0.029
 3996.00    0.87054   0.94372    0.028
 3997.00    0.83224   0.94957    0.028
 3998.00    0.85174   0.95494    0.028
 3999.00    0.89878   0.95995    0.028
 4000.00    0.90982   0.96607    0.028
 4001.00    0.90606   0.96962    0.028
 4002.00    1.06935   0.96896    0.028
 4003.00    1.29132   0.96786    0.029
 4004.00    1.18888   0.96749    0.029
 4005.00    0.99033   0.96612    0.028
 4006.00    0.91240   0.96658    0.028
 4007.00    0.86411   0.97226    0.028
 4008.00    0.81553   0.98047    0.028
 4009.00    0.76688   0.98964    0.028
 4010.00    0.85006   1.00167    0.028
 4011.00    0.95372   1.01391    0.028
 4012.00    1.00281   1.02389    0.028
 4013.00    1.04563   1.03401    0.028
 4014.00    0.96221   1.04224    0.028
 4015.00    0.86904   1.04686    0.028
 4016.00    0.90770   1.05196    0.028
 4017.00    0.95190   1.05558    0.029
 4018.00    1.01202   1.05528    0.028
 4019.00    1.07038   1.05543    0.028
 4020.00    1.04483   1.05573    0.028
 4021.00    1.02108   1.05281    0.028
 4022.00    1.02903   1.04913    0.029
 4023.00    1.03560   1.04678    0.029
 4024.00    1.02718   1.04171    0.029
 4025.00    1.01768   1.03305    0.029
 4026.00    1.00000   1.02445    0.029
 4027.00    0.96081   1.01198    0.029
 4028.00    0.79756   0.99436    0.028
 4029.00    0.69624   0.97838    0.028
 4030.00    0.87873   0.96281    0.028
 4031.00    1.03122   0.94839    0.028
 4032.00    1.07121   0.94267    0.028
 4033.00    1.07054   0.94411    0.028
 4034.00    0.94238   0.95132    0.028
 4035.00    0.87396   0.96539    0.027
 4036.00    0.96447   0.98156    0.027
 4037.00    1.04271   0.99627    0.027
 4038.00    1.09293   1.00629    0.028
 4039.00    1.12223   1.00905    0.028
 4040.00    1.11016   1.00466    0.028
 4041.00    1.04683   0.99293    0.028
 4042.00    0.89520   0.97693    0.028
 4043.00    0.79711   0.96031    0.028
 4044.00    0.77978   0.94627    0.029
 4045.00    0.78543   0.93883    0.029
 4046.00    0.82156   0.93749    0.029
 4047.00    0.91555   0.94327    0.029
 4048.00    1.07709   0.95603    0.029
 4049.00    1.14031   0.96865    0.029
 4050.00    1.10229   0.98018    0.029
 4051.00    1.02324   0.99056    0.029
 4052.00    0.90693   0.99327    0.029
 4053.00    0.90628   0.99079    0.029
 4054.00    0.99820   0.98643    0.029
 4055.00    0.97783   0.97651    0.029
 4056.00    0.87837   0.96542    0.029
 4057.00    0.94732   0.95584    0.029
 4058.00    1.12030   0.94387    0.029
 4059.00    1.15398   0.93327    0.029
 4060.00    1.11251   0.92494    0.028
 4061.00    1.06231   0.91536    0.028
 4062.00    1.00802   0.90913    0.028
 4063.00    0.92267   0.90710    0.029
 4064.00    0.82477   0.90596    0.029
 4065.00    0.81125   0.90917    0.028
 4066.00    0.82682   0.91589    0.028
 4067.00    0.78716   0.92245    0.028
 4068.00    0.73147   0.92920    0.028
 4069.00    0.84477   0.93419    0.028
 4070.00    0.99866   0.93736    0.028
 4071.00    1.08334   0.93841    0.028
 4072.00    1.15460   0.93607    0.028
 4073.00    1.14748   0.93480    0.028
 4074.00    1.12856   0.93387    0.028
 4075.00    1.04618   0.93297    0.028
 4076.00    0.95679   0.93728    0.029
 4077.00    0.88694   0.94441    0.028
 4078.00    0.81853   0.95420    0.028
 4079.00    0.99636   0.96917    0.028
 4080.00    1.18363   0.98463    0.028
 4081.00    1.06509   1.00065    0.029
 4082.00    0.95312   1.01811    0.029
 4083.00    1.15210   1.03303    0.029
 4084.00    1.33417   1.04659    0.029
 4085.00    1.23757   1.05993    0.028
 4086.00    1.13805   1.07046    0.028
 4087.00    1.00842   1.07761    0.028
 4088.00    0.89568   1.08254    0.028
 4089.00    0.90685   1.08294    0.028
 4090.00    0.91376   1.07613    0.028
 4091.00    0.89681   1.06555    0.028
 4092.00    0.87369   1.04993    0.000
 4093.00    0.82300   1.02691    0.000
 4094.00    0.78374   1.00284    0.000
 4095.00    0.78647   0.97668    0.000
 4096.00    0.80171   0.94744    0.000
 4097.00    0.85542   0.92252    0.000
 4098.00    0.92011   0.90045    0.000
 4099.00    1.01350   0.88105    0.000
 4100.00    1.05414   0.87087    0.000
 4101.00    0.97631   0.86742    0.000
 4102.00    0.92960   0.86907    0.000
 4103.00    0.94347   0.87933    0.000
 4104.00    0.99477   0.89370    0.000
 4105.00    1.10960   0.90900    0.000
 4106.00    1.17334   0.92662    0.000
 4107.00    1.16112   0.94247    0.000
 4108.00    1.08591   0.95570    0.000
 4109.00    0.92840   0.96799    0.000
 4110.00    0.95949   0.97748    0.000
 4111.00    1.20766   0.98600    0.000
 4112.00    1.28263   0.99401    0.000
 4113.00    1.18181   0.99959    0.028
 4114.00    1.04171   1.00471    0.028
 4115.00    0.86646   1.00864    0.028
 4116.00    0.86838   1.00927    0.028
 4117.00    1.01009   1.00916    0.028
 4118.00    1.10947   1.00837    0.028
 4119.00    1.17948   1.00590    0.028
 4120.00    1.12043   1.00444    0.028
 4121.00    0.98285   1.00320    0.028
 4122.00    0.89673   1.00161    0.028
 4123.00    0.83796   1.00044    0.028
 4124.00    0.92838   0.99762    0.028
 4125.00    1.08759   0.99333    0.028
 4126.00    1.12995   0.98683    0.028
 4127.00    1.12592   0.97792    0.028
 4128.00    1.05579   0.96893    0.028
 4129.00    0.96327   0.95868    0.028
 4130.00    0.88902   0.95000    0.028
 4131.00    0.81995   0.94588    0.028
 4132.00    0.82135   0.94328    0.028
 4133.00    0.83929   0.94610    0.028
 4134.00    0.95506   0.95327    0.028
 4135.00    1.08929   0.95931    0.028
 4136.00    1.01710   0.96796    0.028
 4137.00    0.91477   0.97386    0.028
 4138.00    0.87065   0.97337    0.028
 4139.00    0.83271   0.97162    0.028
 4140.00    0.82422   0.96484    0.028
 4141.00    0.81778   0.95358    0.028
 4142.00    0.94199   0.94418    0.028
 4143.00    1.07072   0.93565    0.029
 4144.00    1.13906   0.92827    0.029
 4145.00    1.19793   0.92550    0.029
 4146.00    0.94785   0.92525    0.028
 4147.00    0.72683   0.92544    0.028
 4148.00    0.95507   0.92743    0.028
 4149.00    1.14230   0.92867    0.028
 4150.00    0.92520   0.92859    0.028
 4151.00    0.73585   0.92918    0.028
 4152.00    0.74352   0.92909    0.028
 4153.00    0.77703   0.93051    0.029
 4154.00    0.95161   0.93454    0.029
 4155.00    1.09353   0.94009    0.029
 4156.00    1.09268   0.94867    0.028
 4157.00    1.04251   0.95988    0.028
 4158.00    0.81496   0.97199    0.027
 4159.00    0.63276   0.98334    0.027
 4160.00    0.58742   0.99441    0.027
 4161.00    0.60035   1.00310    0.027
 4162.00    0.76293   1.00675    0.027
 4163.00    0.97551   1.00828    0.027
 4164.00    1.29851   1.00590    0.028
 4165.00    1.45394   0.99896    0.028
 4166.00    1.28837   0.99118    0.028
 4167.00    1.09967   0.97995    0.028
 4168.00    0.87233   0.96724    0.028
 4169.00    0.77650   0.95584    0.028
 4170.00    0.87331   0.94216    0.027
 4171.00    0.93637   0.93005    0.027
 4172.00    0.95594   0.92062    0.027
 4173.00    0.90044   0.91170    0.027
 4174.00    0.75973   0.90724    0.027
 4175.00    0.69872   0.90567    0.027
 4176.00    0.71747   0.90584    0.027
 4177.00    0.82035   0.91032    0.027
 4178.00    0.99748   0.91615    0.027
 4179.00    1.04821   0.92226    0.028
 4180.00    1.00063   0.93073    0.027
 4181.00    0.88844   0.93832    0.027
 4182.00    0.73208   0.94374    0.027
 4183.00    0.70419   0.95096    0.027
 4184.00    0.75330   0.95680    0.026
 4185.00    0.84853   0.95981    0.026
 4186.00    0.96789   0.96387    0.027
 4187.00    1.10108   0.96731    0.027
 4188.00    1.24054   0.97035    0.027
 4189.00    1.19626   0.97260    0.027
 4190.00    1.08029   0.97259    0.027
 4191.00    0.99876   0.97211    0.027
 4192.00    0.92868   0.96927    0.027
 4193.00    0.85492   0.96192    0.027
 4194.00    0.78014   0.95245    0.026
 4195.00    0.79657   0.94281    0.027
 4196.00    0.83391   0.93099    0.027
 4197.00    0.97230   0.91984    0.027
 4198.00    1.12926   0.91379    0.028
 4199.00    1.10680   0.90994    0.027
 4200.00    1.05897   0.91093    0.027
 4201.00    0.82193   0.91837    0.026
 4202.00    0.56560   0.92797    0.026
 4203.00    0.66643   0.94258    0.026
 4204.00    0.79053   0.95910    0.027
 4205.00    0.87341   0.97319    0.026
 4206.00    0.95485   0.98931    0.026
 4207.00    0.92124   1.00225    0.027
 4208.00    0.89159   1.00936    0.027
 4209.00    0.97859   1.01579    0.027
 4210.00    1.06127   1.01738    0.027
 4211.00    1.08116   1.01636    0.027
 4212.00    1.10246   1.01758    0.027
 4213.00    1.13720   1.01607    0.027
 4214.00    1.17248   1.01617    0.028
 4215.00    1.21139   1.02056    0.028
 4216.00    1.25147   1.02362    0.028
 4217.00    1.29774   1.02595    0.028
 4218.00    1.28541   1.02604    0.027
 4219.00    1.02280   1.02049    0.027
 4220.00    0.79235   1.00874    0.027
 4221.00    0.67521   0.98887    0.027
 4222.00    0.60397   0.96341    0.027
 4223.00    0.66861   0.93857    0.027
 4224.00    0.74399   0.91399    0.027
 4225.00    0.84646   0.89283    0.027
 4226.00    0.93454   0.88363    0.026
 4227.00    0.99137   0.88267    0.027
 4228.00    0.98477   0.88860    0.027
 4229.00    0.85859   0.90490    0.027
 4230.00    0.77372   0.92252    0.026
 4231.00    0.75687   0.93935    0.026
 4232.00    0.77906   0.95804    0.026
 4233.00    0.85762   0.97095    0.026
 4234.00    0.96915   0.98066    0.026
 4235.00    1.12255   0.99172    0.026
 4236.00    1.26630   1.00031    0.026
 4237.00    1.39924   1.00985    0.026
 4238.00    1.40028   1.02217    0.026
 4239.00    1.27115   1.03578    0.026
 4240.00    1.18142   1.05017    0.026
 4241.00    1.12599   1.06329    0.026
 4242.00    1.12615   1.07383    0.027
 4243.00    1.16895   1.07993    0.027
 4244.00    1.08006   1.08139    0.027
 4245.00    0.90243   1.07523    0.027
 4246.00    0.95304   1.06362    0.027
 4247.00    1.13841   1.05172    0.028
 4248.00    1.24613   1.03466    0.028
 4249.00    1.31387   1.01660    0.029
 4250.00    1.37369   1.00364    0.029
 4251.00    1.42999   0.99312    0.029
 4252.00    1.24550   0.98613    0.028
 4253.00    0.96868   0.98147    0.027
 4254.00    0.85957   0.98090    0.027
 4255.00    0.80511   0.98502    0.027
 4256.00    0.97322   0.98823    0.027
 4257.00    1.20209   0.99392    0.028
 4258.00    1.11375   1.00243    0.027
 4259.00    0.95431   1.01161    0.027
 4260.00    0.97679   1.02437    0.028
 4261.00    1.03181   1.03731    0.028
 4262.00    1.13002   1.04856    0.028
 4263.00    1.23414   1.05883    0.028
 4264.00    1.04859   1.06427    0.028
 4265.00    0.83475   1.06226    0.027
 4266.00    0.92233   1.05228    0.027
 4267.00    1.02836   1.03543    0.027
 4268.00    1.01914   1.01455    0.027
 4269.00    1.00625   0.98922    0.027
 4270.00    0.88197   0.96457    0.027
 4271.00    0.75977   0.94792    0.027
 4272.00    0.69242   0.93629    0.026
 4273.00    0.62928   0.93338    0.026
 4274.00    0.62392   0.94004    0.026
 4275.00    0.63081   0.95086    0.026
 4276.00    0.74899   0.96968    0.027
 4277.00    0.86056   0.98784    0.027
 4278.00    0.92815   1.00075    0.027
 4279.00    0.98264   1.01572    0.027
 4280.00    0.96930   1.02318    0.027
 4281.00    0.95379   1.02404    0.027
 4282.00    0.92919   1.02379   -2.000
 4283.00    0.87531   1.01544   -2.000
 4284.00    0.72037   1.00441   -2.000
 4285.00    0.64565   0.99360   -2.000
 4286.00    0.80413   0.98026   -2.000
 4287.00    0.97804   0.96732   -2.000
 4288.00    1.19027   0.95600   -2.000
 4289.00    1.35124   0.94572   -2.000
 4290.00    1.40265   0.93971   -2.000
 4291.00    1.36533   0.93622   -2.000
 4292.00    1.16326   0.92857   -2.000
 4293.00    0.97510   0.92263   -2.000
 4294.00    0.80951   0.91542   -2.000
 4295.00    0.77739   0.90235   -2.000
 4296.00    0.93516   0.88887   -2.000
 4297.00    1.04369   0.86867   -2.000
 4298.00    1.09061   0.84724    0.027
 4299.00    1.08465   0.83029    0.027
 4300.00    1.02039   0.80981    0.028
 4301.00    0.96418   0.79256    0.028
 4302.00    0.91581   0.78019    0.027
 4303.00    0.87547   0.76802    0.027
 4304.00    0.84200   0.76264    0.027
 4305.00    0.78099   0.76067    0.027
 4306.00    0.69917   0.76123    0.027
 4307.00    0.58619   0.77129    0.026
 4308.00    0.45250   0.78769    0.026
 4309.00    0.57746   0.81104    0.026
 4310.00    0.85282   0.84354    0.026
 4311.00    1.02516   0.88379    0.026
 4312.00    1.14528   0.92860    0.026
 4313.00    1.11993   0.97618    0.026
 4314.00    1.03075   1.02561    0.026
 4315.00    1.00808   1.06886    0.027
 4316.00    1.01047   1.10351    0.027
 4317.00    1.08611   1.12932    0.027
 4318.00    1.18518   1.14117    0.027
 4319.00    1.22490   1.14190    0.027
 4320.00    1.24876   1.13338    0.027
 4321.00    1.08121   1.11401    0.027
 4322.00    0.87178   1.09351    0.027
 4323.00    0.91157   1.07428    0.027
 4324.00    0.99470   1.05792    0.028
 4325.00    1.04598   1.05367    0.028
 4326.00    1.09305   1.05772    0.028
 4327.00    1.26300   1.06856    0.028
 4328.00    1.44444   1.08500    0.028
 4329.00    1.29761   1.10371    0.027
 4330.00    1.13201   1.12385    0.000
 4331.00    1.18852   1.13838    0.000
 4332.00    1.24921   1.14343    0.000
 4333.00    1.19718   1.14057    0.000
 4334.00    1.13979   1.12968    0.000
 4335.00    0.95398   1.10943    0.000
 4336.00    0.78242   1.08567    0.000
 4337.00    0.79636   1.06266    0.000
 4338.00    0.82951   1.04053    0.000
 4339.00    1.03048   1.02567    0.000
 4340.00    1.20392   1.01980    0.000
 4341.00    1.19961   1.02087    0.000
 4342.00    1.19255   1.03092    0.000
 4343.00    1.17158   1.04821    0.000
 4344.00    1.15675   1.06758    0.000
 4345.00    1.16692   1.08769    0.000
 4346.00    1.15163   1.10494    0.000
 4347.00    1.05017   1.11754    0.000
 4348.00    1.01669   1.12697    0.000
 4349.00    1.17714   1.12889    0.000
 4350.00    1.29535   1.12663    0.000
 4351.00    1.31058   1.12752    0.028
 4352.00    1.30995   1.12946    0.028
 4353.00    1.27593   1.13091    0.028
 4354.00    1.21178   1.13481    0.028
 4355.00    1.09256   1.14369    0.028
 4356.00    1.04627   1.15626    0.028
 4357.00    1.11651   1.16910    0.028
 4358.00    1.25747   1.18254    0.028
 4359.00    1.49756   1.19815    0.028
 4360.00    1.54302   1.21296    0.028
 4361.00    1.34831   1.22308    0.028
 4362.00    1.14349   1.23100    0.028
 4363.00    0.92766   1.23769    0.028
 4364.00    0.91867   1.24012    0.028
 4365.00    1.10809   1.23648    0.028
 4366.00    1.23524   1.22824    0.029
 4367.00    1.30970   1.21920    0.029
 4368.00    1.25525   1.20725    0.028
 4369.00    1.10478   1.19245    0.028
 4370.00    1.09872   1.17748    0.028
 4371.00    1.18715   1.16282    0.028
 4372.00    1.06738   1.14996    0.028
 4373.00    0.82837   1.13741    0.028
 4374.00    0.91305   1.12681    0.028
 4375.00    1.15919   1.11880    0.028
 4376.00    1.32061   1.10866    0.029
 4377.00    1.44547   1.09523    0.029
 4378.00    1.33113   1.07880    0.029
 4379.00    1.12828   1.06192    0.028
 4380.00    1.14985   1.04328    0.029
 4381.00    1.24180   1.02075    0.029
 4382.00    1.15210   1.00041    0.029
 4383.00    1.01488   0.98662    0.028
 4384.00    0.91306   0.98128    0.028
 4385.00    0.81881   0.98126    0.027
 4386.00    0.96159   0.98557    0.028
 4387.00    1.14444   0.99766    0.029
 4388.00    1.20576   1.01507    0.028
 4389.00    1.25155   1.03611    0.028
 4390.00    1.20439   1.05685    0.028
 4391.00    1.14893   1.07583    0.028
 4392.00    1.11398   1.09424    0.028
 4393.00    1.08013   1.10895    0.029
 4394.00    1.13754   1.12323    0.028
 4395.00    1.19684   1.13634    0.028
 4396.00    1.26431   1.14263    0.028
 4397.00    1.32684   1.14390    0.028
 4398.00    1.28056   1.13846    0.028
 4399.00    1.23650   1.13009    0.029
 4400.00    1.21982   1.12248    0.028
 4401.00    1.19384   1.10847    0.028
 4402.00    1.08962   1.09055    0.028
 4403.00    1.02016   1.07634    0.028
 4404.00    1.16847   1.06958    0.029
 4405.00    1.29657   1.06982    0.029
 4406.00    1.32531   1.07276    0.029
 4407.00    1.33970   1.07932    0.029
 4408.00    1.29679   1.09302    0.028
 4409.00    1.23009   1.11124    0.028
 4410.00    1.08451   1.12819    0.027
 4411.00    0.96625   1.14248    0.027
 4412.00    0.92456   1.15304    0.027
 4413.00    0.92983   1.16084    0.027
 4414.00    1.04766   1.16902    0.028
 4415.00    1.14786   1.17436    0.028
 4416.00    1.21156   1.17941    0.028
 4417.00    1.25135   1.18428    0.028
 4418.00    1.24810   1.18655    0.028
 4419.00    1.25705   1.19128    0.028
 4420.00    1.28522   1.19377    0.028
 4421.00    1.34709   1.19477    0.028
 4422.00    1.45552   1.19726    0.027
 4423.00    1.46171   1.19574    0.027
 4424.00    1.34356   1.19352    0.028
 4425.00    1.24208   1.19006    0.028
 4426.00    1.15847   1.18744    0.028
 4427.00    1.09430   1.18693    0.028
 4428.00    1.04851   1.18097    0.028
 4429.00    1.01620   1.17685    0.028
 4430.00    0.99515   1.17489    0.028
 4431.00    1.10426   1.17145    0.028
 4432.00    1.30893   1.16980    0.028
 4433.00    1.35192   1.16613    0.028
 4434.00    1.29067   1.16733    0.027
 4435.00    1.23253   1.17459    0.028
 4436.00    1.17614   1.18020    0.028
 4437.00    1.27645   1.18712    0.028
 4438.00    1.45369   1.19369    0.029
 4439.00    1.46391   1.20011    0.029
 4440.00    1.40327   1.20786    0.028
 4441.00    1.19252   1.21469    0.028
 4442.00    0.92721   1.22199    0.028
 4443.00    1.01716   1.22983    0.028
 4444.00    1.21636   1.23664    0.029
 4445.00    1.11995   1.24087    0.028
 4446.00    0.94786   1.24620    0.028
 4447.00    1.05339   1.24995    0.028
 4448.00    1.21677   1.24769    0.027
 4449.00    1.23294   1.24295    0.027
 4450.00    1.22491   1.23155    0.027
 4451.00    1.12834   1.21632    0.027
 4452.00    1.02085   1.19883    0.026
 4453.00    0.93504   1.17621    0.027
 4454.00    0.85108   1.15681    0.027
 4455.00    0.83798   1.13992    0.027
 4456.00    0.82838   1.12430    0.027
 4457.00    0.82817   1.11196    0.027
 4458.00    0.82947   1.10438    0.026
 4459.00    0.91588   1.10276    0.027
 4460.00    1.00226   1.10552    0.027
 4461.00    1.08811   1.11467    0.000
 4462.00    1.17162   1.12486    0.000
 4463.00    1.22747   1.13655    0.000
 4464.00    1.28342   1.15017    0.000
 4465.00    1.34011   1.16333    0.000
 4466.00    1.36235   1.18021    0.000
 4467.00    1.17500   1.19468    0.000
 4468.00    1.01725   1.20792    0.000
 4469.00    1.00155   1.22337    0.000
 4470.00    1.02764   1.23912    0.000
 4471.00    1.21693   1.25628    0.000
 4472.00    1.34203   1.27084    0.000
 4473.00    1.25844   1.28235    0.000
 4474.00    1.19626   1.29325    0.000
 4475.00    1.19301   1.30165    0.000
 4476.00    1.20014   1.30666    0.000
 4477.00    1.23171   1.30640    0.000
 4478.00    1.19956   1.30137    0.000
 4479.00    1.03765   1.29680    0.000
 4480.00    0.97428   1.29327    0.000
 4481.00    1.08560   1.29173    0.000
 4482.00    1.17305   1.29044    0.026
 4483.00    1.22350   1.28892    0.026
 4484.00    1.24880   1.29008    0.026
 4485.00    1.23987   1.29079    0.026
 4486.00    1.24254   1.29019    0.026
 4487.00    1.25911   1.28678    0.026
 4488.00    1.30197   1.28141    0.027
 4489.00    1.37262   1.27685    0.027
 4490.00    1.37283   1.27176    0.027
 4491.00    1.30738   1.26626    0.027
 4492.00    1.27069   1.25959    0.027
 4493.00    1.25764   1.25715    0.027
 4494.00    1.33682   1.25947    0.027
 4495.00    1.48273   1.26580    0.027
 4496.00    1.46311   1.27685    0.027
 4497.00    1.33834   1.28797    0.027
 4498.00    1.35353   1.30285    0.027
 4499.00    1.44645   1.31866    0.027
 4500.00    1.43889   1.33619    0.027
 4501.00    1.38277   1.35721    0.027
 4502.00    1.43116   1.37405    0.026
 4503.00    1.52314   1.38812    0.026
 4504.00    1.49791   1.39789    0.026
 4505.00    1.43084   1.40385    0.027
 4506.00    1.29574   1.40934    0.027
 4507.00    1.14013   1.40998    0.027
 4508.00    1.23859   1.40694    0.026
 4509.00    1.40068   1.40127    0.026
 4510.00    1.37081   1.39154    0.026
 4511.00    1.30193   1.38179    0.026
 4512.00    1.20118   1.37251    0.026
 4513.00    1.09535   1.36370    0.026
 4514.00    1.20605   1.35746    0.026
 4515.00    1.34249   1.34952    0.027
 4516.00    1.23700   1.34189    0.026
 4517.00    1.11194   1.33830    0.025
 4518.00    1.15956   1.33338    0.026
 4519.00    1.21502   1.32882    0.026
 4520.00    1.19525   1.31920    0.026
 4521.00    1.17650   1.30445    0.026
 4522.00    1.25723   1.29125    0.026
 4523.00    1.33420   1.27323    0.026
 4524.00    1.34048   1.25281    0.026
 4525.00    1.33694   1.23168    0.026
 4526.00    1.22341   1.20970    0.026
 4527.00    1.13292   1.19291    0.026
 4528.00    1.22264   1.18037    0.026
 4529.00    1.28111   1.17091    0.026
 4530.00    1.15483   1.16993    0.026
 4531.00    1.03896   1.17129    0.026
 4532.00    0.97186   1.17631    0.026
 4533.00    0.94751   1.18640    0.026
 4534.00    1.08657   1.19889    0.026
 4535.00    1.17475   1.21842    0.026
 4536.00    1.10073   1.23416    0.026
 4537.00    1.03615   1.24652    0.026
 4538.00    0.99710   1.25786    0.026
 4539.00    0.99433   1.26702    0.026
 4540.00    1.07558   1.27745    0.026
 4541.00    1.16515   1.28341    0.026
 4542.00    1.27138   1.28328    0.027
 4543.00    1.31918   1.28070    0.027
 4544.00    1.26496   1.27878    0.026
 4545.00    1.25299   1.27624    0.026
 4546.00    1.30555   1.27345    0.026
 4547.00    1.36126   1.26778    0.026
 4548.00    1.42117   1.26336    0.026
 4549.00    1.43676   1.26391    0.026
 4550.00    1.39996   1.26330    0.000
 4551.00    1.29192   1.26503    0.000
 4552.00    1.10962   1.26812    0.000
 4553.00    1.05921   1.27360    0.000
 4554.00    1.13006   1.28418    0.000
 4555.00    1.24272   1.29590    0.000
 4556.00    1.38926   1.30697    0.000
 4557.00    1.44754   1.31768    0.000
 4558.00    1.44287   1.32663    0.000
 4559.00    1.39979   1.33463    0.000
 4560.00    1.33269   1.34226    0.000
 4561.00    1.27092   1.34437    0.000
 4562.00    1.21208   1.34404    0.000
 4563.00    1.21187   1.34343    0.000
 4564.00    1.23953   1.34267    0.000
 4565.00    1.18416   1.34501    0.000
 4566.00    1.09473   1.34615    0.000
 4567.00    1.23121   1.34601    0.000
 4568.00    1.44686   1.34790    0.000
 4569.00    1.38750   1.34797    0.000
 4570.00    1.24686   1.34951    0.000
 4571.00    1.18713   1.35309    0.000
 4572.00    1.14721   1.35189    0.000
 4573.00    1.22480   1.34875    0.000
 4574.00    1.32568   1.34404    0.000
 4575.00    1.15551   1.33789    0.000
 4576.00    0.94340   1.33194    0.000
 4577.00    1.01798   1.32223    0.000
 4578.00    1.12537   1.31174    0.000
 4579.00    1.21284   1.30283    0.000
 4580.00    1.29879   1.29649    0.000
 4581.00    1.37768   1.29173    0.000
 4582.00    1.45628   1.28770    0.000
 4583.00    1.38491   1.28695    0.000
 4584.00    1.31065   1.28788    0.000
 4585.00    1.16849   1.29268    0.000
 4586.00    1.03894   1.29832    0.000
 4587.00    1.13007   1.30247    0.000
 4588.00    1.21450   1.30523    0.000
 4589.00    1.22726   1.30487    0.000
 4590.00    1.23857   1.30370    0.000
 4591.00    1.23885   1.30149    0.000
 4592.00    1.24186   1.29789    0.000
 4593.00    1.26049   1.29224    0.000
 4594.00    1.24650   1.28680    0.000
 4595.00    1.08347   1.28273    0.000
 4596.00    0.95695   1.27910    0.000
 4597.00    0.96701   1.27903    0.000
 4598.00    1.00543   1.27804    0.000
 4599.00    1.13251   1.27949    0.000
 4600.00    1.20969   1.28480    0.000
 4601.00    1.15440   1.28957    0.000
 4602.00    1.11417   1.29825    0.000
 4603.00    1.10826   1.30624    0.000
 4604.00    1.13779   1.31669    0.000
 4605.00    1.23723   1.33014    0.000
 4606.00    1.28219   1.34323    0.000
 4607.00    1.23349   1.35692    0.000
 4608.00    1.17531   1.36783    0.000
 4609.00    1.10284   1.37664    0.000
 4610.00    1.11115   1.38501    0.000
 4611.00    1.22634   1.39124    0.000
 4612.00    1.25505   1.39592    0.000
 4613.00    1.18297   1.40023    0.000
 4614.00    1.18002   1.40104    0.000
 4615.00    1.24811   1.40268    0.000
 4616.00    1.29935   1.40399    0.000
 4617.00    1.33531   1.40372    0.000
 4618.00    1.34141   1.40515    0.000
 4619.00    1.32364   1.40630    0.000
 4620.00    1.38101   1.40588    0.000
 4621.00    1.49121   1.40513    0.000
 4622.00    1.44187   1.40386    0.000
 4623.00    1.29419   1.40181    0.000
 4624.00    1.18233   1.39971    0.000
 4625.00    1.08978   1.39699    0.000
 4626.00    1.08780   1.39401    0.000
 4627.00    1.12818   1.38992    0.000
 4628.00    1.31179   1.38478    0.000
 4629.00    1.55314   1.38040    0.000
 4630.00    1.54929   1.37422    0.000
 4631.00    1.46109   1.36560    0.000
 4632.00    1.46871   1.35706    0.000
 4633.00    1.50408   1.34750    0.000
 4634.00    1.40583   1.33814    0.000
 4635.00    1.27558   1.32736    0.000
 4636.00    1.25545   1.31578    0.000
 4637.00    1.25658   1.30612    0.000
 4638.00    1.31837   1.29567    0.000
 4639.00    1.38927   1.28759    0.000
 4640.00    1.35529   1.27999    0.000
 4641.00    1.30977   1.27134    0.000
 4642.00    1.32358   1.26341    0.000
 4643.00    1.34170   1.25585    0.000
 4644.00    1.25159   1.24923    0.000
 4645.00    1.15739   1.24460    0.000
 4646.00    1.29278   1.24272    0.000
 4647.00    1.42111   1.24318    0.000
 4648.00    1.24435   1.24669    0.000
 4649.00    1.08204   1.25217    0.000
 4650.00    1.15572   1.25955    0.000
 4651.00    1.22441   1.26964    0.000
 4652.00    1.24204   1.27887    0.000
 4653.00    1.25411   1.28906    0.000
 4654.00    1.22554   1.29957    0.000
 4655.00    1.21877   1.30908    0.000
 4656.00    1.33380   1.31893    0.000
 4657.00    1.43745   1.32491    0.000
 4658.00    1.49032   1.32795    0.000
 4659.00    1.47096   1.32659    0.000
 4660.00    1.18703   1.32124    0.000
 4661.00    1.00088   1.31272    0.000
 4662.00    1.11469   1.30069    0.000
 4663.00    1.16857   1.28661    0.000
 4664.00    1.06611   1.27007    0.000
 4665.00    1.01550   1.25402    0.000
 4666.00    1.08106   1.24193    0.000
 4667.00    1.14271   1.23584    0.000
 4668.00    1.19674   1.23410    0.000
 4669.00    1.24359   1.23634    0.000
 4670.00    1.27826   1.24134    0.000
 4671.00    1.29656   1.24849    0.000
 4672.00    1.29056   1.25786    0.000
 4673.00    1.27113   1.26673    0.000
 4674.00    1.23418   1.27571    0.000
 4675.00    1.20234   1.28121    0.000
 4676.00    1.17640   1.28320    0.000
 4677.00    1.16748   1.28366    0.000
 4678.00    1.17582   1.28242    0.000
 4679.00    1.15724   1.28157    0.000
 4680.00    1.11462   1.28017    0.000
 4681.00    1.14135   1.27975    0.000
 4682.00    1.22270   1.27961    0.000
 4683.00    1.32865   1.27914    0.000
 4684.00    1.45164   1.28003    0.000
 4685.00    1.39574   1.28094    0.000
 4686.00    1.23119   1.28231    0.000
 4687.00    1.24151   1.28400    0.000
 4688.00    1.34455   1.28533    0.000
 4689.00    1.33773   1.28600    0.000
 4690.00    1.28036   1.28659    0.000
 4691.00    1.20009   1.28744    0.000
 4692.00    1.11074   1.28764    0.000
 4693.00    1.14463   1.28735    0.000
 4694.00    1.22013   1.28526    0.000
 4695.00    1.17868   1.28182    0.000
 4696.00    1.10406   1.27614    0.000
 4697.00    1.19562   1.26938    0.000
 4698.00    1.32609   1.26324    0.000
 4699.00    1.28304   1.25567    0.000
 4700.00    1.20735   1.24899    0.000
 4701.00    1.23464   1.24243    0.000
 4702.00    1.27692   1.23839    0.000
 4703.00    1.14543   1.23590    0.000
 4704.00    0.99558   1.23469    0.000
 4705.00    1.06700   1.23503    0.000
 4706.00    1.15361   1.23695    0.000
 4707.00    1.18757   1.24120    0.000
 4708.00    1.21975   1.24606    0.000
 4709.00    1.28717   1.25362    0.000
 4710.00    1.34854   1.26063    0.000
 4711.00    1.21149   1.26877    0.000
 4712.00    1.08565   1.27792    0.000
 4713.00    1.13187   1.28829    0.000
 4714.00    1.17455   1.30160    0.000
 4715.00    1.18253   1.31450    0.000
 4716.00    1.20450   1.32738    0.000
 4717.00    1.32530   1.33952    0.000
 4718.00    1.43167   1.34943    0.000
 4719.00    1.45949   1.35760    0.000
 4720.00    1.46438   1.36249    0.000
 4721.00    1.36925   1.36431    0.000
 4722.00    1.29756   1.36286    0.000
 4723.00    1.30994   1.35639    0.000
 4724.00    1.30832   1.34682    0.000
 4725.00    1.26457   1.33388    0.000
 4726.00    1.18238   1.32019    0.000
 4727.00    1.00171   1.30763    0.000
 4728.00    0.94146   1.29682    0.000
 4729.00    1.14668   1.28893    0.000
 4730.00    1.27054   1.28363    0.000
 4731.00    1.23886   1.28211    0.000
 4732.00    1.21662   1.28230    0.000
 4733.00    1.21015   1.28631    0.000
 4734.00    1.18647   1.29247    0.000
 4735.00    1.13765   1.29943    0.000
 4736.00    1.18419   1.30826    0.000
 4737.00    1.35332   1.31634    0.000
 4738.00    1.39799   1.32402    0.000
 4739.00    1.30166   1.33090    0.000
 4740.00    1.27012   1.33777    0.000
 4741.00    1.30332   1.34440    0.000
 4742.00    1.32497   1.35018    0.000
 4743.00    1.33645   1.35542    0.000
 4744.00    1.30617   1.36040    0.000
 4745.00    1.24348   1.36375    0.000
 4746.00    1.34120   1.36559    0.000
 4747.00    1.54843   1.36654    0.000
 4748.00    1.55474   1.36544    0.000
 4749.00    1.44086   1.36331    0.000
 4750.00    1.35218   1.35829    0.000
 4751.00    1.27666   1.35333    0.000
 4752.00    1.26053   1.34711    0.000
 4753.00    1.27129   1.34040    0.000
 4754.00    1.28170   1.33373    0.000
 4755.00    1.29197   1.32679    0.000
 4756.00    1.31215   1.32061    0.000
 4757.00    1.33561   1.31306    0.000
 4758.00    1.38397   1.30609    0.000
 4759.00    1.43925   1.29830    0.000
 4760.00    1.29349   1.28997    0.000
 4761.00    1.10173   1.28234    0.026
 4762.00    1.16091   1.27502    0.026
 4763.00    1.26605   1.26956    0.026
 4764.00    1.30899   1.26577    0.026
 4765.00    1.34318   1.26538    0.026
 4766.00    1.34582   1.26794    0.026
 4767.00    1.34527   1.27222    0.026
 4768.00    1.35119   1.28001    0.026
 4769.00    1.35752   1.28881    0.026
 4770.00    1.45953   1.29936    0.025
 4771.00    1.56383   1.31037    0.025
 4772.00    1.36745   1.32127    0.025
 4773.00    1.17291   1.33174    0.026
 4774.00    1.03165   1.33911    0.026
 4775.00    0.90571   1.34512    0.026
 4776.00    1.00122   1.34802    0.025
 4777.00    1.09597   1.34817    0.025
 4778.00    1.18345   1.34644    0.024
 4779.00    1.25938   1.34213    0.024
 4780.00    1.25618   1.33646    0.024
 4781.00    1.25830   1.32893    0.025
 4782.00    1.28856   1.32124    0.025
 4783.00    1.29483   1.31536    0.025
 4784.00    1.19895   1.30939    0.024
 4785.00    1.13504   1.30555    0.024
 4786.00    1.18349   1.30498    0.024
 4787.00    1.25132   1.30619    0.024
 4788.00    1.37637   1.31007    0.024
 4789.00    1.44195   1.31674    0.024
 4790.00    1.35779   1.32575    0.024
 4791.00    1.28424   1.33492    0.024
 4792.00    1.23371   1.34382    0.025
 4793.00    1.22181   1.35266    0.025
 4794.00    1.28260   1.35852    0.025
 4795.00    1.32456   1.36265    0.025
 4796.00    1.33558   1.36507    0.024
 4797.00    1.33703   1.36566    0.024
 4798.00    1.32467   1.36533    0.024
 4799.00    1.31035   1.36382    0.024
 4800.00    1.29352   1.36170    0.024
 4801.00    1.25362   1.35762    0.024
 4802.00    1.18794   1.35421    0.024
 4803.00    1.13912   1.34974    0.024
 4804.00    1.10689   1.34618    0.024
 4805.00    1.13133   1.34314    0.024
 4806.00    1.20500   1.34090    0.024
 4807.00    1.28969   1.33998    0.024
 4808.00    1.38281   1.33968    0.024
 4809.00    1.36343   1.34062    0.024
 4810.00    1.26838   1.34266    0.024
 4811.00    1.26692   1.34657    0.024
 4812.00    1.32062   1.35155    0.024
 4813.00    1.32746   1.35712    0.024
 4814.00    1.31023   1.36279    0.025
 4815.00    1.27219   1.36844    0.025
 4816.00    1.22490   1.37210    0.025
 4817.00    1.26902   1.37425    0.025
 4818.00    1.34811   1.37445    0.025
 4819.00    1.34319   1.37166    0.025
 4820.00    1.31096   1.36789    0.025
 4821.00    1.28710   1.36243    0.025
 4822.00    1.26552   1.35659    0.025
 4823.00    1.33531   1.35046    0.025
 4824.00    1.42551   1.34420    0.025
 4825.00    1.39762   1.33838    0.025
 4826.00    1.34867   1.33332    0.025
 4827.00    1.36129   1.32911    0.024
 4828.00    1.38229   1.32523    0.024
 4829.00    1.41863   1.32298    0.024
 4830.00    1.45645   1.32158    0.024
 4831.00    1.28109   1.32108    0.025
 4832.00    1.09280   1.32004    0.025
 4833.00    1.08141   1.31948    0.024
 4834.00    1.07562   1.31825    0.024
 4835.00    1.23585   1.31691    0.024
 4836.00    1.39007   1.31517    0.024
 4837.00    1.38741   1.31277    0.024
 4838.00    1.37897   1.31112    0.025
 4839.00    1.29160   1.30897    0.025
 4840.00    1.21622   1.30762    0.025
 4841.00    1.24912   1.30647    0.025
 4842.00    1.27208   1.30584    0.024
 4843.00    1.22904   1.30572    0.025
 4844.00    1.20710   1.30463    0.025
 4845.00    1.29409   1.30353    0.025
 4846.00    1.36213   1.30224    0.025
 4847.00    1.35128   1.29931    0.025
 4848.00    1.33850   1.29473    0.000
 4849.00    1.31908   1.28813    0.000
 4850.00    1.29481   1.27907    0.000
 4851.00    1.25653   1.26677    0.000
 4852.00    1.15873   1.25248    0.000
 4853.00    0.91364   1.23633    0.000
 4854.00    0.80389   1.21822    0.000
 4855.00    0.98291   1.19945    0.000
 4856.00    1.09959   1.17962    0.000
 4857.00    1.10077   1.15994    0.000
 4858.00    1.12262   1.14332    0.000
 4859.00    1.17796   1.13042    0.000
 4860.00    1.20863   1.12064    0.000
 4861.00    1.20429   1.11667    0.000
 4862.00    1.23434   1.11651    0.000
 4863.00    1.30735   1.12046    0.000
 4864.00    1.36814   1.12641    0.000
 4865.00    1.41548   1.13473    0.000
 4866.00    1.40436   1.14309    0.000
 4867.00    1.33647   1.15078    0.000
 4868.00    1.25029   1.15919    0.000
 4869.00    1.14845   1.16678    0.000
 4870.00    1.09515   1.17459    0.000
 4871.00    1.07846   1.18222    0.000
 4872.00    1.08585   1.19058    0.000
 4873.00    1.10920   1.20017    0.000
 4874.00    1.17132   1.20993    0.000
 4875.00    1.25595   1.22152    0.025
 4876.00    1.26973   1.23165    0.026
 4877.00    1.24767   1.24050    0.026
 4878.00    1.24649   1.24798    0.026
 4879.00    1.25444   1.25303    0.026
 4880.00    1.35788   1.25496    0.026
 4881.00    1.49721   1.25334    0.027
 4882.00    1.56515   1.24939    0.026
 4883.00    1.61033   1.24368    0.026
 4884.00    1.47464   1.23774    0.026
 4885.00    1.29073   1.23169    0.026
 4886.00    1.29264   1.22699    0.026
 4887.00    1.33508   1.22362    0.025
 4888.00    1.19995   1.22605    0.025
 4889.00    1.03404   1.23202    0.026
 4890.00    1.09788   1.24239    0.026
 4891.00    1.19198   1.25644    0.026
 4892.00    1.19917   1.27245    0.026
 4893.00    1.19830   1.29016    0.026
 4894.00    1.22306   1.30733    0.026
 4895.00    1.24927   1.32302    0.026
 4896.00    1.39505   1.33507    0.026
 4897.00    1.54111   1.34537    0.026
 4898.00    1.42091   1.35170    0.025
 4899.00    1.30327   1.35437    0.025
 4900.00    1.24638   1.35482    0.026
 4901.00    1.19435   1.35318    0.026
 4902.00    1.20504   1.35044    0.026
 4903.00    1.22234   1.34606    0.026
 4904.00    1.29714   1.34096    0.026
 4905.00    1.36903   1.33527    0.025
 4906.00    1.42220   1.32934    0.025
 4907.00    1.45638   1.32374    0.025
 4908.00    1.39510   1.31830    0.025
 4909.00    1.33918   1.31298    0.025
 4910.00    1.30510   1.30703    0.025
 4911.00    1.30381   1.30129    0.025
 4912.00    1.41320   1.29427    0.026
 4913.00    1.45358   1.28581    0.026
 4914.00    1.29751   1.27496    0.025
 4915.00    1.19047   1.26261    0.025
 4916.00    1.20271   1.25007    0.024
 4917.00    1.24838   1.23836    0.024
 4918.00    1.36420   1.22936    0.024
 4919.00    1.41810   1.22234    0.025
 4920.00    1.35904   1.21900    0.025
 4921.00    1.34746   1.21985    0.025
 4922.00    1.41160   1.22667    0.025
 4923.00    1.36683   1.23730    0.024
 4924.00    1.16965   1.25084    0.024
 4925.00    1.07924   1.26710    0.024
 4926.00    1.12031   1.28278    0.024
 4927.00    1.17701   1.29768    0.024
 4928.00    1.25065   1.30965    0.024
 4929.00    1.31764   1.31711    0.024
 4930.00    1.37826   1.32044    0.024
 4931.00    1.37734   1.32076    0.024
 4932.00    1.32448   1.31714    0.024
 4933.00    1.31591   1.31093    0.023
 4934.00    1.34026   1.30323    0.023
 4935.00    1.35979   1.29614    0.023
 4936.00    1.37616   1.29151    0.023
 4937.00    1.33779   1.29003    0.023
 4938.00    1.26812   1.29083    0.023
 4939.00    1.27688   1.29557    0.023
 4940.00    1.32467   1.30332    0.000
 4941.00    1.27994   1.31306    0.000
 4942.00    1.19538   1.32459    0.000
 4943.00    1.12748   1.33705    0.000
 4944.00    1.06573   1.34848    0.000
 4945.00    1.12310   1.35849    0.000
 4946.00    1.21773   1.36625    0.000
 4947.00    1.22264   1.37169    0.000
 4948.00    1.20414   1.37355    0.000
 4949.00    1.25700   1.37115    0.000
 4950.00    1.32506   1.36572    0.000
 4951.00    1.36764   1.35654    0.000
 4952.00    1.40594   1.34527    0.000
 4953.00    1.35847   1.33065    0.000
 4954.00    1.30008   1.31710    0.000
 4955.00    1.35108   1.30542    0.000
 4956.00    1.41178   1.29479    0.000
 4957.00    1.38472   1.28683    0.000
 4958.00    1.35303   1.28082    0.000
 4959.00    1.38505   1.27839    0.000
 4960.00    1.41724   1.27719    0.000
 4961.00    1.36722   1.27757    0.000
 4962.00    1.32250   1.27847    0.000
 4963.00    1.39298   1.28020    0.000
 4964.00    1.44749   1.28128    0.000
 4965.00    1.30617   1.28278    0.000
 4966.00    1.19221   1.28491    0.000
 4967.00    1.30744   1.28696    0.000
 4968.00    1.39372   1.28974    0.000
 4969.00    1.29932   1.29220    0.000
 4970.00    1.22662   1.29531    0.000
 4971.00    1.26037   1.29735    0.000
 4972.00    1.26535   1.29788    0.000
 4973.00    1.15580   1.29651    0.000
 4974.00    1.09333   1.29214    0.000
 4975.00    1.18662   1.28508    0.000
 4976.00    1.29255   1.27488    0.000
 4977.00    1.43382   1.26254    0.000
 4978.00    1.49395   1.24811    0.000
 4979.00    1.36000   1.23383    0.000
 4980.00    1.27589   1.22090    0.000
 4981.00    1.29471   1.21024    0.000
 4982.00    1.29845   1.20277    0.000
 4983.00    1.27511   1.19909    0.000
 4984.00    1.31645   1.19919    0.000
 4985.00    1.45942   1.20218    0.000
 4986.00    1.49817   1.20838    0.000
 4987.00    1.39316   1.21577    0.000
 4988.00    1.36564   1.22445    0.000
 4989.00    1.43221   1.23258    0.000
 4990.00    1.39935   1.23939    0.000
 4991.00    1.26005   1.24509    0.000
 4992.00    1.22609   1.24839    0.000
 4993.00    1.29159   1.24916    0.000
 4994.00    1.42790   1.24751    0.000
 4995.00    1.62315   1.24317    0.000
 4996.00    1.48115   1.23659    0.000
 4997.00    1.09200   1.22835    0.000
 4998.00    1.02040   1.21865    0.000
 4999.00    1.15314   1.20805    0.000
 5000.00    1.18787   1.19714    0.000
 5001.00    1.16744   1.18644    0.000
 5002.00    1.20560   1.17686    0.000
 5003.00    1.27248   1.16879    0.000
 5004.00    1.35472   1.16228    0.000
 5005.00    1.44346   1.15725    0.000
 5006.00    1.38424   1.15271    0.000
 5007.00    1.27135   1.14943    0.000
 5008.00    1.29079   1.14581    0.000
 5009.00    1.35082   1.14295    0.000
 5010.00    1.31215   1.13962    0.000
 5011.00    1.24828   1.13658    0.000
 5012.00    1.17073   1.13350    0.000
 5013.00    1.09034   1.13100    0.000
 5014.00    1.13474   1.12937    0.000
 5015.00    1.19956   1.12912    0.000
 5016.00    1.21192   1.13022    0.000
 5017.00    1.21783   1.13288    0.000
 5018.00    1.25816   1.13711    0.000
 5019.00    1.30140   1.14234    0.000
 5020.00    1.34260   1.14930    0.000
 5021.00    1.38370   1.15622    0.000
 5022.00    1.30589   1.16444    0.000
 5023.00    1.22883   1.17284    0.000
 5024.00    1.30911   1.18172    0.000
 5025.00    1.37590   1.19091    0.000
 5026.00    1.17208   1.19990    0.000
 5027.00    0.99054   1.20874    0.000
 5028.00    1.06932   1.21643    0.000
 5029.00    1.15019   1.22282    0.023
 5030.00    1.24793   1.22651    0.023
 5031.00    1.32769   1.22832    0.024
 5032.00    1.29845   1.22657    0.024
 5033.00    1.27474   1.22223    0.024
 5034.00    1.27743   1.21480    0.024
 5035.00    1.26477   1.20496    0.023
 5036.00    1.19234   1.19503    0.024
 5037.00    1.12589   1.18523    0.024
 5038.00    1.07878   1.17762    0.024
 5039.00    1.06260   1.17261    0.023
 5040.00    1.13132   1.17097    0.023
 5041.00    1.20081   1.17265    0.023
 5042.00    1.27207   1.17690    0.023
 5043.00    1.30876   1.18345    0.023
 5044.00    1.27516   1.19092    0.024
 5045.00    1.25861   1.19884    0.024
 5046.00    1.27222   1.20594    0.023
 5047.00    1.29581   1.21261    0.023
 5048.00    1.33485   1.21799    0.023
 5049.00    1.31711   1.22321    0.024
 5050.00    1.22215   1.22811    0.024
 5051.00    1.18749   1.23378    0.024
 5052.00    1.22499   1.24035    0.024
 5053.00    1.24453   1.24759    0.024
 5054.00    1.24514   1.25543    0.024
 5055.00    1.20224   1.26349    0.023
 5056.00    1.11883   1.27069    0.023
 5057.00    1.12749   1.27643    0.024
 5058.00    1.21169   1.27959    0.024
 5059.00    1.32976   1.28022    0.025
 5060.00    1.47230   1.27863    0.024
 5061.00    1.50424   1.27407    0.024
 5062.00    1.46604   1.26740    0.024
 5063.00    1.38777   1.25905    0.024
 5064.00    1.28728   1.25047    0.024
 5065.00    1.29210   1.24141    0.024
 5066.00    1.34768   1.23284    0.025
 5067.00    1.29222   1.22556    0.025
 5068.00    1.19053   1.21954    0.024
 5069.00    1.21441   1.21438    0.024
 5070.00    1.28302   1.20994    0.025
 5071.00    1.23029   1.20596    0.025
 5072.00    1.14108   1.20184    0.025
 5073.00    1.22690   1.19649    0.025
 5074.00    1.35644   1.19087    0.025
 5075.00    1.33381   1.18457    0.025
 5076.00    1.28033   1.17825    0.025
 5077.00    1.25867   1.17162    0.025
 5078.00    1.24207   1.16612    0.025
 5079.00    1.28855   1.16216    0.025
 5080.00    1.34248   1.16024    0.024
 5081.00    1.21911   1.16096    0.024
 5082.00    1.08148   1.16419    0.024
 5083.00    1.16647   1.17029    0.024
 5084.00    1.26147   1.17819    0.024
 5085.00    1.19769   1.18784    0.023
 5086.00    1.13397   1.19803    0.023
 5087.00    1.16686   1.20829    0.023
 5088.00    1.19896   1.21740    0.023
 5089.00    1.21621   1.22484    0.023
 5090.00    1.22723   1.23007    0.023
 5091.00    1.16885   1.23261    0.023
 5092.00    1.13384   1.23267    0.023
 5093.00    1.28086   1.22994    0.023
 5094.00    1.38632   1.22562    0.023
 5095.00    1.24695   1.21948    0.023
 5096.00    1.12427   1.21281    0.024
 5097.00    1.07955   1.20561    0.023
 5098.00    1.06610   1.19912    0.023
 5099.00    1.17187   1.19321    0.023
 5100.00    1.23743   1.18848    0.023
 5101.00    1.17509   1.18460    0.022
 5102.00    1.14445   1.18151    0.022
 5103.00    1.19929   1.17942    0.022
 5104.00    1.21797   1.17762    0.022
 5105.00    1.15301   1.17688    0.022
 5106.00    1.09937   1.17672    0.022
 5107.00    1.06837   1.17783    0.022
 5108.00    1.07905   1.18007    0.022
 5109.00    1.16235   1.18397    0.022
 5110.00    1.23033   1.18911    0.022
 5111.00    1.27495   1.19550    0.022
 5112.00    1.32356   1.20242    0.023
 5113.00    1.37752   1.20915    0.023
 5114.00    1.37292   1.21499    0.023
 5115.00    1.29920   1.21888    0.024
 5116.00    1.23223   1.22052    0.024
 5117.00    1.17229   1.21911    0.024
 5118.00    1.13784   1.21489    0.024
 5119.00    1.12677   1.20771    0.023
 5120.00    1.06440   1.19848    0.023
 5121.00    0.96050   1.18764    0.023
 5122.00    0.98333   1.17648    0.023
 5123.00    1.09636   1.16592    0.023
 5124.00    1.11824   1.15674    0.023
 5125.00    1.08319   1.14987    0.022
 5126.00    1.04896   1.14534    0.022
 5127.00    1.01520   1.14385    0.023
 5128.00    1.06566   1.14437    0.023
 5129.00    1.15610   1.14708    0.023
 5130.00    1.14298   1.15083    0.023
 5131.00    1.08750   1.15503    0.024
 5132.00    1.20374   1.15918    0.024
 5133.00    1.38003   1.16233    0.023
 5134.00    1.28674   1.16408    0.024
 5135.00    1.11396   1.16409    0.024
 5136.00    1.13013   1.16296    0.024
 5137.00    1.19245   1.16004    0.024
 5138.00    1.17785   1.15629    0.024
 5139.00    1.14804   1.15175    0.024
 5140.00    1.29806   1.14706    0.027
 5141.00    1.47581   1.14254    0.032
 5142.00    1.23249   1.13827    0.032
 5143.00    0.94123   1.13464    0.031
 5144.00    0.98348   1.13153    0.031
 5145.00    1.05118   1.12941    0.031
 5146.00    1.20912   1.12789    0.028
 5147.00    1.37078   1.12763    0.025
 5148.00    1.09674   1.12821    0.024
 5149.00    0.83011   1.13024    0.024
 5150.00    1.02612   1.13334    0.024
 5151.00    1.20817   1.13778    0.024
 5152.00    1.14815   1.14320    0.024
 5153.00    1.09620   1.14934    0.024
 5154.00    1.12995   1.15536    0.024
 5155.00    1.15357   1.16055    0.024
 5156.00    1.10097   1.16379    0.024
 5157.00    1.07377   1.16398    0.024
 5158.00    1.19211   1.16019    0.024
 5159.00    1.27626   1.15155    0.024
 5160.00    1.20464   1.13802    0.024
 5161.00    1.13523   1.11929    0.024
 5162.00    1.07401   1.09638    0.024
 5163.00    1.03829   1.06985    0.024
 5164.00    1.08214   1.04188    0.024
 5165.00    1.07679   1.01371    0.024
 5166.00    0.94115   0.98779    0.023
 5167.00    0.87927   0.96528    0.023
 5168.00    0.98508   0.94790    0.023
 5169.00    1.04168   0.93639    0.022
 5170.00    1.00136   0.93115    0.022
 5171.00    0.98709   0.93195    0.022
 5172.00    1.01755   0.93776    0.022
 5173.00    1.03516   0.94732    0.022
 5174.00    1.03348   0.95901    0.023
 5175.00    1.07536   0.97125    0.023
 5176.00    1.17478   0.98245    0.023
 5177.00    1.22287   0.99154    0.023
 5178.00    1.21124   0.99797    0.023
 5179.00    1.14309   1.00205    0.022
 5180.00    1.01693   1.00437    0.022
 5181.00    0.96533   1.00609    0.022
 5182.00    0.98118   1.00829    0.022
 5183.00    0.99379   1.01231    0.022
 5184.00    1.00382   1.01847    0.022
 5185.00    1.02588   1.02702    0.022
 5186.00    1.05639   1.03768    0.022
 5187.00    1.11017   1.04953    0.022
 5188.00    1.17827   1.06200    0.022
 5189.00    1.21063   1.07402    0.022
 5190.00    1.22377   1.08543    0.000
 5191.00    1.19820   1.09560    0.000
 5192.00    1.15456   1.10477    0.000
 5193.00    1.19112   1.11292    0.000
 5194.00    1.25994   1.12006    0.000
 5195.00    1.32462   1.12628    0.000
 5196.00    1.38787   1.13103    0.000
 5197.00    1.33869   1.13431    0.000
 5198.00    1.25702   1.13514    0.000
 5199.00    1.25503   1.13375    0.000
 5200.00    1.27208   1.12939    0.000
 5201.00    1.26277   1.12291    0.000
 5202.00    1.24838   1.11437    0.000
 5203.00    1.15969   1.10522    0.000
 5204.00    1.05990   1.09630    0.000
 5205.00    1.04405   1.08910    0.000
 5206.00    1.03739   1.08468    0.000
 5207.00    0.96687   1.08373    0.000
 5208.00    0.89174   1.08684    0.000
 5209.00    1.06454   1.09350    0.000
 5210.00    1.24661   1.10365    0.000
 5211.00    1.17829   1.11588    0.023
 5212.00    1.11359   1.12963    0.023
 5213.00    1.22323   1.14339    0.024
 5214.00    1.32371   1.15642    0.024
 5215.00    1.27562   1.16776    0.024
 5216.00    1.23901   1.17672    0.024
 5217.00    1.31932   1.18296    0.024
 5218.00    1.36858   1.18602    0.024
 5219.00    1.19188   1.18613    0.024
 5220.00    1.05898   1.18332    0.024
 5221.00    1.17014   1.17822    0.024
 5222.00    1.25728   1.17161    0.024
 5223.00    1.23751   1.16434    0.024
 5224.00    1.19501   1.15764    0.024
 5225.00    1.06941   1.15227    0.024
 5226.00    0.98349   1.14927    0.024
 5227.00    1.01899   1.14892    0.023
 5228.00    1.06068   1.15162    0.023
 5229.00    1.11845   1.15700    0.023
 5230.00    1.16667   1.16491    0.023
 5231.00    1.19352   1.17454    0.023
 5232.00    1.19671   1.18557    0.023
 5233.00    1.15402   1.19714    0.023
 5234.00    1.15145   1.20894    0.023
 5235.00    1.21666   1.22027    0.023
 5236.00    1.24316   1.23074    0.023
 5237.00    1.21232   1.23988    0.023
 5238.00    1.19334   1.24726    0.022
 5239.00    1.18982   1.25255    0.022
 5240.00    1.20142   1.25543    0.022
 5241.00    1.23036   1.25582    0.022
 5242.00    1.20042   1.25374    0.022
 5243.00    1.11093   1.24942    0.021
 5244.00    1.07817   1.24334    0.021
 5245.00    1.09603   1.23605    0.022
 5246.00    1.09153   1.22835    0.022
 5247.00    1.06947   1.22086    0.022
 5248.00    1.14849   1.21447    0.022
 5249.00    1.29740   1.20950    0.022
 5250.00    1.29336   1.20649    0.022
 5251.00    1.19660   1.20514    0.022
 5252.00    1.13350   1.20543    0.022
 5253.00    1.08821   1.20641    0.022
 5254.00    1.09452   1.20740    0.022
 5255.00    1.12452   1.20723    0.023
 5256.00    1.14258   1.20487    0.023
 5257.00    1.15592   1.19953    0.022
 5258.00    1.21990   1.19040    0.023
 5259.00    1.30095   1.17767    0.023
 5260.00    1.27064   1.16123    0.023
 5261.00    1.20882   1.14242    0.023
 5262.00    1.23076   1.12189    0.023
 5263.00    1.27226   1.10159    0.024
 5264.00    1.23307   1.08268    0.024
 5265.00    1.17875   1.06692    0.024
 5266.00    1.12834   1.05532    0.024
 5267.00    1.07849   1.04883    0.024
 5268.00    1.06904   1.04790    0.024
 5269.00    1.06384   1.05241    0.025
 5270.00    1.00179   1.06203    0.025
 5271.00    0.93587   1.07585    0.024
 5272.00    1.03099   1.09287    0.025
 5273.00    1.13152   1.11190    0.025
 5274.00    1.05550   1.13164    0.025
 5275.00    0.98334   1.15117    0.025
 5276.00    1.04118   1.16939    0.024
 5277.00    1.09928   1.18605    0.024
 5278.00    1.16145   1.20058    0.024
 5279.00    1.21049   1.21350    0.024
 5280.00    1.13149   1.22478    0.024
 5281.00    1.06373   1.23525    0.024
 5282.00    1.07511   1.24509    0.024
 5283.00    1.10973   1.25485    0.024
 5284.00    1.27045   1.26444    0.023
 5285.00    1.38850   1.27380    0.023
 5286.00    1.32111   1.28238    0.023
 5287.00    1.26464   1.28960    0.023
 5288.00    1.24722   1.29480    0.023
 5289.00    1.25487   1.29738    0.023
 5290.00    1.33779   1.29705    0.023
 5291.00    1.38099   1.29374    0.023
 5292.00    1.32263   1.28778    0.023
 5293.00    1.28850   1.27985    0.022
 5294.00    1.30770   1.27087    0.023
 5295.00    1.30656   1.26204    0.023
 5296.00    1.26659   1.25441    0.023
 5297.00    1.22793   1.24904    0.023
 5298.00    1.19142   1.24663    0.022
 5299.00    1.16627   1.24761    0.022
 5300.00    1.15769   1.25198    0.022
 5301.00    1.19328   1.25928    0.022
 5302.00    1.28559   1.26893    0.022
 5303.00    1.39220   1.27996    0.022
 5304.00    1.51500   1.29154    0.022
 5305.00    1.49074   1.30263    0.021
 5306.00    1.31981   1.31258    0.021
 5307.00    1.20325   1.32071    0.021
 5308.00    1.13449   1.32674    0.022
 5309.00    1.13066   1.33042    0.022
 5310.00    1.17716   1.33183    0.022
 5311.00    1.14799   1.33100    0.022
 5312.00    1.06726   1.32823    0.021
 5313.00    1.12217   1.32364    0.021
 5314.00    1.25808   1.31756    0.022
 5315.00    1.28907   1.31002    0.022
 5316.00    1.26541   1.30122    0.022
 5317.00    1.19693   1.29112    0.022
 5318.00    1.10821   1.27977    0.022
 5319.00    1.20462   1.26726    0.022
 5320.00    1.37296   1.25360    0.022
 5321.00    1.34541   1.23930    0.023
 5322.00    1.25311   1.22454    0.023
 5323.00    1.17146   1.21040    0.023
 5324.00    1.09276   1.19725    0.022
 5325.00    1.08924   1.18649    0.022
 5326.00    1.10286   1.17842    0.022
 5327.00    1.09848   1.17417    0.022
 5328.00    1.09082   1.17359    0.022
 5329.00    1.18173   1.17694    0.022
 5330.00    1.28646   1.18347    0.022
 5331.00    1.25723   1.19244    0.022
 5332.00    1.21449   1.20274    0.022
 5333.00    1.16824   1.21319    0.022
 5334.00    1.12178   1.22294    0.023
 5335.00    1.10479   1.23100    0.023
 5336.00    1.08892   1.23724    0.022
 5337.00    1.17070   1.24129    0.023
 5338.00    1.24960   1.24371    0.023
 5339.00    1.24634   1.24470    0.023
 5340.00    1.24112   1.24504    0.022
 5341.00    1.20793   1.24515    0.022
 5342.00    1.18768   1.24568    0.022
 5343.00    1.28858   1.24697    0.022
 5344.00    1.37236   1.24937    0.022
 5345.00    1.33938   1.25311    0.022
 5346.00    1.31103   1.25827    0.022
 5347.00    1.30712   1.26499    0.022
 5348.00    1.28721   1.27308    0.021
 5349.00    1.19927   1.28254    0.021
 5350.00    1.14976   1.29289    0.021
 5351.00    1.23489   1.30386    0.021
 5352.00    1.30823   1.31468    0.021
 5353.00    1.34678   1.32488    0.021
 5354.00    1.37348   1.33358    0.021
 5355.00    1.37041   1.34035    0.021
 5356.00    1.35222   1.34444    0.021
 5357.00    1.30128   1.34573    0.021
 5358.00    1.24403   1.34384    0.021
 5359.00    1.17491   1.33904    0.021
 5360.00    1.13935   1.33144    0.021
 5361.00    1.15883   1.32155    0.021
 5362.00    1.22379   1.30993    0.021
 5363.00    1.35413   1.29720    0.021
 5364.00    1.37862   1.28422    0.021
 5365.00    1.26919   1.27160    0.021
 5366.00    1.17971   1.26031    0.021
 5367.00    1.11247   1.25086    0.021
 5368.00    1.11579   1.24400   -2.000
 5369.00    1.18848   1.24010   -2.000
 5370.00    1.22381   1.23928   -2.000
 5371.00    1.22674   1.24163   -2.000
 5372.00    1.22998   1.24646   -2.000
 5373.00    1.23347   1.25353   -2.000
 5374.00    1.14827   1.26161   -2.000
 5375.00    1.00352   1.27033   -2.000
 5376.00    1.04006   1.27841   -2.000
 5377.00    1.18323   1.28560   -2.000
 5378.00    1.23076   1.29110   -2.000
 5379.00    1.22923   1.29484   -2.000
 5380.00    1.19813   1.29663   -2.000
 5381.00    1.15389   1.29658   -2.000
 5382.00    1.17748   1.29483   -2.000
 5383.00    1.22697   1.29150    0.022
 5384.00    1.22929   1.28681    0.022
 5385.00    1.21632   1.28085    0.022
 5386.00    1.28731   1.27380    0.022
 5387.00    1.38109   1.26583    0.022
 5388.00    1.38847   1.25707    0.022
 5389.00    1.37659   1.24789    0.021
 5390.00    1.27154   1.23843    0.021
 5391.00    1.14995   1.22918    0.021
 5392.00    1.17758   1.22030    0.021
 5393.00    1.22547   1.21216    0.021
 5394.00    1.22790   1.20489    0.021
 5395.00    1.22595   1.19855    0.021
 5396.00    1.27033   1.19320    0.021
 5397.00    1.31750   1.18847    0.021
 5398.00    1.31695   1.18442    0.021
 5399.00    1.31514   1.18050    0.021
 5400.00    1.31019   1.17692    0.021
 5401.00    1.30673   1.17328    0.021
 5402.00    1.34180   1.17007    0.021
 5403.00    1.36840   1.16737    0.021
 5404.00    1.28012   1.16574    0.020
 5405.00    1.20044   1.16565    0.020
 5406.00    1.19802   1.16745    0.020
 5407.00    1.20667   1.17164    0.020
 5408.00    1.28850   1.17803    0.020
 5409.00    1.34522   1.18681    0.020
 5410.00    1.27284   1.19722    0.020
 5411.00    1.22974   1.20907    0.020
 5412.00    1.30816   1.22131    0.020
 5413.00    1.35139   1.23352    0.020
 5414.00    1.27371   1.24476    0.020
 5415.00    1.22499   1.25467    0.020
 5416.00    1.26007   1.26268    0.021
 5417.00    1.26762   1.26870    0.021
 5418.00    1.20720   1.27254    0.020
 5419.00    1.17836   1.27438    0.020
 5420.00    1.21677   1.27430    0.020
 5421.00    1.24657   1.27264    0.020
 5422.00    1.26044   1.26950    0.021
 5423.00    1.26264   1.26527    0.021
 5424.00    1.24598   1.26001    0.020
 5425.00    1.26679   1.25412    0.020
 5426.00    1.34072   1.24769    0.021
 5427.00    1.36441   1.24127    0.021
 5428.00    1.32544   1.23501    0.021
 5429.00    1.25843   1.22968    0.021
 5430.00    1.16060   1.22547    0.021
 5431.00    1.14083   1.22318    0.021
 5432.00    1.19676   1.22284    0.021
 5433.00    1.17213   1.22494    0.021
 5434.00    1.07863   1.22913    0.021
 5435.00    1.05108   1.23533    0.021
 5436.00    1.07319   1.24277    0.021
 5437.00    1.15698   1.25072    0.021
 5438.00    1.28158   1.25836    0.021
 5439.00    1.29694   1.26474    0.021
 5440.00    1.24902   1.26935    0.021
 5441.00    1.22646   1.27156    0.021
 5442.00    1.21671   1.27146    0.021
 5443.00    1.31697   1.26907    0.021
 5444.00    1.46530   1.26499    0.021
 5445.00    1.49006   1.25962    0.021
 5446.00    1.46848   1.25379    0.020
 5447.00    1.41508   1.24778    0.020
 5448.00    1.35155   1.24239    0.020
 5449.00    1.25833   1.23738    0.020
 5450.00    1.15721   1.23347    0.020
 5451.00    1.16437   1.23002    0.020
 5452.00    1.19509   1.22770    0.020
 5453.00    1.22189   1.22583    0.020
 5454.00    1.24802   1.22490    0.020
 5455.00    1.24206   1.22445    0.020
 5456.00    1.23190   1.22467    0.020
 5457.00    1.20199   1.22537    0.020
 5458.00    1.17026   1.22639    0.020
 5459.00    1.17321   1.22771    0.020
 5460.00    1.17811   1.22899    0.020
 5461.00    1.24019   1.23029    0.020
 5462.00    1.30341   1.23127    0.020
 5463.00    1.35284   1.23195    0.020
 5464.00    1.39931   1.23208    0.020
 5465.00    1.37645   1.23157    0.020
 5466.00    1.35155   1.23030    0.020
 5467.00    1.30052   1.22811    0.020
 5468.00    1.25550   1.22502    0.020
 5469.00    1.26247   1.22096    0.020
 5470.00    1.26282   1.21614    0.020
 5471.00    1.22077   1.21073    0.020
 5472.00    1.18865   1.20512    0.020
 5473.00    1.20639   1.19965    0.020
 5474.00    1.24662   1.19483    0.020
 5475.00    1.37814   1.19097    0.020
 5476.00    1.49564   1.18851    0.020
 5477.00    1.56592   1.18746    0.021
 5478.00    1.56622   1.18815   -2.000
 5479.00    1.36772   1.19014   -2.000
 5480.00    1.23865   1.19368   -2.000
 5481.00    1.27813   1.19789   -2.000
 5482.00    1.30000   1.20307   -2.000
 5483.00    1.28499   1.20820   -2.000
 5484.00    1.22228   1.21356   -2.000
 5485.00    1.07273   1.21834   -2.000
 5486.00    0.99441   1.22276   -2.000
 5487.00    1.02949   1.22648   -2.000
 5488.00    1.06515   1.22951   -2.000
 5489.00    1.10162   1.23199   -2.000
 5490.00    1.12319   1.23369   -2.000
 5491.00    1.12644   1.23500   -2.000
 5492.00    1.15143   1.23563   -2.000
 5493.00    1.19999   1.23592   -2.000
 5494.00    1.20275   1.23564   -2.000
 5495.00    1.16174   1.23493   -2.000
 5496.00    1.19880   1.23375   -2.000
 5497.00    1.30164   1.23205   -2.000
 5498.00    1.35480   1.22996   -2.000
 5499.00    1.37107   1.22738   -2.000
 5500.00    1.39208   1.22451   -2.000
 5501.00    1.41619   1.22133   -2.000
 5502.00    1.40368   1.21799    0.019
 5503.00    1.37029   1.21465    0.019
 5504.00    1.34865   1.21131    0.019
 5505.00    1.33286   1.20830    0.019
 5506.00    1.32974   1.20544    0.019
 5507.00    1.33206   1.20322    0.019
 5508.00    1.31195   1.20138    0.019
 5509.00    1.28357   1.20049    0.020
 5510.00    1.24503   1.20028    0.020
 5511.00    1.20333   1.20132    0.020
 5512.00    1.17735   1.20328    0.020
 5513.00    1.15547   1.20659    0.019
 5514.00    1.14452   1.21076    0.019
 5515.00    1.13589   1.21592    0.020
 5516.00    1.14694   1.22143    0.020
 5517.00    1.16130   1.22704    0.020
 5518.00    1.19145   1.23222    0.020
 5519.00    1.22360   1.23647    0.020
 5520.00    1.24149   1.23960    0.020
 5521.00    1.25813   1.24121    0.020
 5522.00    1.22543   1.24148    0.020
 5523.00    1.19016   1.24040    0.020
 5524.00    1.20468   1.23838    0.020
 5525.00    1.22087   1.23577    0.020
 5526.00    1.29367   1.23300    0.020
 5527.00    1.35973   1.23056    0.020
 5528.00    1.28077   1.22864    0.020
 5529.00    1.20582   1.22761    0.019
 5530.00    1.17989   1.22747    0.020
 5531.00    1.16145   1.22824    0.020
 5532.00    1.20546   1.22992    0.020
 5533.00    1.24232   1.23216    0.020
 5534.00    1.23470   1.23514    0.020
 5535.00    1.22973   1.23827    0.020
 5536.00    1.23769   1.24185    0.020
 5537.00    1.24024   1.24534    0.020
 5538.00    1.22127   1.24901    0.020
 5539.00    1.20585   1.25249    0.022
 5540.00    1.20212   1.25592    0.053
 5541.00    1.20245   1.25921   -1.000
 5542.00    1.21411   1.26229   -1.000
 5543.00    1.23916   1.26526   -1.000
 5544.00    1.29617   1.26799   -1.000
 5545.00    1.34327   1.27051   -1.000
 5546.00    1.36993   1.27270   -1.000
 5547.00    1.37348   1.27447    0.103
 5548.00    1.33562   1.27575    0.027
 5549.00    1.29724   1.27634    0.019
 5550.00    1.25804   1.27629    0.018
 5551.00    1.20903   1.27539    0.018
 5552.00    1.14652   1.27383    0.018
 5553.00    1.13022   1.27145    0.018
 5554.00    1.16992   1.26852    0.019
 5555.00    1.20212   1.26502    0.019
 5556.00    1.22631   1.26110    0.019
 5557.00    1.24865   1.25690    0.019
 5558.00    1.26925   1.25240    0.019
 5559.00    1.25760   1.24786    0.019
 5560.00    1.21915   1.24319    0.019
 5561.00    1.19383   1.23865    0.019
 5562.00    1.17813   1.23423    0.019
 5563.00    1.15774   1.23011    0.019
 5564.00    1.13436   1.22647    0.019
 5565.00    1.16746   1.22331    0.019
 5566.00    1.23231   1.22091    0.019
 5567.00    1.29291   1.21921    0.020
 5568.00    1.35144   1.21836    0.020
 5569.00    1.38951   1.21832    0.020
 5570.00    1.41895   1.21896    0.020
 5571.00    1.36686   1.22033    0.020
 5572.00    1.28529   1.22200    0.020
 5573.00    1.22624   1.22400    0.020
 5574.00    1.17408   1.22578    0.020
 5575.00    1.15911   1.22726    0.020
 5576.00    1.15361   1.22790    0.020
 5577.00    1.18336   1.22755    0.019
 5578.00    1.22042   1.22585    0.019
 5579.00    1.22792   1.22269    0.019
 5580.00    1.23059   1.21801    0.019
 5581.00    1.23058   1.21192    0.019
 5582.00    1.23023   1.20467    0.019
 5583.00    1.16850   1.19662    0.019
 5584.00    1.10162   1.18837    0.019
 5585.00    1.12883   1.18036    0.019
 5586.00    1.16059   1.17326    0.019
 5587.00    1.14811   1.16740    0.019
 5588.00    1.13395   1.16329    0.019
 5589.00    1.05954   1.16088    0.018
 5590.00    0.98972   1.16030    0.018
 5591.00    1.01111   1.16127    0.019
 5592.00    1.03769   1.16337    0.019
 5593.00    1.12468   1.16647    0.019
 5594.00    1.20461   1.16984    0.019
 5595.00    1.22782   1.17365    0.019
 5596.00    1.23731   1.17723    0.019
 5597.00    1.16403   1.18114    0.019
 5598.00    1.10063   1.18497    0.019
 5599.00    1.08433   1.18935    0.019
 5600.00    1.08827   1.19417    0.019
 5601.00    1.17077   1.19963    0.019
 5602.00    1.22432   1.20589    0.019
 5603.00    1.18418   1.21240    0.019
 5604.00    1.16344   1.21943    0.019
 5605.00    1.19586   1.22584    0.019
 5606.00    1.24034   1.23183    0.019
 5607.00    1.31313   1.23619    0.020
 5608.00    1.35482   1.23906    0.020
 5609.00    1.33340   1.23984    0.019
 5610.00    1.33188   1.23871    0.019
 5611.00    1.36552   1.23565    0.019
 5612.00    1.35657   1.23110    0.019
 5613.00    1.28182   1.22548    0.019
 5614.00    1.23711   1.21939    0.019
 5615.00    1.23317   1.21321    0.019
 5616.00    1.23854   1.20757    0.019
 5617.00    1.25503   1.20269    0.019
 5618.00    1.22516   1.19890    0.019
 5619.00    1.14642   1.19628    0.019
 5620.00    1.12453   1.19476    0.019
 5621.00    1.15545   1.19451    0.019
 5622.00    1.15753   1.19510    0.019
 5623.00    1.13598   1.19676    0.019
 5624.00    1.11476   1.19908    0.018
 5625.00    1.09378   1.20224    0.018
 5626.00    1.09384   1.20565    0.018
 5627.00    1.10722   1.20929    0.018
 5628.00    1.11271   1.21267    0.018
 5629.00    1.11384   1.21573    0.018
 5630.00    1.12902   1.21800    0.018
 5631.00    1.15096   1.21947    0.018
 5632.00    1.15973   1.21976    0.018
 5633.00    1.16303   1.21924    0.017
 5634.00    1.16010   1.21778    0.018
 5635.00    1.15496   1.21580    0.018
 5636.00    1.17889   1.21330    0.018
 5637.00    1.21154   1.21085    0.018
 5638.00    1.21500   1.20866    0.018
 5639.00    1.21120   1.20688    0.018
 5640.00    1.17367   1.20589    0.018
 5641.00    1.12933   1.20548    0.018
 5642.00    1.08072   1.20594    0.018
 5643.00    1.03143   1.20693    0.018
 5644.00    1.02172   1.20842    0.018
 5645.00    1.01668   1.21005    0.019
 5646.00    1.06325   1.21161    0.018
 5647.00    1.11396   1.21299    0.018
 5648.00    1.15448   1.21362    0.019
 5649.00    1.19454   1.21360    0.019
 5650.00    1.22192   1.21252    0.019
 5651.00    1.24935   1.21073    0.019
 5652.00    1.28605   1.20781    0.019
 5653.00    1.32007   1.20431    0.019
 5654.00    1.30460   1.20013    0.019
 5655.00    1.28637   1.19593    0.019
 5656.00    1.23767   1.19170    0.019
 5657.00    1.19353   1.18821    0.019
 5658.00    1.18482   1.18532    0.019
 5659.00    1.17979   1.18386    0.019
 5660.00    1.19639   1.18334    0.019
 5661.00    1.20091   1.18437    0.018
 5662.00    1.14922   1.18641    0.018
 5663.00    1.10215   1.18973    0.018
 5664.00    1.07267   1.19394    0.018
 5665.00    1.05154   1.19889    0.018
 5666.00    1.05691   1.20438    0.018
 5667.00    1.07560   1.21003    0.017
 5668.00    1.13013   1.21615    0.017
 5669.00    1.18142   1.22183    0.017
 5670.00    1.22521   1.22745    0.017
 5671.00    1.25808   1.23233    0.017
 5672.00    1.26911   1.23688    0.018
 5673.00    1.28619   1.24026    0.018
 5674.00    1.31382   1.24285    0.018
 5675.00    1.32512   1.24406    0.018
 5676.00    1.31157   1.24426    0.018
 5677.00    1.27440   1.24322    0.019
 5678.00    1.20565   1.24121    0.018
 5679.00    1.18028   1.23844    0.018
 5680.00    1.20602   1.23498    0.018
 5681.00    1.23288   1.23155    0.018
 5682.00    1.26091   1.22796    0.018
 5683.00    1.24686   1.22522    0.018
 5684.00    1.19426   1.22277    0.019
 5685.00    1.15340   1.22164    0.019
 5686.00    1.12202   1.22113    0.019
 5687.00    1.07944   1.22165    0.019
 5688.00    1.02890   1.22281    0.019
 5689.00    1.03796   1.22433    0.019
 5690.00    1.08417   1.22620    0.019
 5691.00    1.10406   1.22745    0.019
 5692.00    1.10959   1.22850    0.018
 5693.00    1.14800   1.22823    0.018
 5694.00    1.20198   1.22721    0.018
 5695.00    1.24067   1.22472    0.019
 5696.00    1.27312   1.22122    0.019
 5697.00    1.21511   1.21658    0.019
 5698.00    1.12554   1.21083    0.019
 5699.00    1.13264   1.20469    0.019
 5700.00    1.16816   1.19774    0.018
 5701.00    1.19296   1.19097    0.019
 5702.00    1.21514   1.18423    0.019
 5703.00    1.17819   1.17810    0.019
 5704.00    1.12960   1.17261    0.018
 5705.00    1.08909   1.16817    0.018
 5706.00    1.04982   1.16522    0.018
 5707.00    1.05202   1.16354    0.018
 5708.00    1.05892   1.16391    0.018
 5709.00    1.09036   1.16592    0.018
 5710.00    1.12367   1.17010    0.018
 5711.00    1.10158   1.17578    0.018
 5712.00    1.07724   1.18316    0.018
 5713.00    1.11083   1.19168    0.017
 5714.00    1.14497   1.20127    0.017
 5715.00    1.18384   1.21115    0.017
 5716.00    1.22240   1.22107    0.018
 5717.00    1.25555   1.23066    0.018
 5718.00    1.28307   1.23909    0.018
 5719.00    1.25104   1.24675    0.018
 5720.00    1.22772   1.25289    0.018
 5721.00    1.26965   1.25761    0.018
 5722.00    1.30617   1.26084    0.018
 5723.00    1.31183   1.26293    0.018
 5724.00    1.31753   1.26379    0.019
 5725.00    1.32339   1.26396    0.018
 5726.00    1.31493   1.26346    0.018
 5727.00    1.25316   1.26250    0.018
 5728.00    1.20975   1.26157    0.018
 5729.00    1.22348   1.26054    0.018
 5730.00    1.24663   1.25981    0.018
 5731.00    1.29465   1.25921    0.018
 5732.00    1.33776   1.25901    0.019
 5733.00    1.36972   1.25891    0.019
 5734.00    1.37389   1.25912    0.018
 5735.00    1.32347   1.25966    0.018
 5736.00    1.27022   1.25996    0.018
 5737.00    1.21213   1.26006    0.018
 5738.00    1.20561   1.26004    0.018
 5739.00    1.27644   1.26002    0.018
 5740.00    1.30025   1.25981    0.000
 5741.00    1.26207   1.25914    0.000
 5742.00    1.24790   1.25835    0.000
 5743.00    1.26163   1.25696    0.000
 5744.00    1.28124   1.25554    0.000
 5745.00    1.30689   1.25369    0.000
 5746.00    1.30178   1.25178    0.000
 5747.00    1.26888   1.24970    0.000
 5748.00    1.27278   1.24738    0.000
 5749.00    1.30596   1.24522    0.000
 5750.00    1.30227   1.24289    0.000
 5751.00    1.27275   1.24113    0.000
 5752.00    1.25712   1.23907    0.000
 5753.00    1.25001   1.23768    0.000
 5754.00    1.23672   1.23616    0.000
 5755.00    1.22011   1.23578    0.000
 5756.00    1.24590   1.23556    0.000
 5757.00    1.29146   1.23571    0.000
 5758.00    1.36827   1.23604    0.000
 5759.00    1.45764   1.23685    0.000
 5760.00    1.40722   1.23831    0.000
 5761.00    1.30893   1.24008    0.000
 5762.00    1.25141   1.24266    0.000
 5763.00    1.20563   1.24475    0.000
 5764.00    1.22745   1.24755    0.000
 5765.00    1.26537   1.24967    0.000
 5766.00    1.31422   1.25215    0.000
 5767.00    1.36518   1.25379    0.000
 5768.00    1.29074   1.25530    0.000
 5769.00    1.19762   1.25565    0.000
 5770.00    1.12182   1.25517    0.000
 5771.00    1.04790   1.25342    0.000
 5772.00    1.11279   1.24990    0.000
 5773.00    1.18763   1.24567    0.000
 5774.00    1.18050   1.24003    0.000
 5775.00    1.17034   1.23382    0.000
 5776.00    1.17726   1.22623    0.000
 5777.00    1.18525   1.21881    0.000
 5778.00    1.22874   1.21101    0.000
 5779.00    1.27102   1.20358    0.000
 5780.00    1.29390   1.19699    0.000
 5781.00    1.31537   1.19110    0.000
 5782.00    1.32271   1.18688    0.000
 5783.00    1.32310   1.18417    0.000
 5784.00    1.27304   1.18343    0.000
 5785.00    1.22794   1.18431    0.000
 5786.00    1.21033   1.18730    0.000
 5787.00    1.20239   1.19164    0.000
 5788.00    1.23734   1.19731    0.000
 5789.00    1.27336   1.20376    0.000
 5790.00    1.31329   1.21087    0.000
 5791.00    1.34419   1.21804   -2.000
 5792.00    1.34754   1.22521   -2.000
 5793.00    1.33436   1.23205   -2.000
 5794.00    1.27827   1.23833   -2.000
 5795.00    1.24860   1.24356   -2.000
 5796.00    1.27788   1.24850   -2.000
 5797.00    1.30180   1.25251   -2.000
 5798.00    1.31533   1.25596   -2.000
 5799.00    1.31582   1.25883   -2.000
 5800.00    1.29433   1.26073   -2.000
 5801.00    1.27651   1.26208   -2.000
 5802.00    1.26414   1.26274   -2.000
 5803.00    1.26370   1.26307   -2.000
 5804.00    1.27878   1.26310   -2.000
 5805.00    1.26806   1.26279   -2.000
 5806.00    1.22780   1.26230   -2.000
 5807.00    1.23399   1.26145   -2.000
 5808.00    1.28708   1.26054   -2.000
 5809.00    1.32732   1.25992   -2.000
 5810.00    1.35612   1.25946   -2.000
 5811.00    1.35083   1.25950    0.000
 5812.00    1.31878   1.25972    0.000
 5813.00    1.31296   1.26036    0.000
 5814.00    1.32524   1.26114    0.000
 5815.00    1.30765   1.26244    0.000
 5816.00    1.27199   1.26392    0.000
 5817.00    1.26186   1.26577    0.000
 5818.00    1.26523   1.26791    0.000
 5819.00    1.27566   1.26997    0.000
 5820.00    1.28933   1.27237    0.000
 5821.00    1.31630   1.27448    0.000
 5822.00    1.34850   1.27683    0.000
 5823.00    1.37872   1.27864    0.000
 5824.00    1.40826   1.28011    0.000
 5825.00    1.41412   1.28109    0.000
 5826.00    1.41329   1.28144    0.000
 5827.00    1.38375   1.28161    0.000
 5828.00    1.34753   1.28118    0.000
 5829.00    1.30481   1.28081    0.000
 5830.00    1.26089   1.28000    0.000
 5831.00    1.23230   1.27911    0.000
 5832.00    1.20593   1.27814    0.000
 5833.00    1.24063   1.27730    0.000
 5834.00    1.28172   1.27658    0.000
 5835.00    1.27188   1.27583    0.000
 5836.00    1.25860   1.27527    0.000
 5837.00    1.25292   1.27469    0.000
 5838.00    1.24749   1.27398    0.000
 5839.00    1.25113   1.27312    0.000
 5840.00    1.25577   1.27202    0.000
 5841.00    1.29143   1.27053    0.000
 5842.00    1.32580   1.26827    0.000
 5843.00    1.34050   1.26544    0.000
 5844.00    1.35282   1.26181    0.000
 5845.00    1.34192   1.25739    0.000
 5846.00    1.32999   1.25213    0.000
 5847.00    1.31088   1.24637    0.000
 5848.00    1.28756   1.24004    0.000
 5849.00    1.24154   1.23335    0.000
 5850.00    1.19638   1.22644    0.000
 5851.00    1.15491   1.21965    0.000
 5852.00    1.12494   1.21370    0.000
 5853.00    1.13602   1.20805    0.000
 5854.00    1.15094   1.20361    0.000
 5855.00    1.17733   1.19943    0.000
 5856.00    1.19725   1.19670    0.000
 5857.00    1.20069   1.19464    0.000
 5858.00    1.19776   1.19415    0.000
 5859.00    1.18084   1.19464    0.000
 5860.00    1.17517   1.19576    0.000
 5861.00    1.19092   1.19808    0.000
 5862.00    1.20278   1.20050    0.000
 5863.00    1.20815   1.20442    0.000
 5864.00    1.21726   1.20765    0.000
 5865.00    1.23180   1.21167    0.000
 5866.00    1.24828   1.21463    0.000
 5867.00    1.26726   1.21771    0.000
 5868.00    1.28549   1.22037    0.000
 5869.00    1.30288   1.22224    0.000
 5870.00    1.29224   1.22339    0.000
 5871.00    1.25367   1.22331    0.000
 5872.00    1.22620   1.22294    0.000
 5873.00    1.20847   1.22091    0.000
 5874.00    1.20542   1.21817    0.000
 5875.00    1.21371   1.21392    0.000
 5876.00    1.20013   1.20836    0.000
 5877.00    1.17168   1.20116    0.000
 5878.00    1.14902   1.19269    0.000
 5879.00    1.12981   1.18279    0.000
 5880.00    1.14212   1.17053    0.000
 5881.00    1.17082   1.15624    0.000
 5882.00    1.19542   1.13927    0.000
 5883.00    1.21816   1.12050    0.000
 5884.00    1.22065   1.10138    0.000
 5885.00    1.21529   1.08170    0.000
 5886.00    1.15366   1.06174    0.000
 5887.00    1.07347   1.04219    0.000
 5888.00    1.00789   1.02301    0.000
 5889.00    0.94635   1.00615    0.000
 5890.00    0.97913   0.99346    0.000
 5891.00    1.03335   0.98473    0.000
 5892.00    1.06229   0.97955    0.000
 5893.00    1.08662   0.97882    0.000
 5894.00    1.08674   0.98279    0.000
 5895.00    1.08347   0.99242    0.000
 5896.00    1.07044   1.00607    0.000
 5897.00    1.05643   1.02170    0.000
 5898.00    1.04689   1.03897    0.000
 5899.00    1.03763   1.05687    0.000
 5900.00    1.08615   1.07473    0.000
 5901.00    1.13611   1.09407    0.017
 5902.00    1.09453   1.11253    0.017
 5903.00    1.05335   1.12832    0.018
 5904.00    1.02324   1.14233    0.018
 5905.00    0.99800   1.15412    0.018
 5906.00    1.04227   1.16343    0.018
 5907.00    1.08905   1.17030    0.018
 5908.00    1.15907   1.17585    0.018
 5909.00    1.22334   1.17932    0.018
 5910.00    1.24854   1.18193    0.018
 5911.00    1.27373   1.18365    0.017
 5912.00    1.29882   1.18469    0.017
 5913.00    1.31851   1.18550    0.017
 5914.00    1.31539   1.18569    0.017
 5915.00    1.29711   1.18629    0.017
 5916.00    1.22582   1.18674    0.017
 5917.00    1.17139   1.18775    0.016
 5918.00    1.16654   1.18831    0.016
 5919.00    1.16112   1.19000    0.017
 5920.00    1.15429   1.19143    0.017
 5921.00    1.15005   1.19300    0.017
 5922.00    1.15137   1.19448    0.016
 5923.00    1.14577   1.19514    0.016
 5924.00    1.12715   1.19627    0.016
 5925.00    1.11622   1.19671    0.016
 5926.00    1.11785   1.19700    0.016
 5927.00    1.12628   1.19675    0.016
 5928.00    1.14448   1.19675    0.016
 5929.00    1.16288   1.19663    0.017
 5930.00    1.18156   1.19649    0.016
 5931.00    1.18934   1.19658    0.016
 5932.00    1.18499   1.19641    0.017
 5933.00    1.17989   1.19670    0.017
 5934.00    1.17405   1.19654    0.017
 5935.00    1.16514   1.19723    0.017
 5936.00    1.15357   1.19804    0.017
 5937.00    1.18973   1.19847    0.017
 5938.00    1.26229   1.19890    0.017
 5939.00    1.28005   1.19915    0.018
 5940.00    1.26107   1.19998    0.018
 5941.00    1.24482   1.20018    0.018
 5942.00    1.23018   1.19993    0.017
 5943.00    1.21872   1.19973    0.017
 5944.00    1.20887   1.19929    0.017
 5945.00    1.17605   1.19811    0.017
 5946.00    1.13303   1.19704    0.017
 5947.00    1.12972   1.19636    0.017
 5948.00    1.14155   1.19533    0.017
 5949.00    1.16308   1.19431    0.017
 5950.00    1.18775   1.19324    0.017
 5951.00    1.15729   1.19224    0.016
 5952.00    1.11190   1.19155    0.016
 5953.00    1.08314   1.19135    0.016
 5954.00    1.05807   1.19220    0.016
 5955.00    1.06605   1.19364    0.016
 5956.00    1.07989   1.19513    0.016
 5957.00    1.11083   1.19692    0.016
 5958.00    1.14408   1.19950    0.016
 5959.00    1.16224   1.20240    0.016
 5960.00    1.17896   1.20521    0.016
 5961.00    1.20743   1.20780    0.017
 5962.00    1.23660   1.21103    0.017
 5963.00    1.20786   1.21387    0.017
 5964.00    1.17737   1.21667    0.017
 5965.00    1.10586   1.21873    0.017
 5966.00    1.03666   1.22037    0.017
 5967.00    1.02597   1.22133    0.017
 5968.00    1.02246   1.22151    0.017
 5969.00    1.11549   1.22128    0.017
 5970.00    1.20273   1.21995    0.017
 5971.00    1.23827   1.21868    0.017
 5972.00    1.26165   1.21662    0.017
 5973.00    1.20495   1.21427    0.017
 5974.00    1.15493   1.21134    0.017
 5975.00    1.13922   1.20838    0.017
 5976.00    1.12601   1.20490    0.017
 5977.00    1.12318   1.20128    0.017
 5978.00    1.11935   1.19800    0.016
 5979.00    1.11213   1.19487    0.016
 5980.00    1.11421   1.19237    0.016
 5981.00    1.14309   1.19069    0.016
 5982.00    1.16231   1.18969    0.016
 5983.00    1.15772   1.18929    0.016
 5984.00    1.14887   1.18934    0.016
 5985.00    1.13097   1.18989    0.016
 5986.00    1.11384   1.19056    0.016
 5987.00    1.09811   1.19167    0.016
 5988.00    1.09016   1.19325    0.016
 5989.00    1.09476   1.19493    0.016
 5990.00    1.12728   1.19701    0.016
 5991.00    1.19927   1.19815    0.017
 5992.00    1.24330   1.19895    0.016
 5993.00    1.25253   1.19936    0.016
 5994.00    1.23500   1.19935    0.016
 5995.00    1.18811   1.19872    0.016
 5996.00    1.16541   1.19740    0.016
 5997.00    1.16610   1.19624    0.017
 5998.00    1.16559   1.19429    0.017
 5999.00    1.16403   1.19221    0.017
 6000.00    1.15990   1.18971    0.017
 6001.00    1.15385   1.18686    0.017
 6002.00    1.17613   1.18450    0.016
 6003.00    1.21712   1.18223    0.017
 6004.00    1.24423   1.18048    0.017
 6005.00    1.26333   1.17876    0.017
 6006.00    1.24589   1.17699    0.017
 6007.00    1.21005   1.17526    0.017
 6008.00    1.19502   1.17382    0.017
 6009.00    1.18908   1.17291    0.017
 6010.00    1.18929   1.17161    0.016
 6011.00    1.19180   1.17080    0.016
 6012.00    1.16740   1.17000    0.016
 6013.00    1.13445   1.16963    0.016
 6014.00    1.10377   1.16985    0.016
 6015.00    1.07368   1.16924    0.016
 6016.00    1.09083   1.16925    0.016
 6017.00    1.11823   1.16930    0.016
 6018.00    1.14806   1.17050    0.016
 6019.00    1.17830   1.17200    0.016
 6020.00    1.17351   1.17409    0.016
 6021.00    1.16414   1.17677    0.016
 6022.00    1.13403   1.17978    0.016
 6023.00    1.10201   1.18402    0.016
 6024.00    1.10812   1.18776    0.016
 6025.00    1.11635   1.19271    0.016
 6026.00    1.11245   1.19720    0.016
 6027.00    1.10858   1.20237    0.017
 6028.00    1.13420   1.20714    0.017
 6029.00    1.16024   1.21153    0.017
 6030.00    1.19610   1.21597    0.017
 6031.00    1.22641   1.21942    0.017
 6032.00    1.18588   1.22288    0.017
 6033.00    1.15095   1.22557    0.017
 6034.00    1.16425   1.22794    0.017
 6035.00    1.17915   1.22948    0.017
 6036.00    1.20421   1.23126    0.017
 6037.00    1.22278   1.23243    0.017
 6038.00    1.20893   1.23367    0.016
 6039.00    1.19719   1.23474    0.016
 6040.00    1.19395   1.23560    0.016
 6041.00    1.18014   1.23664    0.016
 6042.00    1.13080   1.23715    0.016
 6043.00    1.09881   1.23815    0.016
 6044.00    1.11601   1.23821    0.016
 6045.00    1.14299   1.23898    0.016
 6046.00    1.19368   1.23898    0.016
 6047.00    1.22824   1.23864    0.016
 6048.00    1.22906   1.23796    0.016
 6049.00    1.23382   1.23639    0.016
 6050.00    1.24575   1.23493    0.016
 6051.00    1.26410   1.23234    0.017
 6052.00    1.29265   1.23035    0.017
 6053.00    1.28697   1.22767    0.016
 6054.00    1.23355   1.22548    0.016
 6055.00    1.17874   1.22311    0.016
 6056.00    1.12223   1.22055    0.016
 6057.00    1.08407   1.21852    0.017
 6058.00    1.06577   1.21607    0.017
 6059.00    1.06011   1.21499    0.017
 6060.00    1.06652   1.21352    0.017
 6061.00    1.08886   1.21346    0.017
 6062.00    1.12461   1.21447    0.017
 6063.00    1.12321   1.21557    0.017
 6064.00    1.09428   1.21738    0.017
 6065.00    1.07544   1.21896    0.017
 6066.00    1.06318   1.22148    0.016
 6067.00    1.07465   1.22366    0.016
 6068.00    1.09964   1.22629    0.016
 6069.00    1.12899   1.22885    0.016
 6070.00    1.16049   1.23082    0.016
 6071.00    1.17577   1.23234    0.016
 6072.00    1.18408   1.23256    0.016
 6073.00    1.19515   1.23152    0.016
 6074.00    1.20723   1.22948    0.016
 6075.00    1.20710   1.22713    0.016
 6076.00    1.20318   1.22368    0.016
 6077.00    1.21754   1.21964    0.015
 6078.00    1.23665   1.21545    0.015
 6079.00    1.24285   1.21145    0.016
 6080.00    1.24632   1.20703    0.016
 6081.00    1.23246   1.20306    0.016
 6082.00    1.21569   1.19987    0.016
 6083.00    1.19294   1.19696    0.016
 6084.00    1.16943   1.19469    0.017
 6085.00    1.17856   1.19255    0.017
 6086.00    1.19056   1.19118    0.017
 6087.00    1.23814   1.19036    0.016
 6088.00    1.28757   1.18997    0.016
 6089.00    1.31158   1.18968    0.016
 6090.00    1.33420   1.19008    0.016
 6091.00    1.28891   1.19019    0.017
 6092.00    1.24509   1.19006    0.017
 6093.00    1.23256   1.19002    0.017
 6094.00    1.21940   1.19000    0.016
 6095.00    1.19843   1.18980    0.016
 6096.00    1.17718   1.18928    0.016
 6097.00    1.15362   1.18797    0.016
 6098.00    1.12720   1.18595    0.016
 6099.00    1.08307   1.18604    0.016
 6100.00    1.04137   1.18533    0.016
 6101.00    1.01147   1.18494    0.016
 6102.00    0.98674   1.18469    0.016
 6103.00    0.98249   1.18473    0.015
 6104.00    0.98259   1.18554    0.015
 6105.00    0.99699   1.18632    0.015
 6106.00    1.02553   1.18813    0.016
 6107.00    1.09341   1.18986    0.016
 6108.00    1.16217   1.19283    0.016
 6109.00    1.23305   1.19538    0.016
 6110.00    1.27910   1.19670    0.016
 6111.00    1.27408   1.19744    0.016
 6112.00    1.27469   1.19755    0.016
 6113.00    1.28536   1.19729    0.016
 6114.00    1.29817   1.19587    0.017
 6115.00    1.31433   1.19349    0.017
 6116.00    1.30212   1.19089    0.017
 6117.00    1.25091   1.18710    0.017
 6118.00    1.18782   1.18410    0.017
 6119.00    1.11034   1.18174    0.017
 6120.00    1.07564   1.17889    0.017
 6121.00    1.08657   1.17640    0.017
 6122.00    1.11951   1.17404    0.017
 6123.00    1.17314   1.17239    0.017
 6124.00    1.20190   1.17059    0.016
 6125.00    1.21003   1.17032    0.016
 6126.00    1.21750   1.17066    0.016
 6127.00    1.22449   1.17012    0.016
 6128.00    1.23125   1.17017    0.016
 6129.00    1.23787   1.16870    0.016
 6130.00    1.23959   1.16621    0.016
 6131.00    1.23857   1.16327    0.016
 6132.00    1.20410   1.15954    0.016
 6133.00    1.15330   1.15766    0.015
 6134.00    1.12339   1.15659    0.015
 6135.00    1.10230   1.15580    0.016
 6136.00    1.10052   1.15421    0.016
 6137.00    1.10571   1.15274    0.016
 6138.00    1.12384   1.15363    0.016
 6139.00    1.14592   1.15480    0.016
 6140.00    1.15173   1.15759    0.016
 6141.00    1.15341   1.16138    0.016
 6142.00    1.18872   1.16534    0.016
 6143.00    1.23098   1.16900    0.016
 6144.00    1.25763   1.17137    0.016
 6145.00    1.28175   1.17348    0.016
 6146.00    1.25598   1.17499    0.017
 6147.00    1.22414   1.17573    0.017
 6148.00    1.18174   1.17577    0.016
 6149.00    1.13846   1.17348    0.016
 6150.00    1.13382   1.17012    0.016
 6151.00    1.13102   1.16615    0.016
 6152.00    1.14703   1.16074    0.016
 6153.00    1.16305   1.15477    0.016
 6154.00    1.16352   1.14799    0.016
 6155.00    1.16457   1.14072    0.016
 6156.00    1.17686   1.13103    0.016
 6157.00    1.18957   1.12108    0.016
 6158.00    1.20722   1.11238    0.016
 6159.00    1.22335   1.10443    0.016
 6160.00    1.22738   1.09780    0.016
 6161.00    1.22733   1.09121    0.016
 6162.00    1.20275   1.08637    0.016
 6163.00    1.17996   1.08203    0.016
 6164.00    1.16573   1.07812    0.015
 6165.00    1.14837   1.07651    0.015
 6166.00    1.11892   1.07793    0.016
 6167.00    1.09087   1.08161    0.016
 6168.00    1.06734   1.08491    0.016
 6169.00    1.05379   1.08950    0.016
 6170.00    1.06746   1.09440    0.016
 6171.00    1.08537   1.09874    0.016
 6172.00    1.11324   1.10351    0.016
 6173.00    1.13379   1.10931    0.016
 6174.00    1.13956   1.11538    0.016
 6175.00    1.12737   1.12021    0.016
 6176.00    1.08352   1.12516    0.016
 6177.00    1.06384   1.12902    0.016
 6178.00    1.08143   1.13169    0.016
 6179.00    1.10006   1.13348    0.016
 6180.00    1.12009   1.13473    0.015
 6181.00    1.11662   1.13469    0.015
 6182.00    1.08514   1.13362    0.015
 6183.00    1.06431   1.13220    0.015
 6184.00    1.05469   1.12986    0.015
 6185.00    1.06508   1.12724    0.015
 6186.00    1.09403   1.12318    0.016
 6187.00    1.12648   1.11990    0.016
 6188.00    1.16178   1.11755    0.016
 6189.00    1.16688   1.11539    0.016
 6190.00    1.15024   1.11443    0.015
 6191.00    1.14326   1.11371    0.015
 6192.00    1.14237   1.11447    0.016
 6193.00    1.11890   1.11500    0.016
 6194.00    1.08295   1.11594    0.016
 6195.00    0.95349   1.11842    0.017
 6196.00    0.77911   1.12123   -2.000
 6197.00    0.74972   1.12500   -2.000
 6198.00    0.78042   1.12823   -2.000
 6199.00    0.99844   1.13098   -2.000
 6200.00    1.28284   1.13331   -2.000
 6201.00    1.50754   1.13472   -2.000
 6202.00    1.71437   1.13568   -2.000
 6203.00    1.58883   1.13633   -2.000
 6204.00    1.38073   1.13655   -2.000
 6205.00    1.24054   1.13573   -2.000
 6206.00    1.11402   1.13363   -2.000
 6207.00    1.06563   1.13053   -2.000
 6208.00    1.02957   1.12588    0.016
 6209.00    1.06370   1.12059    0.016
 6210.00    1.10605   1.11506    0.016
 6211.00    1.15619   1.10924    0.016
 6212.00    1.20694   1.10380    0.015
 6213.00    1.19394   1.09834    0.015
 6214.00    1.17812   1.09293    0.015
 6215.00    1.16939   1.08767    0.015
 6216.00    1.16054   1.08329    0.015
 6217.00    1.14215   1.08029    0.015
 6218.00    1.12407   1.07800    0.015
 6219.00    1.11150   1.07637    0.015
 6220.00    1.10219   1.07590    0.016
 6221.00    1.12885   1.07498    0.016
 6222.00    1.15618   1.07458    0.016
 6223.00    1.18870   1.07451    0.016
 6224.00    1.21555   1.07432    0.016
 6225.00    1.20931   1.07378    0.016
 6226.00    1.19835   1.07275    0.017
 6227.00    1.16552   1.07286    0.017
 6228.00    1.14110   1.07221    0.016
 6229.00    1.14857   1.07277    0.017
 6230.00    1.14983   1.07315    0.017
 6231.00    1.13138   1.07312    0.016
 6232.00    1.10833   1.07281    0.016
 6233.00    1.07290   1.07190    0.016
 6234.00    1.04722   1.07236    0.016
 6235.00    1.04399   1.07142    0.015
 6236.00    1.04956   1.07215    0.015
 6237.00    1.07269   1.07215    0.015
 6238.00    1.09660   1.07050    0.015
 6239.00    1.12187   1.06959    0.015
 6240.00    1.13427   1.06739    0.015
 6241.00    1.12712   1.06577    0.015
 6242.00    1.11610   1.06416    0.015
 6243.00    1.09991   1.06346    0.015
 6244.00    1.09098   1.06288    0.015
 6245.00    1.09060   1.06111    0.015
 6246.00    1.10240   1.06002    0.016
 6247.00    1.12685   1.05804    0.015
 6248.00    1.14616   1.05619    0.016
 6249.00    1.16076   1.05460    0.016
 6250.00    1.15098   1.05361    0.016
 6251.00    1.12156   1.05193    0.016
 6252.00    1.09908   1.04994    0.016
 6253.00    1.08154   1.04807    0.016
 6254.00    1.07408   1.04593    0.016
 6255.00    1.07290   1.04608    0.017
 6256.00    1.05672   1.04626    0.017
 6257.00    1.03237   1.04857    0.017
 6258.00    1.00557   1.05125    0.017
 6259.00    0.97760   1.05410    0.017
 6260.00    1.00931   1.05759    0.017
 6261.00    1.06535   1.06139    0.018
 6262.00    1.17552   1.06725    0.019
 6263.00    1.30453   1.07214    0.020
 6264.00    1.34868   1.07744    0.020
 6265.00    1.36794   1.08250    0.019
 6266.00    1.31171   1.08648    0.018
 6267.00    1.23714   1.08992    0.017
 6268.00    1.19680   1.09317    0.016
 6269.00    1.16317   1.09645    0.015
 6270.00    1.14060   1.09882    0.015
 6271.00    1.11972   1.10074    0.015
 6272.00    1.07886   1.10236    0.015
 6273.00    1.03574   1.10362    0.015
 6274.00    0.98803   1.10470    0.015
 6275.00    0.93998   1.10527    0.015
 6276.00    0.94433   1.10603    0.015
 6277.00    0.95078   1.10672    0.016
 6278.00    0.98002   1.10758    0.016
 6279.00    1.00958   1.10912    0.016
 6280.00    1.04554   1.10992    0.000
 6281.00    1.08142   1.11158    0.000
 6282.00    1.11602   1.11265    0.000
 6283.00    1.14865   1.11403    0.000
 6284.00    1.16058   1.11623    0.000
 6285.00    1.16942   1.11726    0.000
 6286.00    1.15516   1.11872    0.000
 6287.00    1.14097   1.11879    0.000
 6288.00    1.12722   1.11840    0.000
 6289.00    1.10956   1.11827    0.000
 6290.00    1.07418   1.11699    0.000
 6291.00    1.05417   1.11543    0.000
 6292.00    1.09119   1.11286    0.000
 6293.00    1.13214   1.10977    0.000
 6294.00    1.18529   1.10722    0.000
 6295.00    1.22209   1.10444    0.000
 6296.00    1.21581   1.10218    0.000
 6297.00    1.19934   1.10038    0.000
 6298.00    1.15979   1.09835    0.000
 6299.00    1.13317   1.09718    0.000
 6300.00    1.13193   1.09673    0.000
 6301.00    1.13358   1.09722    0.000
 6302.00    1.14018   1.09849    0.000
 6303.00    1.12008   1.09927    0.000
 6304.00    1.05999   1.10066    0.000
 6305.00    1.01360   1.10180    0.000
 6306.00    0.98525   1.10278    0.000
 6307.00    0.98895   1.10347    0.000
 6308.00    1.02978   1.10350    0.000
 6309.00    1.05416   1.10380    0.000
 6310.00    1.06172   1.10278    0.000
 6311.00    1.06118   1.10184    0.000
 6312.00    1.05333   1.10015    0.000
 6313.00    1.05783   1.09784    0.000
 6314.00    1.07215   1.09674    0.000
 6315.00    1.06652   1.09553    0.000
 6316.00    1.04695   1.09550    0.000
 6317.00    1.04153   1.09521    0.000
 6318.00    1.04480   1.09599    0.000
 6319.00    1.06963   1.09813    0.000
 6320.00    1.10600   1.09896    0.000
 6321.00    1.14087   1.10224    0.014
 6322.00    1.17505   1.10549    0.014
 6323.00    1.17223   1.10886    0.015
 6324.00    1.15460   1.11207    0.015
 6325.00    1.14540   1.11389    0.015
 6326.00    1.13909   1.11711    0.016
 6327.00    1.12477   1.11820    0.015
 6328.00    1.10816   1.11972    0.015
 6329.00    1.08761   1.12050    0.015
 6330.00    1.06612   1.11967    0.015
 6331.00    1.08670   1.11924    0.016
 6332.00    1.11532   1.11693    0.016
 6333.00    1.10200   1.11556    0.016
 6334.00    1.08245   1.11404    0.016
 6335.00    1.05163   1.11300    0.016
 6336.00    1.01960   1.11195    0.015
 6337.00    1.07053   1.10979    0.015
 6338.00    1.12738   1.10878    0.015
 6339.00    1.13598   1.10786    0.015
 6340.00    1.14283   1.10834    0.015
 6341.00    1.14172   1.10854    0.015
 6342.00    1.14085   1.10952    0.015
 6343.00    1.14984   1.11106    0.015
 6344.00    1.15649   1.11110    0.015
 6345.00    1.12570   1.11151    0.015
 6346.00    1.09929   1.11167    0.015
 6347.00    1.11692   1.11238    0.015
 6348.00    1.13287   1.11239    0.015
 6349.00    1.13665   1.11102    0.015
 6350.00    1.13499   1.10948    0.015
 6351.00    1.10319   1.10700    0.015
 6352.00    1.07488   1.10352    0.015
 6353.00    1.06200   1.09975    0.015
 6354.00    1.04575   1.09592    0.016
 6355.00    1.01723   1.09175    0.016
 6356.00    0.99333   1.08702    0.016
 6357.00    0.98346   1.08272    0.016
 6358.00    0.98868   1.08007    0.016
 6359.00    1.03298   1.07793    0.016
 6360.00    1.07158   1.07637    0.016
 6361.00    1.09752   1.07620    0.016
 6362.00    1.10865   1.07783    0.016
 6363.00    1.09121   1.08064    0.016
 6364.00    1.07210   1.08378    0.016
 6365.00    1.05017   1.08861    0.016
 6366.00    1.04451   1.09412    0.016
 6367.00    1.06287   1.09982    0.016
 6368.00    1.09174   1.10562    0.015
 6369.00    1.13425   1.11140    0.015
 6370.00    1.16859   1.11729    0.015
 6371.00    1.19358   1.12177    0.015
 6372.00    1.18516   1.12565    0.015
 6373.00    1.14306   1.12892    0.015
 6374.00    1.09965   1.13171    0.015
 6375.00    1.05509   1.13373    0.015
 6376.00    1.03695   1.13453    0.015
 6377.00    1.03951   1.13545    0.015
 6378.00    1.06244   1.13563    0.015
 6379.00    1.09941   1.13563    0.016
 6380.00    1.09183   1.13520    0.016
 6381.00    1.05733   1.13443    0.016
 6382.00    1.03436   1.13411    0.016
 6383.00    1.01745   1.13284    0.016
 6384.00    1.04569   1.13226    0.016
 6385.00    1.09457   1.13171    0.016
 6386.00    1.11934   1.13051    0.015
 6387.00    1.13461   1.12932    0.015
 6388.00    1.12554   1.12748    0.015
 6389.00    1.10830   1.12586    0.015
 6390.00    1.07664   1.12318    0.015
 6391.00    1.04092   1.12181    0.015
 6392.00    1.00333   1.12155    0.015
 6393.00    0.96532   1.12042    0.015
 6394.00    0.96773   1.11914    0.015
 6395.00    0.97767   1.11646    0.015
 6396.00    1.03959   1.11586    0.015
 6397.00    1.10897   1.11588    0.016
 6398.00    1.15061   1.11661    0.015
 6399.00    1.18936   1.11867    0.015
 6400.00    1.14971   1.11901    0.015
 6401.00    1.10480   1.11911    0.015
 6402.00    1.03787   1.11783    0.015
 6403.00    0.97022   1.11869    0.015
 6404.00    0.98359   1.12112    0.015
 6405.00    0.99734   1.12119    0.015
 6406.00    1.02250   1.12176    0.015
 6407.00    1.04630   1.12162    0.016
 6408.00    1.04984   1.12063    0.016
 6409.00    1.05416   1.11975    0.016
 6410.00    1.06599   1.11876    0.016
 6411.00    1.07670   1.11926    0.015
 6412.00    1.07955   1.11951    0.015
 6413.00    1.08162   1.11882    0.015
 6414.00    1.07953   1.11822    0.015
 6415.00    1.08199   1.11803    0.014
 6416.00    1.10415   1.11790    0.015
 6417.00    1.11996   1.11802    0.015
 6418.00    1.11315   1.11934    0.015
 6419.00    1.10722   1.12053    0.015
 6420.00    1.10396   1.12152    0.015
 6421.00    1.09476   1.12189    0.015
 6422.00    1.07048   1.12240    0.015
 6423.00    1.05561   1.12353    0.015
 6424.00    1.06138   1.12515    0.015
 6425.00    1.07107   1.12699    0.015
 6426.00    1.08822   1.12717    0.015
 6427.00    1.08460   1.12688    0.016
 6428.00    1.04652   1.12627    0.016
 6429.00    1.02261   1.12675    0.016
 6430.00    1.01930   1.12771    0.016
 6431.00    1.02964   1.12795    0.016
 6432.00    1.05741   1.12792    0.016
 6433.00    1.08298   1.12689    0.016
 6434.00    1.10606   1.12749    0.015
 6435.00    1.11291   1.12858    0.015
 6436.00    1.10363   1.12931    0.015
 6437.00    1.10413   1.13123    0.015
 6438.00    1.11319   1.13263    0.015
 6439.00    1.10566   1.13303    0.015
 6440.00    1.08531   1.13261    0.015
 6441.00    1.06882   1.13219    0.015
 6442.00    1.05493   1.13326    0.015
 6443.00    1.04370   1.13435    0.015
 6444.00    1.03405   1.13318    0.014
 6445.00    1.04086   1.13092    0.015
 6446.00    1.05622   1.12813    0.015
 6447.00    1.07539   1.12543    0.015
 6448.00    1.09627   1.12515    0.016
 6449.00    1.11513   1.12464    0.016
 6450.00    1.13320   1.12353    0.016
 6451.00    1.11702   1.12152    0.016
 6452.00    1.08957   1.11862    0.016
 6453.00    1.06554   1.11946    0.016
 6454.00    1.04245   1.12148    0.015
 6455.00    1.04612   1.12328    0.015
 6456.00    1.05585   1.12487    0.015
 6457.00    1.06095   1.12444    0.015
 6458.00    1.06522   1.12496    0.015
 6459.00    1.08727   1.12581    0.015
 6460.00    1.11180   1.12721    0.015
 6461.00    1.10234   1.12955    0.015
 6462.00    1.08948   1.13057    0.015
 6463.00    1.08465   1.13143    0.015
 6464.00    1.08032   1.13077    0.014
 6465.00    1.08196   1.13074    0.014
 6466.00    1.08372   1.13244    0.015
 6467.00    1.07204   1.13354    0.015
 6468.00    1.06128   1.13422    0.015
 6469.00    1.07646   1.13420    0.015
 6470.00    1.09354   1.13477    0.015
 6471.00    1.13763   1.13426    0.015
 6472.00    1.17772   1.13338    0.015
 6473.00    1.18082   1.13265    0.016
 6474.00    1.18598   1.13194    0.016
 6475.00    1.20511   1.13161    0.016
 6476.00    1.22128   1.12978    0.016
 6477.00    1.22195   1.12742    0.016
 6478.00    1.21273   1.12501    0.016
 6479.00    1.16176   1.12261    0.015
 6480.00    1.11950   1.12009    0.015
 6481.00    1.10763   1.11742    0.015
 6482.00    1.09441   1.11467    0.015
 6483.00    1.07725   1.11069    0.015
 6484.00    1.06375   1.10530    0.015
 6485.00    1.05942   1.10044    0.015
 6486.00    1.06649   1.09555    0.015
 6487.00    1.09812   1.08987    0.015
 6488.00    1.12343   1.08374    0.015
 6489.00    1.13691   1.07634    0.015
 6490.00    1.13835   1.06975    0.015
 6491.00    1.12011   1.06211    0.015
 6492.00    1.08950   1.05536    0.015
 6493.00    1.04116   1.05124    0.015
 6494.00    1.01825   1.04729    0.015
 6495.00    1.02739   1.04572    0.015
 6496.00    1.03643   1.04314    0.015
 6497.00    1.04536   1.04339    0.015
 6498.00    1.04691   1.04751    0.015
 6499.00    1.04121   1.05149    0.016
 6500.00    1.02971   1.05791    0.016
 6501.00    1.01319   1.06338    0.016
 6502.00    1.00230   1.06996    0.016
 6503.00    0.99568   1.07786    0.016
 6504.00    1.00236   1.08413    0.016
 6505.00    1.01795   1.09066    0.015
 6506.00    1.02567   1.09602    0.015
 6507.00    1.02878   1.10091    0.015
 6508.00    1.03384   1.10536    0.015
 6509.00    1.03989   1.10806    0.015
 6510.00    1.04769   1.11014    0.015
 6511.00    1.05626   1.11147    0.014
 6512.00    1.06630   1.11265    0.014
 6513.00    1.07688   1.11336    0.014
 6514.00    1.08099   1.11351    0.014
 6515.00    1.08302   1.11364    0.015
 6516.00    1.07608   1.11350    0.014
 6517.00    1.06673   1.11391    0.014
 6518.00    1.08184   1.11398    0.015
 6519.00    1.10238   1.11436    0.015
 6520.00    1.11268   1.11481    0.015
 6521.00    1.12119   1.11495    0.015
 6522.00    1.12051   1.11631    0.015
 6523.00    1.11859   1.11678    0.015
 6524.00    1.12150   1.11679    0.015
 6525.00    1.12487   1.11743    0.016
 6526.00    1.11590   1.11810    0.015
 6527.00    1.10620   1.11914    0.015
 6528.00    1.12835   1.11916    0.000
 6529.00    1.15125   1.11841    0.000
 6530.00    1.16670   1.11887    0.000
 6531.00    1.18057   1.11977    0.000
 6532.00    1.15476   1.12066    0.000
 6533.00    1.12977   1.12078    0.000
 6534.00    1.11583   1.11982    0.000
 6535.00    1.10488   1.11934    0.000
 6536.00    1.12060   1.11927    0.000
 6537.00    1.13360   1.11939    0.000
 6538.00    1.12871   1.11799    0.000
 6539.00    1.11762   1.11560    0.000
 6540.00    1.07487   1.11312    0.000
 6541.00    1.03793   1.11062    0.000
 6542.00    1.02497   1.10823    0.000
 6543.00    1.02493   1.10369    0.000
 6544.00    1.06904   1.09948    0.000
 6545.00    1.10822   1.09554    0.000
 6546.00    1.13322   1.09089    0.000
 6547.00    1.14128   1.08611    0.000
 6548.00    1.10770   1.07928    0.000
 6549.00    1.07612   1.07355    0.000
 6550.00    1.04879   1.06832    0.000
 6551.00    1.02859   1.06175    0.000
 6552.00    1.02153   1.05425    0.000
 6553.00    1.02069   1.04551    0.000
 6554.00    1.02986   1.03741    0.000
 6555.00    1.04968   1.02941    0.000
 6556.00    1.08452   1.02196    0.000
 6557.00    1.11975   1.01407    0.000
 6558.00    1.15546   1.00614    0.000
 6559.00    1.18470   0.99861    0.000
 6560.00    1.20685   0.99145    0.000
 6561.00    1.20947   0.99007    0.000
 6562.00    1.19320   0.99022    0.000
 6563.00    1.14760   0.98999    0.000
 6564.00    1.07702   0.98933    0.000
 6565.00    1.02056   0.98885    0.000
 6566.00    0.97470   0.99578    0.000
 6567.00    0.98193   1.00412    0.000
 6568.00    1.02414   1.01082    0.000
 6569.00    1.04067   1.01709    0.000
 6570.00    1.04238   1.02210    0.000
 6571.00    1.03930   1.02884    0.000
 6572.00    1.03380   1.03591    0.000
 6573.00    1.03880   1.04318    0.000
 6574.00    1.04837   1.04966    0.000
 6575.00    1.06669   1.05421    0.000
 6576.00    1.08828   1.05859    0.000
 6577.00    1.13581   1.06255    0.000
 6578.00    1.19156   1.06671    0.000
 6579.00    1.23381   1.07123    0.000
 6580.00    1.27250   1.07454    0.000
 6581.00    1.26896   1.07675    0.000
 6582.00    1.25628   1.07836    0.000
 6583.00    1.24845   1.07880    0.000
 6584.00    1.24144   1.08001    0.000
 6585.00    1.21383   1.08105    0.000
 6586.00    1.18355   1.08073    0.000
 6587.00    1.12953   1.08046    0.000
 6588.00    1.07334   1.07864    0.000
 6589.00    1.04277   1.07686    0.000
 6590.00    1.01361   1.07533    0.000
 6591.00    1.03676   1.07398    0.000
 6592.00    1.06086   1.07431    0.000
 6593.00    1.06898   1.07352    0.000
 6594.00    1.07565   1.07191    0.000
 6595.00    1.04907   1.07032    0.000
 6596.00    1.02616   1.07025    0.000
 6597.00    1.04986   1.07270    0.000
 6598.00    1.07638   1.07395    0.000
 6599.00    1.12705   1.07386    0.000
 6600.00    1.16956   1.07361    0.000
 6601.00    1.16009   1.07354    0.000
 6602.00    1.14867   1.07521    0.000
 6603.00    1.12751   1.07665    0.000
 6604.00    1.10545   1.07669    0.000
 6605.00    1.07974   1.07658    0.000
 6606.00    1.05647   1.07597    0.000
 6607.00    1.04136   1.07705    0.000
 6608.00    1.03401   1.07911    0.000
 6609.00    1.04858   1.08002    0.015
 6610.00    1.06554   1.08074    0.015
 6611.00    1.08827   1.08086    0.015
 6612.00    1.09381   1.08308    0.015
 6613.00    1.06350   1.08627    0.015
 6614.00    1.03967   1.08744    0.015
 6615.00    1.02760   1.08792    0.015
 6616.00    1.03478   1.08792    0.015
 6617.00    1.07246   1.08902    0.015
 6618.00    1.10875   1.09031    0.015
 6619.00    1.14309   1.08937    0.015
 6620.00    1.15728   1.08770    0.015
 6621.00    1.14678   1.08581    0.015
 6622.00    1.14334   1.08376    0.015
 6623.00    1.14753   1.08272    0.015
 6624.00    1.14141   1.08036    0.015
 6625.00    1.12549   1.07704    0.014
 6626.00    1.10481   1.07394    0.014
 6627.00    1.08013   1.07087    0.014
 6628.00    1.06910   1.06967    0.014
 6629.00    1.06815   1.06793    0.014
 6630.00    1.05221   1.06509    0.014
 6631.00    1.02653   1.06297    0.014
 6632.00    1.00969   1.06173    0.015
 6633.00    0.99786   1.06191    0.015
 6634.00    1.01233   1.06176    0.015
 6635.00    1.03982   1.06044    0.015
 6636.00    1.06550   1.05968    0.015
 6637.00    1.09042   1.06031    0.015
 6638.00    1.10279   1.06183    0.015
 6639.00    1.11056   1.06269    0.015
 6640.00    1.12449   1.06197    0.015
 6641.00    1.14033   1.06177    0.015
 6642.00    1.15094   1.06284    0.015
 6643.00    1.16020   1.06421    0.015
 6644.00    1.13865   1.06479    0.015
 6645.00    1.11060   1.06384    0.015
 6646.00    1.08687   1.06368    0.015
 6647.00    1.06385   1.06478    0.014
 6648.00    1.06201   1.06509    0.014
 6649.00    1.06282   1.06458    0.014
 6650.00    1.05626   1.06366    0.014
 6651.00    1.04906   1.06316    0.015
 6652.00    1.05231   1.06314    0.014
 6653.00    1.05610   1.06198    0.014
 6654.00    1.06550   1.06029    0.015
 6655.00    1.07501   1.05864    0.015
 6656.00    1.08540   1.05715    0.015
 6657.00    1.09616   1.05599    0.015
 6658.00    1.11452   1.05393    0.015
 6659.00    1.13069   1.05189    0.015
 6660.00    1.12054   1.04974    0.015
 6661.00    1.11175   1.04842    0.015
 6662.00    1.11414   1.04817    0.015
 6663.00    1.11510   1.04707    0.015
 6664.00    1.10724   1.04631    0.015
 6665.00    1.09558   1.04526    0.015
 6666.00    1.06544   1.04550    0.015
 6667.00    1.04128   1.04719    0.014
 6668.00    1.04070   1.04750    0.014
 6669.00    1.04532   1.04731    0.014
 6670.00    1.06704   1.04667    0.015
 6671.00    1.07941   1.04739    0.015
 6672.00    1.06586   1.04890    0.014
 6673.00    1.05367   1.04870    0.014
 6674.00    1.04474   1.04757    0.015
 6675.00    1.03649   1.04575    0.015
 6676.00    1.02967   1.04623    0.015
 6677.00    1.03006   1.04753    0.015
 6678.00    1.04335   1.04699    0.015
 6679.00    1.05052   1.04620    0.015
 6680.00    1.04813   1.04491    0.015
 6681.00    1.02815   1.04623    0.015
 6682.00    0.98406   1.04840    0.015
 6683.00    0.96195   1.04848    0.015
 6684.00    0.96639   1.04870    0.015
 6685.00    0.98443   1.04853    0.015
 6686.00    1.01695   1.04970    0.015
 6687.00    1.03232   1.05103    0.015
 6688.00    1.03157   1.05039    0.015
 6689.00    1.03041   1.05009    0.014
 6690.00    1.02889   1.04933    0.014
 6691.00    1.03889   1.04901    0.014
 6692.00    1.05728   1.04883    0.014
 6693.00    1.04696   1.04697    0.014
 6694.00    1.01825   1.04596    0.015
 6695.00    0.99491   1.04491    0.015
 6696.00    0.97456   1.04387    0.000
 6697.00    0.98861   1.04362    0.000
 6698.00    1.01942   1.04217    0.000
 6699.00    1.02783   1.04132    0.000
 6700.00    1.02681   1.04070    0.000
 6701.00    1.01305   1.03975    0.000
 6702.00    0.99468   1.03940    0.000
 6703.00    0.99640   1.03864    0.000
 6704.00    1.00423   1.03756    0.000
 6705.00    1.02760   1.03614    0.000
 6706.00    1.05490   1.03478    0.000
 6707.00    1.01619   1.03301    0.000
 6708.00    0.96388   1.03146    0.000
 6709.00    0.95340   1.02950    0.000
 6710.00    0.94970   1.02675    0.000
 6711.00    1.02242   1.02528    0.000
 6712.00    1.10440   1.02290    0.000
 6713.00    1.14617   1.02083    0.000
 6714.00    1.18460   1.01919    0.000
 6715.00    1.14958   1.01741    0.000
 6716.00    1.11108   1.01793    0.000
 6717.00    1.07785   1.01752    0.000
 6718.00    1.04509   1.01695    0.000
 6719.00    1.03462   1.01733    0.000
 6720.00    1.02439   1.01822    0.000
 6721.00    1.01877   1.02099    0.000
 6722.00    1.01709   1.02263    0.000
 6723.00    1.06070   1.02340    0.000
 6724.00    1.10381   1.02489    0.000
 6725.00    1.14291   1.02666    0.000
 6726.00    1.17468   1.02898    0.000
 6727.00    1.16250   1.03040    0.000
 6728.00    1.14919   1.03097    0.000
 6729.00    1.13054   1.03153    0.000
 6730.00    1.11595   1.03171    0.000
 6731.00    1.11707   1.03200    0.000
 6732.00    1.12162   1.03202    0.000
 6733.00    1.13718   1.03183    0.000
 6734.00    1.13568   1.03077    0.000
 6735.00    1.08761   1.02885    0.000
 6736.00    1.04655   1.02776    0.000
 6737.00    1.02187   1.02682    0.000
 6738.00    1.01341   1.02610    0.000
 6739.00    1.03772   1.02431    0.000
 6740.00    1.05399   1.02157    0.000
 6741.00    1.05615   1.02059    0.000
 6742.00    1.04501   1.01969    0.000
 6743.00    1.01342   1.01911    0.000
 6744.00    0.97917   1.01807    0.000
 6745.00    0.94134   1.01600    0.000
 6746.00    0.92214   1.01635    0.000
 6747.00    0.92513   1.01636    0.000
 6748.00    0.93815   1.01676    0.000
 6749.00    0.96170   1.01765    0.000
 6750.00    0.96669   1.01722    0.000
 6751.00    0.95451   1.01931    0.000
 6752.00    0.94833   1.02089    0.000
 6753.00    0.94706   1.02239    0.015
 6754.00    0.96584   1.02471    0.016
 6755.00    0.99901   1.02571    0.016
 6756.00    1.02640   1.02819    0.016
 6757.00    1.05013   1.03020    0.016
 6758.00    1.04721   1.03119    0.016
 6759.00    1.02959   1.03223    0.017
 6760.00    1.05014   1.03288    0.017
 6761.00    1.08898   1.03403    0.017
 6762.00    1.13391   1.03452    0.018
 6763.00    1.18136   1.03387    0.018
 6764.00    1.20970   1.03293    0.018
 6765.00    1.23129   1.03285    0.019
 6766.00    1.27016   1.03356    0.018
 6767.00    1.31419   1.03344    0.018
 6768.00    1.35993   1.03265    0.018
 6769.00    1.40610   1.03209    0.018
 6770.00    1.38424   1.03275    0.017
 6771.00    1.34872   1.03422    0.017
 6772.00    1.31477   1.03473    0.017
 6773.00    1.28106   1.03470    0.016
 6774.00    1.21098   1.03466    0.016
 6775.00    1.13665   1.03500    0.015
 6776.00    1.10454   1.03561    0.015
 6777.00    1.07576   1.03522    0.015
 6778.00    1.12854   1.03428    0.016
 6779.00    1.18488   1.03303    0.016
 6780.00    1.14428   1.03160    0.016
 6781.00    1.10250   1.03013    0.016
 6782.00    1.05309   1.02855    0.016
 6783.00    1.00661   1.02701    0.016
 6784.00    1.01337   1.02557    0.016
 6785.00    1.02249   1.02427    0.017
 6786.00    1.05751   1.02275    0.017
 6787.00    1.08958   1.02188    0.017
 6788.00    1.09884   1.02162    0.017
 6789.00    1.11028   1.02170    0.017
 6790.00    1.13443   1.02154    0.017
 6791.00    1.15441   1.02114    0.017
 6792.00    1.15507   1.02171    0.017
 6793.00    1.15640   1.02226    0.017
 6794.00    1.16029   1.02331    0.017
 6795.00    1.15661   1.02382    0.017
 6796.00    1.12907   1.02367    0.016
 6797.00    1.10506   1.02492    0.015
 6798.00    1.09053   1.02547    0.015
 6799.00    1.07887   1.02617    0.015
 6800.00    1.07381   1.02694    0.015
 6801.00    1.07391   1.02638    0.015
 6802.00    1.08428   1.02720    0.016
 6803.00    1.07260   1.02770    0.016
 6804.00    1.02271   1.02731    0.016
 6805.00    0.98486   1.02805    0.016
 6806.00    0.96526   1.02751    0.016
 6807.00    0.97200   1.02693    0.016
 6808.00    1.01382   1.02765    0.016
 6809.00    1.02926   1.02741    0.016
 6810.00    1.01371   1.02789    0.016
 6811.00    1.00836   1.02787    0.016
 6812.00    1.01355   1.02671    0.016
 6813.00    1.03542   1.02790    0.016
 6814.00    1.07252   1.02903    0.016
 6815.00    1.10371   1.02946    0.016
 6816.00    1.13016   1.02991    0.016
 6817.00    1.13010   1.02936    0.016
 6818.00    1.11129   1.03064    0.015
 6819.00    1.11664   1.03239    0.015
 6820.00    1.13701   1.03263    0.015
 6821.00    1.12276   1.03293    0.015
 6822.00    1.08972   1.03301    0.015
 6823.00    1.08363   1.03378    0.015
 6824.00    1.09023   1.03460    0.015
 6825.00    1.11921   1.03381    0.015
 6826.00    1.15728   1.03341    0.016
 6827.00    1.13761   1.03355    0.016
 6828.00    1.09789   1.03336    0.016
 6829.00    1.10357   1.03259    0.016
 6830.00    1.12254   1.03076    0.017
 6831.00    1.11255   1.02950    0.017
 6832.00    1.09554   1.02901    0.017
 6833.00    1.08511   1.02748    0.016
 6834.00    1.07598   1.02536    0.016
 6835.00    1.07594   1.02341    0.016
 6836.00    1.07730   1.02164    0.016
 6837.00    1.11665   1.02056    0.016
 6838.00    1.16026   1.01869    0.016
 6839.00    1.13845   1.01673    0.016
 6840.00    1.11175   1.01613    0.016
 6841.00    1.05995   1.01552    0.016
 6842.00    1.00715   1.01531    0.016
 6843.00    1.01535   1.01479    0.016
 6844.00    1.02597   1.01420    0.015
 6845.00    1.11625   1.01505    0.016
 6846.00    1.19604   1.01539    0.016
 6847.00    1.09834   1.01510    0.016
 6848.00    1.00704   1.01512    0.016
 6849.00    0.98259   1.01468    0.016
 6850.00    0.96885   1.01478    0.016
 6851.00    1.03475   1.01436    0.016
 6852.00    1.09225   1.01227    0.016
 6853.00    1.10214   1.01134    0.016
 6854.00    1.10209   1.01060    0.016
 6855.00    1.05717   1.00941    0.016
 6856.00    1.01765   1.00891    0.016
 6857.00    0.99814   1.00700    0.015
 6858.00    0.97712   1.00558    0.015
 6859.00    0.95147   1.00521    0.015
 6860.00    0.94100   1.00462    0.015
 6861.00    0.97048   1.00517    0.015
 6862.00    1.00079   1.00490    0.015
 6863.00    1.03293   1.00409    0.015
 6864.00    1.06665   1.00398    0.015
 6865.00    1.10347   1.00375    0.015
 6866.00    1.13773   1.00483    0.015
 6867.00    1.16760   1.00585    0.016
 6868.00    1.16237   1.00557    0.016
 6869.00    1.10467   1.00541    0.016
 6870.00    1.04680   1.00558    0.016
 6871.00    0.98871   1.00686    0.016
 6872.00    0.96038   1.00818    0.016
 6873.00    0.96649   1.00821    0.016
 6874.00    0.97328   1.00862    0.015
 6875.00    0.98074   1.00971    0.015
 6876.00    0.99082   1.01106    0.015
 6877.00    1.00325   1.01234    0.015
 6878.00    1.01171   1.01279    0.015
 6879.00    1.01701   1.01369    0.015
 6880.00    1.01136   1.01524    0.015
 6881.00    0.99807   1.01695    0.014
 6882.00    0.99520   1.01881    0.015
 6883.00    0.99872   1.01976    0.015
 6884.00    1.00774   1.02107    0.015
 6885.00    1.01969   1.02328    0.015
 6886.00    1.03753   1.02524    0.015
 6887.00    1.05810   1.02719    0.015
 6888.00    1.06431   1.02876    0.016
 6889.00    1.06478   1.02999    0.016
 6890.00    1.04039   1.03185    0.016
 6891.00    1.00752   1.03358    0.016
 6892.00    1.01677   1.03442    0.016
 6893.00    1.03809   1.03540    0.016
 6894.00    1.04517   1.03636    0.016
 6895.00    1.04888   1.03732    0.016
 6896.00    1.04066   1.03844    0.016
 6897.00    1.03017   1.03825    0.015
 6898.00    1.04960   1.03843    0.015
 6899.00    1.07345   1.03988    0.015
 6900.00    1.03319   1.04032    0.015
 6901.00    0.98601   1.04056    0.015
 6902.00    0.99552   1.04040    0.015
 6903.00    1.00903   1.04025    0.015
 6904.00    1.02991   1.04154    0.015
 6905.00    1.05105   1.04127    0.016
 6906.00    1.02135   1.04030    0.015
 6907.00    0.99145   1.04037    0.015
 6908.00    0.96056   1.03959    0.015
 6909.00    0.93256   1.03923    0.015
 6910.00    0.95047   1.03855    0.016
 6911.00    0.96595   1.03662    0.016
 6912.00    0.95717   1.03645    0.016
 6913.00    0.94943   1.03584    0.016
 6914.00    0.94919   1.03417    0.016
 6915.00    0.95588   1.03375    0.016
 6916.00    1.00081   1.03235    0.016
 6917.00    1.03551   1.03174    0.015
 6918.00    1.02508   1.03165    0.015
 6919.00    1.01908   1.03035    0.015
 6920.00    1.02916   1.03012    0.015
 6921.00    1.03488   1.02928    0.015
 6922.00    1.02738   1.02823    0.015
 6923.00    1.02609   1.02818    0.015
 6924.00    1.04085   1.02804    0.015
 6925.00    1.04691   1.02784    0.015
 6926.00    1.03363   1.02728    0.015
 6927.00    1.02423   1.02690    0.016
 6928.00    1.02233   1.02719    0.016
 6929.00    1.02671   1.02769    0.016
 6930.00    1.04167   1.02747    0.016
 6931.00    1.03685   1.02763    0.016
 6932.00    1.00289   1.02867    0.016
 6933.00    1.00462   1.02913    0.016
 6934.00    1.05255   1.02925    0.016
 6935.00    1.06433   1.02910    0.016
 6936.00    1.03489   1.02941    0.016
 6937.00    1.01416   1.03017    0.016
 6938.00    1.00222   1.03028    0.016
 6939.00    1.01671   1.02976    0.016
 6940.00    1.05468   1.02923    0.015
 6941.00    1.03795   1.02913    0.015
 6942.00    0.97844   1.02839    0.015
 6943.00    0.97037   1.02794    0.015
 6944.00    0.99766   1.02800    0.015
 6945.00    1.01958   1.02719    0.016
 6946.00    1.03827   1.02703    0.016
 6947.00    1.06316   1.02669    0.016
 6948.00    1.09131   1.02602    0.016
 6949.00    1.06472   1.02683    0.016
 6950.00    1.01314   1.02715    0.016
 6951.00    1.03264   1.02736    0.016
 6952.00    1.08006   1.02841    0.016
 6953.00    1.12208   1.02917    0.016
 6954.00    1.16230   1.03035    0.016
 6955.00    1.17764   1.03161    0.016
 6956.00    1.18599   1.03280    0.016
 6957.00    1.17270   1.03437    0.016
 6958.00    1.15441   1.03612    0.016
 6959.00    1.13971   1.03756    0.016
 6960.00    1.12568   1.03858    0.015
 6961.00    1.08618   1.04018    0.015
 6962.00    1.04303   1.04127    0.015
 6963.00    1.00241   1.04134    0.015
 6964.00    0.96204   1.04210    0.015
 6965.00    0.96742   1.04256    0.016
 6966.00    0.97584   1.04249    0.016
 6967.00    0.99961   1.04174    0.016
 6968.00    1.02384   1.03948    0.016
 6969.00    0.94902   1.03859    0.016
 6970.00    0.87809   1.03802    0.016
 6971.00    0.92617   1.03567    0.016
 6972.00    0.97403   1.03334    0.016
 6973.00    1.01847   1.03098    0.017
 6974.00    1.05247   1.02968    0.017
 6975.00    0.98622   1.02819    0.017
 6976.00    0.93200   1.02586    0.016
 6977.00    0.96150   1.02574    0.016
 6978.00    0.98913   1.02595    0.016
 6979.00    1.00680   1.02623    0.016
 6980.00    1.02647   1.02678    0.016
 6981.00    1.05479   1.02706    0.016
 6982.00    1.07488   1.02952    0.016
 6983.00    1.06572   1.03163    0.016
 6984.00    1.05937   1.03300    0.015
 6985.00    1.06140   1.03545    0.016
 6986.00    1.06346   1.03676    0.016
 6987.00    1.06560   1.03830    0.016
 6988.00    1.05874   1.03980    0.016
 6989.00    1.03219   1.04040    0.016
 6990.00    1.01412   1.04167    0.016
 6991.00    1.01216   1.04154    0.016
 6992.00    1.01181   1.04094    0.016
 6993.00    1.01415   1.04104    0.017
 6994.00    1.00564   1.04033    0.017
 6995.00    0.98141   1.03980    0.016
 6996.00    0.95292   1.03831    0.016
 6997.00    0.91900   1.03635    0.016
 6998.00    0.91969   1.03582    0.016
 6999.00    0.95930   1.03497    0.016
 7000.00    0.99089   1.03363    0.016
 7001.00    1.01453   1.03201    0.016
 7002.00    1.00311   1.03045    0.015
 7003.00    0.96101   1.03012    0.015
 7004.00    0.94744   1.02956    0.015
 7005.00    0.95585   1.02806    0.016
 7006.00    0.94833   1.02735    0.016
 7007.00    0.93001   1.02716    0.016
 7008.00    0.92269   1.02625    0.017
 7009.00    0.92188   1.02547    0.017
 7010.00    0.92819   1.02485    0.017
 7011.00    0.93818   1.02480    0.017
 7012.00    0.93505   1.02473    0.017
 7013.00    0.92604   1.02281    0.017
 7014.00    0.96349   1.02220    0.017
 7015.00    1.01888   1.02358    0.017
 7016.00    1.00940   1.02362    0.017
 7017.00    0.97863   1.02326    0.017
 7018.00    0.96290   1.02291    0.017
 7019.00    0.95132   1.02332    0.016
 7020.00    1.01067   1.02490    0.016
 7021.00    1.08605   1.02489    0.017
 7022.00    1.08370   1.02525    0.017
 7023.00    1.06730   1.02731    0.017
 7024.00    1.07736   1.02842    0.017
 7025.00    1.09108   1.02934    0.017
 7026.00    1.10809   1.03015    0.017
 7027.00    1.12541   1.03100    0.017
 7028.00    1.11654   1.03333    0.018
 7029.00    1.10602   1.03481    0.018
 7030.00    1.09586   1.03594    0.018
 7031.00    1.08581   1.03795    0.018
 7032.00    1.10220   1.03917    0.018
 7033.00    1.11577   1.04125    0.019
 7034.00    1.05187   1.04338    0.018
 7035.00    0.99640   1.04411    0.017
 7036.00    1.05920   1.04623    0.017
 7037.00    1.11523   1.04903    0.017
 7038.00    1.10878   1.05132    0.017
 7039.00    1.09524   1.05330    0.018
 7040.00    1.03392   1.05433    0.017
 7041.00    0.98153   1.05537    0.016
 7042.00    0.97578   1.05672    0.017
 7043.00    0.98169   1.05735    0.017
 7044.00    1.03672   1.05686    0.017
 7045.00    1.08849   1.05651    0.017
 7046.00    1.12895   1.05507    0.017
 7047.00    1.17357   1.05177    0.018
 7048.00    1.23040   1.04872    0.018
 7049.00    1.23727   1.04426    0.018
 7050.00    1.11944   1.03935   -2.000
 7051.00    1.05074   1.03488   -2.000
 7052.00    1.08774   1.02871   -2.000
 7053.00    1.09542   1.02342   -2.000
 7054.00    1.04837   1.01775   -2.000
 7055.00    1.05206   1.01111   -2.000
 7056.00    1.13850   1.00598   -2.000
 7057.00    1.18664   1.00006   -2.000
 7058.00    1.17998   0.99547   -2.000
 7059.00    1.16372   0.99248   -2.000
 7060.00    1.13538   0.98829   -2.000
 7061.00    1.11210   0.98545   -2.000
 7062.00    1.09442   0.98294   -2.000
 7063.00    1.07782   0.98066   -2.000
 7064.00    1.06227   0.98021   -2.000
 7065.00    1.06479   0.97882   -2.000
 7066.00    1.08288   0.97846   -2.000
 7067.00    1.12072   0.98014   -2.000
 7068.00    1.17355   0.98059   -2.000
 7069.00    1.13397   0.98114   -2.000
 7070.00    1.03268   0.98214   -2.000
 7071.00    1.06605   0.98291   -2.000
 7072.00    1.17817   0.98474   -2.000
 7073.00    1.18628   0.98537   -2.000
 7074.00    1.14135   0.98514   -2.000
 7075.00    1.14870   0.98618   -2.000
 7076.00    1.17914   0.98544   -2.000
 7077.00    1.14136   0.98378   -2.000
 7078.00    1.07773   0.98219   -2.000
 7079.00    1.03007   0.97902   -2.000
 7080.00    0.98755   0.97670   -2.000
 7081.00    1.00850   0.97284   -2.000
 7082.00    1.04654   0.96759   -2.000
 7083.00    1.06250   0.96481   -2.000
 7084.00    1.07358   0.96003   -2.000
 7085.00    1.09825   0.95483   -2.000
 7086.00    1.12531   0.95117   -2.000
 7087.00    1.12788   0.94597   -2.000
 7088.00    1.12717   0.94341   -2.000
 7089.00    1.12758   0.94087   -2.000
 7090.00    1.12809   0.93687   -2.000
 7091.00    1.06523   0.93609   -2.000
 7092.00    0.99866   0.93444   -2.000
 7093.00    1.01413   0.93321   -2.000
 7094.00    1.03192   0.93381   -2.000
 7095.00    1.08963   0.93284   -2.000
 7096.00    1.14361   0.93367   -2.000
 7097.00    1.10452   0.93473   -2.000
 7098.00    1.06411   0.93497   -2.000
 7099.00    1.00611   0.93622   -2.000
 7100.00    0.95015   0.93641   -2.000
 7101.00    0.91227   0.93720   -2.000
 7102.00    0.88940   0.93871   -2.000
 7103.00    0.96460   0.93893   -2.000
 7104.00    1.02570   0.93893   -2.000
 7105.00    1.01500   0.93902   -2.000
 7106.00    1.01057   0.93953   -2.000
 7107.00    1.03197   0.94001   -2.000
 7108.00    1.03593   0.93942   -2.000
 7109.00    0.98046   0.93900   -2.000
 7110.00    0.95158   0.93965   -2.000
 7111.00    0.99908   0.93970   -2.000
 7112.00    1.04090   0.93903   -2.000
 7113.00    1.06878   0.93878   -2.000
 7114.00    1.06634   0.93845   -2.000
 7115.00    0.99972   0.93842   -2.000
 7116.00    0.95948   0.93750   -2.000
 7117.00    0.96773   0.93624   -2.000
 7118.00    0.96803   0.93625   -2.000
 7119.00    0.95552   0.93443   -2.000
 7120.00    0.97880   0.93249   -2.000
 7121.00    1.05252   0.93161   -2.000
 7122.00    1.04369   0.92945   -2.000
 7123.00    0.93246   0.92792   -2.000
 7124.00    0.90901   0.92555   -2.000
 7125.00    0.98152   0.92332   -2.000
 7126.00    1.01875   0.92322   -2.000
 7127.00    1.02196   0.92100   -2.000
 7128.00    0.99768   0.91896   -2.000
 7129.00    0.95002   0.91907   -2.000
 7130.00    0.94222   0.91851   -2.000
 7131.00    0.96428   0.91888   -2.000
 7132.00    1.01504   0.91890   -2.000
 7133.00    1.08469   0.91831   -2.000
 7134.00    1.04066   0.92009   -2.000
 7135.00    0.93114   0.92149   -2.000
 7136.00    0.97560   0.92138   -2.000
 7137.00    1.09734   0.92228   -2.000
 7138.00    1.12036   0.92377   -2.000
 7139.00    1.10052   0.92472   -2.000
 7140.00    1.10483   0.92552   -2.000
 7141.00    1.11815   0.92559   -2.000
 7142.00    1.04660   0.92543   -2.000
 7143.00    0.94824   0.92721   -2.000
 7144.00    0.93154   0.92754   -2.000
 7145.00    0.93637   0.92632   -2.000
 7146.00    0.90049   0.92791   -2.000
 7147.00    0.85583   0.92887   -2.000
 7148.00    0.92475   0.92912   -2.000
 7149.00    1.01309   0.93008   -2.000
 7150.00    1.00369   0.92998   -2.000
 7151.00    0.98163   0.93197   -2.000
 7152.00    1.05381   0.93329   -2.000
 7153.00    1.13455   0.93258   -2.000
 7154.00    1.11633   0.93432   -2.000
 7155.00    1.09269   0.93557   -2.000
 7156.00    0.98396   0.93596   -2.000
 7157.00    0.87379   0.93646   -2.000
 7158.00    0.79525   0.93597   -2.000
 7159.00    0.72928   0.93703   -2.000
 7160.00    0.94837   0.93773   -2.000
 7161.00    1.15631   0.93693   -2.000
 7162.00    1.22380   0.93735   -2.000
 7163.00    1.27522   0.93812   -2.000
 7164.00    1.18951   0.93878   -2.000
 7165.00    1.11212   0.93960   -2.000
 7166.00    1.08738   0.93996   -2.000
 7167.00    1.07107   0.94060   -2.000
 7168.00    1.09657   0.94203   -2.000
 7169.00    1.11806   0.94319   -2.000
 7170.00    1.12336   0.94331   -2.000
 7171.00    1.11743   0.94409   -2.000
 7172.00    1.07396   0.94542   -2.000
 7173.00    1.03302   0.94515   -2.000
 7174.00    0.99922   0.94491   -2.000
 7175.00    0.99557   0.94475   -2.000
 7176.00    1.06467   0.94385   -2.000
 7177.00    1.10588   0.94379   -2.000
 7178.00    1.08902   0.94203   -2.000
 7179.00    1.07142   0.94020   -2.000
 7180.00    1.05247   0.94071   -2.000
 7181.00    1.02024   0.93862   -2.000
 7182.00    0.96697   0.93640   -2.000
 7183.00    0.91825   0.93582   -2.000
 7184.00    0.87586   0.93394   -2.000
 7185.00    0.85095   0.93357   -2.000
 7186.00    0.84743   0.93250   -2.000
 7187.00    0.92497   0.93073   -2.000
 7188.00    1.08990   0.93163   -2.000
 7189.00    1.15838   0.93128   -2.000
 7190.00    1.13517   0.93028   -2.000
 7191.00    1.10348   0.93054   -2.000
 7192.00    1.06468   0.93084   -2.000
 7193.00    0.99539   0.93171   -2.000
 7194.00    0.90358   0.93208   -2.000
 7195.00    0.88431   0.93223   -2.000
 7196.00    0.91205   0.93302   -2.000
 7197.00    0.87889   0.93418   -2.000
 7198.00    0.81118   0.93460   -2.000
 7199.00    0.84072   0.93437   -2.000
 7200.00    0.91829   0.93535   -2.000
 7201.00    1.06942   0.93552   -2.000
 7202.00    1.25197   0.93552   -2.000
 7203.00    1.17754   0.93607   -2.000
 7204.00    1.00910   0.93532   -2.000
 7205.00    0.88513   0.93632   -2.000
 7206.00    0.77495   0.93708   -2.000
 7207.00    0.86864   0.93662   -2.000
 7208.00    1.01495   0.93813   -2.000
 7209.00    0.97113   0.93842   -2.000
 7210.00    0.88730   0.93891   -2.000
 7211.00    0.92895   0.94098   -2.000
 7212.00    0.99144   0.94161   -2.000
 7213.00    0.97708   0.94332   -2.000
 7214.00    0.95311   0.94552   -2.000
 7215.00    0.94529   0.94670   -2.000
 7216.00    0.93887   0.94910   -2.000
 7217.00    0.99149   0.95084   -2.000
 7218.00    1.04712   0.95206   -2.000
