###################################################################
## OUTPUT of StarlightChains_v04.for    [Cid@UFSC - 01/Apr/2007] ##
###################################################################

## Some input info
KUG0210-078._40_44.txt                   [arq_obs]
Base.CB07.vall.4m                        [arq_base]
Masks.EmLines.NEW.gm                     [arq_masks]
StCv04.C11.config                        [arq_config]
   66                                    [N_base]
    0                                    [N_YAV_components = # of components with extra extinction!]
    0                                    [i_FitPowerLaw (1/0 = Yes/No)]
-9.99                                    [alpha_PowerLaw]
CCM                                      [red_law_option]
 1.458241                                [q_norm = A(l_norm)/A(V)]

## (Re)Sampling Parameters
 3741.00                                 [l_ini (A)]
 7218.00                                 [l_fin (A)]
    1.00                                 [dl    (A)]     (OBS: dl_cushion =    50.00 A)

## Normalization info
 4020.00                                 [l_norm (A) - for base]
 4010.00                                 [llow_norm (A) - window for f_obs]
 4060.00                                 [lupp_norm (A) - window for f_obs]
3.591393E-18                             [fobs_norm (in input units)]

## S/N
 3691.00                                 [llow_SN (A) - window for S/N]
 7268.00                                 [lupp_SN (A) - window for S/N]
   3.036                                 [S/N in S/N window]
   0.969                                 [S/N in norm. window]
   0.013                                 [S/N_err in S/N window]
   0.004                                 [S/N_err in norm. window]
  1.0000                                 [fscale_chi2]

## etc...
    -2007730                             [idum_orig]
  2379                                   [NOl_eff]
  2363                                   [Nl_eff]
    16    NSIGMA                         [Ntot_cliped & clip_method]
   824880                                [Nglobal_steps]
   7                                     [N_chains]
   7                                     [NEX0s_base = N_base in EX0s-fits]
 0   0   1       16   2.0   6.018E+02    [Clip-Bug, RC-Crash & Burn-In warning-flags, n_censored_weights, wei_nsig_threshold & wei_limit]
    15     14.065     13.411      0.654  [idt_all, wdt_TotTime, wdt_UsrTime & wdt_SysTime (sec)]

## Synthesis Results - Best model ##

 8.84214E-06                             [chi2/Nl_eff]
    25.08606                             [adev (%)]

   130.00000                             [sum-of-x (%)]
 1.63466E-17                             [Flux_tot (units of input spectrum!)]
 2.38460E-12                             [Mini_tot (???)]
 1.19370E-12                             [Mcor_tot (???)]

-270.14                                  [v0_min  (km/s)]
 487.84                                  [vd_min  (km/s)]
 0.9330                                  [AV_min  (mag)]
 0.0000                                  [YAV_min (mag)]

# j     x_j(%)      Mini_j(%)     Mcor_j(%)     age_j(yr)     Z_j      (L/M)_j    YAV?  Mstars   component_j        a/Fe...       SSP_chi2r SSP_adev(%)   SSP_AV   SSP_x(%)
  1      0.0000     0.0000E+00    0.0000E+00    1.000000E+06  0.00400  1.094E-02    0   1.0000   age020_m42            0.0000     1.0183E-05    41.0530   4.0000   196.1467
  2      0.0000     0.0000E+00    0.0000E+00    3.160000E+06  0.00400  4.007E-02    0   0.9999   age045_m42            0.0000     7.9325E-06    33.8934   3.8301   170.5429
  3      0.0000     0.0000E+00    0.0000E+00    5.010000E+06  0.00400  2.539E-02    0   0.9488   age055_m42            0.0000     8.0450E-06    35.2071   4.0000   176.6297
  4      0.0000     0.0000E+00    0.0000E+00    6.610000E+06  0.00400  2.620E-02    0   0.9220   age061_m42            0.0000     8.0850E-06    34.2259   3.7524   171.0801
  5      0.0000     0.0000E+00    0.0000E+00    1.000000E+07  0.00400  1.322E-02    0   0.8862   age070_m42            0.0000     8.9878E-06    36.2168   3.4427   176.0175
  6      0.0000     0.0000E+00    0.0000E+00    1.445000E+07  0.00400  7.883E-03    0   0.8571   age078_m42            0.0000     8.8026E-06    35.9755   3.7702   171.7137
  7      0.0000     0.0000E+00    0.0000E+00    2.512000E+07  0.00400  5.251E-03    0   0.8174   age090_m42            0.0000     9.2163E-06    36.5979   3.3112   176.9720
  8      0.0000     0.0000E+00    0.0000E+00    4.000000E+07  0.00400  3.649E-03    0   0.7851   age104_m42            0.0000     9.1176E-06    36.3259   3.0864   178.2705
  9      0.0000     0.0000E+00    0.0000E+00    5.500000E+07  0.00400  3.098E-03    0   0.7629   age110_m42            0.0000     8.7692E-06    35.4471   3.2527   177.5907
 10      0.0000     0.0000E+00    0.0000E+00    1.015200E+08  0.00400  2.228E-03    0   0.7207   age116_m42            0.0000     8.6046E-06    34.9566   3.2801   177.5228
 11      0.0000     0.0000E+00    0.0000E+00    2.861200E+08  0.00400  1.093E-03    0   0.6648   age125_m42            0.0000     9.2290E-06    36.0156   2.6918   183.3873
 12      0.0000     0.0000E+00    0.0000E+00    5.088000E+08  0.00400  6.597E-04    0   0.6365   age130_m42            0.0000     8.7945E-06    34.8919   2.7000   183.8954
 13      0.0000     0.0000E+00    0.0000E+00    1.434000E+09  0.00400  2.132E-04    0   0.5798   age139_m42            0.0000     8.3179E-06    33.7405   1.7466   186.3768
 14      0.0000     0.0000E+00    0.0000E+00    4.250000E+09  0.00400  5.895E-05    0   0.5377   age158_m42            0.0000     7.3350E-06    31.8830   1.3200   178.8491
 15      0.0000     0.0000E+00    0.0000E+00    7.500000E+09  0.00400  3.510E-05    0   0.5212   age171_m42            0.0000     7.0852E-06    31.2040   1.1374   177.4130
 16      0.0000     0.0000E+00    0.0000E+00    1.300000E+10  0.00400  2.005E-05    0   0.5034   age193_m42            0.0000     6.8920E-06    30.6570   0.9773   176.1682
 17      0.0000     0.0000E+00    0.0000E+00    1.800000E+10  0.00400  1.525E-05    0   0.4967   age213_m42            0.0000     6.9396E-06    30.7853   0.9524   175.4636
 18      0.0581     2.4753E-05    4.9447E-05    1.000000E+06  0.00800  1.238E-02    0   1.0000   age020_m52            0.0000     1.0136E-05    40.9585   4.0000   196.3098
 19      0.0000     0.0000E+00    0.0000E+00    3.160000E+06  0.00800  3.074E-02    0   0.9966   age045_m52            0.0000     9.4786E-06    39.3978   4.0000   193.0397
 20      0.0000     0.0000E+00    0.0000E+00    5.010000E+06  0.00800  2.668E-02    0   0.9443   age055_m52            0.0000     8.2671E-06    36.0807   4.0000   180.6635
 21      0.0000     0.0000E+00    0.0000E+00    6.610000E+06  0.00800  2.136E-02    0   0.9177   age061_m52            0.0000     8.5431E-06    35.5064   2.9521   177.6027
 22      0.0000     0.0000E+00    0.0000E+00    1.000000E+07  0.00800  1.215E-02    0   0.8827   age070_m52            0.0000     9.2819E-06    36.8305   3.6113   176.1559
 23      0.0000     0.0000E+00    0.0000E+00    1.445000E+07  0.00800  8.717E-03    0   0.8552   age078_m52            0.0000     8.8552E-06    36.0438   3.7346   174.1288
 24      0.0000     0.0000E+00    0.0000E+00    2.512000E+07  0.00800  5.592E-03    0   0.8162   age090_m52            0.0000     9.3432E-06    36.7708   3.3687   179.3680
 25      0.0000     0.0000E+00    0.0000E+00    4.000000E+07  0.00800  3.896E-03    0   0.7841   age104_m52            0.0000     9.2179E-06    36.3939   3.2860   180.3976
 26      0.0000     0.0000E+00    0.0000E+00    1.015200E+08  0.00800  2.148E-03    0   0.7226   age116_m52            0.0000     8.8159E-06    35.4520   3.2395   179.3132
 27      0.0000     0.0000E+00    0.0000E+00    2.861200E+08  0.00800  9.925E-04    0   0.6683   age125_m52            0.0000     8.8262E-06    34.8934   2.7621   185.8246
 28      0.0000     0.0000E+00    0.0000E+00    9.047900E+08  0.00800  3.141E-04    0   0.6138   age135_m52            0.0000     8.1565E-06    32.9404   1.9837   192.1360
 29      0.0000     0.0000E+00    0.0000E+00    1.434000E+09  0.00800  1.719E-04    0   0.5853   age139_m52            0.0000     7.9257E-06    32.8432   1.4013   188.3149
 30      0.0000     0.0000E+00    0.0000E+00    2.500000E+09  0.00800  7.872E-05    0   0.5600   age150_m52            0.0000     7.0688E-06    30.9503   1.1597   182.1971
 31      0.0000     0.0000E+00    0.0000E+00    4.250000E+09  0.00800  4.336E-05    0   0.5426   age158_m52            0.0000     6.9832E-06    30.7473   1.1442   180.5730
 32      0.0000     0.0000E+00    0.0000E+00    6.250000E+09  0.00800  3.159E-05    0   0.5319   age166_m52            0.0000     6.7449E-06    29.9068   0.9527   179.9687
 33      0.0000     0.0000E+00    0.0000E+00    1.300000E+10  0.00800  1.361E-05    0   0.5073   age193_m52            0.0000     6.5152E-06    28.9241   0.5002   177.9069
 34      0.0000     0.0000E+00    0.0000E+00    1.800000E+10  0.00800  9.886E-06    0   0.4990   age213_m52            0.0000     6.3551E-06    28.1672   0.4053   176.2979
 35      0.0000     0.0000E+00    0.0000E+00    1.000000E+06  0.02000  1.544E-02    0   1.0000   age020_m62            0.0000     1.0088E-05    40.8706   4.0000   196.5293
 36      0.0000     0.0000E+00    0.0000E+00    3.160000E+06  0.02000  3.762E-02    0   0.9858   age045_m62            0.0000     9.5435E-06    39.6181   4.0000   194.2490
 37      0.0000     0.0000E+00    0.0000E+00    5.010000E+06  0.02000  3.296E-02    0   0.9342   age055_m62            0.0000     7.9158E-06    34.6523   4.0000   176.1031
 38      0.0000     0.0000E+00    0.0000E+00    8.710000E+06  0.02000  1.154E-02    0   0.8861   age067_m62            0.0000     1.1757E-05    41.1082   3.0049   183.6365
 39      0.0000     0.0000E+00    0.0000E+00    1.445000E+07  0.02000  7.663E-03    0   0.8472   age078_m62            0.0000     1.0018E-05    38.2025   3.2335   181.1834
 40      0.0000     0.0000E+00    0.0000E+00    2.512000E+07  0.02000  4.532E-03    0   0.8099   age090_m62            0.0000     1.0298E-05    38.6615   3.2203   180.8717
 41      0.0000     0.0000E+00    0.0000E+00    5.500000E+07  0.02000  2.733E-03    0   0.7595   age110_m62            0.0000     9.1614E-06    36.4009   3.2682   179.1648
 42      0.0000     0.0000E+00    0.0000E+00    1.609000E+08  0.02000  1.369E-03    0   0.6985   age120_m62            0.0000     8.8880E-06    35.3703   3.1237   183.0332
 43      0.0000     0.0000E+00    0.0000E+00    2.861200E+08  0.02000  9.013E-04    0   0.6714   age125_m62            0.0000     8.7805E-06    34.6673   2.8854   187.4485
 44      0.0000     0.0000E+00    0.0000E+00    5.088000E+08  0.02000  5.028E-04    0   0.6449   age130_m62            0.0000     8.1687E-06    32.8837   2.5300   191.0212
 45      0.0000     0.0000E+00    0.0000E+00    9.047900E+08  0.02000  2.428E-04    0   0.6179   age135_m62            0.0000     7.5662E-06    31.7233   1.9476   189.8095
 46      0.0000     0.0000E+00    0.0000E+00    1.434000E+09  0.02000  1.263E-04    0   0.5908   age139_m62            0.0000     7.2243E-06    31.0876   1.5078   186.8970
 47      0.0000     0.0000E+00    0.0000E+00    2.500000E+09  0.02000  5.985E-05    0   0.5673   age150_m62            0.0000     6.7233E-06    29.8168   1.1574   183.5985
 48      0.0000     0.0000E+00    0.0000E+00    4.250000E+09  0.02000  3.271E-05    0   0.5468   age158_m62            0.0000     6.4023E-06    28.6635   0.8692   181.1340
 49      0.0000     0.0000E+00    0.0000E+00    1.000000E+10  0.02000  1.360E-05    0   0.5167   age181_m62            0.0000     6.2576E-06    27.5387   0.5394   179.2782
 50    120.9505     8.9527E+01    8.9654E+01    1.800000E+10  0.02000  7.124E-06    0   0.5013   age213_m62            0.0000     6.1868E-06    26.7231   0.3430   177.0682
 51      0.0000     0.0000E+00    0.0000E+00    1.000000E+06  0.05000  2.592E-02    0   0.9998   age020_m72            0.0000     1.0017E-05    40.7206   4.0000   196.0776
 52      0.0000     0.0000E+00    0.0000E+00    3.160000E+06  0.05000  4.845E-02    0   0.9577   age045_m72            0.0000     8.7498E-06    37.5563   4.0000   188.9305
 53      0.0000     0.0000E+00    0.0000E+00    5.010000E+06  0.05000  3.072E-02    0   0.9147   age055_m72            0.0000     9.2755E-06    36.9226   3.8255   174.2652
 54      0.0000     0.0000E+00    0.0000E+00    6.610000E+06  0.05000  1.455E-02    0   0.8877   age061_m72            0.0000     1.4229E-05    44.6304   2.9848   187.8587
 55      0.0000     0.0000E+00    0.0000E+00    1.000000E+07  0.05000  9.074E-03    0   0.8524   age070_m72            0.0000     9.9505E-06    37.8016   3.9749   175.1058
 56      0.0000     0.0000E+00    0.0000E+00    2.512000E+07  0.05000  4.250E-03    0   0.7902   age090_m72            0.0000     9.7943E-06    37.5964   3.6967   177.3087
 57      0.0000     0.0000E+00    0.0000E+00    4.000000E+07  0.05000  3.087E-03    0   0.7618   age104_m72            0.0000     1.0106E-05    38.0393   3.4664   180.1956
 58      0.0000     0.0000E+00    0.0000E+00    1.015200E+08  0.05000  1.700E-03    0   0.7096   age116_m72            0.0000     9.2951E-06    36.1964   3.2513   183.0011
 59      0.0000     0.0000E+00    0.0000E+00    2.861200E+08  0.05000  7.384E-04    0   0.6633   age125_m72            0.0000     8.4968E-06    33.7759   2.7635   189.4066
 60      0.0000     0.0000E+00    0.0000E+00    5.088000E+08  0.05000  3.819E-04    0   0.6372   age130_m72            0.0000     7.7133E-06    31.9544   2.2920   191.4091
 61      0.0000     0.0000E+00    0.0000E+00    9.047900E+08  0.05000  1.676E-04    0   0.6110   age135_m72            0.0000     6.7911E-06    29.8375   1.6193   186.9981
 62      0.0000     0.0000E+00    0.0000E+00    1.434000E+09  0.05000  8.837E-05    0   0.5874   age139_m72            0.0000     6.7544E-06    29.6100   1.1551   186.3956
 63      0.0000     0.0000E+00    0.0000E+00    2.500000E+09  0.05000  4.233E-05    0   0.5598   age150_m72            0.0000     6.3250E-06    28.2514   0.8732   182.4760
 64      0.0000     0.0000E+00    0.0000E+00    6.250000E+09  0.05000  1.435E-05    0   0.5249   age166_m72            0.0000     6.2163E-06    27.2537   0.4463   178.3454
 65      0.0000     0.0000E+00    0.0000E+00    1.300000E+10  0.05000  6.513E-06    0   0.5036   age193_m72            0.0000     6.1886E-06    26.3648   0.1835   178.9238
 66      8.9914     1.0473E+01    1.0346E+01    1.800000E+10  0.05000  4.527E-06    0   0.4945   age213_m72            0.0000     6.2333E-06    25.8589   0.0328   177.8613


## Synthesis Results - Average & Chains ##

# j      x_j: min, <> & last-chain-values for 1 ...  7 chains
  1      0.0000      1.6387      0.0000      0.0000      0.0000      0.0000      0.0000      0.0000      0.0000
  2      0.0000      1.4734      0.0000      0.0000      0.0000      0.0000      0.0000      0.0000      0.0001
  3      0.0000      1.1251      0.0000      0.0000      0.0000      0.0000      0.0000      0.0000      0.0000
  4      0.0000      1.9144      0.0000      0.0000      0.0000      0.0000      0.0000      0.0000      0.0000
  5      0.0000      2.1026      0.0000      0.0000      0.0000      0.0000      0.0000      0.0000      0.0000
  6      0.0000      1.2475      0.0000      0.0000      0.0000      0.0000      0.0000      0.0000      0.0000
  7      0.0000      1.6225      0.0000      0.0000      0.0000      0.0000      0.0000      0.0000      0.0000
  8      0.0000      1.4975      0.0000      0.0000      0.0000      0.0000      0.0000      0.0000      0.0000
  9      0.0000      1.4567      0.0000      0.0000      0.0002      0.0000      0.0000      0.0000      0.0000
 10      0.0000      0.9849      0.0000      0.0000      0.0000      0.0000      0.0000      0.0000      0.0000
 11      0.0000      1.5379      0.0000      0.0000      0.0000      0.0000      0.0000      0.0000      0.0000
 12      0.0000      1.2853      0.0000      0.0000      0.0000      0.0000      0.0000      0.0000      0.0000
 13      0.0000      1.2304      0.0000      0.0000      0.0000      0.0000      0.0000      0.0000      0.0000
 14      0.0000      2.0556      0.0000      0.0000      0.0000      0.0000      0.0000      0.0000      0.0000
 15      0.0000      1.3047      0.0000      0.0000      0.0000      0.0000      0.0003      0.0000      0.0000
 16      0.0000      1.5141      0.0000      0.0000      0.0000      0.0000      0.0000      0.0000      0.0000
 17      0.0000      1.1379      0.0000      0.0000      0.0000      0.0000      0.0000      0.0000      0.0000
 18      0.0581      1.2509      0.0002      0.0000      0.0000      0.0000      0.0000      0.0000      0.0000
 19      0.0000      1.3306      0.0000      0.0000      0.0000      0.0000      0.0000      0.0000      0.0000
 20      0.0000      1.0029      0.0000      0.0000      0.0000      0.0000      0.0000      0.0000      0.0000
 21      0.0000      1.5025      0.0000      0.0000      0.0000      0.0000      0.0016      0.0000      0.0000
 22      0.0000      1.3166      0.0000      0.0000      0.0000      0.0000      0.0000      0.0000      0.0000
 23      0.0000      1.3607      0.0000      0.0000      0.0000      0.0000      0.0000      0.0000      0.0000
 24      0.0000      1.7328      0.0000      0.0000      0.0000      0.0000      0.0000      0.0000      0.0000
 25      0.0000      1.4957      0.0000      0.0000      0.0000      0.0000      0.0000      0.0000      0.0000
 26      0.0000      1.1987      0.0000      0.0000      0.0000      0.0000      0.0000      0.0000      0.0000
 27      0.0000      1.0948      0.0000      0.0000      0.0000      0.0000      0.0000      0.0000      0.0000
 28      0.0000      1.2893      0.0000      0.0000      0.0000      0.0000      0.0000      0.0000      0.0000
 29      0.0000      1.6770      0.0000      0.0000      0.0000      0.0000      0.0000      0.0000      0.0000
 30      0.0000      1.2437      0.0000      0.0000      0.0000      0.0000      0.0000      0.0000      0.0000
 31      0.0000      1.1323      0.0000      0.0000      0.0000      0.0000      0.0000      0.0000      0.0000
 32      0.0000      1.8879      0.0000      0.0000      0.0000      0.0000      0.0000      0.0000      0.0000
 33      0.0000      0.9774      0.0000      0.0000      0.0000      0.0000      0.0000      0.0000      0.0000
 34      0.0000      1.5892      0.0000      0.0000      0.0051      0.0000      0.0000      0.0000      0.0000
 35      0.0000      1.0903      0.0000      0.0000      0.0000      0.0000      0.0000      0.0000      0.0000
 36      0.0000      1.4157      0.0000      0.0000      0.0000      0.0000      0.0000      0.0000      0.0000
 37      0.0000      1.5430      0.0000      0.0000      0.0000      0.0000      0.0000      0.0000      0.0000
 38      0.0000      1.1557      0.0000      0.0000      0.0000      0.0000      0.0000      0.0000      0.0000
 39      0.0000      1.2594      0.0000      0.0000      0.0000      0.0000      0.0000      0.0000      0.0000
 40      0.0000      1.2407      0.0000      0.0000      0.0000      0.0000      0.0000      0.0000      0.0000
 41      0.0000      1.2901      0.0000      0.0000      0.0000      0.0000      0.0000      0.0000      0.0000
 42      0.0000      1.4022      0.0000      0.0000      0.0000      0.0000      0.0000      0.0000      0.0000
 43      0.0000      1.7557      0.0000      0.0000      0.0000      0.0000      0.0000      0.0000      0.0000
 44      0.0000      1.2527      0.0000      0.0000      0.0000      0.0000      0.0000      0.0000      0.0000
 45      0.0000      1.3809      0.0000      0.0000      0.0000      0.0000      0.0000      0.0000      0.0000
 46      0.0000      1.1492      0.0000      0.0000      0.0000      0.0000      0.0000      0.0000      0.0000
 47      0.0000      1.1526      0.0000      0.0000      0.0003      0.0000      0.0000      0.0000      0.0000
 48      0.0000      1.0448      0.0000      0.0000      0.0000      0.0000      0.0056      0.0000      0.0000
 49      0.0000      1.5941      0.0005      0.0008      0.0000      0.0000      0.0000      0.0000      0.0019
 50    120.9505     10.8293      9.9300     36.6748     37.0478     36.6018     36.5162     37.0996     36.4576
 51      0.0000      1.0306      0.0000      0.0000      0.0000      0.0000      0.0000      0.0000      0.0000
 52      0.0000      1.3826      0.0000      0.0000      0.0000      0.0000      0.0000      0.0000      0.0000
 53      0.0000      1.3175      0.0000      0.0000      0.0000      0.0000      0.0000      0.0000      0.0000
 54      0.0000      1.8490      0.0000      0.0000      0.0000      0.0000      0.0000      0.0000      0.0000
 55      0.0000      1.4479      0.0000      0.0000      0.0000      0.0000      0.0000      0.0000      0.0000
 56      0.0000      1.3587      0.0000      0.0000      0.0000      0.0000      0.0000      0.0000      0.0000
 57      0.0000      1.7879      0.0000      0.0000      0.0000      0.0000      0.0000      0.0000      0.0000
 58      0.0000      0.9711      0.0000      0.0000      0.0000      0.0000      0.0001      0.0000      0.0000
 59      0.0000      1.7933      0.0000      0.0000      0.0000      0.0000      0.0000      0.0000      0.0000
 60      0.0000      0.9126      0.0000      0.0000      0.0000      0.0000      0.0000      0.0000      0.0000
 61      0.0000      1.3703      0.0000      0.0000      0.0000      0.0000      0.0000      0.0000      0.0000
 62      0.0000      1.9185      0.0000      0.0000      0.0000      0.0005      0.0000      0.0000      0.0000
 63      0.0000      1.0893      0.0005      0.0000      0.0000      0.0000      0.0000      0.0000      0.0000
 64      0.0000      1.7198      0.0018      0.0083      0.0000      0.0000      0.0001      0.0000      0.0000
 65      0.0000      4.9049     15.7528     12.4676     13.9407      0.0080      0.0802     13.5310     14.1262
 66      8.9914     25.3412    104.3142     80.8486     79.0058     93.3897     93.3959     79.3694     79.4142

# j      m_j: min, <> & last-chain-values for 1 ...  7 chains
  1  0.0000E+00  3.3936E-03  0.0000E+00  0.0000E+00  0.0000E+00  0.0000E+00  0.0000E+00  0.0000E+00  0.0000E+00
  2  0.0000E+00  8.3298E-04  0.0000E+00  0.0000E+00  0.0000E+00  0.0000E+00  0.0000E+00  0.0000E+00  2.1354E-08
  3  0.0000E+00  9.5258E-04  0.0000E+00  0.0000E+00  5.8936E-09  0.0000E+00  0.0000E+00  0.0000E+00  0.0000E+00
  4  0.0000E+00  1.5263E-03  0.0000E+00  0.0000E+00  0.0000E+00  0.0000E+00  0.0000E+00  0.0000E+00  0.0000E+00
  5  0.0000E+00  3.1932E-03  0.0000E+00  0.0000E+00  0.0000E+00  0.0000E+00  0.0000E+00  0.0000E+00  0.0000E+00
  6  0.0000E+00  3.0729E-03  0.0000E+00  0.0000E+00  0.0000E+00  0.0000E+00  0.0000E+00  0.0000E+00  0.0000E+00
  7  0.0000E+00  5.7222E-03  0.0000E+00  0.0000E+00  0.0000E+00  0.0000E+00  0.0000E+00  0.0000E+00  0.0000E+00
  8  0.0000E+00  7.2997E-03  0.0000E+00  0.0000E+00  0.0000E+00  0.0000E+00  0.0000E+00  0.0000E+00  0.0000E+00
  9  0.0000E+00  8.1271E-03  0.0000E+00  0.0000E+00  4.3323E-07  0.0000E+00  0.0000E+00  0.0000E+00  0.0000E+00
 10  0.0000E+00  7.2182E-03  0.0000E+00  0.0000E+00  0.0000E+00  0.0000E+00  0.0000E+00  0.0000E+00  0.0000E+00
 11  0.0000E+00  2.1192E-02  0.0000E+00  0.0000E+00  0.0000E+00  0.0000E+00  0.0000E+00  0.0000E+00  0.0000E+00
 12  0.0000E+00  2.8096E-02  0.0000E+00  0.0000E+00  0.0000E+00  0.0000E+00  0.0000E+00  0.0000E+00  0.0000E+00
 13  0.0000E+00  7.5807E-02  0.0000E+00  0.0000E+00  0.0000E+00  0.0000E+00  0.0000E+00  0.0000E+00  0.0000E+00
 14  0.0000E+00  4.2478E-01  0.0000E+00  0.0000E+00  0.0000E+00  0.0000E+00  0.0000E+00  0.0000E+00  0.0000E+00
 15  0.0000E+00  4.3891E-01  0.0000E+00  0.0000E+00  0.0000E+00  0.0000E+00  3.7736E-05  0.0000E+00  0.0000E+00
 16  0.0000E+00  8.6128E-01  0.0000E+00  0.0000E+00  0.0000E+00  0.0000E+00  0.0000E+00  0.0000E+00  0.0000E+00
 17  0.0000E+00  8.3965E-01  0.0000E+00  0.0000E+00  0.0000E+00  0.0000E+00  0.0000E+00  0.0000E+00  0.0000E+00
 18  4.9447E-05  2.2892E-03  1.1150E-07  0.0000E+00  0.0000E+00  0.0000E+00  0.0000E+00  0.0000E+00  0.0000E+00
 19  0.0000E+00  9.7736E-04  0.0000E+00  0.0000E+00  0.0000E+00  0.0000E+00  0.0000E+00  0.0000E+00  0.0000E+00
 20  0.0000E+00  8.0421E-04  0.0000E+00  0.0000E+00  0.0000E+00  0.0000E+00  0.0000E+00  0.0000E+00  0.0000E+00
 21  0.0000E+00  1.4625E-03  0.0000E+00  0.0000E+00  0.0000E+00  0.0000E+00  5.4848E-07  0.0000E+00  0.0000E+00
 22  0.0000E+00  2.1671E-03  0.0000E+00  0.0000E+00  0.0000E+00  0.0000E+00  0.0000E+00  0.0000E+00  0.0000E+00
 23  0.0000E+00  3.0245E-03  0.0000E+00  0.0000E+00  0.0000E+00  0.0000E+00  0.0000E+00  0.0000E+00  0.0000E+00
 24  0.0000E+00  5.7301E-03  0.0000E+00  0.0000E+00  0.0000E+00  0.0000E+00  0.0000E+00  0.0000E+00  0.0000E+00
 25  0.0000E+00  6.8199E-03  0.0000E+00  0.0000E+00  0.0000E+00  0.0000E+00  0.0000E+00  0.0000E+00  0.0000E+00
 26  0.0000E+00  9.1363E-03  0.0000E+00  0.0000E+00  0.0000E+00  0.0000E+00  0.0000E+00  0.0000E+00  0.0000E+00
 27  0.0000E+00  1.6702E-02  0.0000E+00  0.0000E+00  0.0000E+00  0.0000E+00  0.0000E+00  0.0000E+00  0.0000E+00
 28  0.0000E+00  5.7079E-02  0.0000E+00  0.0000E+00  0.0000E+00  0.0000E+00  0.0000E+00  0.0000E+00  0.0000E+00
 29  0.0000E+00  1.2937E-01  0.0000E+00  0.0000E+00  0.0000E+00  0.0000E+00  0.0000E+00  0.0000E+00  0.0000E+00
 30  0.0000E+00  2.0044E-01  0.0000E+00  0.0000E+00  0.0000E+00  0.0000E+00  0.0000E+00  0.0000E+00  0.0000E+00
 31  0.0000E+00  3.2102E-01  0.0000E+00  0.0000E+00  0.0000E+00  0.0000E+00  0.0000E+00  0.0000E+00  0.0000E+00
 32  0.0000E+00  7.2017E-01  0.0000E+00  0.0000E+00  0.0000E+00  0.0000E+00  0.0000E+00  0.0000E+00  0.0000E+00
 33  0.0000E+00  8.2543E-01  0.0000E+00  0.0000E+00  0.0000E+00  0.0000E+00  0.0000E+00  0.0000E+00  0.0000E+00
 34  0.0000E+00  1.8174E+00  0.0000E+00  0.0000E+00  2.0750E-03  0.0000E+00  0.0000E+00  0.0000E+00  0.0000E+00
 35  0.0000E+00  1.5998E-03  0.0000E+00  0.0000E+00  0.0000E+00  0.0000E+00  0.0000E+00  0.0000E+00  0.0000E+00
 36  0.0000E+00  8.4048E-04  0.0000E+00  0.0000E+00  0.0000E+00  0.0000E+00  0.0000E+00  0.0000E+00  0.0000E+00
 37  0.0000E+00  9.9081E-04  0.0000E+00  0.0000E+00  0.0000E+00  0.0000E+00  0.0000E+00  0.0000E+00  0.0000E+00
 38  0.0000E+00  2.0105E-03  0.0000E+00  0.0000E+00  0.0000E+00  0.0000E+00  0.0000E+00  0.0000E+00  0.0000E+00
 39  0.0000E+00  3.1544E-03  0.0000E+00  0.0000E+00  0.0000E+00  0.0000E+00  0.0000E+00  0.0000E+00  0.0000E+00
 40  0.0000E+00  5.0234E-03  0.0000E+00  0.0000E+00  0.0000E+00  0.0000E+00  0.0000E+00  0.0000E+00  0.0000E+00
 41  0.0000E+00  8.1223E-03  0.0000E+00  0.0000E+00  0.0000E+00  0.0000E+00  0.0000E+00  0.0000E+00  0.0000E+00
 42  0.0000E+00  1.6209E-02  0.0000E+00  0.0000E+00  0.0000E+00  0.0000E+00  0.0000E+00  0.0000E+00  0.0000E+00
 43  0.0000E+00  2.9630E-02  0.0000E+00  0.0000E+00  0.0000E+00  0.0000E+00  0.0000E+00  0.0000E+00  0.0000E+00
 44  0.0000E+00  3.6401E-02  0.0000E+00  0.0000E+00  0.0000E+00  0.0000E+00  0.0000E+00  0.0000E+00  0.0000E+00
 45  0.0000E+00  7.9617E-02  0.0000E+00  0.0000E+00  0.0000E+00  0.0000E+00  0.0000E+00  0.0000E+00  0.0000E+00
 46  0.0000E+00  1.2179E-01  0.0000E+00  0.0000E+00  0.0000E+00  0.0000E+00  0.0000E+00  0.0000E+00  0.0000E+00
 47  0.0000E+00  2.4752E-01  0.0000E+00  0.0000E+00  2.5252E-05  0.0000E+00  0.0000E+00  0.0000E+00  0.0000E+00
 48  0.0000E+00  3.9570E-01  0.0000E+00  0.0000E+00  0.0000E+00  0.0000E+00  7.3163E-04  0.0000E+00  0.0000E+00
 49  0.0000E+00  1.3721E+00  1.3156E-04  2.3664E-04  1.3973E-06  0.0000E+00  0.0000E+00  0.0000E+00  5.8844E-04
 50  8.9654E+01  1.7264E+01  5.2492E+00  2.0852E+01  2.1169E+01  2.0157E+01  2.0110E+01  2.1179E+01  2.0802E+01
 51  0.0000E+00  9.0064E-04  0.0000E+00  0.0000E+00  0.0000E+00  0.0000E+00  0.0000E+00  0.0000E+00  0.0000E+00
 52  0.0000E+00  6.1917E-04  0.0000E+00  0.0000E+00  0.0000E+00  0.0000E+00  0.0000E+00  0.0000E+00  0.0000E+00
 53  0.0000E+00  8.8874E-04  0.0000E+00  0.0000E+00  0.0000E+00  0.0000E+00  0.0000E+00  0.0000E+00  0.0000E+00
 54  0.0000E+00  2.5557E-03  0.0000E+00  0.0000E+00  0.0000E+00  0.0000E+00  0.0000E+00  0.0000E+00  0.0000E+00
 55  0.0000E+00  3.0816E-03  0.0000E+00  0.0000E+00  0.0000E+00  0.0000E+00  0.0000E+00  0.0000E+00  0.0000E+00
 56  0.0000E+00  5.7232E-03  0.0000E+00  0.0000E+00  0.0000E+00  0.0000E+00  0.0000E+00  0.0000E+00  0.0000E+00
 57  0.0000E+00  9.9960E-03  0.0000E+00  0.0000E+00  0.0000E+00  0.0000E+00  6.9450E-08  0.0000E+00  0.0000E+00
 58  0.0000E+00  9.1837E-03  0.0000E+00  0.0000E+00  0.0000E+00  0.0000E+00  1.8619E-07  0.0000E+00  0.0000E+00
 59  0.0000E+00  3.6496E-02  0.0000E+00  0.0000E+00  0.0000E+00  0.0000E+00  0.0000E+00  0.0000E+00  0.0000E+00
 60  0.0000E+00  3.4496E-02  0.0000E+00  0.0000E+00  0.0000E+00  0.0000E+00  0.0000E+00  0.0000E+00  0.0000E+00
 61  0.0000E+00  1.1318E-01  0.0000E+00  0.0000E+00  0.0000E+00  0.0000E+00  0.0000E+00  0.0000E+00  0.0000E+00
 62  0.0000E+00  2.8892E-01  0.0000E+00  0.0000E+00  0.0000E+00  2.4157E-05  0.0000E+00  0.0000E+00  0.0000E+00
 63  0.0000E+00  3.2636E-01  5.1030E-05  0.0000E+00  0.0000E+00  0.0000E+00  0.0000E+00  0.0000E+00  0.0000E+00
 64  0.0000E+00  1.4252E+00  5.0763E-04  2.4449E-03  0.0000E+00  0.0000E+00  1.5281E-05  0.0000E+00  0.0000E+00
 65  0.0000E+00  8.5923E+00  9.1503E+00  7.7891E+00  8.7528E+00  4.8661E-03  4.8504E-02  8.4877E+00  8.8569E+00
 66  1.0346E+01  6.2714E+01  8.5600E+01  7.1356E+01  7.0076E+01  7.9838E+01  7.9841E+01  7.0334E+01  7.0340E+01

# AV, chi2 & Mass for <> & i_chain = 1 ...  7 solutions
AV       0.9330      0.7377      0.6958      0.7500      0.7540      0.7351      0.7353      0.7535      0.7526
chi2 8.8421E-06  4.1970E-05  8.8907E-06  8.8808E-06  8.8818E-06  8.8727E-06  8.8729E-06  8.8815E-06  8.8821E-06
Mass 1.1937E-12  4.2698E-13  1.2172E-12  1.2171E-12  1.2176E-12  1.2316E-12  1.2321E-12  1.2179E-12  1.2170E-12
-270.14                                  [v0_min (km/s) before EX0s...]
 487.84                                  [vd_min (km/s) before EX0s...]


## Synthetic spectrum (Best Model) ##l_obs f_obs f_syn wei
 3478    [Nl_obs]
 3741.00    1.61396   0.41559    0.000
 3742.00    1.58771   0.41749    0.000
 3743.00    1.23200   0.42293    0.000
 3744.00    1.09076   0.42957    0.000
 3745.00    1.07449   0.43678    0.008
 3746.00    1.54807   0.44526    0.008
 3747.00    2.27040   0.45197    0.008
 3748.00    1.92031   0.46175    0.009
 3749.00    1.09865   0.47207    0.009
 3750.00    1.05150   0.48090    0.009
 3751.00    1.29675   0.48789    0.008
 3752.00    1.35888   0.49194    0.008
 3753.00    1.36232   0.49905    0.008
 3754.00    1.12034   0.50611    0.008
 3755.00    0.81259   0.50939    0.008
 3756.00    1.48529   0.51040    0.008
 3757.00    2.37318   0.51150    0.008
 3758.00    2.19925   0.51763    0.008
 3759.00    1.83998   0.52636    0.007
 3760.00    1.47325   0.53237    0.009
 3761.00    1.10554   0.53823    0.014
 3762.00    1.05532   0.54685    0.010
 3763.00    1.03493   0.55954    0.007
 3764.00    1.16804   0.57414    0.007
 3765.00    1.31001   0.58687    0.007
 3766.00    1.41441   0.59965    0.007
 3767.00    1.51632   0.61421    0.007
 3768.00    1.42353   0.62953    0.007
 3769.00    1.34562   0.64235    0.007
 3770.00    1.62944   0.65327    0.007
 3771.00    1.92831   0.66415    0.007
 3772.00    2.42429   0.67281    0.007
 3773.00    2.81278   0.68007    0.007
 3774.00    2.25771   0.68353    0.007
 3775.00    1.68411   0.68368    0.007
 3776.00    0.99042   0.68358    0.007
 3777.00    0.44881   0.67942    0.007
 3778.00    0.67692   0.67415    0.007
 3779.00    0.72521   0.66587    0.007
 3780.00    0.03745   0.65335    0.007
 3781.00   -0.63998   0.64121    0.000
 3782.00   -1.28234   0.62736    0.000
 3783.00   -1.65064   0.61436    0.000
 3784.00   -1.23507   0.60025    0.000
 3785.00   -0.82133   0.58540    0.000
 3786.00   -0.41203   0.57215    0.000
 3787.00   -0.07717   0.55943    0.000
 3788.00    0.10076   0.54974    0.008
 3789.00    0.25857   0.54205    0.009
 3790.00    0.37950   0.53783    0.008
 3791.00    0.62472   0.53416    0.007
 3792.00    1.06890   0.53096    0.007
 3793.00    1.28326   0.53121    0.007
 3794.00    1.17483   0.53520    0.007
 3795.00    1.07501   0.54193    0.007
 3796.00    0.98583   0.54665    0.007
 3797.00    0.49962   0.55177    0.007
 3798.00   -0.41914   0.55761    0.000
 3799.00   -1.10489   0.56491    0.000
 3800.00   -1.56671   0.57098    0.000
 3801.00   -1.72113   0.57269    0.000
 3802.00   -1.61506   0.57478    0.000
 3803.00   -1.38774   0.57472    0.000
 3804.00   -1.06995   0.57191    0.000
 3805.00   -0.42073   0.56625    0.000
 3806.00    0.44577   0.55718    0.007
 3807.00    1.02716   0.54740    0.007
 3808.00    1.44492   0.53578    0.007
 3809.00    1.65842   0.52060    0.007
 3810.00    1.76983   0.50479    0.007
 3811.00    1.46321   0.49023    0.007
 3812.00    0.97581   0.47368    0.007
 3813.00    1.04421   0.45596    0.007
 3814.00    1.31873   0.43799    0.007
 3815.00    1.56256   0.42269    0.007
 3816.00    1.79674   0.41194    0.007
 3817.00    1.20139   0.39916    0.007
 3818.00    0.38844   0.38435    0.008
 3819.00   -0.25109   0.37240    0.000
 3820.00   -0.85346   0.36438    0.000
 3821.00   -0.70321   0.35991    0.000
 3822.00   -0.42523   0.35459    0.000
 3823.00   -0.20849   0.34731    0.000
 3824.00    0.00040   0.34376    0.000
 3825.00    0.16072   0.34310    0.007
 3826.00    0.31668   0.34297    0.007
 3827.00    0.49740   0.34325    0.007
 3828.00    0.67945   0.34366    0.007
 3829.00    1.07612   0.34686    0.007
 3830.00    1.46982   0.35206    0.007
 3831.00    1.25062   0.35681    0.007
 3832.00    1.03926   0.36167    0.007
 3833.00    1.00199   0.36850    0.007
 3834.00    0.96571   0.37651    0.007
 3835.00    0.94171   0.38609    0.007
 3836.00    0.88233   0.39695    0.007
 3837.00    0.52394   0.40543    0.007
 3838.00    0.23461   0.41407    0.007
 3839.00    0.37978   0.42258    0.007
 3840.00    0.47762   0.43156    0.007
 3841.00    0.34188   0.44253    0.007
 3842.00    0.25313   0.44847    0.007
 3843.00    0.35247   0.45093    0.007
 3844.00    0.43772   0.45298    0.007
 3845.00    0.47616   0.45558    0.007
 3846.00    0.48466   0.45979    0.007
 3847.00    0.40913   0.45829    0.000
 3848.00    0.26781   0.45306    0.000
 3849.00   -0.03156   0.44899    0.000
 3850.00   -0.33515   0.44672    0.000
 3851.00   -0.64752   0.44739    0.000
 3852.00   -0.69584   0.44367    0.000
 3853.00   -0.26793   0.43762    0.000
 3854.00    0.13260   0.43458    0.000
 3855.00    0.48996   0.43429    0.000
 3856.00    0.58362   0.43766    0.000
 3857.00    0.31224   0.43809    0.000
 3858.00    0.01369   0.43634    0.000
 3859.00   -0.31795   0.43656    0.000
 3860.00   -0.36401   0.43943    0.000
 3861.00   -0.10333   0.44404    0.000
 3862.00    0.40304   0.44627    0.000
 3863.00    1.14219   0.44793    0.000
 3864.00    1.71193   0.44891    0.000
 3865.00    2.14017   0.45119    0.000
 3866.00    2.38838   0.45355    0.000
 3867.00    2.50419   0.45465    0.000
 3868.00    2.61571   0.45932    0.000
 3869.00    2.72446   0.46198    0.000
 3870.00    2.67635   0.46294    0.000
 3871.00    2.53959   0.46369    0.000
 3872.00    2.15398   0.46514    0.000
 3873.00    1.64595   0.47348    0.000
 3874.00    1.33701   0.47886    0.000
 3875.00    1.11274   0.47971    0.000
 3876.00    1.33257   0.48231    0.000
 3877.00    1.71416   0.48871    0.000
 3878.00    1.56159   0.50184    0.000
 3879.00    1.24436   0.51013    0.000
 3880.00    1.05371   0.51454    0.000
 3881.00    0.89555   0.52489    0.007
 3882.00    0.57563   0.53883    0.007
 3883.00    0.22188   0.55540    0.007
 3884.00   -0.24106   0.56723    0.000
 3885.00   -0.72200   0.57796    0.000
 3886.00   -0.92627   0.59424    0.000
 3887.00   -1.09627   0.60920    0.000
 3888.00   -0.40065   0.62249    0.000
 3889.00    0.36904   0.63184    0.007
 3890.00   -0.29879   0.64386    0.000
 3891.00   -1.03828   0.65653    0.000
 3892.00   -0.87900   0.66325    0.000
 3893.00   -0.70835   0.66980    0.000
 3894.00   -0.75362   0.67217    0.000
 3895.00   -0.78900   0.68085    0.000
 3896.00   -0.62202   0.68815    0.000
 3897.00   -0.40944   0.68862    0.000
 3898.00    0.34242   0.69494    0.006
 3899.00    1.04272   0.69635    0.006
 3900.00    1.32300   0.70321    0.006
 3901.00    1.60062   0.71172    0.006
 3902.00    1.86206   0.71397    0.006
 3903.00    2.04945   0.72299    0.006
 3904.00    1.88051   0.72613    0.006
 3905.00    1.73448   0.72905    0.005
 3906.00    1.67816   0.73665    0.005
 3907.00    1.54350   0.73748    0.006
 3908.00    1.15353   0.73833    0.006
 3909.00    0.89852   0.73511    0.006
 3910.00    1.01565   0.72773    0.006
 3911.00    1.09049   0.72223    0.006
 3912.00    1.06549   0.71161    0.006
 3913.00    1.05368   0.69771    0.006
 3914.00    1.06883   0.68088    0.007
 3915.00    0.90298   0.66117    0.007
 3916.00    0.41566   0.64175    0.007
 3917.00    0.45682   0.62012    0.007
 3918.00    1.31914   0.59747    0.007
 3919.00    1.79759   0.57140    0.007
 3920.00    1.75226   0.54602    0.007
 3921.00    1.68421   0.52234    0.007
 3922.00    1.58887   0.49729    0.007
 3923.00    1.31091   0.47597    0.007
 3924.00    0.83953   0.45354    0.007
 3925.00    0.52328   0.43340    0.007
 3926.00    0.35196   0.41776    0.007
 3927.00    0.30309   0.40329    0.007
 3928.00    0.35505   0.39512    0.007
 3929.00    0.14209   0.38954    0.007
 3930.00   -0.26294   0.38794    0.000
 3931.00   -0.41706   0.39281    0.000
 3932.00   -0.41151   0.40014    0.000
 3933.00   -0.22754   0.41216    0.000
 3934.00    0.05571   0.42782    0.007
 3935.00    0.41526   0.44631    0.007
 3936.00    0.81174   0.46952    0.007
 3937.00    0.86708   0.49271    0.007
 3938.00    0.77980   0.51563    0.007
 3939.00    0.57121   0.54304    0.007
 3940.00    0.31923   0.57139    0.007
 3941.00    0.38295   0.59629    0.007
 3942.00    0.54208   0.61859    0.007
 3943.00    0.14823   0.63944    0.007
 3944.00   -0.38450   0.66309    0.000
 3945.00   -0.13287   0.68636    0.000
 3946.00    0.27871   0.69710    0.007
 3947.00    0.76441   0.70341    0.007
 3948.00    1.26198   0.71433    0.007
 3949.00    0.98626   0.71955    0.007
 3950.00    0.61821   0.71800    0.007
 3951.00    0.66256   0.70811    0.007
 3952.00    0.74050   0.69414    0.007
 3953.00    0.16075   0.68623    0.007
 3954.00   -0.44923   0.66887    0.000
 3955.00   -1.07736   0.64106    0.000
 3956.00   -1.67876   0.61739    0.000
 3957.00   -0.87090   0.59442    0.000
 3958.00   -0.08854   0.57308    0.000
 3959.00    0.21081   0.54963    0.007
 3960.00    0.46306   0.52237    0.000
 3961.00    0.18463   0.50494    0.000
 3962.00   -0.06019   0.49418    0.000
 3963.00   -0.04080   0.48598    0.000
 3964.00    0.01855   0.48336    0.000
 3965.00    0.31506   0.48492    0.000
 3966.00    0.43409   0.49549    0.000
 3967.00   -0.28022   0.51126    0.000
 3968.00   -0.65658   0.53133    0.000
 3969.00    0.26216   0.55917    0.000
 3970.00    0.92699   0.58876    0.000
 3971.00    0.78026   0.62336    0.000
 3972.00    0.65103   0.65839    0.000
 3973.00    0.56918   0.69336    0.000
 3974.00    0.63467   0.73451    0.000
 3975.00    1.04231   0.76830    0.000
 3976.00    1.21242   0.80187    0.000
 3977.00    0.90544   0.83711    0.000
 3978.00    0.56134   0.86585    0.000
 3979.00    0.15228   0.89896    0.000
 3980.00    0.22949   0.92223    0.000
 3981.00    1.05116   0.94136    0.007
 3982.00    1.56011   0.96726    0.007
 3983.00    1.64847   0.98222    0.007
 3984.00    1.23817   0.99929    0.007
 3985.00    0.23735   1.01530    0.007
 3986.00    0.03181   1.02447    0.007
 3987.00    0.65671   1.04061    0.007
 3988.00    1.27108   1.04778    0.007
 3989.00    1.87574   1.05342    0.007
 3990.00    1.85061   1.06570    0.007
 3991.00    1.31416   1.07042    0.007
 3992.00    1.66680   1.07691    0.007
 3993.00    2.65467   1.08510    0.007
 3994.00    2.96687   1.09084    0.007
 3995.00    2.85542   1.09651    0.007
 3996.00    2.05809   1.09850    0.007
 3997.00    0.88490   1.10376    0.007
 3998.00    0.41383   1.11382    0.007
 3999.00    0.27719   1.11902    0.007
 4000.00    0.39766   1.12130    0.007
 4001.00    0.62380   1.12919    0.007
 4002.00    1.27293   1.13996    0.007
 4003.00    2.07064   1.14557    0.007
 4004.00    1.88487   1.14878    0.007
 4005.00    1.40771   1.15636    0.007
 4006.00    0.96955   1.16972    0.007
 4007.00    0.54096   1.18125    0.007
 4008.00    1.02229   1.18495    0.007
 4009.00    1.68454   1.19373    0.007
 4010.00    1.73615   1.20437    0.007
 4011.00    1.69288   1.20896    0.007
 4012.00    1.57642   1.21611    0.007
 4013.00    1.45154   1.21965    0.007
 4014.00    1.16079   1.22530    0.007
 4015.00    0.85721   1.22984    0.007
 4016.00    0.87056   1.22341    0.007
 4017.00    0.89726   1.22413    0.007
 4018.00    1.42820   1.22491    0.007
 4019.00    1.93354   1.21965    0.007
 4020.00    1.11575   1.21595    0.007
 4021.00    0.35684   1.20505    0.007
 4022.00    0.63596   1.20018    0.007
 4023.00    0.91397   1.19543    0.007
 4024.00    1.18014   1.18127    0.007
 4025.00    1.38190   1.17701    0.008
 4026.00    1.09473   1.17067    0.007
 4027.00    0.63375   1.16459    0.007
 4028.00   -0.82976   1.16511    0.000
 4029.00   -1.68112   1.15395    0.000
 4030.00    0.27300   1.15014    0.007
 4031.00    1.69030   1.15233    0.007
 4032.00    1.09392   1.14646    0.007
 4033.00    0.71794   1.14993    0.007
 4034.00    1.03292   1.14975    0.007
 4035.00    1.00000   1.14603    0.007
 4036.00    0.04156   1.14818    0.007
 4037.00   -0.34503   1.14377    0.000
 4038.00    0.57416   1.14417    0.007
 4039.00    1.41712   1.14385    0.007
 4040.00    2.10938   1.13651    0.007
 4041.00    2.20972   1.14147    0.007
 4042.00    1.29039   1.14419    0.007
 4043.00    0.74771   1.13799    0.007
 4044.00    0.77325   1.13706    0.007
 4045.00    0.87747   1.13490    0.007
 4046.00    1.08599   1.13832    0.007
 4047.00    0.95074   1.14591    0.007
 4048.00    0.41415   1.13996    0.007
 4049.00    0.38764   1.13659    0.007
 4050.00    0.88629   1.13978    0.007
 4051.00    1.18363   1.13476    0.007
 4052.00    1.29818   1.13297    0.007
 4053.00    1.49326   1.12798    0.007
 4054.00    1.75281   1.11513    0.007
 4055.00    1.61512   1.11568    0.007
 4056.00    1.19771   1.11562    0.007
 4057.00    0.96723   1.10411    0.007
 4058.00    0.85222   1.10037    0.007
 4059.00    0.54040   1.10113    0.007
 4060.00    0.12238   1.10291    0.007
 4061.00   -0.32790   1.10415    0.000
 4062.00   -0.79331   1.09274    0.000
 4063.00   -0.34595   1.09310    0.000
 4064.00    0.47019   1.11184    0.007
 4065.00    1.03107   1.11399    0.007
 4066.00    1.50392   1.11305    0.007
 4067.00    1.10348   1.12115    0.007
 4068.00    0.44944   1.12900    0.007
 4069.00    0.27867   1.14214    0.007
 4070.00    0.22397   1.14483    0.007
 4071.00    1.05731   1.15037    0.007
 4072.00    2.06273   1.17515    0.007
 4073.00    2.23875   1.18758    0.007
 4074.00    2.28979   1.19567    0.007
 4075.00    1.81223   1.21101    0.007
 4076.00    1.27621   1.22330    0.007
 4077.00    1.05496   1.24233    0.007
 4078.00    0.85677   1.25931    0.007
 4079.00    0.43032   1.27317    0.007
 4080.00   -0.00486   1.29200    0.000
 4081.00    0.08494   1.30302    0.007
 4082.00    0.19064   1.31135    0.007
 4083.00    0.78563   1.31827    0.007
 4084.00    1.29730   1.32308    0.007
 4085.00    0.43586   1.32989    0.007
 4086.00   -0.27190   1.32730    0.000
 4087.00    0.60175   1.32398    0.007
 4088.00    1.38422   1.32058    0.007
 4089.00    1.49765   1.30946    0.007
 4090.00    1.43379   1.30267    0.007
 4091.00    0.37536   1.28945    0.007
 4092.00   -0.33198   1.27328    0.000
 4093.00    0.53179   1.26954    0.000
 4094.00    1.03855   1.25852    0.000
 4095.00    0.23417   1.24452    0.000
 4096.00   -0.18704   1.24119    0.000
 4097.00    0.57021   1.23680    0.000
 4098.00    1.15474   1.23431    0.000
 4099.00    1.28786   1.23481    0.000
 4100.00    1.20328   1.23069    0.000
 4101.00    0.62976   1.23540    0.000
 4102.00    0.51872   1.24504    0.000
 4103.00    1.30761   1.24586    0.000
 4104.00    1.60808   1.25307    0.000
 4105.00    1.07979   1.26419    0.000
 4106.00    1.02117   1.26674    0.000
 4107.00    1.66072   1.27306    0.000
 4108.00    1.65945   1.27955    0.000
 4109.00    0.82087   1.28025    0.000
 4110.00    0.13746   1.28440    0.000
 4111.00   -0.36736   1.28757    0.000
 4112.00   -0.39719   1.28920    0.000
 4113.00    0.05512   1.29227    0.007
 4114.00    0.43729   1.28818    0.007
 4115.00    0.75667   1.28603    0.007
 4116.00    1.05907   1.28919    0.007
 4117.00    1.34808   1.28124    0.007
 4118.00    1.50537   1.27424    0.007
 4119.00    1.57126   1.27394    0.007
 4120.00    1.46928   1.26790    0.007
 4121.00    1.26515   1.26350    0.006
 4122.00    1.34261   1.25532    0.007
 4123.00    1.56966   1.24704    0.007
 4124.00    1.60288   1.24785    0.007
 4125.00    1.54673   1.23748    0.007
 4126.00    1.76056   1.23003    0.007
 4127.00    2.08159   1.23089    0.007
 4128.00    2.00954   1.22168    0.007
 4129.00    1.80445   1.22068    0.007
 4130.00    1.62321   1.21790    0.006
 4131.00    1.44874   1.20769    0.006
 4132.00    1.17818   1.21201    0.006
 4133.00    0.88507   1.20725    0.006
 4134.00    0.96936   1.19925    0.006
 4135.00    1.12490   1.20348    0.007
 4136.00    1.18297   1.19817    0.006
 4137.00    1.22681   1.19365    0.006
 4138.00    1.27481   1.19300    0.006
 4139.00    1.32327   1.18627    0.006
 4140.00    1.18170   1.18514    0.006
 4141.00    1.02699   1.18371    0.007
 4142.00    1.21427   1.17609    0.007
 4143.00    1.41334   1.17677    0.006
 4144.00    2.35470   1.18195    0.007
 4145.00    3.25547   1.18051    0.007
 4146.00    2.76690   1.18284    0.007
 4147.00    2.27943   1.18861    0.007
 4148.00    1.80891   1.19059    0.007
 4149.00    1.37220   1.19569    0.007
 4150.00    1.26882   1.20344    0.007
 4151.00    1.14743   1.21077    0.007
 4152.00    0.89812   1.21738    0.007
 4153.00    0.73253   1.22477    0.007
 4154.00    1.02391   1.23486    0.007
 4155.00    1.22180   1.23926    0.007
 4156.00    1.01104   1.24413    0.007
 4157.00    0.81668   1.25102    0.007
 4158.00    0.68130   1.25412    0.006
 4159.00    0.65182   1.25786    0.006
 4160.00    0.94189   1.25328    0.006
 4161.00    1.32100   1.25173    0.006
 4162.00    1.92877   1.25526    0.007
 4163.00    2.34016   1.24279    0.007
 4164.00    2.31773   1.23670    0.007
 4165.00    2.25592   1.23642    0.007
 4166.00    2.11865   1.22351    0.007
 4167.00    1.99818   1.21952    0.007
 4168.00    1.90579   1.21528    0.007
 4169.00    1.81399   1.20631    0.007
 4170.00    1.72304   1.20751    0.007
 4171.00    1.40539   1.20085    0.007
 4172.00    0.79578   1.19589    0.007
 4173.00    0.65090   1.20352    0.007
 4174.00    1.03342   1.20244    0.007
 4175.00    1.53703   1.20202    0.007
 4176.00    2.16185   1.21001    0.007
 4177.00    2.60178   1.21283    0.007
 4178.00    2.87854   1.21747    0.007
 4179.00    2.51994   1.22361    0.007
 4180.00    1.66721   1.22581    0.007
 4181.00    1.51465   1.23369    0.007
 4182.00    1.84093   1.23831    0.007
 4183.00    2.00322   1.23581    0.007
 4184.00    2.06721   1.24239    0.007
 4185.00    2.04826   1.24661    0.007
 4186.00    1.98594   1.23857    0.007
 4187.00    2.37348   1.23733    0.007
 4188.00    2.96507   1.24312    0.007
 4189.00    2.94172   1.23917    0.007
 4190.00    2.67842   1.23179    0.007
 4191.00    2.25456   1.23261    0.007
 4192.00    1.77738   1.23319    0.006
 4193.00    1.44694   1.23199    0.006
 4194.00    1.15740   1.23049    0.006
 4195.00    1.17130   1.22953    0.006
 4196.00    1.25481   1.23931    0.007
 4197.00    0.91623   1.24308    0.007
 4198.00    0.50007   1.24256    0.007
 4199.00    0.52860   1.26005    0.007
 4200.00    0.62002   1.26917    0.007
 4201.00    1.38315   1.27173    0.006
 4202.00    2.21478   1.29003    0.006
 4203.00    1.64969   1.29761    0.006
 4204.00    0.99360   1.30446    0.006
 4205.00    1.61385   1.32150    0.006
 4206.00    2.27193   1.32471    0.006
 4207.00    2.03934   1.33216    0.006
 4208.00    1.82499   1.34232    0.006
 4209.00    2.14683   1.33952    0.006
 4210.00    2.44534   1.34390    0.006
 4211.00    2.40433   1.34431    0.006
 4212.00    2.27411   1.33680    0.006
 4213.00    1.30030   1.33878    0.006
 4214.00    0.50829   1.32798    0.006
 4215.00    0.96595   1.31332    0.006
 4216.00    1.35048   1.31623    0.006
 4217.00    1.34633   1.30659    0.006
 4218.00    1.26911   1.28899    0.006
 4219.00    0.87980   1.28608    0.006
 4220.00    0.74826   1.27731    0.006
 4221.00    1.52494   1.26536    0.006
 4222.00    2.09139   1.26299    0.006
 4223.00    2.03526   1.25723    0.006
 4224.00    1.88879   1.25913    0.006
 4225.00    1.51432   1.26487    0.006
 4226.00    1.41472   1.26338    0.006
 4227.00    1.91240   1.27937    0.006
 4228.00    2.31133   1.29588    0.006
 4229.00    2.52406   1.29977    0.006
 4230.00    2.62844   1.32013    0.006
 4231.00    2.55444   1.33747    0.006
 4232.00    2.42240   1.34281    0.006
 4233.00    2.20658   1.36337    0.006
 4234.00    2.15257   1.38133    0.006
 4235.00    2.30402   1.38553    0.006
 4236.00    2.38147   1.39889    0.006
 4237.00    2.37613   1.41549    0.006
 4238.00    2.55653   1.41745    0.006
 4239.00    2.92020   1.41907    0.006
 4240.00    3.34511   1.42950    0.006
 4241.00    3.82329   1.42936    0.006
 4242.00    3.60499   1.42318    0.006
 4243.00    2.85272   1.42178    0.006
 4244.00    2.32137   1.41879    0.006
 4245.00    1.93889   1.41487    0.006
 4246.00    2.00950   1.40394    0.006
 4247.00    2.34762   1.39758    0.006
 4248.00    2.19867   1.40124    0.006
 4249.00    1.79896   1.39213    0.006
 4250.00    1.91746   1.38648    0.006
 4251.00    2.26716   1.39395    0.006
 4252.00    2.35087   1.39372    0.006
 4253.00    2.33259   1.39292    0.006
 4254.00    2.23053   1.39584    0.006
 4255.00    2.10117   1.40062    0.006
 4256.00    1.68058   1.40580    0.006
 4257.00    1.18049   1.40405    0.006
 4258.00    0.80864   1.40809    0.006
 4259.00    0.46552   1.41057    0.006
 4260.00    0.70880   1.40390    0.006
 4261.00    1.05694   1.40632    0.006
 4262.00    1.62444   1.40648    0.006
 4263.00    2.22194   1.39830    0.006
 4264.00    1.88750   1.39179    0.006
 4265.00    1.46202   1.38519    0.006
 4266.00    1.78163   1.38254    0.006
 4267.00    2.14679   1.37188    0.006
 4268.00    1.53622   1.36303    0.006
 4269.00    0.90437   1.37218    0.006
 4270.00    1.25867   1.36171    0.006
 4271.00    1.57582   1.35335    0.006
 4272.00    0.91050   1.37213    0.006
 4273.00    0.32818   1.36740    0.006
 4274.00    0.88688   1.36387    0.006
 4275.00    1.44270   1.37847    0.006
 4276.00    1.97230   1.37197    0.006
 4277.00    2.45006   1.37584    0.006
 4278.00    2.58255   1.38229    0.007
 4279.00    2.62518   1.36745    0.007
 4280.00    2.20262   1.37226    0.007
 4281.00    1.80452   1.37004    0.006
 4282.00    1.50846   1.35055   -2.000
 4283.00    0.99988   1.35358   -2.000
 4284.00   -0.24241   1.34263   -2.000
 4285.00   -1.14877   1.31901   -2.000
 4286.00   -1.07869   1.31732   -2.000
 4287.00   -0.67378   1.30075   -2.000
 4288.00    0.56159   1.27917   -2.000
 4289.00    1.11984   1.27247   -2.000
 4290.00    0.23053   1.24721   -2.000
 4291.00   -0.53063   1.23115   -2.000
 4292.00   -1.05387   1.22342   -2.000
 4293.00   -1.17651   1.19303   -2.000
 4294.00   -0.64943   1.18165   -2.000
 4295.00   -0.10640   1.17175   -2.000
 4296.00    0.45931   1.14566   -2.000
 4297.00    0.82435   1.14512   -2.000
 4298.00    0.93822   1.13866    0.006
 4299.00    1.14602   1.12411    0.006
 4300.00    1.45745   1.13745    0.006
 4301.00    1.37791   1.14361    0.006
 4302.00    0.91800   1.14792    0.006
 4303.00    0.73926   1.17441    0.006
 4304.00    0.80177   1.19458    0.006
 4305.00    0.88364   1.21769    0.006
 4306.00    0.98014   1.25708    0.006
 4307.00    0.87078   1.28886    0.006
 4308.00    0.62472   1.32169    0.006
 4309.00    0.70351   1.36968    0.006
 4310.00    0.97122   1.40566    0.006
 4311.00    1.37211   1.43538    0.006
 4312.00    1.84050   1.48205    0.006
 4313.00    2.07142   1.51188    0.006
 4314.00    2.19814   1.53001    0.006
 4315.00    2.16628   1.56600    0.006
 4316.00    2.07469   1.58472    0.006
 4317.00    2.16834   1.59299    0.006
 4318.00    2.32120   1.61618    0.006
 4319.00    1.94689   1.62306    0.006
 4320.00    1.43168   1.62818    0.006
 4321.00    1.24826   1.64438    0.006
 4322.00    1.13745   1.64531    0.006
 4323.00    1.48994   1.65326    0.006
 4324.00    1.92301   1.66761    0.006
 4325.00    1.91895   1.66868    0.006
 4326.00    1.85706   1.67688    0.006
 4327.00    1.82681   1.68691    0.006
 4328.00    1.79951   1.69023    0.006
 4329.00    2.05358   1.69598    0.006
 4330.00    2.32375   1.69481    0.000
 4331.00    1.87241   1.69766    0.000
 4332.00    1.40569   1.70675    0.000
 4333.00    1.09955   1.69592    0.000
 4334.00    0.83314   1.69386    0.000
 4335.00    1.52058   1.70940    0.000
 4336.00    2.15061   1.69777    0.000
 4337.00    2.03333   1.69187    0.000
 4338.00    1.91741   1.71339    0.000
 4339.00    1.81341   1.71004    0.000
 4340.00    1.79345   1.70387    0.000
 4341.00    2.31629   1.72507    0.000
 4342.00    2.71134   1.73062    0.000
 4343.00    2.46164   1.72752    0.000
 4344.00    2.24150   1.74143    0.000
 4345.00    2.14207   1.75130    0.000
 4346.00    1.97593   1.75653    0.000
 4347.00    1.58406   1.76293    0.000
 4348.00    1.35057   1.76898    0.000
 4349.00    1.56905   1.78245    0.000
 4350.00    1.65283   1.79078    0.000
 4351.00    1.40822   1.79257    0.006
 4352.00    1.22836   1.80613    0.006
 4353.00    1.18468   1.81955    0.006
 4354.00    1.38700   1.82306    0.006
 4355.00    2.03906   1.83025    0.006
 4356.00    2.23845   1.84030    0.006
 4357.00    1.71459   1.84641    0.006
 4358.00    1.41726   1.84949    0.006
 4359.00    1.43751   1.84980    0.006
 4360.00    1.41300   1.85101    0.006
 4361.00    1.33326   1.85119    0.006
 4362.00    1.38432   1.84394    0.006
 4363.00    1.57764   1.83348    0.006
 4364.00    1.84491   1.82554    0.006
 4365.00    2.18312   1.81537    0.006
 4366.00    2.04154   1.79729    0.006
 4367.00    1.49414   1.78037    0.006
 4368.00    1.32816   1.76698    0.006
 4369.00    1.44628   1.74645    0.006
 4370.00    1.33025   1.72413    0.006
 4371.00    1.06102   1.70654    0.006
 4372.00    1.07247   1.68710    0.006
 4373.00    1.24469   1.66581    0.006
 4374.00    1.59681   1.64874    0.006
 4375.00    2.03867   1.63312    0.006
 4376.00    1.68006   1.61451    0.006
 4377.00    0.97603   1.60201    0.006
 4378.00    0.70629   1.59538    0.006
 4379.00    0.59725   1.58297    0.006
 4380.00    0.84055   1.57547    0.006
 4381.00    1.19435   1.58101    0.006
 4382.00    1.43152   1.58440    0.006
 4383.00    1.63817   1.58571    0.006
 4384.00    1.51786   1.59741    0.006
 4385.00    1.32771   1.61083    0.006
 4386.00    1.70508   1.62082    0.006
 4387.00    2.17842   1.63529    0.006
 4388.00    2.21923   1.64885    0.006
 4389.00    2.20478   1.66367    0.006
 4390.00    1.75150   1.67765    0.006
 4391.00    1.25905   1.68222    0.006
 4392.00    1.49921   1.69651    0.006
 4393.00    1.77838   1.70918    0.006
 4394.00    1.79181   1.70364    0.006
 4395.00    1.80265   1.71320    0.006
 4396.00    2.02611   1.72219    0.006
 4397.00    2.23882   1.71028    0.006
 4398.00    2.21514   1.71804    0.006
 4399.00    2.20774   1.72962    0.006
 4400.00    2.40153   1.71826    0.006
 4401.00    2.54410   1.72059    0.006
 4402.00    2.25571   1.73789    0.006
 4403.00    2.05034   1.74206    0.006
 4404.00    2.36530   1.74182    0.006
 4405.00    2.55276   1.75680    0.006
 4406.00    2.11306   1.77733    0.006
 4407.00    1.71477   1.78077    0.006
 4408.00    1.48178   1.78932    0.006
 4409.00    1.37953   1.81675    0.006
 4410.00    1.71081   1.82311    0.006
 4411.00    1.96613   1.82392    0.006
 4412.00    2.00861   1.84905    0.006
 4413.00    2.06233   1.85917    0.006
 4414.00    2.14297   1.85834    0.006
 4415.00    2.16942   1.87466    0.006
 4416.00    2.08370   1.88346    0.006
 4417.00    2.13546   1.88217    0.006
 4418.00    2.43469   1.88847    0.006
 4419.00    2.57730   1.89388    0.006
 4420.00    2.47335   1.89247    0.006
 4421.00    2.18160   1.89565    0.006
 4422.00    1.63031   1.89971    0.006
 4423.00    1.67103   1.89375    0.006
 4424.00    2.43179   1.89737    0.006
 4425.00    2.91830   1.90444    0.006
 4426.00    3.11073   1.89533    0.006
 4427.00    2.93917   1.89934    0.006
 4428.00    2.42336   1.90910    0.006
 4429.00    2.18085   1.90498    0.006
 4430.00    2.16623   1.91082    0.006
 4431.00    2.65205   1.91666    0.006
 4432.00    3.50526   1.91992    0.006
 4433.00    3.28898   1.93221    0.006
 4434.00    2.38318   1.93535    0.006
 4435.00    2.16147   1.94411    0.006
 4436.00    2.32562   1.95762    0.006
 4437.00    2.41295   1.95412    0.006
 4438.00    2.46255   1.96452    0.006
 4439.00    1.89408   1.97715    0.006
 4440.00    1.06334   1.96704    0.006
 4441.00    1.24533   1.97751    0.006
 4442.00    1.79537   1.98666    0.006
 4443.00    2.06788   1.96654    0.006
 4444.00    2.25505   1.97111    0.006
 4445.00    2.23781   1.97419    0.006
 4446.00    2.16825   1.94896    0.006
 4447.00    2.08632   1.94810    0.006
 4448.00    2.00181   1.94340    0.006
 4449.00    2.02530   1.91891    0.006
 4450.00    2.06654   1.91805    0.006
 4451.00    2.45206   1.90818    0.006
 4452.00    2.88002   1.88816    0.006
 4453.00    2.86992   1.89550    0.006
 4454.00    2.82255   1.88970    0.006
 4455.00    2.30495   1.87563    0.006
 4456.00    1.76415   1.89199    0.006
 4457.00    2.03845   1.89689    0.006
 4458.00    2.32658   1.89193    0.006
 4459.00    2.66792   1.91426    0.006
 4460.00    2.96511   1.93132    0.006
 4461.00    2.36814   1.93788    0.000
 4462.00    1.84266   1.95918    0.000
 4463.00    2.15740   1.98227    0.000
 4464.00    2.46055   1.99957    0.000
 4465.00    2.66962   2.01756    0.000
 4466.00    2.77737   2.04008    0.000
 4467.00    2.26849   2.06239    0.000
 4468.00    1.89139   2.07639    0.000
 4469.00    2.14643   2.09321    0.000
 4470.00    2.47802   2.11455    0.000
 4471.00    3.10856   2.12468    0.000
 4472.00    3.49898   2.13244    0.000
 4473.00    3.10862   2.14834    0.000
 4474.00    2.87859   2.15609    0.000
 4475.00    3.08967   2.15569    0.000
 4476.00    3.06866   2.16492    0.000
 4477.00    2.50071   2.17078    0.000
 4478.00    2.11473   2.16543    0.000
 4479.00    2.09939   2.17047    0.000
 4480.00    2.19818   2.17511    0.000
 4481.00    2.49926   2.16752    0.000
 4482.00    2.59961   2.16982    0.006
 4483.00    2.38863   2.17381    0.006
 4484.00    2.38262   2.16779    0.006
 4485.00    2.65577   2.17083    0.006
 4486.00    2.88829   2.17672    0.006
 4487.00    3.07209   2.17504    0.006
 4488.00    2.98523   2.18036    0.006
 4489.00    2.61224   2.19038    0.006
 4490.00    2.55611   2.19702    0.006
 4491.00    2.79545   2.20550    0.006
 4492.00    2.81249   2.21933    0.006
 4493.00    2.64679   2.23567    0.006
 4494.00    2.74951   2.24606    0.006
 4495.00    3.04647   2.26037    0.006
 4496.00    3.08241   2.28323    0.006
 4497.00    2.95256   2.29492    0.006
 4498.00    2.89526   2.30634    0.006
 4499.00    2.87826   2.32704    0.006
 4500.00    2.77648   2.33684    0.006
 4501.00    2.63375   2.34287    0.006
 4502.00    2.91607   2.35559    0.006
 4503.00    3.37573   2.36175    0.006
 4504.00    3.07573   2.36089    0.006
 4505.00    2.50461   2.36278    0.006
 4506.00    2.62764   2.36402    0.006
 4507.00    2.95996   2.35569    0.006
 4508.00    2.89159   2.34895    0.006
 4509.00    2.72286   2.34614    0.006
 4510.00    2.64759   2.33136    0.006
 4511.00    2.59132   2.31923    0.006
 4512.00    2.97814   2.31131    0.006
 4513.00    3.43565   2.29109    0.006
 4514.00    3.05064   2.27813    0.006
 4515.00    2.56550   2.26467    0.006
 4516.00    2.99203   2.23970    0.006
 4517.00    3.49231   2.22756    0.006
 4518.00    2.99683   2.21052    0.006
 4519.00    2.45605   2.18483    0.006
 4520.00    2.87087   2.17497    0.006
 4521.00    3.27856   2.15830    0.006
 4522.00    2.72410   2.13678    0.006
 4523.00    2.19420   2.13156    0.006
 4524.00    2.12535   2.12117    0.006
 4525.00    2.07120   2.10679    0.006
 4526.00    2.18173   2.10740    0.006
 4527.00    2.30580   2.10898    0.006
 4528.00    2.53593   2.10309    0.006
 4529.00    2.68334   2.10861    0.006
 4530.00    2.34171   2.12133    0.006
 4531.00    2.09555   2.12182    0.006
 4532.00    2.29632   2.13038    0.006
 4533.00    2.42041   2.15008    0.006
 4534.00    2.25144   2.15368    0.006
 4535.00    2.17970   2.16207    0.006
 4536.00    2.41801   2.18139    0.006
 4537.00    2.62759   2.18578    0.006
 4538.00    2.75954   2.19373    0.006
 4539.00    2.82250   2.20718    0.006
 4540.00    2.72561   2.21135    0.006
 4541.00    2.75577   2.21991    0.006
 4542.00    3.04062   2.22646    0.006
 4543.00    3.23492   2.23167    0.006
 4544.00    3.27116   2.24266    0.006
 4545.00    3.14008   2.24471    0.006
 4546.00    2.75331   2.25239    0.006
 4547.00    2.48998   2.26620    0.006
 4548.00    2.39236   2.26740    0.006
 4549.00    2.45883   2.27768    0.006
 4550.00    2.71926   2.29289    0.000
 4551.00    2.78769   2.29648    0.000
 4552.00    2.65599   2.30755    0.000
 4553.00    2.60824   2.32098    0.000
 4554.00    2.63768   2.32853    0.000
 4555.00    2.38700   2.33743    0.000
 4556.00    1.90930   2.34610    0.000
 4557.00    1.76539   2.35815    0.000
 4558.00    1.85954   2.36226    0.000
 4559.00    2.30465   2.36444    0.000
 4560.00    2.96941   2.38103    0.000
 4561.00    2.92398   2.37908    0.000
 4562.00    2.49011   2.37455    0.000
 4563.00    2.37400   2.39487    0.000
 4564.00    2.40895   2.38725    0.000
 4565.00    2.32279   2.37683    0.000
 4566.00    2.18696   2.39872    0.000
 4567.00    2.09221   2.38695    0.000
 4568.00    2.01185   2.37234    0.000
 4569.00    2.45562   2.39290    0.000
 4570.00    3.05430   2.37893    0.000
 4571.00    2.89972   2.36269    0.000
 4572.00    2.56061   2.37982    0.000
 4573.00    2.68449   2.36572    0.000
 4574.00    2.90012   2.35116    0.000
 4575.00    2.41608   2.36436    0.000
 4576.00    1.82374   2.35172    0.000
 4577.00    1.86464   2.34172    0.000
 4578.00    1.97800   2.35157    0.000
 4579.00    2.38846   2.34102    0.000
 4580.00    2.82174   2.33697    0.000
 4581.00    2.38142   2.34378    0.000
 4582.00    1.90474   2.33486    0.000
 4583.00    1.45026   2.33655    0.000
 4584.00    1.02586   2.34010    0.000
 4585.00    1.88469   2.33180    0.000
 4586.00    2.72927   2.33831    0.000
 4587.00    3.32466   2.33873    0.000
 4588.00    3.82312   2.33087    0.000
 4589.00    3.28460   2.34178    0.000
 4590.00    2.77187   2.34064    0.000
 4591.00    2.45412   2.33422    0.000
 4592.00    2.24499   2.34967    0.000
 4593.00    2.66015   2.34995    0.000
 4594.00    2.99926   2.34655    0.000
 4595.00    2.99092   2.36650    0.000
 4596.00    2.85567   2.37128    0.000
 4597.00    2.24566   2.37147    0.000
 4598.00    1.95319   2.39480    0.000
 4599.00    2.65385   2.40581    0.000
 4600.00    2.98487   2.40819    0.000
 4601.00    2.33470   2.43256    0.000
 4602.00    1.93716   2.44973    0.000
 4603.00    2.11530   2.45117    0.000
 4604.00    2.27596   2.47381    0.000
 4605.00    2.40215   2.49573    0.000
 4606.00    2.54044   2.49287    0.000
 4607.00    2.69955   2.51133    0.000
 4608.00    2.90185   2.53627    0.000
 4609.00    3.16920   2.52732    0.000
 4610.00    3.19651   2.53982    0.000
 4611.00    2.90619   2.56619    0.000
 4612.00    2.75871   2.55179    0.000
 4613.00    2.77771   2.55714    0.000
 4614.00    2.89784   2.58319    0.000
 4615.00    3.12191   2.56622    0.000
 4616.00    3.18347   2.56373    0.000
 4617.00    3.09770   2.58681    0.000
 4618.00    2.95595   2.57073    0.000
 4619.00    2.76947   2.56075    0.000
 4620.00    2.66938   2.57748    0.000
 4621.00    2.63002   2.56450    0.000
 4622.00    2.60130   2.54888    0.000
 4623.00    2.57914   2.55637    0.000
 4624.00    2.69244   2.54609    0.000
 4625.00    2.87870   2.52801    0.000
 4626.00    2.77391   2.52561    0.000
 4627.00    2.53300   2.51538    0.000
 4628.00    2.35249   2.49830    0.000
 4629.00    2.19633   2.48859    0.000
 4630.00    2.72702   2.47539    0.000
 4631.00    3.49398   2.46180    0.000
 4632.00    3.07958   2.44982    0.000
 4633.00    2.32302   2.43246    0.000
 4634.00    2.54232   2.42339    0.000
 4635.00    2.99537   2.41445    0.000
 4636.00    3.11911   2.39485    0.000
 4637.00    3.17925   2.39046    0.000
 4638.00    3.30284   2.38792    0.000
 4639.00    3.43596   2.37023    0.000
 4640.00    3.00802   2.37056    0.000
 4641.00    2.51834   2.37491    0.000
 4642.00    2.20892   2.36322    0.000
 4643.00    1.91262   2.36835    0.000
 4644.00    2.46236   2.37721    0.000
 4645.00    3.04410   2.37308    0.000
 4646.00    2.94706   2.38233    0.000
 4647.00    2.84959   2.39174    0.000
 4648.00    2.86376   2.39322    0.000
 4649.00    2.89420   2.40464    0.000
 4650.00    3.19073   2.41038    0.000
 4651.00    3.41336   2.41304    0.000
 4652.00    2.87974   2.42381    0.000
 4653.00    2.41141   2.42322    0.000
 4654.00    2.42029   2.42269    0.000
 4655.00    2.45714   2.43073    0.000
 4656.00    2.65037   2.42411    0.000
 4657.00    2.81261   2.41870    0.000
 4658.00    2.83652   2.42406    0.000
 4659.00    2.85437   2.41467    0.000
 4660.00    2.84999   2.40617    0.000
 4661.00    2.88820   2.41062    0.000
 4662.00    3.05706   2.40278    0.000
 4663.00    3.18966   2.39512    0.000
 4664.00    3.22770   2.40070    0.000
 4665.00    3.05404   2.39684    0.000
 4666.00    2.40593   2.39342    0.000
 4667.00    2.10564   2.40100    0.000
 4668.00    2.48081   2.40025    0.000
 4669.00    2.64418   2.40174    0.000
 4670.00    2.44883   2.41124    0.000
 4671.00    2.46541   2.41065    0.000
 4672.00    2.79643   2.41492    0.000
 4673.00    2.99809   2.42605    0.000
 4674.00    3.03103   2.42330    0.000
 4675.00    3.04163   2.42699    0.000
 4676.00    3.02654   2.43981    0.000
 4677.00    2.77974   2.43496    0.000
 4678.00    2.29814   2.43527    0.000
 4679.00    2.19916   2.44939    0.000
 4680.00    2.44214   2.44432    0.000
 4681.00    2.65488   2.44006    0.000
 4682.00    2.84380   2.45404    0.000
 4683.00    2.76035   2.45057    0.000
 4684.00    2.48823   2.44210    0.000
 4685.00    2.45110   2.45345    0.000
 4686.00    2.55669   2.45209    0.000
 4687.00    2.70656   2.44108    0.000
 4688.00    2.87990   2.44773    0.000
 4689.00    2.78143   2.44753    0.000
 4690.00    2.55788   2.43618    0.000
 4691.00    2.42903   2.43773    0.000
 4692.00    2.33770   2.43767    0.000
 4693.00    2.62161   2.42821    0.000
 4694.00    3.03222   2.42665    0.000
 4695.00    3.16159   2.42680    0.000
 4696.00    3.21114   2.42090    0.000
 4697.00    2.80117   2.41969    0.000
 4698.00    2.28362   2.42176    0.000
 4699.00    2.48639   2.42038    0.000
 4700.00    2.82466   2.42284    0.000
 4701.00    2.87277   2.42896    0.000
 4702.00    2.87866   2.43238    0.000
 4703.00    2.81951   2.44038    0.000
 4704.00    2.75348   2.45137    0.000
 4705.00    2.99955   2.45877    0.000
 4706.00    3.26706   2.47223    0.000
 4707.00    3.06072   2.48668    0.000
 4708.00    2.83826   2.49575    0.000
 4709.00    2.72458   2.51315    0.000
 4710.00    2.61061   2.52834    0.000
 4711.00    2.48174   2.53530    0.000
 4712.00    2.39378   2.55313    0.000
 4713.00    2.93374   2.56565    0.000
 4714.00    3.39796   2.56712    0.000
 4715.00    3.11960   2.58175    0.000
 4716.00    2.91660   2.58956    0.000
 4717.00    3.24641   2.58353    0.000
 4718.00    3.53788   2.59285    0.000
 4719.00    3.62076   2.59688    0.000
 4720.00    3.60043   2.58407    0.000
 4721.00    3.13028   2.58781    0.000
 4722.00    2.82963   2.59196    0.000
 4723.00    3.13705   2.57612    0.000
 4724.00    3.29607   2.57559    0.000
 4725.00    3.00836   2.58450    0.000
 4726.00    2.75961   2.57088    0.000
 4727.00    2.61068   2.56794    0.000
 4728.00    2.64546   2.58373    0.000
 4729.00    3.08524   2.57632    0.000
 4730.00    3.33443   2.57302    0.000
 4731.00    3.21927   2.59474    0.000
 4732.00    3.07765   2.59430    0.000
 4733.00    2.89187   2.59119    0.000
 4734.00    2.61368   2.61484    0.000
 4735.00    2.20033   2.61964    0.000
 4736.00    2.25985   2.61760    0.000
 4737.00    2.92731   2.63859    0.000
 4738.00    3.44965   2.64391    0.000
 4739.00    3.80761   2.64264    0.000
 4740.00    3.75953   2.65850    0.000
 4741.00    3.30580   2.65995    0.000
 4742.00    3.22363   2.65777    0.000
 4743.00    3.46885   2.66812    0.000
 4744.00    3.70010   2.66465    0.000
 4745.00    3.92048   2.65962    0.000
 4746.00    3.86898   2.66466    0.000
 4747.00    3.63189   2.65731    0.000
 4748.00    3.16442   2.64809    0.000
 4749.00    2.55910   2.64910    0.000
 4750.00    2.29409   2.64154    0.000
 4751.00    2.20671   2.62834    0.000
 4752.00    2.64070   2.62537    0.000
 4753.00    3.31070   2.62180    0.000
 4754.00    3.52316   2.60855    0.000
 4755.00    3.55748   2.60155    0.000
 4756.00    3.39063   2.60334    0.000
 4757.00    3.15712   2.59581    0.000
 4758.00    3.26677   2.58722    0.000
 4759.00    3.47182   2.59287    0.000
 4760.00    3.61203   2.59468    0.000
 4761.00    3.73741   2.58857    0.005
 4762.00    3.35166   2.59614    0.005
 4763.00    2.87229   2.60585    0.005
 4764.00    2.90361   2.60542    0.005
 4765.00    3.00685   2.61313    0.005
 4766.00    3.25879   2.62536    0.005
 4767.00    3.52581   2.63102    0.005
 4768.00    3.41378   2.63825    0.005
 4769.00    3.27724   2.64631    0.005
 4770.00    3.55938   2.65547    0.005
 4771.00    3.85273   2.66418    0.005
 4772.00    3.42552   2.66351    0.005
 4773.00    3.00235   2.67014    0.005
 4774.00    2.69620   2.68296    0.005
 4775.00    2.42756   2.67572    0.005
 4776.00    2.70080   2.67433    0.005
 4777.00    2.95639   2.69116    0.005
 4778.00    3.04595   2.68453    0.005
 4779.00    3.12861   2.67446    0.005
 4780.00    3.16402   2.69386    0.005
 4781.00    3.23874   2.69596    0.005
 4782.00    3.52179   2.67930    0.005
 4783.00    3.67272   2.69706    0.005
 4784.00    3.26103   2.71168    0.005
 4785.00    2.95135   2.69385    0.005
 4786.00    3.00013   2.70637    0.005
 4787.00    3.07949   2.73005    0.005
 4788.00    3.24922   2.71595    0.005
 4789.00    3.47680   2.72196    0.005
 4790.00    3.85008   2.74741    0.005
 4791.00    3.90181   2.73912    0.005
 4792.00    3.25627   2.73956    0.005
 4793.00    2.90211   2.76020    0.005
 4794.00    3.09639   2.75645    0.005
 4795.00    3.26870   2.75368    0.005
 4796.00    3.40492   2.76840    0.005
 4797.00    3.35799   2.76703    0.005
 4798.00    3.04718   2.76240    0.005
 4799.00    2.85389   2.77364    0.005
 4800.00    2.80955   2.77356    0.005
 4801.00    2.92199   2.76797    0.005
 4802.00    3.20952   2.77873    0.005
 4803.00    3.53374   2.78024    0.005
 4804.00    3.89408   2.77443    0.005
 4805.00    4.07759   2.78673    0.005
 4806.00    4.10748   2.79029    0.005
 4807.00    3.89930   2.78350    0.005
 4808.00    3.50891   2.79594    0.005
 4809.00    3.38782   2.80126    0.005
 4810.00    3.44787   2.79386    0.005
 4811.00    3.28081   2.80300    0.005
 4812.00    2.97994   2.80844    0.005
 4813.00    3.02176   2.80167    0.005
 4814.00    3.23968   2.80574    0.005
 4815.00    3.52070   2.80880    0.005
 4816.00    3.82980   2.80171    0.005
 4817.00    3.35037   2.80159    0.005
 4818.00    2.56926   2.80255    0.005
 4819.00    2.77276   2.79373    0.005
 4820.00    3.29636   2.79113    0.005
 4821.00    3.16922   2.79164    0.005
 4822.00    2.86491   2.78079    0.005
 4823.00    2.80251   2.77731    0.005
 4824.00    2.79416   2.77911    0.005
 4825.00    3.29921   2.76730    0.005
 4826.00    3.89577   2.76362    0.005
 4827.00    3.47429   2.76765    0.005
 4828.00    2.91411   2.75743    0.005
 4829.00    3.37155   2.75404    0.005
 4830.00    3.92785   2.75965    0.005
 4831.00    3.43646   2.75053    0.005
 4832.00    2.88152   2.74565    0.005
 4833.00    3.01792   2.75368    0.005
 4834.00    3.17224   2.74724    0.005
 4835.00    3.25221   2.73782    0.005
 4836.00    3.33658   2.74601    0.005
 4837.00    3.53588   2.74467    0.005
 4838.00    3.72545   2.72889    0.005
 4839.00    3.78239   2.73146    0.005
 4840.00    3.79942   2.73539    0.005
 4841.00    3.45566   2.71536    0.005
 4842.00    3.12797   2.70828    0.005
 4843.00    2.90687   2.71381    0.005
 4844.00    2.69037   2.68977    0.005
 4845.00    2.49767   2.67299    0.005
 4846.00    2.53454   2.68006    0.005
 4847.00    3.52708   2.65239    0.005
 4848.00    4.11493   2.62616    0.000
 4849.00    3.30925   2.63647    0.000
 4850.00    2.76373   2.60895    0.000
 4851.00    2.97266   2.57247    0.000
 4852.00    3.01503   2.58672    0.000
 4853.00    2.64517   2.57019    0.000
 4854.00    2.66819   2.52616    0.000
 4855.00    3.52939   2.53956    0.000
 4856.00    4.10771   2.54297    0.000
 4857.00    4.16182   2.49932    0.000
 4858.00    4.40085   2.50572    0.000
 4859.00    4.93919   2.53135    0.000
 4860.00    4.90696   2.50002    0.000
 4861.00    4.06451   2.49595    0.000
 4862.00    3.50741   2.53524    0.000
 4863.00    3.30681   2.52206    0.000
 4864.00    3.14463   2.50699    0.000
 4865.00    3.02475   2.55133    0.000
 4866.00    2.95895   2.56272    0.000
 4867.00    2.94568   2.53855    0.000
 4868.00    2.94063   2.56992    0.000
 4869.00    2.94259   2.60336    0.000
 4870.00    2.74566   2.58129    0.000
 4871.00    2.39870   2.58980    0.000
 4872.00    2.50037   2.63302    0.000
 4873.00    2.89943   2.62292    0.000
 4874.00    3.02939   2.60879    0.000
 4875.00    3.00315   2.65043    0.005
 4876.00    2.96823   2.66005    0.005
 4877.00    2.92892   2.63084    0.005
 4878.00    2.91697   2.65960    0.005
 4879.00    2.91700   2.68682    0.005
 4880.00    2.90266   2.65938    0.005
 4881.00    2.88290   2.67510    0.005
 4882.00    2.71635   2.70996    0.005
 4883.00    2.50298   2.69336    0.005
 4884.00    2.64298   2.70017    0.005
 4885.00    2.87718   2.73666    0.005
 4886.00    2.91179   2.73521    0.005
 4887.00    2.90286   2.73864    0.005
 4888.00    3.05854   2.77281    0.005
 4889.00    3.24274   2.78122    0.005
 4890.00    3.24591   2.78174    0.005
 4891.00    3.22524   2.81456    0.005
 4892.00    3.27257   2.82831    0.005
 4893.00    3.32623   2.82026    0.005
 4894.00    3.45764   2.84634    0.005
 4895.00    3.59347   2.86177    0.005
 4896.00    3.37400   2.84749    0.005
 4897.00    3.15158   2.86263    0.005
 4898.00    3.49328   2.87496    0.005
 4899.00    3.81663   2.85565    0.005
 4900.00    3.70447   2.85745    0.005
 4901.00    3.58492   2.86669    0.005
 4902.00    3.36969   2.84706    0.005
 4903.00    3.20128   2.83536    0.005
 4904.00    3.43988   2.83952    0.005
 4905.00    3.62300   2.82519    0.005
 4906.00    3.44920   2.80267    0.005
 4907.00    3.34673   2.79887    0.005
 4908.00    3.60294   2.79720    0.005
 4909.00    3.80736   2.77624    0.005
 4910.00    3.80100   2.76108    0.005
 4911.00    3.75366   2.76423    0.005
 4912.00    3.56803   2.75592    0.005
 4913.00    3.47812   2.73840    0.005
 4914.00    3.66072   2.74257    0.005
 4915.00    3.81816   2.75147    0.005
 4916.00    3.91437   2.73803    0.005
 4917.00    3.87024   2.73900    0.005
 4918.00    3.53153   2.76184    0.005
 4919.00    3.32089   2.75671    0.005
 4920.00    3.34393   2.75114    0.005
 4921.00    3.43712   2.77981    0.005
 4922.00    3.64214   2.78610    0.005
 4923.00    3.78560   2.77726    0.005
 4924.00    3.84288   2.80410    0.005
 4925.00    3.77155   2.82176    0.005
 4926.00    3.54183   2.81218    0.005
 4927.00    3.69308   2.82641    0.005
 4928.00    4.25794   2.84708    0.005
 4929.00    4.40673   2.84312    0.005
 4930.00    4.15709   2.85236    0.005
 4931.00    3.88178   2.87080    0.005
 4932.00    3.58479   2.86736    0.005
 4933.00    3.42400   2.87610    0.005
 4934.00    3.36448   2.89441    0.005
 4935.00    3.39670   2.88986    0.005
 4936.00    3.48884   2.89774    0.005
 4937.00    3.52351   2.91827    0.005
 4938.00    3.52535   2.91724    0.005
 4939.00    3.73932   2.92292    0.005
 4940.00    4.05890   2.93823    0.000
 4941.00    3.99429   2.93633    0.000
 4942.00    3.76424   2.94056    0.000
 4943.00    3.66921   2.95011    0.000
 4944.00    3.62403   2.94644    0.000
 4945.00    3.67099   2.94821    0.000
 4946.00    3.74677   2.94553    0.000
 4947.00    3.78164   2.93539    0.000
 4948.00    3.80584   2.93775    0.000
 4949.00    3.78396   2.93423    0.000
 4950.00    3.75227   2.91973    0.000
 4951.00    3.93780   2.91670    0.000
 4952.00    4.15994   2.91567    0.000
 4953.00    4.02804   2.90037    0.000
 4954.00    3.85111   2.89116    0.000
 4955.00    3.68454   2.89638    0.000
 4956.00    3.51889   2.88415    0.000
 4957.00    3.46529   2.87129    0.000
 4958.00    3.41760   2.88306    0.000
 4959.00    3.29328   2.87614    0.000
 4960.00    3.17344   2.86053    0.000
 4961.00    3.52061   2.87003    0.000
 4962.00    3.85787   2.87646    0.000
 4963.00    3.97949   2.86908    0.000
 4964.00    4.09506   2.86030    0.000
 4965.00    4.13645   2.86277    0.000
 4966.00    4.14022   2.86743    0.000
 4967.00    3.82894   2.85128    0.000
 4968.00    3.56611   2.84090    0.000
 4969.00    3.60577   2.84832    0.000
 4970.00    3.63901   2.83984    0.000
 4971.00    3.64077   2.81987    0.000
 4972.00    3.65484   2.81580    0.000
 4973.00    3.71793   2.81802    0.000
 4974.00    3.74326   2.80015    0.000
 4975.00    3.64371   2.78659    0.000
 4976.00    3.47850   2.79554    0.000
 4977.00    3.12978   2.78355    0.000
 4978.00    2.94439   2.76618    0.000
 4979.00    3.14964   2.77399    0.000
 4980.00    3.22821   2.76864    0.000
 4981.00    3.04511   2.75764    0.000
 4982.00    3.04271   2.76230    0.000
 4983.00    3.36495   2.76306    0.000
 4984.00    3.54965   2.75940    0.000
 4985.00    3.51826   2.75675    0.000
 4986.00    3.51773   2.75874    0.000
 4987.00    3.55978   2.76264    0.000
 4988.00    3.58568   2.75661    0.000
 4989.00    3.59198   2.75125    0.000
 4990.00    3.56760   2.75237    0.000
 4991.00    3.51039   2.74821    0.000
 4992.00    3.55513   2.73494    0.000
 4993.00    3.69615   2.72750    0.000
 4994.00    3.80824   2.72740    0.000
 4995.00    3.89626   2.70852    0.000
 4996.00    3.87408   2.69344    0.000
 4997.00    3.77115   2.69893    0.000
 4998.00    3.85065   2.68104    0.000
 4999.00    4.04755   2.66155    0.000
 5000.00    4.00732   2.66623    0.000
 5001.00    3.83361   2.65103    0.000
 5002.00    3.86762   2.63120    0.000
 5003.00    4.00341   2.63210    0.000
 5004.00    4.05859   2.62664    0.000
 5005.00    4.07965   2.61632    0.000
 5006.00    3.92293   2.61429    0.000
 5007.00    3.70174   2.61254    0.000
 5008.00    3.79327   2.60885    0.000
 5009.00    3.98073   2.61063    0.000
 5010.00    3.99354   2.61543    0.000
 5011.00    3.96177   2.61623    0.000
 5012.00    3.73248   2.62475    0.000
 5013.00    3.46215   2.63123    0.000
 5014.00    3.42309   2.63119    0.000
 5015.00    3.42190   2.64900    0.000
 5016.00    3.35210   2.65722    0.000
 5017.00    3.27389   2.65629    0.000
 5018.00    3.25285   2.68167    0.000
 5019.00    3.23665   2.69631    0.000
 5020.00    3.45448   2.69100    0.000
 5021.00    3.68375   2.70703    0.000
 5022.00    3.52973   2.73046    0.000
 5023.00    3.37250   2.73183    0.000
 5024.00    3.38160   2.72924    0.000
 5025.00    3.39116   2.74708    0.000
 5026.00    3.40986   2.75722    0.000
 5027.00    3.41779   2.74680    0.000
 5028.00    3.29999   2.75577    0.000
 5029.00    3.22879   2.76496    0.005
 5030.00    3.53388   2.74887    0.005
 5031.00    3.83155   2.75295    0.005
 5032.00    4.08423   2.76970    0.005
 5033.00    4.26846   2.75750    0.005
 5034.00    4.12534   2.75090    0.005
 5035.00    3.99657   2.77063    0.005
 5036.00    3.92368   2.77465    0.005
 5037.00    3.93286   2.75982    0.005
 5038.00    4.20824   2.76958    0.005
 5039.00    4.34343   2.78976    0.005
 5040.00    4.09380   2.78156    0.005
 5041.00    3.87770   2.78650    0.005
 5042.00    3.74046   2.81329    0.005
 5043.00    3.63324   2.81168    0.005
 5044.00    3.58706   2.81458    0.005
 5045.00    3.42680   2.84511    0.005
 5046.00    3.06471   2.85645    0.005
 5047.00    2.89702   2.85445    0.005
 5048.00    3.03028   2.87139    0.005
 5049.00    3.18734   2.88987    0.005
 5050.00    3.37676   2.88778    0.005
 5051.00    3.50229   2.88934    0.005
 5052.00    3.55134   2.90935    0.005
 5053.00    3.67294   2.91056    0.005
 5054.00    3.87110   2.90032    0.005
 5055.00    3.93920   2.91509    0.005
 5056.00    3.88625   2.91899    0.005
 5057.00    3.75930   2.89923    0.005
 5058.00    3.57163   2.89906    0.005
 5059.00    3.62396   2.90982    0.005
 5060.00    3.84964   2.89210    0.005
 5061.00    3.92126   2.86953    0.005
 5062.00    3.89518   2.88098    0.005
 5063.00    3.88733   2.87799    0.005
 5064.00    3.88957   2.84254    0.005
 5065.00    3.71504   2.84088    0.005
 5066.00    3.45530   2.85194    0.005
 5067.00    3.43033   2.82387    0.005
 5068.00    3.50311   2.80197    0.005
 5069.00    3.54859   2.81746    0.005
 5070.00    3.58435   2.81628    0.005
 5071.00    3.38408   2.78334    0.005
 5072.00    3.11283   2.78357    0.005
 5073.00    3.21350   2.80408    0.005
 5074.00    3.40706   2.78782    0.005
 5075.00    3.71636   2.77409    0.005
 5076.00    4.04911   2.79433    0.005
 5077.00    4.10171   2.80147    0.005
 5078.00    4.10977   2.78734    0.005
 5079.00    3.95605   2.79617    0.005
 5080.00    3.78318   2.81539    0.005
 5081.00    3.38162   2.81067    0.005
 5082.00    2.96166   2.81050    0.005
 5083.00    3.13404   2.82733    0.005
 5084.00    3.33308   2.83494    0.005
 5085.00    3.38901   2.83576    0.004
 5086.00    3.44465   2.84237    0.004
 5087.00    3.57031   2.84676    0.004
 5088.00    3.68585   2.84597    0.004
 5089.00    3.61330   2.84902    0.004
 5090.00    3.56972   2.84945    0.004
 5091.00    3.84866   2.84327    0.004
 5092.00    4.06774   2.84382    0.005
 5093.00    3.82048   2.84662    0.005
 5094.00    3.59319   2.84287    0.005
 5095.00    3.48347   2.83727    0.005
 5096.00    3.44245   2.83555    0.005
 5097.00    3.72197   2.83590    0.005
 5098.00    3.93006   2.82983    0.005
 5099.00    3.86588   2.82401    0.005
 5100.00    3.74538   2.83014    0.005
 5101.00    3.44577   2.83130    0.005
 5102.00    3.30055   2.82137    0.005
 5103.00    3.57160   2.82922    0.005
 5104.00    3.77424   2.84357    0.005
 5105.00    3.81870   2.83301    0.005
 5106.00    3.80081   2.82934    0.005
 5107.00    3.65822   2.84649    0.005
 5108.00    3.56507   2.84540    0.005
 5109.00    3.55809   2.83367    0.005
 5110.00    3.44381   2.84482    0.005
 5111.00    3.16587   2.85180    0.005
 5112.00    3.22101   2.83312    0.005
 5113.00    3.72246   2.83358    0.005
 5114.00    4.02090   2.84678    0.005
 5115.00    4.07978   2.82777    0.005
 5116.00    4.10461   2.81465    0.005
 5117.00    4.09402   2.82717    0.005
 5118.00    3.84301   2.81767    0.005
 5119.00    3.37134   2.79883    0.005
 5120.00    3.33797   2.80442    0.005
 5121.00    3.65917   2.80079    0.005
 5122.00    3.54958   2.78192    0.005
 5123.00    3.13332   2.78465    0.005
 5124.00    3.13318   2.78864    0.005
 5125.00    3.39298   2.77121    0.005
 5126.00    3.67879   2.76900    0.005
 5127.00    3.97879   2.78059    0.005
 5128.00    3.82730   2.76659    0.005
 5129.00    3.46164   2.76057    0.005
 5130.00    3.47480   2.77363    0.005
 5131.00    3.64301   2.75695    0.005
 5132.00    3.37344   2.75003    0.005
 5133.00    2.95083   2.77126    0.005
 5134.00    3.23817   2.75793    0.005
 5135.00    3.73481   2.73852    0.005
 5136.00    3.61417   2.75683    0.005
 5137.00    3.34275   2.76052    0.005
 5138.00    3.25344   2.73658    0.005
 5139.00    3.20010   2.74123    0.005
 5140.00    3.49262   2.75537    0.005
 5141.00    3.83848   2.73744    0.005
 5142.00    3.84386   2.73512    0.005
 5143.00    3.81046   2.75264    0.005
 5144.00    3.86982   2.74023    0.005
 5145.00    3.93625   2.72997    0.005
 5146.00    3.69744   2.74247    0.005
 5147.00    3.44608   2.73822    0.005
 5148.00    3.34661   2.72475    0.005
 5149.00    3.25462   2.72721    0.005
 5150.00    3.42477   2.72205    0.005
 5151.00    3.60149   2.70120    0.005
 5152.00    3.89203   2.69668    0.005
 5153.00    4.13828   2.68974    0.005
 5154.00    3.91349   2.65432    0.005
 5155.00    3.71101   2.63686    0.005
 5156.00    3.67640   2.63267    0.005
 5157.00    3.64260   2.59580    0.005
 5158.00    3.61342   2.55811    0.005
 5159.00    3.56935   2.54804    0.005
 5160.00    3.45749   2.52399    0.005
 5161.00    3.37234   2.48194    0.005
 5162.00    3.38681   2.47565    0.005
 5163.00    3.37703   2.47111    0.005
 5164.00    3.29157   2.42080    0.005
 5165.00    3.13144   2.39448    0.005
 5166.00    2.77352   2.41439    0.005
 5167.00    2.54083   2.40552    0.005
 5168.00    2.59291   2.37328    0.005
 5169.00    2.66139   2.38287    0.005
 5170.00    2.76216   2.40400    0.005
 5171.00    2.90907   2.39099    0.005
 5172.00    3.13515   2.39461    0.005
 5173.00    3.41279   2.42496    0.005
 5174.00    3.76792   2.42841    0.005
 5175.00    3.81612   2.41856    0.005
 5176.00    3.45894   2.44141    0.005
 5177.00    3.08463   2.47622    0.005
 5178.00    2.69040   2.49173    0.005
 5179.00    2.61855   2.50747    0.005
 5180.00    2.87744   2.52510    0.005
 5181.00    3.10872   2.54679    0.005
 5182.00    3.31504   2.57676    0.005
 5183.00    3.40527   2.58483    0.005
 5184.00    3.40291   2.59137    0.005
 5185.00    3.49497   2.62809    0.005
 5186.00    3.65325   2.64980    0.005
 5187.00    3.47535   2.64448    0.005
 5188.00    3.09058   2.67545    0.005
 5189.00    3.21807   2.71589    0.005
 5190.00    3.62089   2.69834    0.000
 5191.00    3.70634   2.69745    0.000
 5192.00    3.64365   2.74550    0.000
 5193.00    3.66942   2.74255    0.000
 5194.00    3.73078   2.71560    0.000
 5195.00    3.20157   2.75045    0.000
 5196.00    2.46967   2.77292    0.000
 5197.00    2.72129   2.73888    0.000
 5198.00    3.25706   2.74749    0.000
 5199.00    3.50021   2.78590    0.000
 5200.00    3.67347   2.76284    0.000
 5201.00    3.69188   2.74843    0.000
 5202.00    3.68047   2.78719    0.000
 5203.00    3.57302   2.79381    0.000
 5204.00    3.45121   2.77525    0.000
 5205.00    3.21079   2.79839    0.000
 5206.00    2.95738   2.82674    0.000
 5207.00    3.05988   2.81261    0.000
 5208.00    3.18809   2.81375    0.000
 5209.00    3.34612   2.84703    0.000
 5210.00    3.50527   2.85568    0.000
 5211.00    3.25050   2.84938    0.005
 5212.00    3.01474   2.86338    0.005
 5213.00    3.54115   2.88997    0.005
 5214.00    4.00996   2.89443    0.004
 5215.00    3.54497   2.88762    0.005
 5216.00    3.13197   2.90650    0.005
 5217.00    3.24823   2.91986    0.005
 5218.00    3.38841   2.90549    0.004
 5219.00    3.70266   2.90600    0.004
 5220.00    3.90328   2.93684    0.004
 5221.00    3.47090   2.94417    0.005
 5222.00    3.18958   2.93152    0.005
 5223.00    3.58026   2.95722    0.005
 5224.00    3.85054   2.97578    0.005
 5225.00    3.68090   2.95955    0.005
 5226.00    3.48134   2.97402    0.005
 5227.00    3.19016   3.00533    0.005
 5228.00    2.98298   3.00163    0.004
 5229.00    2.99437   3.00473    0.004
 5230.00    3.03762   3.04377    0.004
 5231.00    3.15216   3.05284    0.005
 5232.00    3.28390   3.03789    0.005
 5233.00    3.44894   3.06783    0.005
 5234.00    3.51468   3.08871    0.005
 5235.00    3.41259   3.06460    0.005
 5236.00    3.37988   3.07380    0.005
 5237.00    3.44991   3.10846    0.005
 5238.00    3.55067   3.09682    0.005
 5239.00    3.69142   3.07457    0.005
 5240.00    3.73064   3.09590    0.005
 5241.00    3.65341   3.10387    0.005
 5242.00    3.63477   3.07066    0.005
 5243.00    3.67539   3.06734    0.005
 5244.00    3.47344   3.08628    0.005
 5245.00    3.05509   3.06893    0.005
 5246.00    3.14907   3.04299    0.005
 5247.00    3.64582   3.04047    0.005
 5248.00    3.72445   3.03786    0.005
 5249.00    3.51400   3.01661    0.005
 5250.00    3.22675   2.99375    0.005
 5251.00    2.89296   2.98388    0.005
 5252.00    2.85091   2.98170    0.005
 5253.00    2.96325   2.96386    0.005
 5254.00    3.19690   2.92327    0.005
 5255.00    3.48626   2.91042    0.005
 5256.00    3.21881   2.92113    0.005
 5257.00    2.73122   2.88545    0.005
 5258.00    2.82215   2.84592    0.005
 5259.00    3.10796   2.87126    0.005
 5260.00    3.00444   2.87550    0.005
 5261.00    2.79073   2.81808    0.005
 5262.00    2.93892   2.81884    0.005
 5263.00    3.17160   2.86994    0.005
 5264.00    3.28553   2.84669    0.005
 5265.00    3.37720   2.81427    0.005
 5266.00    3.03688   2.87059    0.005
 5267.00    2.63398   2.90406    0.005
 5268.00    2.97720   2.87099    0.005
 5269.00    3.39891   2.89858    0.005
 5270.00    3.22799   2.96798    0.005
 5271.00    3.01667   2.96966    0.005
 5272.00    3.45301   2.96530    0.005
 5273.00    3.91107   3.02578    0.005
 5274.00    3.24283   3.06819    0.005
 5275.00    2.60496   3.06303    0.005
 5276.00    2.97973   3.08928    0.005
 5277.00    3.32969   3.14047    0.005
 5278.00    3.30188   3.15435    0.005
 5279.00    3.26022   3.15829    0.005
 5280.00    3.08339   3.19457    0.004
 5281.00    2.98765   3.22444    0.004
 5282.00    3.46297   3.22261    0.004
 5283.00    3.86017   3.22804    0.004
 5284.00    3.83379   3.25472    0.004
 5285.00    3.74067   3.26314    0.004
 5286.00    3.35759   3.25579    0.004
 5287.00    3.11143   3.27243    0.004
 5288.00    3.35522   3.28994    0.004
 5289.00    3.61660   3.28002    0.005
 5290.00    3.93083   3.27635    0.005
 5291.00    4.18101   3.29585    0.005
 5292.00    4.26744   3.29858    0.005
 5293.00    4.21464   3.28682    0.004
 5294.00    3.85553   3.30336    0.005
 5295.00    3.53931   3.32148    0.005
 5296.00    3.30493   3.31500    0.004
 5297.00    3.26229   3.31802    0.004
 5298.00    3.53890   3.33776    0.005
 5299.00    3.74357   3.34317    0.005
 5300.00    3.84324   3.34112    0.005
 5301.00    3.78009   3.35494    0.005
 5302.00    3.50797   3.36558    0.005
 5303.00    3.45183   3.36646    0.005
 5304.00    3.63993   3.37070    0.005
 5305.00    3.77282   3.37187    0.005
 5306.00    3.85065   3.36983    0.005
 5307.00    3.64654   3.37206    0.005
 5308.00    3.19443   3.36546    0.005
 5309.00    3.21222   3.34849    0.005
 5310.00    3.59417   3.34749    0.005
 5311.00    3.87872   3.34546    0.005
 5312.00    4.09692   3.31685    0.005
 5313.00    4.24921   3.29673    0.005
 5314.00    4.36215   3.30177    0.005
 5315.00    4.16765   3.28412    0.005
 5316.00    3.81298   3.24290    0.005
 5317.00    3.65893   3.23868    0.005
 5318.00    3.59549   3.24624    0.005
 5319.00    3.69258   3.21421    0.005
 5320.00    3.85203   3.18630    0.005
 5321.00    3.82470   3.19879    0.004
 5322.00    3.73562   3.20005    0.004
 5323.00    3.75719   3.16901    0.004
 5324.00    3.80943   3.16599    0.004
 5325.00    4.03118   3.18783    0.004
 5326.00    4.29159   3.18574    0.004
 5327.00    3.93574   3.17342    0.004
 5328.00    3.46740   3.18345    0.004
 5329.00    3.42792   3.20285    0.004
 5330.00    3.44859   3.20449    0.004
 5331.00    3.49691   3.20554    0.004
 5332.00    3.54803   3.22379    0.004
 5333.00    3.82778   3.24296    0.004
 5334.00    4.12218   3.24836    0.004
 5335.00    4.04272   3.25293    0.004
 5336.00    3.95144   3.27241    0.004
 5337.00    3.57803   3.28920    0.004
 5338.00    3.22942   3.29572    0.004
 5339.00    3.58978   3.31277    0.004
 5340.00    3.94370   3.33221    0.004
 5341.00    4.20514   3.33856    0.004
 5342.00    4.42486   3.35015    0.004
 5343.00    4.25405   3.37159    0.004
 5344.00    4.06945   3.38282    0.004
 5345.00    3.79083   3.38954    0.004
 5346.00    3.57709   3.41118    0.004
 5347.00    3.70587   3.42659    0.004
 5348.00    3.84808   3.42418    0.004
 5349.00    4.04730   3.43316    0.004
 5350.00    4.19314   3.44952    0.004
 5351.00    4.15187   3.45057    0.004
 5352.00    4.12015   3.44522    0.004
 5353.00    4.11656   3.45248    0.004
 5354.00    4.10277   3.45869    0.004
 5355.00    4.06335   3.44721    0.004
 5356.00    4.05371   3.43883    0.004
 5357.00    4.10854   3.43941    0.004
 5358.00    4.13453   3.43265    0.004
 5359.00    4.10633   3.41622    0.004
 5360.00    3.96848   3.41021    0.004
 5361.00    3.65081   3.41309    0.004
 5362.00    3.45206   3.40065    0.004
 5363.00    3.42438   3.38857    0.004
 5364.00    3.44757   3.38817    0.004
 5365.00    3.53512   3.38395    0.004
 5366.00    3.49488   3.37349    0.005
 5367.00    3.31218   3.37451    0.006
 5368.00    2.77265   3.38274   -2.000
 5369.00    1.88227   3.37898   -2.000
 5370.00    1.26395   3.37753   -2.000
 5371.00    0.88156   3.37917   -2.000
 5372.00    1.71182   3.37863   -2.000
 5373.00    3.46842   3.38139   -2.000
 5374.00    3.88153   3.38301   -2.000
 5375.00    3.39258   3.38157   -2.000
 5376.00    3.21485   3.38394   -2.000
 5377.00    3.22016   3.38400   -2.000
 5378.00    3.27984   3.36679   -2.000
 5379.00    3.36740   3.36121   -2.000
 5380.00    3.48789   3.37066   -2.000
 5381.00    3.62300   3.35450   -2.000
 5382.00    3.74449   3.33104   -2.000
 5383.00    3.86079   3.33816    0.004
 5384.00    3.94878   3.33270    0.004
 5385.00    4.02759   3.28991    0.004
 5386.00    3.93136   3.28054    0.004
 5387.00    3.78760   3.29793    0.004
 5388.00    3.77352   3.27033    0.004
 5389.00    3.78833   3.23425    0.004
 5390.00    3.71988   3.24892    0.004
 5391.00    3.63664   3.24840    0.004
 5392.00    3.78847   3.20217    0.004
 5393.00    3.97219   3.19483    0.004
 5394.00    4.02241   3.21954    0.004
 5395.00    4.05973   3.20490    0.004
 5396.00    4.00512   3.17995    0.004
 5397.00    3.94497   3.19603    0.004
 5398.00    3.90311   3.20480    0.004
 5399.00    3.86245   3.18688    0.004
 5400.00    3.94288   3.19206    0.004
 5401.00    4.01018   3.21217    0.004
 5402.00    3.73915   3.21734    0.004
 5403.00    3.49684   3.22301    0.004
 5404.00    3.64406   3.23984    0.004
 5405.00    3.75207   3.24726    0.004
 5406.00    3.50743   3.25751    0.004
 5407.00    3.26789   3.28052    0.004
 5408.00    3.06206   3.29288    0.004
 5409.00    2.93255   3.29901    0.004
 5410.00    3.19554   3.31718    0.004
 5411.00    3.45170   3.33482    0.004
 5412.00    3.67947   3.33663    0.004
 5413.00    3.76905   3.34380    0.004
 5414.00    3.38403   3.36284    0.004
 5415.00    3.18886   3.37216    0.004
 5416.00    3.54294   3.36928    0.004
 5417.00    3.76089   3.36626    0.004
 5418.00    3.64262   3.37411    0.004
 5419.00    3.55405   3.38345    0.004
 5420.00    3.52874   3.37764    0.004
 5421.00    3.58259   3.37162    0.004
 5422.00    3.78287   3.38160    0.004
 5423.00    3.85338   3.38576    0.004
 5424.00    3.71421   3.36526    0.004
 5425.00    3.59906   3.36190    0.004
 5426.00    3.51795   3.38770    0.004
 5427.00    3.46854   3.38627    0.004
 5428.00    3.45868   3.36527    0.004
 5429.00    3.58864   3.37578    0.004
 5430.00    3.87228   3.39571    0.004
 5431.00    4.04068   3.38245    0.004
 5432.00    4.09736   3.37580    0.004
 5433.00    4.03835   3.40149    0.004
 5434.00    3.88042   3.40484    0.004
 5435.00    3.72502   3.38461    0.004
 5436.00    3.57151   3.39242    0.004
 5437.00    3.51624   3.41292    0.004
 5438.00    3.52597   3.40832    0.004
 5439.00    3.55966   3.39820    0.004
 5440.00    3.60724   3.40764    0.004
 5441.00    3.77812   3.41008    0.004
 5442.00    4.01126   3.39726    0.004
 5443.00    3.94678   3.39072    0.004
 5444.00    3.75226   3.39692    0.004
 5445.00    3.66496   3.40467    0.004
 5446.00    3.61788   3.39723    0.004
 5447.00    3.54861   3.38630    0.004
 5448.00    3.47228   3.38884    0.004
 5449.00    3.71792   3.39664    0.004
 5450.00    4.04915   3.37959    0.004
 5451.00    4.05749   3.36376    0.004
 5452.00    3.99560   3.38714    0.004
 5453.00    4.02133   3.39848    0.004
 5454.00    4.06219   3.36855    0.004
 5455.00    4.23213   3.36257    0.004
 5456.00    4.41900   3.39510    0.004
 5457.00    3.92511   3.38125    0.004
 5458.00    3.36833   3.34193    0.004
 5459.00    3.79989   3.36705    0.004
 5460.00    4.28701   3.39661    0.004
 5461.00    4.09923   3.35465    0.004
 5462.00    3.89903   3.33483    0.004
 5463.00    3.97455   3.37929    0.004
 5464.00    4.05274   3.36971    0.004
 5465.00    4.19337   3.31583    0.004
 5466.00    4.31367   3.33875    0.004
 5467.00    4.17284   3.37866    0.004
 5468.00    4.05693   3.33519    0.004
 5469.00    4.15670   3.30702    0.004
 5470.00    4.23055   3.35361    0.004
 5471.00    4.13826   3.35265    0.004
 5472.00    4.01268   3.30484    0.004
 5473.00    3.72023   3.32926    0.004
 5474.00    3.53138   3.37081    0.004
 5475.00    3.76300   3.33885    0.004
 5476.00    3.94345   3.31737    0.004
 5477.00    3.95167   3.35876    0.004
 5478.00    3.92640   3.36535   -2.000
 5479.00    3.80603   3.34182   -2.000
 5480.00    3.69992   3.36762   -2.000
 5481.00    3.62841   3.39116   -2.000
 5482.00    3.77697   3.36769   -2.000
 5483.00    4.38657   3.36851   -2.000
 5484.00    4.31475   3.40289   -2.000
 5485.00    3.00201   3.39535   -2.000
 5486.00    1.97966   3.38262   -2.000
 5487.00    1.41954   3.41228   -2.000
 5488.00    0.89580   3.41982   -2.000
 5489.00    0.42289   3.39138   -2.000
 5490.00    0.64410   3.39874   -2.000
 5491.00    1.71866   3.42778   -2.000
 5492.00    2.51260   3.41181   -2.000
 5493.00    3.00244   3.39204   -2.000
 5494.00    3.43097   3.41180   -2.000
 5495.00    3.80092   3.42204   -2.000
 5496.00    3.91707   3.39875   -2.000
 5497.00    3.81930   3.39026   -2.000
 5498.00    3.75742   3.40837   -2.000
 5499.00    3.72219   3.41032   -2.000
 5500.00    3.85528   3.39270   -2.000
 5501.00    4.09811   3.38655   -2.000
 5502.00    4.17717   3.40029    0.004
 5503.00    4.16279   3.40571    0.004
 5504.00    3.99851   3.39334    0.004
 5505.00    3.75975   3.39260    0.004
 5506.00    3.72336   3.41014    0.004
 5507.00    3.77393   3.41165    0.004
 5508.00    3.76428   3.39754    0.004
 5509.00    3.73245   3.40545    0.004
 5510.00    3.90821   3.42861    0.004
 5511.00    4.14875   3.42718    0.004
 5512.00    4.22934   3.41396    0.004
 5513.00    4.26832   3.43147    0.004
 5514.00    4.19199   3.45387    0.004
 5515.00    4.09117   3.44288    0.004
 5516.00    4.00672   3.43262    0.004
 5517.00    3.92502   3.45598    0.004
 5518.00    3.92213   3.47169    0.004
 5519.00    3.92922   3.45450    0.004
 5520.00    3.89488   3.45407    0.004
 5521.00    3.85689   3.48275    0.004
 5522.00    3.91032   3.48353    0.004
 5523.00    3.96852   3.45806    0.004
 5524.00    3.83607   3.47186    0.004
 5525.00    3.70249   3.50505    0.004
 5526.00    3.75246   3.49423    0.004
 5527.00    3.80671   3.47653    0.004
 5528.00    3.95334   3.50241    0.004
 5529.00    4.08989   3.52262    0.004
 5530.00    4.10348   3.50047    0.004
 5531.00    4.09827   3.50073    0.004
 5532.00    3.93649   3.53752    0.004
 5533.00    3.78527   3.54086    0.004
 5534.00    3.69975   3.51881    0.004
 5535.00    3.66106   3.53524    0.004
 5536.00    3.85129   3.56913    0.004
 5537.00    3.94562   3.55891    0.004
 5538.00    3.65925   3.54194    0.004
 5539.00    3.46169   3.56744    0.004
 5540.00    3.55718   3.58803    0.004
 5541.00    3.69834   3.56729    0.004
 5542.00    3.96684   3.56067    0.011
 5543.00    4.14766   3.58961   -1.000
 5544.00    4.11922   3.59470   -1.000
 5545.00    4.05510   3.57123   -1.000
 5546.00    3.91745   3.57113   -1.000
 5547.00    3.80089   3.59113   -1.000
 5548.00    3.72219   3.58393   -1.000
 5549.00    3.74986   3.56016    0.020
 5550.00    3.94435   3.56185    0.006
 5551.00    3.96804   3.57651    0.004
 5552.00    3.75657   3.56469    0.004
 5553.00    3.64151   3.53993    0.004
 5554.00    3.64331   3.54316    0.004
 5555.00    3.68163   3.55642    0.004
 5556.00    3.75896   3.53830    0.004
 5557.00    3.84347   3.51158    0.004
 5558.00    3.93473   3.52195    0.004
 5559.00    3.85400   3.53581    0.004
 5560.00    3.63034   3.50835    0.004
 5561.00    3.64316   3.48899    0.004
 5562.00    3.82897   3.51207    0.004
 5563.00    3.87373   3.51447    0.004
 5564.00    3.82788   3.48040    0.004
 5565.00    3.77747   3.48043    0.004
 5566.00    3.72449   3.50767    0.004
 5567.00    3.65629   3.48969    0.004
 5568.00    3.58063   3.46069    0.004
 5569.00    3.57973   3.48008    0.004
 5570.00    3.61041   3.49088    0.004
 5571.00    3.72696   3.46062    0.004
 5572.00    3.87458   3.45208    0.004
 5573.00    3.88025   3.46959    0.004
 5574.00    3.84249   3.45744    0.004
 5575.00    3.67618   3.43545    0.004
 5576.00    3.47714   3.44119    0.004
 5577.00    3.27837   3.44326    0.004
 5578.00    3.07965   3.41949    0.004
 5579.00    3.25150   3.41108    0.004
 5580.00    3.48379   3.42515    0.004
 5581.00    3.55160   3.41462    0.004
 5582.00    3.59932   3.38873    0.004
 5583.00    3.68833   3.39375    0.004
 5584.00    3.78082   3.40743    0.004
 5585.00    3.78199   3.39277    0.004
 5586.00    3.77874   3.38304    0.004
 5587.00    3.75057   3.40053    0.004
 5588.00    3.72451   3.40949    0.004
 5589.00    3.84504   3.39189    0.004
 5590.00    3.95364   3.39664    0.004
 5591.00    3.82505   3.42771    0.004
 5592.00    3.71739   3.43223    0.004
 5593.00    3.85269   3.41742    0.004
 5594.00    3.95543   3.43159    0.004
 5595.00    3.79645   3.45855    0.004
 5596.00    3.60306   3.45960    0.004
 5597.00    3.20179   3.46100    0.004
 5598.00    2.93874   3.47800    0.004
 5599.00    3.33470   3.48740    0.004
 5600.00    3.69394   3.48719    0.004
 5601.00    3.91052   3.50122    0.004
 5602.00    4.05836   3.51451    0.004
 5603.00    3.98380   3.50981    0.004
 5604.00    3.93606   3.51107    0.004
 5605.00    3.96178   3.52253    0.004
 5606.00    3.97408   3.52125    0.004
 5607.00    3.95491   3.51513    0.004
 5608.00    3.93792   3.52527    0.004
 5609.00    3.92538   3.52876    0.004
 5610.00    3.82958   3.51077    0.004
 5611.00    3.58673   3.50498    0.004
 5612.00    3.40799   3.52158    0.004
 5613.00    3.32831   3.52599    0.004
 5614.00    3.37271   3.51027    0.004
 5615.00    3.58551   3.50360    0.004
 5616.00    3.71788   3.51312    0.004
 5617.00    3.75413   3.51832    0.004
 5618.00    3.73814   3.51176    0.004
 5619.00    3.66712   3.50767    0.004
 5620.00    3.68893   3.51369    0.004
 5621.00    3.79698   3.51772    0.004
 5622.00    3.84737   3.51445    0.004
 5623.00    3.85053   3.51657    0.004
 5624.00    3.95253   3.52660    0.004
 5625.00    4.12579   3.52843    0.004
 5626.00    4.17144   3.52369    0.004
 5627.00    4.13633   3.52621    0.004
 5628.00    3.93872   3.53252    0.004
 5629.00    3.65120   3.53305    0.004
 5630.00    3.61211   3.53230    0.004
 5631.00    3.69256   3.53361    0.004
 5632.00    3.77485   3.53268    0.004
 5633.00    3.85790   3.53365    0.004
 5634.00    4.05109   3.53716    0.004
 5635.00    4.28341   3.53611    0.004
 5636.00    4.28987   3.53433    0.004
 5637.00    4.22857   3.53693    0.004
 5638.00    4.22199   3.53364    0.004
 5639.00    4.22904   3.52852    0.004
 5640.00    4.23640   3.53664    0.004
 5641.00    4.24383   3.53861    0.004
 5642.00    3.92417   3.52286    0.004
 5643.00    3.55271   3.52293    0.004
 5644.00    3.49580   3.54028    0.004
 5645.00    3.47591   3.53062    0.004
 5646.00    3.69850   3.50852    0.004
 5647.00    3.94046   3.52476    0.004
 5648.00    3.96497   3.54473    0.004
 5649.00    3.97981   3.51612    0.004
 5650.00    3.82758   3.49693    0.004
 5651.00    3.67146   3.53177    0.004
 5652.00    3.41797   3.54609    0.004
 5653.00    3.17823   3.50770    0.004
 5654.00    3.19186   3.50236    0.004
 5655.00    3.21341   3.54335    0.004
 5656.00    3.32257   3.54855    0.004
 5657.00    3.44065   3.52144    0.004
 5658.00    3.62795   3.52919    0.004
 5659.00    3.76342   3.56068    0.004
 5660.00    3.59456   3.56258    0.004
 5661.00    3.45346   3.55289    0.004
 5662.00    3.44147   3.56339    0.004
 5663.00    3.47197   3.58284    0.004
 5664.00    3.66400   3.59077    0.004
 5665.00    3.79479   3.59055    0.004
 5666.00    3.73125   3.59266    0.004
 5667.00    3.69835   3.60666    0.004
 5668.00    3.74789   3.62573    0.004
 5669.00    3.79949   3.62234    0.004
 5670.00    3.85584   3.61088    0.004
 5671.00    3.91099   3.62640    0.004
 5672.00    3.96373   3.65000    0.004
 5673.00    3.97519   3.63598    0.004
 5674.00    3.91487   3.61702    0.004
 5675.00    3.90309   3.63746    0.004
 5676.00    3.96522   3.65792    0.004
 5677.00    3.92256   3.63556    0.004
 5678.00    3.73976   3.61578    0.004
 5679.00    3.55200   3.63884    0.004
 5680.00    3.35841   3.65308    0.004
 5681.00    3.29043   3.62718    0.004
 5682.00    3.35294   3.61087    0.004
 5683.00    3.56813   3.63331    0.004
 5684.00    3.92320   3.63944    0.004
 5685.00    4.05303   3.61080    0.004
 5686.00    4.00096   3.60077    0.004
 5687.00    4.00922   3.62329    0.004
 5688.00    4.06036   3.61965    0.004
 5689.00    4.10862   3.58503    0.004
 5690.00    4.15507   3.58303    0.004
 5691.00    4.00627   3.60463    0.004
 5692.00    3.75109   3.59017    0.004
 5693.00    3.71110   3.55730    0.004
 5694.00    3.77300   3.56398    0.004
 5695.00    3.68953   3.57970    0.004
 5696.00    3.54670   3.55824    0.004
 5697.00    3.52273   3.53720    0.004
 5698.00    3.54020   3.55211    0.004
 5699.00    3.67983   3.55889    0.004
 5700.00    3.85538   3.53786    0.004
 5701.00    3.92590   3.53690    0.004
 5702.00    3.97085   3.55595    0.004
 5703.00    4.01869   3.55321    0.004
 5704.00    4.06710   3.54467    0.004
 5705.00    3.89312   3.56449    0.004
 5706.00    3.68498   3.58195    0.004
 5707.00    3.66202   3.57567    0.004
 5708.00    3.66005   3.58390    0.004
 5709.00    3.73057   3.61358    0.004
 5710.00    3.80659   3.62638    0.004
 5711.00    3.81153   3.62384    0.004
 5712.00    3.81358   3.64281    0.004
 5713.00    3.86611   3.67164    0.004
 5714.00    3.91479   3.67522    0.004
 5715.00    3.78849   3.67558    0.004
 5716.00    3.66347   3.70412    0.004
 5717.00    3.56051   3.72630    0.004
 5718.00    3.48296   3.71578    0.004
 5719.00    3.67414   3.71915    0.004
 5720.00    3.84662   3.75276    0.004
 5721.00    3.87889   3.76614    0.004
 5722.00    3.91069   3.74603    0.004
 5723.00    3.93984   3.74804    0.004
 5724.00    3.96527   3.77932    0.004
 5725.00    3.97382   3.78582    0.004
 5726.00    3.96780   3.76535    0.004
 5727.00    3.90752   3.76878    0.004
 5728.00    3.88412   3.79122    0.004
 5729.00    3.97553   3.78885    0.004
 5730.00    4.07164   3.77323    0.004
 5731.00    4.18017   3.78047    0.004
 5732.00    4.21654   3.79509    0.004
 5733.00    4.08912   3.78632    0.004
 5734.00    3.97297   3.77254    0.003
 5735.00    3.87894   3.77943    0.003
 5736.00    3.77035   3.79210    0.003
 5737.00    3.63683   3.78563    0.003
 5738.00    3.63089   3.77146    0.004
 5739.00    3.81634   3.77018    0.004
 5740.00    3.97113   3.78036    0.000
 5741.00    4.08549   3.78031    0.000
 5742.00    4.14569   3.76963    0.000
 5743.00    4.14299   3.76539    0.000
 5744.00    4.21496   3.77009    0.000
 5745.00    4.36341   3.76746    0.000
 5746.00    4.43880   3.76118    0.000
 5747.00    4.44822   3.76546    0.000
 5748.00    4.39572   3.76964    0.000
 5749.00    4.29392   3.76243    0.000
 5750.00    4.33554   3.75648    0.000
 5751.00    4.47759   3.76713    0.000
 5752.00    4.43824   3.77378    0.000
 5753.00    4.28746   3.76396    0.000
 5754.00    4.12067   3.75796    0.000
 5755.00    3.94527   3.77300    0.000
 5756.00    3.93556   3.78015    0.000
 5757.00    4.00302   3.76883    0.000
 5758.00    4.05075   3.76784    0.000
 5759.00    4.09057   3.78116    0.000
 5760.00    4.06160   3.78051    0.000
 5761.00    4.00909   3.76777    0.000
 5762.00    4.09241   3.77196    0.000
 5763.00    4.21487   3.78145    0.000
 5764.00    4.25791   3.77268    0.000
 5765.00    4.28204   3.75762    0.000
 5766.00    4.24270   3.76245    0.000
 5767.00    4.19118   3.76741    0.000
 5768.00    4.29817   3.74898    0.000
 5769.00    4.42876   3.73464    0.000
 5770.00    4.48949   3.74453    0.000
 5771.00    4.54260   3.74387    0.000
 5772.00    4.58752   3.71583    0.000
 5773.00    4.63185   3.70613    0.000
 5774.00    4.41307   3.72211    0.000
 5775.00    4.18460   3.71921    0.000
 5776.00    4.09622   3.69224    0.000
 5777.00    4.00971   3.68912    0.000
 5778.00    3.96888   3.70824    0.000
 5779.00    3.93821   3.70852    0.000
 5780.00    4.07097   3.69347    0.000
 5781.00    4.20080   3.69592    0.000
 5782.00    4.30097   3.71371    0.000
 5783.00    4.37566   3.72003    0.000
 5784.00    4.26565   3.71475    0.000
 5785.00    4.15216   3.72250    0.000
 5786.00    4.01934   3.74559    0.000
 5787.00    3.90696   3.75557    0.000
 5788.00    3.88528   3.74872    0.000
 5789.00    3.82106   3.75799    0.000
 5790.00    3.60185   3.78722    0.000
 5791.00    3.35733   3.79816   -2.000
 5792.00    3.03553   3.78865   -2.000
 5793.00    2.92031   3.80170   -2.000
 5794.00    3.34143   3.82996   -2.000
 5795.00    3.65704   3.83214   -2.000
 5796.00    3.73719   3.82092   -2.000
 5797.00    3.76515   3.83780   -2.000
 5798.00    3.69214   3.86158   -2.000
 5799.00    3.60495   3.85510   -2.000
 5800.00    3.49386   3.84678   -2.000
 5801.00    3.55337   3.86825   -2.000
 5802.00    3.86507   3.88330   -2.000
 5803.00    4.10842   3.86839   -2.000
 5804.00    4.26292   3.86762   -2.000
 5805.00    4.27744   3.89268   -2.000
 5806.00    4.13169   3.89683   -2.000
 5807.00    4.03448   3.87913   -2.000
 5808.00    3.98628   3.88836   -2.000
 5809.00    3.86621   3.91298   -2.000
 5810.00    3.68216   3.90816   -2.000
 5811.00    3.67521   3.89494    0.000
 5812.00    3.80724   3.91238    0.000
 5813.00    3.97297   3.93009    0.000
 5814.00    4.16194   3.91827    0.000
 5815.00    4.30936   3.91236    0.000
 5816.00    4.43165   3.93506    0.000
 5817.00    4.49260   3.94421    0.000
 5818.00    4.52116   3.92778    0.000
 5819.00    4.45669   3.92986    0.000
 5820.00    4.34957   3.95353    0.000
 5821.00    4.36753   3.95185    0.000
 5822.00    4.43483   3.93325    0.000
 5823.00    4.47683   3.94353    0.000
 5824.00    4.51034   3.96392    0.000
 5825.00    4.51112   3.95082    0.000
 5826.00    4.50267   3.93390    0.000
 5827.00    4.59309   3.95037    0.000
 5828.00    4.70652   3.96313    0.000
 5829.00    4.69724   3.94198    0.000
 5830.00    4.66503   3.92982    0.000
 5831.00    4.68945   3.94675    0.000
 5832.00    4.72203   3.94917    0.000
 5833.00    4.56516   3.92580    0.000
 5834.00    4.38847   3.91881    0.000
 5835.00    4.39666   3.93046    0.000
 5836.00    4.41735   3.92237    0.000
 5837.00    4.46568   3.90034    0.000
 5838.00    4.51491   3.89841    0.000
 5839.00    4.57383   3.90251    0.000
 5840.00    4.62783   3.88494    0.000
 5841.00    4.52665   3.86598    0.000
 5842.00    4.41962   3.86999    0.000
 5843.00    4.22420   3.86848    0.000
 5844.00    4.03969   3.84462    0.000
 5845.00    3.96102   3.82798    0.000
 5846.00    3.89757   3.83581    0.000
 5847.00    3.94080   3.83434    0.000
 5848.00    3.99506   3.81331    0.000
 5849.00    4.10893   3.79853    0.000
 5850.00    4.18679   3.80536    0.000
 5851.00    4.10855   3.80799    0.000
 5852.00    4.03069   3.79605    0.000
 5853.00    3.95415   3.78434    0.000
 5854.00    3.86809   3.78884    0.000
 5855.00    3.75349   3.79543    0.000
 5856.00    3.69805   3.79000    0.000
 5857.00    3.79354   3.78303    0.000
 5858.00    3.78248   3.78786    0.000
 5859.00    3.53751   3.79359    0.000
 5860.00    3.43151   3.78737    0.000
 5861.00    3.59018   3.78461    0.000
 5862.00    3.73231   3.79075    0.000
 5863.00    3.84699   3.78926    0.000
 5864.00    3.87979   3.77619    0.000
 5865.00    3.79332   3.77337    0.000
 5866.00    3.86367   3.77694    0.000
 5867.00    4.13493   3.76394    0.000
 5868.00    4.32247   3.74165    0.000
 5869.00    4.41551   3.73463    0.000
 5870.00    4.41597   3.73121    0.000
 5871.00    4.32424   3.70586    0.000
 5872.00    4.31561   3.67360    0.000
 5873.00    4.37992   3.65923    0.000
 5874.00    4.33276   3.64941    0.000
 5875.00    4.19935   3.61600    0.000
 5876.00    4.04633   3.57442    0.000
 5877.00    3.87998   3.55238    0.000
 5878.00    3.82619   3.53894    0.000
 5879.00    3.83948   3.50504    0.000
 5880.00    3.87084   3.46999    0.000
 5881.00    3.91159   3.45653    0.000
 5882.00    3.81858   3.43641    0.000
 5883.00    3.66527   3.39977    0.000
 5884.00    3.50109   3.38654    0.000
 5885.00    3.33268   3.39375    0.000
 5886.00    3.28639   3.37591    0.000
 5887.00    3.28036   3.35110    0.000
 5888.00    3.29716   3.36175    0.000
 5889.00    3.32026   3.38314    0.000
 5890.00    3.43810   3.37518    0.000
 5891.00    3.57748   3.37193    0.000
 5892.00    3.61068   3.40156    0.000
 5893.00    3.62458   3.42876    0.000
 5894.00    3.59601   3.43302    0.000
 5895.00    3.56152   3.45144    0.000
 5896.00    3.59269   3.48904    0.000
 5897.00    3.63044   3.51197    0.000
 5898.00    3.70352   3.52498    0.000
 5899.00    3.77884   3.55741    0.000
 5900.00    3.87900   3.59134    0.000
 5901.00    3.97943   3.60332    0.004
 5902.00    3.92106   3.61961    0.004
 5903.00    3.86322   3.65666    0.004
 5904.00    3.82000   3.68179    0.004
 5905.00    3.77766   3.68332    0.003
 5906.00    3.74774   3.69802    0.003
 5907.00    3.73098   3.73088    0.003
 5908.00    3.83678   3.74340    0.003
 5909.00    3.91824   3.73940    0.003
 5910.00    3.83432   3.75508    0.003
 5911.00    3.73873   3.78021    0.003
 5912.00    3.58175   3.78073    0.003
 5913.00    3.46208   3.77382    0.003
 5914.00    3.50036   3.79047    0.003
 5915.00    3.57857   3.81097    0.003
 5916.00    3.79640   3.80416    0.003
 5917.00    3.95839   3.79354    0.004
 5918.00    3.95619   3.81080    0.003
 5919.00    3.97091   3.83056    0.003
 5920.00    4.02805   3.81945    0.004
 5921.00    4.06424   3.80621    0.004
 5922.00    4.05516   3.82475    0.004
 5923.00    4.00872   3.84293    0.004
 5924.00    3.89222   3.82717    0.004
 5925.00    3.83646   3.81486    0.003
 5926.00    3.88013   3.83662    0.003
 5927.00    3.84983   3.84995    0.004
 5928.00    3.71330   3.82941    0.004
 5929.00    3.66567   3.82252    0.004
 5930.00    3.73028   3.84789    0.004
 5931.00    3.75099   3.85226    0.004
 5932.00    3.72284   3.82703    0.003
 5933.00    3.81105   3.82959    0.003
 5934.00    4.01347   3.85827    0.003
 5935.00    4.23724   3.85152    0.003
 5936.00    4.47949   3.82313    0.004
 5937.00    4.45268   3.83637    0.003
 5938.00    4.22071   3.86597    0.003
 5939.00    3.96764   3.84941    0.003
 5940.00    3.70043   3.82202    0.003
 5941.00    3.60688   3.84377    0.003
 5942.00    3.61527   3.87064    0.003
 5943.00    3.75090   3.84892    0.003
 5944.00    3.95165   3.82727    0.003
 5945.00    4.02033   3.85378    0.003
 5946.00    4.03046   3.87561    0.003
 5947.00    4.03158   3.85355    0.003
 5948.00    4.02929   3.83971    0.003
 5949.00    4.06236   3.86689    0.004
 5950.00    4.10688   3.88358    0.004
 5951.00    4.12920   3.86494    0.004
 5952.00    4.14550   3.85851    0.004
 5953.00    4.10697   3.88332    0.004
 5954.00    4.05626   3.89522    0.004
 5955.00    3.91794   3.88090    0.004
 5956.00    3.76411   3.87942    0.004
 5957.00    3.76176   3.89946    0.004
 5958.00    3.77987   3.90689    0.004
 5959.00    3.77782   3.89576    0.004
 5960.00    3.77385   3.89644    0.004
 5961.00    3.71082   3.91130    0.004
 5962.00    3.64427   3.91378    0.003
 5963.00    3.76925   3.90282    0.003
 5964.00    3.89901   3.90445    0.003
 5965.00    4.01242   3.91568    0.003
 5966.00    4.12386   3.91235    0.003
 5967.00    4.18541   3.89973    0.003
 5968.00    4.24114   3.90310    0.003
 5969.00    4.21865   3.91247    0.003
 5970.00    4.19052   3.90303    0.003
 5971.00    4.11196   3.88906    0.003
 5972.00    4.02632   3.89615    0.003
 5973.00    3.89408   3.90509    0.003
 5974.00    3.78333   3.89061    0.003
 5975.00    3.78270   3.87723    0.003
 5976.00    3.77229   3.88916    0.003
 5977.00    3.72135   3.89776    0.003
 5978.00    3.70033   3.87980    0.003
 5979.00    3.78176   3.86932    0.003
 5980.00    3.87267   3.88601    0.003
 5981.00    3.99092   3.89311    0.004
 5982.00    4.07065   3.87328    0.004
 5983.00    4.05550   3.86659    0.004
 5984.00    4.04320   3.88568    0.004
 5985.00    4.03695   3.89005    0.004
 5986.00    4.00922   3.87006    0.004
 5987.00    3.94183   3.86596    0.004
 5988.00    3.89920   3.88391    0.004
 5989.00    3.89652   3.88561    0.004
 5990.00    3.86774   3.86700    0.004
 5991.00    3.80202   3.86292    0.004
 5992.00    3.77658   3.87718    0.003
 5993.00    3.80126   3.87818    0.003
 5994.00    3.83453   3.86188    0.003
 5995.00    3.87724   3.85488    0.003
 5996.00    3.89050   3.86519    0.003
 5997.00    3.87526   3.86880    0.003
 5998.00    3.83114   3.85504    0.003
 5999.00    3.76237   3.84331    0.003
 6000.00    3.79218   3.85143    0.003
 6001.00    3.89609   3.86072    0.003
 6002.00    3.90510   3.84910    0.003
 6003.00    3.85144   3.83293    0.003
 6004.00    3.81957   3.84190    0.003
 6005.00    3.80031   3.85784    0.003
 6006.00    3.83808   3.84748    0.003
 6007.00    3.90458   3.82961    0.003
 6008.00    3.96995   3.84246    0.003
 6009.00    4.03482   3.86359    0.003
 6010.00    4.01839   3.85365    0.003
 6011.00    3.97155   3.83840    0.003
 6012.00    3.92559   3.85697    0.003
 6013.00    3.87992   3.87990    0.003
 6014.00    3.88222   3.87031    0.004
 6015.00    3.89724   3.86168    0.004
 6016.00    3.99305   3.88542    0.004
 6017.00    4.10638   3.90635    0.004
 6018.00    4.21283   3.89790    0.004
 6019.00    4.31809   3.89776    0.004
 6020.00    4.33383   3.92392    0.004
 6021.00    4.33789   3.93999    0.004
 6022.00    4.33170   3.93364    0.004
 6023.00    4.32456   3.94066    0.004
 6024.00    4.27541   3.96530    0.004
 6025.00    4.22393   3.97564    0.004
 6026.00    4.19697   3.97213    0.003
 6027.00    4.16993   3.98268    0.003
 6028.00    4.08104   4.00217    0.003
 6029.00    3.99607   4.00775    0.003
 6030.00    4.00204   4.00722    0.003
 6031.00    4.01286   4.01712    0.003
 6032.00    4.08549   4.02934    0.003
 6033.00    4.15650   4.03222    0.003
 6034.00    4.21356   4.03423    0.003
 6035.00    4.26014   4.04018    0.003
 6036.00    4.23975   4.04479    0.003
 6037.00    4.19958   4.04704    0.003
 6038.00    4.06052   4.05089    0.003
 6039.00    3.94476   4.05129    0.003
 6040.00    3.92331   4.04913    0.003
 6041.00    3.88122   4.05216    0.003
 6042.00    3.76985   4.05739    0.003
 6043.00    3.69534   4.05243    0.003
 6044.00    3.72533   4.04495    0.003
 6045.00    3.81415   4.04945    0.004
 6046.00    4.04553   4.05633    0.004
 6047.00    4.22838   4.04772    0.004
 6048.00    4.30979   4.03651    0.004
 6049.00    4.35161   4.04261    0.004
 6050.00    4.32147   4.05201    0.004
 6051.00    4.28805   4.04236    0.003
 6052.00    4.24943   4.02883    0.003
 6053.00    4.24555   4.03612    0.003
 6054.00    4.29009   4.04892    0.003
 6055.00    4.27628   4.04065    0.003
 6056.00    4.19085   4.02557    0.003
 6057.00    4.13471   4.03261    0.003
 6058.00    4.11023   4.04873    0.003
 6059.00    4.07181   4.04347    0.003
 6060.00    4.02009   4.02664    0.003
 6061.00    3.90682   4.03090    0.003
 6062.00    3.74176   4.04923    0.003
 6063.00    3.67562   4.04743    0.003
 6064.00    3.68275   4.02774    0.003
 6065.00    3.73161   4.02644    0.003
 6066.00    3.80761   4.04564    0.003
 6067.00    3.88243   4.04707    0.003
 6068.00    3.95657   4.02326    0.003
 6069.00    4.11086   4.01495    0.003
 6070.00    4.30489   4.03471    0.003
 6071.00    4.37189   4.03894    0.003
 6072.00    4.38441   4.01049    0.003
 6073.00    4.26516   3.99607    0.003
 6074.00    4.09747   4.01724    0.003
 6075.00    3.89244   4.02397    0.003
 6076.00    3.67577   3.99188    0.003
 6077.00    3.58629   3.97396    0.003
 6078.00    3.52982   3.99746    0.003
 6079.00    3.69260   4.00673    0.003
 6080.00    3.90179   3.97325    0.003
 6081.00    4.10991   3.95425    0.003
 6082.00    4.31786   3.97973    0.003
 6083.00    4.20037   3.99202    0.003
 6084.00    4.04185   3.96024    0.003
 6085.00    3.95005   3.94088    0.003
 6086.00    3.86411   3.96602    0.003
 6087.00    3.85050   3.98221    0.003
 6088.00    3.84065   3.95562    0.003
 6089.00    3.78914   3.93506    0.003
 6090.00    3.73844   3.95628    0.003
 6091.00    3.80264   3.97690    0.003
 6092.00    3.86456   3.95873    0.003
 6093.00    3.87785   3.93646    0.003
 6094.00    3.88395   3.95024    0.003
 6095.00    3.80274   3.97429    0.003
 6096.00    3.73521   3.96656    0.003
 6097.00    3.78127   3.94360    0.003
 6098.00    3.82369   3.94795    0.003
 6099.00    3.84361   3.97230    0.003
 6100.00    3.86153   3.97438    0.003
 6101.00    3.86976   3.95315    0.003
 6102.00    3.90407   3.94865    0.003
 6103.00    4.04170   3.96891    0.003
 6104.00    4.14972   3.97705    0.003
 6105.00    4.16031   3.95994    0.004
 6106.00    4.15428   3.94984    0.004
 6107.00    4.10201   3.96255    0.004
 6108.00    4.02551   3.97115    0.004
 6109.00    3.89133   3.95944    0.003
 6110.00    3.80734   3.94842    0.003
 6111.00    3.82660   3.95231    0.003
 6112.00    3.87357   3.95648    0.003
 6113.00    3.97012   3.95062    0.003
 6114.00    4.04075   3.94315    0.003
 6115.00    4.07083   3.93883    0.003
 6116.00    4.03895   3.93600    0.003
 6117.00    3.92194   3.93660    0.003
 6118.00    3.80392   3.93562    0.003
 6119.00    3.68470   3.92406    0.003
 6120.00    3.60927   3.91393    0.003
 6121.00    3.58054   3.92189    0.003
 6122.00    3.60591   3.92905    0.003
 6123.00    3.68217   3.91127    0.003
 6124.00    3.76315   3.89433    0.003
 6125.00    3.84804   3.91006    0.003
 6126.00    3.89230   3.92636    0.003
 6127.00    3.90689   3.90425    0.003
 6128.00    3.87985   3.88090    0.003
 6129.00    3.82612   3.90245    0.003
 6130.00    3.83053   3.92803    0.003
 6131.00    3.86755   3.90496    0.003
 6132.00    3.86145   3.87560    0.003
 6133.00    3.83432   3.89838    0.003
 6134.00    3.81792   3.93128    0.003
 6135.00    3.80606   3.91075    0.004
 6136.00    3.79195   3.87595    0.004
 6137.00    3.77703   3.89405    0.004
 6138.00    3.78716   3.92995    0.004
 6139.00    3.80494   3.91363    0.004
 6140.00    3.83300   3.87405    0.003
 6141.00    3.86368   3.88297    0.003
 6142.00    3.81500   3.91735    0.003
 6143.00    3.74994   3.90418    0.003
 6144.00    3.65980   3.86003    0.003
 6145.00    3.56557   3.85910    0.003
 6146.00    3.61124   3.89020    0.003
 6147.00    3.67392   3.87809    0.003
 6148.00    3.66191   3.82973    0.003
 6149.00    3.64365   3.82245    0.003
 6150.00    3.69018   3.85247    0.003
 6151.00    3.73982   3.84044    0.003
 6152.00    3.76395   3.78930    0.003
 6153.00    3.78514   3.78144    0.003
 6154.00    3.65748   3.81464    0.003
 6155.00    3.53896   3.80399    0.003
 6156.00    3.60032   3.75321    0.003
 6157.00    3.66053   3.74973    0.003
 6158.00    3.70746   3.78869    0.004
 6159.00    3.74171   3.78181    0.004
 6160.00    3.67445   3.73597    0.004
 6161.00    3.61626   3.73858    0.004
 6162.00    3.61268   3.78151    0.004
 6163.00    3.62760   3.78030    0.004
 6164.00    3.73039   3.74356    0.004
 6165.00    3.81520   3.75006    0.004
 6166.00    3.83031   3.79103    0.003
 6167.00    3.82067   3.79602    0.003
 6168.00    3.73115   3.77101    0.003
 6169.00    3.62469   3.77628    0.003
 6170.00    3.47193   3.80788    0.003
 6171.00    3.38719   3.81849    0.003
 6172.00    3.46171   3.80630    0.003
 6173.00    3.54392   3.80529    0.003
 6174.00    3.64172   3.82180    0.003
 6175.00    3.69700   3.83752    0.003
 6176.00    3.67733   3.83832    0.003
 6177.00    3.63737   3.82847    0.003
 6178.00    3.56614   3.82785    0.003
 6179.00    3.49019   3.84804    0.003
 6180.00    3.40787   3.86169    0.003
 6181.00    3.37918   3.84459    0.003
 6182.00    3.41445   3.82866    0.003
 6183.00    3.44853   3.85164    0.003
 6184.00    3.48136   3.87687    0.003
 6185.00    3.50319   3.85722    0.003
 6186.00    3.51481   3.83053    0.003
 6187.00    3.54256   3.85292    0.003
 6188.00    3.58351   3.88603    0.004
 6189.00    3.66245   3.86886    0.004
 6190.00    3.76873   3.83699    0.004
 6191.00    3.89427   3.85453    0.003
 6192.00    4.03199   3.88929    0.003
 6193.00    3.95037   3.87707    0.003
 6194.00    3.74761   3.84483    0.003
 6195.00    3.47691   3.85452    0.004
 6196.00    3.17359   3.88416   -2.000
 6197.00    3.21849   3.87581   -2.000
 6198.00    3.40774   3.84623   -2.000
 6199.00    3.80850   3.84777   -2.000
 6200.00    4.28423   3.86815   -2.000
 6201.00    4.18343   3.86086   -2.000
 6202.00    3.91010   3.83491   -2.000
 6203.00    3.64266   3.83073   -2.000
 6204.00    3.37668   3.84201   -2.000
 6205.00    3.35297   3.83379   -2.000
 6206.00    3.37805   3.81132   -2.000
 6207.00    3.50666   3.80480   -2.000
 6208.00    3.65159   3.81022    0.003
 6209.00    3.58143   3.80124    0.003
 6210.00    3.48606   3.78232    0.003
 6211.00    3.48226   3.77622    0.003
 6212.00    3.48574   3.77931    0.003
 6213.00    3.60973   3.77087    0.003
 6214.00    3.73903   3.75617    0.003
 6215.00    3.75794   3.75219    0.003
 6216.00    3.77657   3.75464    0.003
 6217.00    3.83929   3.74742    0.003
 6218.00    3.89841   3.73751    0.003
 6219.00    3.89178   3.73670    0.003
 6220.00    3.88951   3.73873    0.003
 6221.00    3.93528   3.73170    0.003
 6222.00    3.98523   3.72576    0.003
 6223.00    4.06739   3.72869    0.003
 6224.00    4.14286   3.73043    0.003
 6225.00    4.17916   3.72205    0.003
 6226.00    4.19851   3.71770    0.003
 6227.00    4.13925   3.72376    0.003
 6228.00    4.07271   3.72576    0.003
 6229.00    3.97861   3.71582    0.003
 6230.00    3.88746   3.71062    0.003
 6231.00    3.80564   3.71761    0.003
 6232.00    3.73939   3.72039    0.003
 6233.00    3.71490   3.71056    0.003
 6234.00    3.71028   3.70359    0.003
 6235.00    3.75143   3.70822    0.003
 6236.00    3.81711   3.71161    0.003
 6237.00    3.93167   3.70532    0.003
 6238.00    3.97705   3.69775    0.003
 6239.00    3.90232   3.69688    0.003
 6240.00    3.83824   3.69969    0.003
 6241.00    3.79034   3.70056    0.003
 6242.00    3.75506   3.69578    0.003
 6243.00    3.73662   3.68820    0.003
 6244.00    3.71548   3.68878    0.003
 6245.00    3.69116   3.69892    0.003
 6246.00    3.70621   3.70098    0.003
 6247.00    3.76207   3.68835    0.003
 6248.00    3.80604   3.68542    0.003
 6249.00    3.83915   3.70437    0.003
 6250.00    3.80191   3.71604    0.003
 6251.00    3.70795   3.70203    0.003
 6252.00    3.65889   3.69530    0.003
 6253.00    3.64166   3.72009    0.003
 6254.00    3.60043   3.74123    0.003
 6255.00    3.54427   3.72945    0.003
 6256.00    3.48750   3.72002    0.003
 6257.00    3.43040   3.74636    0.003
 6258.00    3.47765   3.77349    0.003
 6259.00    3.57419   3.76605    0.003
 6260.00    3.68365   3.75569    0.004
 6261.00    3.79836   3.77954    0.004
 6262.00    3.75140   3.80823    0.004
 6263.00    3.64818   3.80493    0.004
 6264.00    3.39610   3.79536    0.004
 6265.00    3.10035   3.81456    0.004
 6266.00    3.17092   3.84048    0.004
 6267.00    3.33047   3.83962    0.004
 6268.00    3.62594   3.83217    0.003
 6269.00    3.94809   3.84683    0.003
 6270.00    4.09677   3.86731    0.003
 6271.00    4.21891   3.86635    0.003
 6272.00    4.08344   3.86153    0.003
 6273.00    3.91891   3.87359    0.003
 6274.00    3.86684   3.88776    0.003
 6275.00    3.82324   3.88374    0.003
 6276.00    3.78021   3.88086    0.003
 6277.00    3.73721   3.89322    0.003
 6278.00    3.75052   3.90202    0.003
 6279.00    3.76517   3.89236    0.003
 6280.00    3.81725   3.88897    0.000
 6281.00    3.86350   3.90377    0.000
 6282.00    3.81052   3.91045    0.000
 6283.00    3.75174   3.89425    0.000
 6284.00    3.63184   3.88682    0.000
 6285.00    3.54364   3.90460    0.000
 6286.00    3.69206   3.91348    0.000
 6287.00    3.82182   3.89255    0.000
 6288.00    3.84541   3.87818    0.000
 6289.00    3.85997   3.89732    0.000
 6290.00    3.83361   3.91259    0.000
 6291.00    3.82388   3.89182    0.000
 6292.00    3.87585   3.86895    0.000
 6293.00    3.89369   3.88432    0.000
 6294.00    3.80555   3.90853    0.000
 6295.00    3.73290   3.89522    0.000
 6296.00    3.70110   3.86411    0.000
 6297.00    3.70065   3.87008    0.000
 6298.00    3.77119   3.90332    0.000
 6299.00    3.83360   3.90286    0.000
 6300.00    3.88006   3.86558    0.000
 6301.00    3.91166   3.85897    0.000
 6302.00    3.91784   3.89817    0.000
 6303.00    3.93307   3.91234    0.000
 6304.00    3.96187   3.87375    0.000
 6305.00    3.95891   3.85446    0.000
 6306.00    3.91415   3.89449    0.000
 6307.00    3.88018   3.92193    0.000
 6308.00    3.85873   3.88771    0.000
 6309.00    3.83596   3.85791    0.000
 6310.00    3.81185   3.89388    0.000
 6311.00    3.79198   3.93207    0.000
 6312.00    3.77594   3.90617    0.000
 6313.00    3.74976   3.86855    0.000
 6314.00    3.71554   3.89698    0.000
 6315.00    3.74879   3.94352    0.000
 6316.00    3.82921   3.92799    0.000
 6317.00    3.81970   3.88428    0.000
 6318.00    3.75507   3.90202    0.000
 6319.00    3.69604   3.95388    0.000
 6320.00    3.64000   3.95029    0.000
 6321.00    3.68943   3.90238    0.003
 6322.00    3.78789   3.90661    0.003
 6323.00    3.87653   3.95956    0.003
 6324.00    3.96124   3.96751    0.003
 6325.00    3.89750   3.91967    0.003
 6326.00    3.78306   3.91092    0.003
 6327.00    3.75695   3.95958    0.003
 6328.00    3.75623   3.97639    0.003
 6329.00    3.72008   3.93355    0.003
 6330.00    3.67551   3.91407    0.003
 6331.00    3.63441   3.95333    0.003
 6332.00    3.59397   3.97535    0.003
 6333.00    3.62205   3.94209    0.003
 6334.00    3.66028   3.91905    0.003
 6335.00    3.72614   3.94609    0.003
 6336.00    3.79499   3.96539    0.003
 6337.00    3.88491   3.94237    0.003
 6338.00    3.97633   3.92344    0.003
 6339.00    4.01065   3.93980    0.003
 6340.00    4.04289   3.94958    0.003
 6341.00    3.91581   3.93283    0.003
 6342.00    3.79141   3.92370    0.003
 6343.00    3.78262   3.93455    0.003
 6344.00    3.77238   3.93193    0.003
 6345.00    3.73890   3.91708    0.003
 6346.00    3.71103   3.91898    0.003
 6347.00    3.73950   3.92908    0.003
 6348.00    3.77123   3.91721    0.003
 6349.00    3.82638   3.90199    0.003
 6350.00    3.86302   3.91309    0.003
 6351.00    3.79728   3.92738    0.003
 6352.00    3.71592   3.91241    0.003
 6353.00    3.56546   3.89621    0.003
 6354.00    3.43780   3.91369    0.003
 6355.00    3.39297   3.93477    0.003
 6356.00    3.38354   3.92188    0.003
 6357.00    3.48195   3.90522    0.003
 6358.00    3.55316   3.92553    0.003
 6359.00    3.55390   3.95356    0.003
 6360.00    3.56211   3.94644    0.003
 6361.00    3.58696   3.93006    0.003
 6362.00    3.61908   3.94864    0.003
 6363.00    3.66521   3.98030    0.003
 6364.00    3.67945   3.98025    0.003
 6365.00    3.63996   3.96514    0.003
 6366.00    3.61088   3.97722    0.003
 6367.00    3.59714   4.00643    0.003
 6368.00    3.65866   4.01400    0.003
 6369.00    3.81780   4.00220    0.003
 6370.00    3.94119   4.00408    0.003
 6371.00    4.02372   4.02468    0.003
 6372.00    3.98951   4.03841    0.003
 6373.00    3.83762   4.03197    0.003
 6374.00    3.72159   4.02435    0.003
 6375.00    3.63743   4.03302    0.003
 6376.00    3.58909   4.04884    0.003
 6377.00    3.56881   4.04876    0.003
 6378.00    3.60281   4.03594    0.003
 6379.00    3.67421   4.03295    0.003
 6380.00    3.75277   4.04698    0.003
 6381.00    3.83566   4.05212    0.003
 6382.00    3.91792   4.03808    0.003
 6383.00    3.99984   4.02988    0.003
 6384.00    4.06880   4.04197    0.003
 6385.00    4.13183   4.04620    0.003
 6386.00    4.12963   4.03034    0.003
 6387.00    4.10174   4.02669    0.003
 6388.00    4.06541   4.04148    0.003
 6389.00    4.02625   4.03892    0.003
 6390.00    3.90126   4.01888    0.003
 6391.00    3.75210   4.02324    0.003
 6392.00    3.64466   4.04347    0.003
 6393.00    3.54691   4.03485    0.003
 6394.00    3.58447   4.01192    0.003
 6395.00    3.64723   4.02256    0.003
 6396.00    3.78040   4.04748    0.003
 6397.00    3.92368   4.03537    0.003
 6398.00    3.92756   4.00831    0.003
 6399.00    3.91693   4.02150    0.003
 6400.00    3.88305   4.05163    0.003
 6401.00    3.84762   4.04182    0.003
 6402.00    3.79516   4.01292    0.003
 6403.00    3.74215   4.02058    0.003
 6404.00    3.66577   4.05184    0.003
 6405.00    3.59086   4.05270    0.003
 6406.00    3.56174   4.02564    0.003
 6407.00    3.53824   4.02085    0.003
 6408.00    3.59903   4.04953    0.003
 6409.00    3.65717   4.06502    0.003
 6410.00    3.68981   4.04308    0.003
 6411.00    3.70131   4.02542    0.003
 6412.00    3.56520   4.04592    0.003
 6413.00    3.43007   4.07311    0.003
 6414.00    3.30023   4.06492    0.003
 6415.00    3.21370   4.04304    0.003
 6416.00    3.31431   4.04687    0.003
 6417.00    3.42822   4.07192    0.003
 6418.00    3.58945   4.08223    0.003
 6419.00    3.73523   4.06895    0.003
 6420.00    3.83480   4.05486    0.003
 6421.00    3.91679   4.06577    0.003
 6422.00    3.95406   4.09074    0.003
 6423.00    3.98004   4.09399    0.003
 6424.00    3.98132   4.07076    0.003
 6425.00    4.01063   4.06536    0.003
 6426.00    4.09321   4.09421    0.003
 6427.00    4.10628   4.11198    0.003
 6428.00    4.00406   4.08764    0.003
 6429.00    3.90121   4.06871    0.003
 6430.00    3.79742   4.09268    0.003
 6431.00    3.74825   4.11711    0.003
 6432.00    3.76892   4.10068    0.003
 6433.00    3.79120   4.08217    0.003
 6434.00    3.81529   4.09546    0.003
 6435.00    3.82916   4.11176    0.003
 6436.00    3.83284   4.10224    0.003
 6437.00    3.77094   4.09371    0.003
 6438.00    3.65155   4.10262    0.003
 6439.00    3.57430   4.10592    0.003
 6440.00    3.52960   4.09366    0.003
 6441.00    3.57048   4.09388    0.003
 6442.00    3.66946   4.10706    0.003
 6443.00    3.72111   4.10837    0.003
 6444.00    3.74461   4.09356    0.003
 6445.00    3.72543   4.09074    0.003
 6446.00    3.68410   4.10882    0.003
 6447.00    3.60326   4.11473    0.003
 6448.00    3.50465   4.09511    0.003
 6449.00    3.43910   4.08667    0.003
 6450.00    3.38634   4.11350    0.003
 6451.00    3.39780   4.12684    0.003
 6452.00    3.43039   4.09969    0.003
 6453.00    3.53052   4.08271    0.003
 6454.00    3.64927   4.11532    0.003
 6455.00    3.65091   4.13646    0.003
 6456.00    3.62599   4.11108    0.003
 6457.00    3.65945   4.08889    0.003
 6458.00    3.70349   4.11460    0.003
 6459.00    3.79211   4.13937    0.003
 6460.00    3.88693   4.12215    0.003
 6461.00    3.86192   4.09645    0.003
 6462.00    3.82496   4.10894    0.003
 6463.00    3.79731   4.13477    0.003
 6464.00    3.77026   4.12599    0.003
 6465.00    3.77107   4.10110    0.003
 6466.00    3.77253   4.10280    0.003
 6467.00    3.72834   4.12118    0.003
 6468.00    3.68710   4.11309    0.003
 6469.00    3.72803   4.09316    0.003
 6470.00    3.76762   4.09346    0.003
 6471.00    3.78822   4.10050    0.003
 6472.00    3.79892   4.08461    0.003
 6473.00    3.71782   4.06870    0.003
 6474.00    3.64915   4.07305    0.003
 6475.00    3.66449   4.07190    0.003
 6476.00    3.68284   4.04719    0.003
 6477.00    3.71694   4.03217    0.003
 6478.00    3.74249   4.04250    0.003
 6479.00    3.73188   4.04004    0.003
 6480.00    3.73767   4.00762    0.003
 6481.00    3.80065   3.98683    0.003
 6482.00    3.85700   4.00271    0.003
 6483.00    3.89394   4.00915    0.003
 6484.00    3.90579   3.97544    0.003
 6485.00    3.85490   3.94526    0.003
 6486.00    3.82918   3.96268    0.003
 6487.00    3.85771   3.98427    0.003
 6488.00    3.84673   3.96247    0.003
 6489.00    3.76183   3.92783    0.003
 6490.00    3.66593   3.93922    0.003
 6491.00    3.55207   3.97186    0.003
 6492.00    3.44428   3.96931    0.003
 6493.00    3.34522   3.94170    0.003
 6494.00    3.27491   3.94341    0.003
 6495.00    3.24085   3.97583    0.003
 6496.00    3.28157   3.99046    0.003
 6497.00    3.40536   3.97808    0.003
 6498.00    3.59019   3.97310    0.003
 6499.00    3.83482   3.99655    0.003
 6500.00    3.95057   4.01879    0.003
 6501.00    3.95497   4.02055    0.003
 6502.00    3.85247   4.01624    0.003
 6503.00    3.66861   4.02982    0.003
 6504.00    3.55954   4.04791    0.003
 6505.00    3.50050   4.05639    0.003
 6506.00    3.48791   4.05892    0.003
 6507.00    3.50254   4.06738    0.003
 6508.00    3.53564   4.07473    0.003
 6509.00    3.57818   4.08041    0.003
 6510.00    3.61823   4.09058    0.005
 6511.00    3.65719   4.10015    0.023
 6512.00    3.67061   4.09935   -1.000
 6513.00    3.67432   4.09692   -1.000
 6514.00    3.67596   4.10798   -1.000
 6515.00    3.67695   4.12129   -1.000
 6516.00    3.69853   4.12055   -1.000
 6517.00    3.72567   4.11172   -1.000
 6518.00    3.71461   4.11538   -1.000
 6519.00    3.69508   4.12840   -1.000
 6520.00    3.69619   4.13396   -1.000
 6521.00    3.70094   4.12674   -1.000
 6522.00    3.84098   4.12055    0.007
 6523.00    3.99922   4.12394    0.003
 6524.00    3.97753   4.13367    0.003
 6525.00    3.93865   4.13680    0.003
 6526.00    3.87015   4.12735    0.003
 6527.00    3.79990   4.11596    0.003
 6528.00    3.78413   4.11871    0.000
 6529.00    3.76947   4.13092    0.000
 6530.00    3.71561   4.12862    0.000
 6531.00    3.66488   4.10631    0.000
 6532.00    3.69294   4.09246    0.000
 6533.00    3.72266   4.10483    0.000
 6534.00    3.77454   4.11340    0.000
 6535.00    3.82101   4.08814    0.000
 6536.00    3.81944   4.05528    0.000
 6537.00    3.81445   4.06108    0.000
 6538.00    3.78711   4.08021    0.000
 6539.00    3.77201   4.05456    0.000
 6540.00    3.81947   4.00415    0.000
 6541.00    3.89963   4.00073    0.000
 6542.00    4.11475   4.02843    0.000
 6543.00    4.29540   4.01113    0.000
 6544.00    4.35825   3.95452    0.000
 6545.00    4.38482   3.93559    0.000
 6546.00    4.30695   3.96356    0.000
 6547.00    4.21756   3.96068    0.000
 6548.00    4.09988   3.90421    0.000
 6549.00    3.99618   3.87053    0.000
 6550.00    3.92214   3.90216    0.000
 6551.00    3.83589   3.91963    0.000
 6552.00    3.72713   3.86447    0.000
 6553.00    3.75432   3.81607    0.000
 6554.00    4.00033   3.85465    0.000
 6555.00    4.60139   3.89662    0.000
 6556.00    5.70389   3.85180    0.000
 6557.00    7.00631   3.79583    0.000
 6558.00    8.55716   3.82832    0.000
 6559.00    9.64962   3.88395    0.000
 6560.00   10.24003   3.87147    0.000
 6561.00    9.94970   3.82991    0.000
 6562.00    8.80852   3.84002    0.000
 6563.00    7.53206   3.88694    0.000
 6564.00    6.14036   3.90371    0.000
 6565.00    5.14597   3.88077    0.000
 6566.00    4.44966   3.87642    0.000
 6567.00    4.03404   3.91522    0.000
 6568.00    3.80344   3.94777    0.000
 6569.00    3.71242   3.93652    0.000
 6570.00    3.70193   3.92371    0.000
 6571.00    3.64422   3.95146    0.000
 6572.00    3.56277   3.98826    0.000
 6573.00    3.56567   3.99253    0.000
 6574.00    3.60527   3.97981    0.000
 6575.00    3.89508   3.98649    0.000
 6576.00    4.27829   4.01286    0.000
 6577.00    4.88326   4.03034    0.000
 6578.00    5.55843   4.02424    0.000
 6579.00    6.08703   4.01650    0.000
 6580.00    6.57687   4.02997    0.000
 6581.00    6.47245   4.05289    0.000
 6582.00    6.23955   4.05084    0.000
 6583.00    5.65411   4.03398    0.000
 6584.00    5.00819   4.04036    0.000
 6585.00    4.51395   4.06597    0.000
 6586.00    4.03942   4.06665    0.000
 6587.00    3.83561   4.04492    0.000
 6588.00    3.65652   4.04353    0.000
 6589.00    3.60434   4.06645    0.000
 6590.00    3.55915   4.07447    0.000
 6591.00    3.63281   4.06097    0.000
 6592.00    3.70843   4.05585    0.000
 6593.00    3.72931   4.06793    0.000
 6594.00    3.74490   4.07668    0.000
 6595.00    3.63884   4.07027    0.000
 6596.00    3.54380   4.06884    0.000
 6597.00    3.58843   4.07983    0.000
 6598.00    3.63527   4.08494    0.000
 6599.00    3.70105   4.07521    0.000
 6600.00    3.75880   4.07625    0.000
 6601.00    3.76545   4.09251    0.000
 6602.00    3.75681   4.09741    0.000
 6603.00    3.67198   4.08364    0.000
 6604.00    3.61135   4.08417    0.000
 6605.00    3.64840   4.10408    0.000
 6606.00    3.68828   4.11010    0.000
 6607.00    3.73766   4.09607    0.000
 6608.00    3.78053   4.09136    0.000
 6609.00    3.80500   4.10838    0.003
 6610.00    3.81948   4.11686    0.003
 6611.00    3.80979   4.10432    0.003
 6612.00    3.81314   4.09619    0.003
 6613.00    3.84366   4.10709    0.003
 6614.00    3.85864   4.11338    0.003
 6615.00    3.84542   4.10266    0.003
 6616.00    3.81667   4.09523    0.003
 6617.00    3.76333   4.10292    0.003
 6618.00    3.71957   4.10699    0.003
 6619.00    3.68917   4.09469    0.003
 6620.00    3.69891   4.08537    0.003
 6621.00    3.75783   4.09211    0.003
 6622.00    3.78797   4.10132    0.003
 6623.00    3.78703   4.09078    0.003
 6624.00    3.78658   4.07127    0.003
 6625.00    3.78661   4.07489    0.003
 6626.00    3.68929   4.09292    0.003
 6627.00    3.51021   4.08888    0.003
 6628.00    3.43045   4.06349    0.003
 6629.00    3.42413   4.05871    0.003
 6630.00    3.49305   4.07981    0.003
 6631.00    3.61084   4.09112    0.003
 6632.00    3.64134   4.07217    0.003
 6633.00    3.62223   4.05200    0.003
 6634.00    3.59927   4.06185    0.003
 6635.00    3.57441   4.08837    0.003
 6636.00    3.52045   4.08635    0.003
 6637.00    3.45405   4.05601    0.003
 6638.00    3.42044   4.05098    0.003
 6639.00    3.39887   4.07977    0.003
 6640.00    3.42045   4.09120    0.003
 6641.00    3.45543   4.06671    0.003
 6642.00    3.55184   4.05272    0.003
 6643.00    3.66415   4.06993    0.003
 6644.00    3.71301   4.08505    0.003
 6645.00    3.74849   4.07439    0.003
 6646.00    3.66903   4.05860    0.003
 6647.00    3.57040   4.06149    0.003
 6648.00    3.42047   4.07417    0.003
 6649.00    3.26411   4.07316    0.003
 6650.00    3.31922   4.05902    0.003
 6651.00    3.39276   4.05782    0.003
 6652.00    3.54322   4.06767    0.003
 6653.00    3.69763   4.06529    0.003
 6654.00    3.73129   4.05334    0.003
 6655.00    3.76147   4.05532    0.003
 6656.00    3.69765   4.06525    0.003
 6657.00    3.63653   4.05886    0.003
 6658.00    3.63225   4.04522    0.003
 6659.00    3.62498   4.04600    0.003
 6660.00    3.58175   4.06002    0.003
 6661.00    3.53962   4.06255    0.003
 6662.00    3.50657   4.04774    0.003
 6663.00    3.48245   4.03792    0.003
 6664.00    3.51347   4.05201    0.003
 6665.00    3.54925   4.06820    0.003
 6666.00    3.60811   4.05953    0.003
 6667.00    3.65742   4.04009    0.003
 6668.00    3.66895   4.04217    0.003
 6669.00    3.68222   4.06602    0.003
 6670.00    3.70116   4.07363    0.003
 6671.00    3.69136   4.05236    0.003
 6672.00    3.60175   4.03607    0.003
 6673.00    3.55422   4.05562    0.003
 6674.00    3.60667   4.08029    0.003
 6675.00    3.65984   4.07118    0.003
 6676.00    3.71445   4.04795    0.003
 6677.00    3.70722   4.05029    0.003
 6678.00    3.58952   4.07427    0.003
 6679.00    3.50811   4.08194    0.003
 6680.00    3.48339   4.06374    0.003
 6681.00    3.55072   4.05043    0.003
 6682.00    3.74430   4.06355    0.003
 6683.00    3.89548   4.08177    0.003
 6684.00    3.99544   4.07377    0.003
 6685.00    4.02527   4.05401    0.003
 6686.00    3.98043   4.05406    0.003
 6687.00    3.91661   4.07195    0.003
 6688.00    3.83497   4.07557    0.003
 6689.00    3.82585   4.05891    0.003
 6690.00    3.87678   4.04680    0.003
 6691.00    3.87341   4.05588    0.003
 6692.00    3.83046   4.06644    0.003
 6693.00    3.71439   4.05662    0.003
 6694.00    3.55153   4.04151    0.003
 6695.00    3.48978   4.04232    0.003
 6696.00    3.48464   4.05437    0.000
 6697.00    3.46927   4.05025    0.000
 6698.00    3.44892   4.03060    0.000
 6699.00    3.44987   4.02471    0.000
 6700.00    3.45977   4.03912    0.000
 6701.00    3.53579   4.04318    0.000
 6702.00    3.63562   4.02456    0.000
 6703.00    3.76763   4.01094    0.000
 6704.00    3.90945   4.02241    0.000
 6705.00    3.87528   4.03475    0.000
 6706.00    3.79655   4.02266    0.000
 6707.00    3.78162   4.00246    0.000
 6708.00    3.77983   4.00931    0.000
 6709.00    3.91968   4.02941    0.000
 6710.00    4.08246   4.02492    0.000
 6711.00    4.36110   4.00017    0.000
 6712.00    4.65376   3.99866    0.000
 6713.00    4.82794   4.02475    0.000
 6714.00    4.99230   4.03190    0.000
 6715.00    4.86363   4.01200    0.000
 6716.00    4.72107   4.00115    0.000
 6717.00    4.39098   4.02207    0.000
 6718.00    4.06194   4.03745    0.000
 6719.00    3.94149   4.02455    0.000
 6720.00    3.82710   4.00749    0.000
 6721.00    3.83076   4.02135    0.000
 6722.00    3.84083   4.04187    0.000
 6723.00    3.92453   4.03460    0.000
 6724.00    4.02513   4.01616    0.000
 6725.00    4.26035   4.02127    0.000
 6726.00    4.45661   4.04355    0.000
 6727.00    4.41924   4.04164    0.000
 6728.00    4.37165   4.02309    0.000
 6729.00    4.27565   4.02005    0.000
 6730.00    4.18598   4.03996    0.000
 6731.00    4.12080   4.04521    0.000
 6732.00    4.04388   4.02873    0.000
 6733.00    3.92918   4.01752    0.000
 6734.00    3.79489   4.02997    0.000
 6735.00    3.60721   4.04419    0.000
 6736.00    3.44298   4.03586    0.000
 6737.00    3.33355   4.02148    0.000
 6738.00    3.28124   4.02378    0.000
 6739.00    3.34431   4.04052    0.000
 6740.00    3.38484   4.04142    0.000
 6741.00    3.38570   4.03221    0.000
 6742.00    3.39513   4.02856    0.000
 6743.00    3.41776   4.03687    0.000
 6744.00    3.45298   4.04501    0.000
 6745.00    3.50523   4.04772    0.000
 6746.00    3.50894   4.04374    0.000
 6747.00    3.45485   4.03967    0.000
 6748.00    3.41499   4.04903    0.000
 6749.00    3.39008   4.05968    0.000
 6750.00    3.39054   4.06311    0.000
 6751.00    3.41450   4.05743    0.000
 6752.00    3.46607   4.05563    0.000
 6753.00    3.54019   4.06403    0.004
 6754.00    3.58332   4.07943    0.004
 6755.00    3.60420   4.07991    0.004
 6756.00    3.43802   4.06652    0.004
 6757.00    3.15390   4.06718    0.004
 6758.00    3.00820   4.08556    0.004
 6759.00    2.93879   4.09611    0.004
 6760.00    3.24155   4.08446    0.004
 6761.00    3.72265   4.07422    0.004
 6762.00    4.07153   4.08227    0.004
 6763.00    4.36572   4.10062    0.004
 6764.00    4.55395   4.10123    0.004
 6765.00    4.70472   4.08412    0.004
 6766.00    4.64455   4.08059    0.004
 6767.00    4.52141   4.09713    0.004
 6768.00    4.33264   4.10576    0.004
 6769.00    4.12761   4.09329    0.004
 6770.00    4.06684   4.08306    0.003
 6771.00    4.03503   4.08844    0.003
 6772.00    4.02545   4.10079    0.003
 6773.00    4.01937   4.10165    0.003
 6774.00    4.00829   4.08809    0.003
 6775.00    3.99663   4.08323    0.003
 6776.00    3.87004   4.09390    0.003
 6777.00    3.73440   4.10013    0.003
 6778.00    3.75149   4.08972    0.004
 6779.00    3.77524   4.08159    0.004
 6780.00    3.64704   4.08587    0.004
 6781.00    3.51972   4.09416    0.004
 6782.00    3.50699   4.09499    0.004
 6783.00    3.49804   4.08586    0.004
 6784.00    3.55743   4.08293    0.004
 6785.00    3.61686   4.09114    0.003
 6786.00    3.67672   4.09759    0.003
 6787.00    3.72170   4.09071    0.003
 6788.00    3.65218   4.08543    0.003
 6789.00    3.60969   4.09114    0.003
 6790.00    3.72481   4.09815    0.003
 6791.00    3.79560   4.09665    0.003
 6792.00    3.66138   4.09112    0.003
 6793.00    3.55528   4.09621    0.003
 6794.00    3.55549   4.10379    0.003
 6795.00    3.56624   4.10344    0.003
 6796.00    3.61030   4.09831    0.003
 6797.00    3.62161   4.10233    0.003
 6798.00    3.54521   4.11244    0.004
 6799.00    3.50459   4.11222    0.004
 6800.00    3.54617   4.10305    0.004
 6801.00    3.54739   4.10465    0.004
 6802.00    3.46833   4.12165    0.004
 6803.00    3.46594   4.12639    0.004
 6804.00    3.59639   4.11260    0.004
 6805.00    3.64459   4.10608    0.004
 6806.00    3.56802   4.12349    0.003
 6807.00    3.51717   4.13929    0.003
 6808.00    3.50059   4.12839    0.003
 6809.00    3.50595   4.11067    0.003
 6810.00    3.53707   4.11984    0.003
 6811.00    3.56174   4.14576    0.003
 6812.00    3.57974   4.14622    0.003
 6813.00    3.55535   4.12098    0.003
 6814.00    3.49226   4.11412    0.004
 6815.00    3.39302   4.13955    0.004
 6816.00    3.26469   4.15615    0.004
 6817.00    3.23396   4.13651    0.004
 6818.00    3.27232   4.11438    0.004
 6819.00    3.38362   4.12686    0.003
 6820.00    3.54024   4.15343    0.003
 6821.00    3.64950   4.14868    0.003
 6822.00    3.73306   4.11940    0.004
 6823.00    3.70780   4.11396    0.004
 6824.00    3.63123   4.13775    0.004
 6825.00    3.56925   4.14863    0.003
 6826.00    3.51322   4.12510    0.003
 6827.00    3.51253   4.10473    0.003
 6828.00    3.53107   4.11657    0.003
 6829.00    3.55433   4.13802    0.003
 6830.00    3.57898   4.12949    0.003
 6831.00    3.60870   4.10285    0.003
 6832.00    3.63965   4.10005    0.003
 6833.00    3.61893   4.11931    0.003
 6834.00    3.58809   4.12446    0.003
 6835.00    3.64338   4.10355    0.003
 6836.00    3.71179   4.08932    0.004
 6837.00    3.80468   4.09887    0.004
 6838.00    3.90031   4.11384    0.004
 6839.00    3.74221   4.10600    0.004
 6840.00    3.56515   4.08694    0.004
 6841.00    3.47266   4.08655    0.004
 6842.00    3.38353   4.10055    0.004
 6843.00    3.50165   4.10160    0.004
 6844.00    3.62726   4.08785    0.003
 6845.00    3.99403   4.08207    0.003
 6846.00    4.31945   4.08813    0.004
 6847.00    3.94615   4.09330    0.003
 6848.00    3.58594   4.08757    0.003
 6849.00    3.36268   4.08079    0.003
 6850.00    3.17862   4.08401    0.003
 6851.00    3.28591   4.08931    0.003
 6852.00    3.39005   4.08378    0.003
 6853.00    3.47638   4.07825    0.003
 6854.00    3.54083   4.08448    0.003
 6855.00    3.50650   4.09032    0.003
 6856.00    3.50782   4.08399    0.003
 6857.00    3.64111   4.07672    0.003
 6858.00    3.73648   4.08285    0.003
 6859.00    3.71436   4.09498    0.004
 6860.00    3.67781   4.09541    0.004
 6861.00    3.60327   4.08294    0.003
 6862.00    3.50130   4.08070    0.003
 6863.00    3.33737   4.09741    0.003
 6864.00    3.27073   4.11049    0.003
 6865.00    3.39451   4.10194    0.004
 6866.00    3.44837   4.09010    0.004
 6867.00    3.38290   4.09872    0.004
 6868.00    3.35647   4.11913    0.003
 6869.00    3.38840   4.12631    0.003
 6870.00    3.39618   4.11517    0.003
 6871.00    3.37221   4.10874    0.003
 6872.00    3.41498   4.12442    0.003
 6873.00    3.53499   4.14581    0.003
 6874.00    3.65123   4.14764    0.003
 6875.00    3.76365   4.13498    0.003
 6876.00    3.80837   4.13538    0.003
 6877.00    3.79217   4.15524    0.003
 6878.00    3.71476   4.17344    0.003
 6879.00    3.58880   4.17105    0.003
 6880.00    3.46709   4.15832    0.003
 6881.00    3.34835   4.16426    0.003
 6882.00    3.33514   4.18886    0.003
 6883.00    3.38650   4.20232    0.003
 6884.00    3.48700   4.19075    0.003
 6885.00    3.61377   4.18098    0.003
 6886.00    3.59982   4.19577    0.003
 6887.00    3.52058   4.21991    0.003
 6888.00    3.48425   4.22223    0.003
 6889.00    3.46508   4.20453    0.003
 6890.00    3.52263   4.20174    0.003
 6891.00    3.60633   4.22493    0.003
 6892.00    3.53772   4.24188    0.003
 6893.00    3.42545   4.22922    0.003
 6894.00    3.51745   4.21301    0.003
 6895.00    3.65782   4.22291    0.003
 6896.00    3.74240   4.24600    0.003
 6897.00    3.81635   4.24656    0.003
 6898.00    3.65275   4.22812    0.003
 6899.00    3.45405   4.22120    0.003
 6900.00    3.41055   4.23809    0.003
 6901.00    3.38380   4.25122    0.003
 6902.00    3.34097   4.23997    0.004
 6903.00    3.29701   4.22491    0.004
 6904.00    3.26084   4.22851    0.004
 6905.00    3.22495   4.24312    0.004
 6906.00    3.31793   4.24282    0.003
 6907.00    3.41060   4.23237    0.003
 6908.00    3.47785   4.22527    0.003
 6909.00    3.53667   4.23002    0.003
 6910.00    3.46183   4.23675    0.003
 6911.00    3.39957   4.23456    0.003
 6912.00    3.46325   4.22823    0.003
 6913.00    3.50569   4.22364    0.003
 6914.00    3.39544   4.22596    0.003
 6915.00    3.31596   4.22995    0.003
 6916.00    3.40620   4.23289    0.003
 6917.00    3.48939   4.22767    0.003
 6918.00    3.54147   4.22000    0.003
 6919.00    3.55073   4.22220    0.003
 6920.00    3.40475   4.23166    0.003
 6921.00    3.26327   4.23410    0.003
 6922.00    3.13543   4.22358    0.003
 6923.00    3.08252   4.21810    0.003
 6924.00    3.22325   4.22695    0.003
 6925.00    3.33956   4.23703    0.004
 6926.00    3.40160   4.23332    0.004
 6927.00    3.45811   4.22185    0.003
 6928.00    3.50397   4.22308    0.003
 6929.00    3.57680   4.23608    0.003
 6930.00    3.69495   4.23982    0.003
 6931.00    3.77205   4.22946    0.003
 6932.00    3.78870   4.22534    0.003
 6933.00    3.73050   4.23415    0.003
 6934.00    3.57539   4.24086    0.003
 6935.00    3.50311   4.23857    0.003
 6936.00    3.52532   4.23255    0.003
 6937.00    3.57637   4.23493    0.003
 6938.00    3.65644   4.24349    0.004
 6939.00    3.63373   4.24501    0.004
 6940.00    3.51982   4.23950    0.004
 6941.00    3.46684   4.24057    0.004
 6942.00    3.46152   4.24667    0.004
 6943.00    3.58361   4.24992    0.004
 6944.00    3.79333   4.25178    0.004
 6945.00    3.87130   4.25037    0.004
 6946.00    3.86986   4.25148    0.004
 6947.00    3.76519   4.25717    0.004
 6948.00    3.60621   4.26243    0.004
 6949.00    3.60581   4.26144    0.003
 6950.00    3.67779   4.25995    0.003
 6951.00    3.63292   4.26148    0.003
 6952.00    3.54217   4.26861    0.003
 6953.00    3.63526   4.27782    0.003
 6954.00    3.78985   4.27307    0.003
 6955.00    3.78793   4.26490    0.003
 6956.00    3.74205   4.26973    0.003
 6957.00    3.62464   4.28364    0.003
 6958.00    3.49067   4.28423    0.003
 6959.00    3.44160   4.27097    0.003
 6960.00    3.40829   4.26497    0.004
 6961.00    3.31816   4.27821    0.004
 6962.00    3.21990   4.29345    0.004
 6963.00    3.23456   4.28252    0.004
 6964.00    3.26091   4.26402    0.004
 6965.00    3.31856   4.26780    0.004
 6966.00    3.37829   4.28723    0.004
 6967.00    3.54006   4.28901    0.004
 6968.00    3.70506   4.26975    0.003
 6969.00    3.68214   4.26038    0.004
 6970.00    3.65822   4.27520    0.004
 6971.00    3.60357   4.29217    0.003
 6972.00    3.55947   4.28370    0.003
 6973.00    3.67228   4.26672    0.003
 6974.00    3.76250   4.26841    0.004
 6975.00    3.63584   4.28462    0.004
 6976.00    3.51778   4.29142    0.004
 6977.00    3.45963   4.28240    0.004
 6978.00    3.40103   4.27516    0.004
 6979.00    3.33997   4.28017    0.004
 6980.00    3.28742   4.29118    0.004
 6981.00    3.27155   4.29457    0.004
 6982.00    3.28023   4.29042    0.004
 6983.00    3.37613   4.28636    0.004
 6984.00    3.53847   4.28743    0.004
 6985.00    3.89894   4.29511    0.004
 6986.00    4.11695   4.30061    0.004
 6987.00    3.97311   4.29771    0.004
 6988.00    3.86607   4.28948    0.004
 6989.00    3.83951   4.28892    0.004
 6990.00    3.78700   4.29695    0.004
 6991.00    3.68524   4.30060    0.004
 6992.00    3.62104   4.29454    0.003
 6993.00    3.61900   4.28700    0.003
 6994.00    3.50432   4.28984    0.003
 6995.00    3.22614   4.29417    0.003
 6996.00    3.19551   4.28972    0.003
 6997.00    3.48083   4.28307    0.004
 6998.00    3.62825   4.28504    0.004
 6999.00    3.62056   4.28853    0.004
 7000.00    3.55243   4.28314    0.004
 7001.00    3.42435   4.27800    0.004
 7002.00    3.47867   4.28168    0.004
 7003.00    3.69256   4.28789    0.004
 7004.00    3.75814   4.28060    0.004
 7005.00    3.70941   4.26652    0.004
 7006.00    3.58551   4.27084    0.004
 7007.00    3.41067   4.28902    0.004
 7008.00    3.39635   4.29141    0.004
 7009.00    3.47735   4.27347    0.004
 7010.00    3.58542   4.26728    0.004
 7011.00    3.70752   4.28575    0.004
 7012.00    3.59797   4.30074    0.004
 7013.00    3.38443   4.28790    0.003
 7014.00    3.38312   4.27029    0.004
 7015.00    3.46373   4.28404    0.004
 7016.00    3.41324   4.31265    0.004
 7017.00    3.31973   4.31522    0.004
 7018.00    3.42572   4.29189    0.004
 7019.00    3.58659   4.28729    0.004
 7020.00    3.54663   4.31621    0.004
 7021.00    3.46126   4.33760    0.004
 7022.00    3.40128   4.32516    0.004
 7023.00    3.34588   4.30769    0.004
 7024.00    3.26577   4.32252    0.004
 7025.00    3.18225   4.35424    0.004
 7026.00    3.54996   4.36004    0.004
 7027.00    3.96248   4.33621    0.004
 7028.00    3.86216   4.32785    0.004
 7029.00    3.72973   4.35512    0.004
 7030.00    3.54709   4.37968    0.004
 7031.00    3.36380   4.37438    0.004
 7032.00    3.38709   4.35463    0.004
 7033.00    3.40897   4.35371    0.004
 7034.00    3.39206   4.37262    0.004
 7035.00    3.36395   4.38266    0.004
 7036.00    3.17858   4.37114    0.004
 7037.00    3.04071   4.35764    0.004
 7038.00    3.34079   4.36050    0.004
 7039.00    3.58356   4.36928    0.004
 7040.00    3.44012   4.37056    0.004
 7041.00    3.33972   4.35718    0.004
 7042.00    3.46431   4.34102    0.004
 7043.00    3.58368   4.33456    0.004
 7044.00    3.68103   4.33542    0.004
 7045.00    3.74226   4.33684    0.004
 7046.00    3.67788   4.32878    0.004
 7047.00    3.70969   4.31154    0.004
 7048.00    4.02308   4.29453    0.004
 7049.00    4.16987   4.29078    0.004
 7050.00    3.90076   4.29295   -2.000
 7051.00    3.74536   4.28417   -2.000
 7052.00    3.83453   4.26338   -2.000
 7053.00    3.87589   4.24987   -2.000
 7054.00    3.82796   4.25409   -2.000
 7055.00    3.78125   4.25709   -2.000
 7056.00    3.73655   4.24319   -2.000
 7057.00    3.67444   4.21817   -2.000
 7058.00    3.58742   4.20929   -2.000
 7059.00    3.53034   4.21953   -2.000
 7060.00    3.51091   4.22433   -2.000
 7061.00    3.66974   4.21042   -2.000
 7062.00    4.02624   4.19298   -2.000
 7063.00    4.14578   4.18965   -2.000
 7064.00    4.03356   4.19337   -2.000
 7065.00    3.80319   4.19218   -2.000
 7066.00    3.47092   4.18091   -2.000
 7067.00    3.33390   4.17102   -2.000
 7068.00    3.34522   4.16704   -2.000
 7069.00    3.48199   4.16744   -2.000
 7070.00    3.70251   4.16790   -2.000
 7071.00    3.87714   4.16045   -2.000
 7072.00    4.02494   4.14698   -2.000
 7073.00    3.91608   4.13236   -2.000
 7074.00    3.67637   4.13172   -2.000
 7075.00    3.73948   4.13902   -2.000
 7076.00    3.93630   4.13405   -2.000
 7077.00    3.88735   4.11312   -2.000
 7078.00    3.74522   4.09725   -2.000
 7079.00    3.93043   4.10232   -2.000
 7080.00    4.22106   4.10999   -2.000
 7081.00    4.04581   4.09944   -2.000
 7082.00    3.74506   4.07184   -2.000
 7083.00    3.91349   4.06588   -2.000
 7084.00    4.18552   4.08251   -2.000
 7085.00    4.08410   4.08694   -2.000
 7086.00    3.91704   4.06571   -2.000
 7087.00    3.93170   4.04112   -2.000
 7088.00    3.97070   4.05187   -2.000
 7089.00    4.05237   4.07310   -2.000
 7090.00    4.13810   4.06959   -2.000
 7091.00    3.95752   4.04094   -2.000
 7092.00    3.76130   4.03136   -2.000
 7093.00    3.83695   4.05509   -2.000
 7094.00    3.91829   4.07284   -2.000
 7095.00    3.86246   4.05745   -2.000
 7096.00    3.79809   4.03002   -2.000
 7097.00    3.52126   4.03729   -2.000
 7098.00    3.27676   4.06780   -2.000
 7099.00    3.46149   4.07468   -2.000
 7100.00    3.60504   4.04780   -2.000
 7101.00    3.38359   4.02963   -2.000
 7102.00    3.21674   4.05011   -2.000
 7103.00    3.40654   4.07803   -2.000
 7104.00    3.56133   4.07263   -2.000
 7105.00    3.53786   4.04316   -2.000
 7106.00    3.48681   4.03381   -2.000
 7107.00    3.32218   4.05937   -2.000
 7108.00    3.21451   4.08076   -2.000
 7109.00    3.30098   4.06414   -2.000
 7110.00    3.36710   4.03612   -2.000
 7111.00    3.37471   4.03489   -2.000
 7112.00    3.30339   4.06478   -2.000
 7113.00    3.03844   4.07817   -2.000
 7114.00    3.00083   4.05163   -2.000
 7115.00    3.44434   4.02539   -2.000
 7116.00    3.69397   4.03634   -2.000
 7117.00    3.58714   4.06766   -2.000
 7118.00    3.59929   4.06872   -2.000
 7119.00    3.80261   4.03821   -2.000
 7120.00    3.84127   4.01928   -2.000
 7121.00    3.64778   4.04288   -2.000
 7122.00    3.81449   4.06948   -2.000
 7123.00    4.42800   4.05649   -2.000
 7124.00    4.54094   4.02842   -2.000
 7125.00    4.10659   4.02607   -2.000
 7126.00    3.96849   4.05616   -2.000
 7127.00    4.11610   4.07117   -2.000
 7128.00    3.92550   4.04919   -2.000
 7129.00    3.44729   4.02928   -2.000
 7130.00    3.28917   4.04376   -2.000
 7131.00    3.37076   4.06988   -2.000
 7132.00    3.42808   4.07142   -2.000
 7133.00    3.46943   4.05313   -2.000
 7134.00    3.58472   4.04543   -2.000
 7135.00    3.74260   4.06373   -2.000
 7136.00    3.74027   4.08221   -2.000
 7137.00    3.65755   4.07743   -2.000
 7138.00    3.71843   4.06706   -2.000
 7139.00    3.84167   4.06667   -2.000
 7140.00    3.83433   4.07817   -2.000
 7141.00    3.77836   4.09353   -2.000
 7142.00    3.90833   4.09632   -2.000
 7143.00    4.09704   4.08852   -2.000
 7144.00    3.96238   4.08183   -2.000
 7145.00    3.74244   4.08939   -2.000
 7146.00    3.50285   4.10964   -2.000
 7147.00    3.25902   4.11927   -2.000
 7148.00    3.47571   4.10628   -2.000
 7149.00    3.77110   4.09052   -2.000
 7150.00    3.60989   4.10331   -2.000
 7151.00    3.38957   4.13055   -2.000
 7152.00    3.53447   4.13941   -2.000
 7153.00    3.71252   4.11761   -2.000
 7154.00    3.77367   4.09862   -2.000
 7155.00    3.82843   4.11910   -2.000
 7156.00    3.57882   4.15003   -2.000
 7157.00    3.32769   4.15228   -2.000
 7158.00    3.51866   4.12592   -2.000
 7159.00    3.71647   4.11242   -2.000
 7160.00    4.06956   4.13335   -2.000
 7161.00    4.38540   4.15960   -2.000
 7162.00    4.23202   4.15742   -2.000
 7163.00    4.08354   4.13274   -2.000
 7164.00    3.97683   4.12385   -2.000
 7165.00    3.77874   4.13927   -2.000
 7166.00    3.00151   4.15963   -2.000
 7167.00    2.48481   4.15808   -2.000
 7168.00    3.26169   4.13758   -2.000
 7169.00    3.86133   4.12906   -2.000
 7170.00    3.74756   4.14086   -2.000
 7171.00    3.61880   4.15451   -2.000
 7172.00    3.43993   4.15054   -2.000
 7173.00    3.30004   4.13531   -2.000
 7174.00    3.27006   4.12997   -2.000
 7175.00    3.28238   4.14269   -2.000
 7176.00    3.39675   4.14871   -2.000
 7177.00    3.55566   4.13729   -2.000
 7178.00    3.80729   4.12772   -2.000
 7179.00    4.01341   4.13223   -2.000
 7180.00    4.13713   4.14347   -2.000
 7181.00    4.05706   4.13938   -2.000
 7182.00    3.65441   4.12658   -2.000
 7183.00    3.32093   4.12946   -2.000
 7184.00    3.08357   4.14545   -2.000
 7185.00    3.08165   4.14595   -2.000
 7186.00    3.36765   4.12654   -2.000
 7187.00    3.44444   4.12134   -2.000
 7188.00    3.29571   4.14356   -2.000
 7189.00    3.19794   4.16533   -2.000
 7190.00    3.14864   4.15189   -2.000
 7191.00    3.19291   4.12261   -2.000
 7192.00    3.31565   4.12837   -2.000
 7193.00    3.40763   4.16348   -2.000
 7194.00    3.47691   4.18065   -2.000
 7195.00    3.41221   4.15972   -2.000
 7196.00    3.26064   4.13650   -2.000
 7197.00    3.00512   4.15350   -2.000
 7198.00    2.69064   4.18760   -2.000
 7199.00    3.10825   4.19264   -2.000
 7200.00    3.88743   4.16987   -2.000
 7201.00    3.96897   4.16305   -2.000
 7202.00    3.75262   4.18894   -2.000
 7203.00    3.40388   4.21323   -2.000
 7204.00    3.00669   4.21014   -2.000
 7205.00    2.69119   4.19241   -2.000
 7206.00    2.40100   4.19788   -2.000
 7207.00    2.63566   4.22255   -2.000
 7208.00    3.00577   4.23666   -2.000
 7209.00    3.08922   4.23562   -2.000
 7210.00    3.11237   4.22962   -2.000
 7211.00    3.10892   4.24086   -2.000
 7212.00    3.10105   4.25609   -2.000
 7213.00    3.39349   4.26093   -2.000
 7214.00    3.72346   4.26435   -2.000
 7215.00    3.46995   4.27104   -2.000
 7216.00    3.16592   4.28376   -2.000
 7217.00    3.26419   4.29052   -2.000
 7218.00    3.38291   4.29219   -2.000
