###################################################################
## OUTPUT of StarlightChains_v04.for    [Cid@UFSC - 01/Apr/2007] ##
###################################################################

## Some input info
KUG0210-078._24_31.txt                   [arq_obs]
Base.CB07.vall.4m                        [arq_base]
Masks.EmLines.NEW.gm                     [arq_masks]
StCv04.C11.config                        [arq_config]
   66                                    [N_base]
    0                                    [N_YAV_components = # of components with extra extinction!]
    0                                    [i_FitPowerLaw (1/0 = Yes/No)]
-9.99                                    [alpha_PowerLaw]
CCM                                      [red_law_option]
 1.458241                                [q_norm = A(l_norm)/A(V)]

## (Re)Sampling Parameters
 3741.00                                 [l_ini (A)]
 7218.00                                 [l_fin (A)]
    1.00                                 [dl    (A)]     (OBS: dl_cushion =    50.00 A)

## Normalization info
 4020.00                                 [l_norm (A) - for base]
 4010.00                                 [llow_norm (A) - window for f_obs]
 4060.00                                 [lupp_norm (A) - window for f_obs]
9.081365E-18                             [fobs_norm (in input units)]

## S/N
 3691.00                                 [llow_SN (A) - window for S/N]
 7268.00                                 [lupp_SN (A) - window for S/N]
   4.487                                 [S/N in S/N window]
   3.454                                 [S/N in norm. window]
   0.016                                 [S/N_err in S/N window]
   0.012                                 [S/N_err in norm. window]
  1.0000                                 [fscale_chi2]

## etc...
    -2007282                             [idum_orig]
  2419                                   [NOl_eff]
  2209                                   [Nl_eff]
   210    NSIGMA                         [Ntot_cliped & clip_method]
 17436580                                [Nglobal_steps]
   7                                     [N_chains]
  10                                     [NEX0s_base = N_base in EX0s-fits]
 0   0   1      210   2.0   5.811E+03    [Clip-Bug, RC-Crash & Burn-In warning-flags, n_censored_weights, wei_nsig_threshold & wei_limit]
   198    197.046    195.845      1.201  [idt_all, wdt_TotTime, wdt_UsrTime & wdt_SysTime (sec)]

## Synthesis Results - Best model ##

 3.08393E-05                             [chi2/Nl_eff]
    21.36565                             [adev (%)]

   129.99998                             [sum-of-x (%)]
 2.59343E-17                             [Flux_tot (units of input spectrum!)]
 4.77752E-13                             [Mini_tot (???)]
 2.46117E-13                             [Mcor_tot (???)]

-192.33                                  [v0_min  (km/s)]
  70.38                                  [vd_min  (km/s)]
 0.5859                                  [AV_min  (mag)]
 0.0000                                  [YAV_min (mag)]

# j     x_j(%)      Mini_j(%)     Mcor_j(%)     age_j(yr)     Z_j      (L/M)_j    YAV?  Mstars   component_j        a/Fe...       SSP_chi2r SSP_adev(%)   SSP_AV   SSP_x(%)
  1     15.2391     5.8166E-02    1.1291E-01    1.000000E+06  0.00400  1.094E-02    0   1.0000   age020_m42            0.0000     3.5096E-05    26.8869   2.6872   125.5071
  2      0.0000     0.0000E+00    0.0000E+00    3.160000E+06  0.00400  4.007E-02    0   0.9999   age045_m42            0.0000     3.3731E-05    25.8497   2.0546   130.7298
  3      0.0000     0.0000E+00    0.0000E+00    5.010000E+06  0.00400  2.539E-02    0   0.9488   age055_m42            0.0000     3.4269E-05    26.2426   2.3437   128.5387
  4      0.0000     0.0000E+00    0.0000E+00    6.610000E+06  0.00400  2.620E-02    0   0.9220   age061_m42            0.0000     3.3577E-05    25.6182   2.0038   130.1319
  5      0.0000     0.0000E+00    0.0000E+00    1.000000E+07  0.00400  1.322E-02    0   0.8862   age070_m42            0.0000     3.2684E-05    24.2093   1.8101   130.8271
  6      0.0000     0.0000E+00    0.0000E+00    1.445000E+07  0.00400  7.883E-03    0   0.8571   age078_m42            0.0000     3.3179E-05    24.7631   2.0924   128.8319
  7      0.0000     0.0000E+00    0.0000E+00    2.512000E+07  0.00400  5.251E-03    0   0.8174   age090_m42            0.0000     3.2421E-05    23.8206   1.7046   131.0431
  8      0.0000     0.0000E+00    0.0000E+00    4.000000E+07  0.00400  3.649E-03    0   0.7851   age104_m42            0.0000     3.2146E-05    23.6275   1.4914   131.8552
  9      0.0000     0.0000E+00    0.0000E+00    5.500000E+07  0.00400  3.098E-03    0   0.7629   age110_m42            0.0000     3.2623E-05    24.2417   1.6170   132.0458
 10      0.0000     0.0000E+00    0.0000E+00    1.015200E+08  0.00400  2.228E-03    0   0.7207   age116_m42            0.0000     3.2854E-05    24.5213   1.6283   132.2537
 11      0.0000     0.0000E+00    0.0000E+00    2.861200E+08  0.00400  1.093E-03    0   0.6648   age125_m42            0.0000     3.1855E-05    23.6271   1.1140   135.2337
 12      0.0000     0.0000E+00    0.0000E+00    5.088000E+08  0.00400  6.597E-04    0   0.6365   age130_m42            0.0000     3.1964E-05    23.9114   1.0880   136.7891
 13      0.0000     0.0000E+00    0.0000E+00    1.434000E+09  0.00400  2.132E-04    0   0.5798   age139_m42            0.0000     3.0914E-05    22.9337   0.1366   140.8276
 14     40.2587     2.8517E+01    2.9765E+01    4.250000E+09  0.00400  5.895E-05    0   0.5377   age158_m42            0.0000     3.1349E-05    23.5348  -0.3970   139.6803
 15      0.0000     0.0000E+00    0.0000E+00    7.500000E+09  0.00400  3.510E-05    0   0.5212   age171_m42            0.0000     3.1806E-05    23.7127  -0.6030   139.9055
 16      0.0000     0.0000E+00    0.0000E+00    1.300000E+10  0.00400  2.005E-05    0   0.5034   age193_m42            0.0000     3.2461E-05    23.9043  -0.7764   140.1370
 17      0.0000     0.0000E+00    0.0000E+00    1.800000E+10  0.00400  1.525E-05    0   0.4967   age213_m42            0.0000     3.2467E-05    23.9008  -0.8068   139.6830
 18     41.1827     1.3891E-01    2.6964E-01    1.000000E+06  0.00800  1.238E-02    0   1.0000   age020_m52            0.0000     3.4956E-05    26.7929   2.6895   125.8150
 19      0.0000     0.0000E+00    0.0000E+00    3.160000E+06  0.00800  3.074E-02    0   0.9966   age045_m52            0.0000     3.4809E-05    26.6671   2.6223   126.6089
 20      0.0000     0.0000E+00    0.0000E+00    5.010000E+06  0.00800  2.668E-02    0   0.9443   age055_m52            0.0000     3.4250E-05    26.1666   2.4241   127.6398
 21      0.0000     0.0000E+00    0.0000E+00    6.610000E+06  0.00800  2.136E-02    0   0.9177   age061_m52            0.0000     3.1636E-05    23.6428   1.3127   134.1187
 22      0.0000     0.0000E+00    0.0000E+00    1.000000E+07  0.00800  1.215E-02    0   0.8827   age070_m52            0.0000     3.2474E-05    23.9423   1.9933   130.8999
 23      0.0000     0.0000E+00    0.0000E+00    1.445000E+07  0.00800  8.717E-03    0   0.8552   age078_m52            0.0000     3.2843E-05    24.4515   2.0755   130.1901
 24      0.0000     0.0000E+00    0.0000E+00    2.512000E+07  0.00800  5.592E-03    0   0.8162   age090_m52            0.0000     3.2156E-05    23.5601   1.7805   132.2877
 25      0.0000     0.0000E+00    0.0000E+00    4.000000E+07  0.00800  3.896E-03    0   0.7841   age104_m52            0.0000     3.2013E-05    23.5812   1.6960   133.1258
 26      0.0000     0.0000E+00    0.0000E+00    1.015200E+08  0.00800  2.148E-03    0   0.7226   age116_m52            0.0000     3.1996E-05    23.8771   1.6233   133.1079
 27      0.0000     0.0000E+00    0.0000E+00    2.861200E+08  0.00800  9.925E-04    0   0.6683   age125_m52            0.0000     3.1787E-05    23.6341   1.1743   137.4164
 28      0.0000     0.0000E+00    0.0000E+00    9.047900E+08  0.00800  3.141E-04    0   0.6138   age135_m52            0.0000     3.1182E-05    22.9985   0.3621   145.8372
 29      0.0000     0.0000E+00    0.0000E+00    1.434000E+09  0.00800  1.719E-04    0   0.5853   age139_m52            0.0000     3.0911E-05    22.9229  -0.2261   144.2861
 30      0.0000     0.0000E+00    0.0000E+00    2.500000E+09  0.00800  7.872E-05    0   0.5600   age150_m52            0.0000     3.1962E-05    23.6386  -0.5494   143.3026
 31      0.0000     0.0000E+00    0.0000E+00    4.250000E+09  0.00800  4.336E-05    0   0.5426   age158_m52            0.0000     3.2173E-05    23.6560  -0.5786   142.7087
 32      0.0000     0.0000E+00    0.0000E+00    6.250000E+09  0.00800  3.159E-05    0   0.5319   age166_m52            0.0000     3.3150E-05    23.9893  -0.7984   143.9819
 33     15.6100     4.7893E+01    4.7163E+01    1.300000E+10  0.00800  1.361E-05    0   0.5073   age193_m52            0.0000     3.6847E-05    22.1093  -1.0000   128.9647
 34      5.5308     2.3361E+01    2.2628E+01    1.800000E+10  0.00800  9.886E-06    0   0.4990   age213_m52            0.0000     4.0391E-05    21.6642  -1.0000   122.8485
 35     11.0161     2.9793E-02    5.7832E-02    1.000000E+06  0.02000  1.544E-02    0   1.0000   age020_m62            0.0000     3.4864E-05    26.7241   2.6895   126.1896
 36      0.0000     0.0000E+00    0.0000E+00    3.160000E+06  0.02000  3.762E-02    0   0.9858   age045_m62            0.0000     3.4896E-05    26.7828   2.6237   127.2005
 37      0.0000     0.0000E+00    0.0000E+00    5.010000E+06  0.02000  3.296E-02    0   0.9342   age055_m62            0.0000     3.4114E-05    26.0871   2.3231   129.2315
 38      0.0000     0.0000E+00    0.0000E+00    8.710000E+06  0.02000  1.154E-02    0   0.8861   age067_m62            0.0000     3.1727E-05    21.6331   1.6055   133.0201
 39      0.0000     0.0000E+00    0.0000E+00    1.445000E+07  0.02000  7.663E-03    0   0.8472   age078_m62            0.0000     3.1611E-05    22.7994   1.7051   133.1221
 40      0.0000     0.0000E+00    0.0000E+00    2.512000E+07  0.02000  4.532E-03    0   0.8099   age090_m62            0.0000     3.1732E-05    22.6472   1.7184   131.9348
 41      0.0000     0.0000E+00    0.0000E+00    5.500000E+07  0.02000  2.733E-03    0   0.7595   age110_m62            0.0000     3.1974E-05    23.4676   1.6918   132.2833
 42      0.0000     0.0000E+00    0.0000E+00    1.609000E+08  0.02000  1.369E-03    0   0.6985   age120_m62            0.0000     3.2137E-05    23.7218   1.5394   134.8381
 43      0.0000     0.0000E+00    0.0000E+00    2.861200E+08  0.02000  9.013E-04    0   0.6714   age125_m62            0.0000     3.1920E-05    23.4922   1.3096   138.2666
 44      0.0000     0.0000E+00    0.0000E+00    5.088000E+08  0.02000  5.028E-04    0   0.6449   age130_m62            0.0000     3.1746E-05    23.5090   0.9121   143.9980
 45      0.0000     0.0000E+00    0.0000E+00    9.047900E+08  0.02000  2.428E-04    0   0.6179   age135_m62            0.0000     3.1356E-05    23.2506   0.2978   146.3655
 46      0.0000     0.0000E+00    0.0000E+00    1.434000E+09  0.02000  1.263E-04    0   0.5908   age139_m62            0.0000     3.1595E-05    23.2749  -0.1571   146.0435
 47      0.0000     0.0000E+00    0.0000E+00    2.500000E+09  0.02000  5.985E-05    0   0.5673   age150_m62            0.0000     3.2924E-05    23.9164  -0.5735   146.4071
 48      0.0000     0.0000E+00    0.0000E+00    4.250000E+09  0.02000  3.271E-05    0   0.5468   age158_m62            0.0000     3.4381E-05    24.4760  -0.8993   146.8639
 49      0.0000     0.0000E+00    0.0000E+00    1.000000E+10  0.02000  1.360E-05    0   0.5167   age181_m62            0.0000     3.8575E-05    22.9197  -1.0000   133.4370
 50      0.0000     0.0000E+00    0.0000E+00    1.800000E+10  0.02000  7.124E-06    0   0.5013   age213_m62            0.0000     4.4783E-05    22.0735  -1.0000   121.8194
 51      1.1627     1.8732E-03    3.6354E-03    1.000000E+06  0.05000  2.592E-02    0   0.9998   age020_m72            0.0000     3.4629E-05    26.4962   2.6932   126.5830
 52      0.0000     0.0000E+00    0.0000E+00    3.160000E+06  0.05000  4.845E-02    0   0.9577   age045_m72            0.0000     3.4766E-05    26.6747   2.5255   127.6993
 53      0.0000     0.0000E+00    0.0000E+00    5.010000E+06  0.05000  3.072E-02    0   0.9147   age055_m72            0.0000     3.2624E-05    24.5649   2.1819   130.3810
 54      0.0000     0.0000E+00    0.0000E+00    6.610000E+06  0.05000  1.455E-02    0   0.8877   age061_m72            0.0000     3.2713E-05    22.8242   1.6672   133.7211
 55      0.0000     0.0000E+00    0.0000E+00    1.000000E+07  0.05000  9.074E-03    0   0.8524   age070_m72            0.0000     3.3164E-05    25.3641   2.3533   129.9300
 56      0.0000     0.0000E+00    0.0000E+00    2.512000E+07  0.05000  4.250E-03    0   0.7902   age090_m72            0.0000     3.2568E-05    24.3336   2.1130   130.2113
 57      0.0000     0.0000E+00    0.0000E+00    4.000000E+07  0.05000  3.087E-03    0   0.7618   age104_m72            0.0000     3.2338E-05    23.8434   1.9216   131.2904
 58      0.0000     0.0000E+00    0.0000E+00    1.015200E+08  0.05000  1.700E-03    0   0.7096   age116_m72            0.0000     3.2086E-05    23.6006   1.6873   133.8799
 59      0.0000     0.0000E+00    0.0000E+00    2.861200E+08  0.05000  7.384E-04    0   0.6633   age125_m72            0.0000     3.1590E-05    23.3721   1.1715   140.8979
 60      0.0000     0.0000E+00    0.0000E+00    5.088000E+08  0.05000  3.819E-04    0   0.6372   age130_m72            0.0000     3.1474E-05    23.3975   0.6467   146.6400
 61      0.0000     0.0000E+00    0.0000E+00    9.047900E+08  0.05000  1.676E-04    0   0.6110   age135_m72            0.0000     3.2273E-05    23.8361  -0.1034   148.4523
 62      0.0000     0.0000E+00    0.0000E+00    1.434000E+09  0.05000  8.837E-05    0   0.5874   age139_m72            0.0000     3.2852E-05    23.8127  -0.5573   148.7989
 63      0.0000     0.0000E+00    0.0000E+00    2.500000E+09  0.05000  4.233E-05    0   0.5598   age150_m72            0.0000     3.4995E-05    24.6869  -0.9110   148.9755
 64      0.0000     0.0000E+00    0.0000E+00    6.250000E+09  0.05000  1.435E-05    0   0.5249   age166_m72            0.0000     4.0778E-05    22.6139  -1.0000   128.4480
 65      0.0000     0.0000E+00    0.0000E+00    1.300000E+10  0.05000  6.513E-06    0   0.5036   age193_m72            0.0000     5.0299E-05    21.7148  -1.0000   115.5678
 66      0.0000     0.0000E+00    0.0000E+00    1.800000E+10  0.05000  4.527E-06    0   0.4945   age213_m72            0.0000     5.7232E-05    21.5103  -1.0000   107.9379


## Synthesis Results - Average & Chains ##

# j      x_j: min, <> & last-chain-values for 1 ...  7 chains
  1     15.2391     21.2806     20.9395     21.0453     21.3181     21.3625     21.4990     20.5742     20.7329
  2      0.0000      0.0192      0.0665      0.0051      0.0000      0.0624      0.0650      0.0230      0.0265
  3      0.0000      0.0227      0.0483      0.0078      0.0201      0.0235      0.0497      0.0173      0.1034
  4      0.0000      0.0220      0.0546      0.0706      0.0396      0.0421      0.0834      0.0042      0.0510
  5      0.0000      0.0177      0.1739      0.0000      0.0000      0.0363      0.0000      0.0082      0.0126
  6      0.0000      0.0195      0.0000      0.0235      0.0297      0.0186      0.0243      0.0000      0.0000
  7      0.0000      0.0330      0.1469      0.0090      0.1125      0.0479      0.0218      0.0126      0.0510
  8      0.0000      0.0200      0.1233      0.0712      0.0576      0.0030      0.0544      0.0000      0.1165
  9      0.0000      0.0256      0.0366      0.0531      0.0394      0.0000      0.0506      0.0022      0.0827
 10      0.0000      0.0262      0.0013      0.0466      0.0021      0.0197      0.0208      0.0060      0.0175
 11      0.0000      0.0213      0.0424      0.0526      0.0934      0.0412      0.0492      0.0000      0.0878
 12      0.0000      0.0227      0.0142      0.0596      0.0270      0.1098      0.0909      0.0184      0.0660
 13      0.0000      0.0259      0.0331      0.0485      0.0338      0.0154      0.0544      0.0084      0.0041
 14     40.2587      0.0236      0.0361      0.1477      0.1702      0.0422      0.0125      0.0000      0.0364
 15      0.0000      0.0319      0.0688      0.1017      0.0765      0.0092      0.0260      0.0151      0.0000
 16      0.0000      0.0292      0.1264      0.0081      0.0495      0.2183      0.0439      0.0063      0.0000
 17      0.0000      0.0191      0.0129      0.0337      0.0513      0.0494      0.0710      0.0066      0.0404
 18     41.1827      9.3539      8.5408      9.3318      9.2319      9.4348      9.3435     12.4962      9.3535
 19      0.0000      0.0238      0.0518      0.0444      0.0156      0.0444      0.0063      0.0125      0.0268
 20      0.0000      0.0224      0.0225      0.0262      0.1074      0.0642      0.0167      0.0000      0.0000
 21      0.0000      0.0192      0.0981      0.0237      0.0488      0.0000      0.0065      0.0169      0.0035
 22      0.0000      0.0254      0.0179      0.0507      0.0105      0.0602      0.0000      0.0220      0.0744
 23      0.0000      0.0251      0.0713      0.1477      0.0707      0.0051      0.0264      0.0000      0.0535
 24      0.0000      0.0198      0.0524      0.0000      0.0198      0.0000      0.0000      0.0011      0.0526
 25      0.0000      0.0246      0.0040      0.0264      0.0804      0.0000      0.1039      0.0000      0.0871
 26      0.0000      0.0247      0.0793      0.0149      0.0159      0.0376      0.0206      0.0045      0.0144
 27      0.0000      0.0227      0.0230      0.0346      0.0000      0.0053      0.0000      0.0392      0.0119
 28      0.0000      0.0183      0.0000      0.0198      0.1256      0.0004      0.0030      0.0167      0.1056
 29      0.0000      0.0222      0.0000      0.0000      0.0062      0.0050      0.0138      0.0067      0.0111
 30      0.0000      0.0254      0.0502      0.0316      0.1033      0.0943      0.0275      0.0014      0.0862
 31      0.0000      0.0228      0.0024      0.0036      0.0160      0.0192      0.0000      0.0109      0.0054
 32      0.0000      0.0217      0.0212      0.0508      0.0635      0.0000      0.0000      0.0005      0.0678
 33     15.6100      0.4000      0.3939      0.3968      0.4521      0.4246      0.3529      0.0657      0.3968
 34      5.5308     18.6987     18.5275     18.6147     18.7694     18.5820     18.7186     19.9064     18.7222
 35     11.0161      9.7642      9.4702      9.7002      9.8159      9.7377      9.9230     10.8122      9.7050
 36      0.0000      0.0223      0.0026      0.0257      0.0507      0.0008      0.0176      0.0092      0.0000
 37      0.0000      0.0227      0.0000      0.0408      0.0904      0.0639      0.0376      0.0057      0.0028
 38      0.0000      0.0212      0.0000      0.1207      0.0833      0.0192      0.0292      0.0085      0.0418
 39      0.0000      0.0202      0.0369      0.0000      0.0778      0.0000      0.0078      0.0082      0.0000
 40      0.0000      0.0277      0.0727      0.0060      0.0000      0.0234      0.0606      0.0059      0.0422
 41      0.0000      0.0265      0.0229      0.0540      0.0073      0.1225      0.0899      0.0000      0.0000
 42      0.0000      0.0279      0.0498      0.0771      0.2169      0.0484      0.0116      0.0000      0.0052
 43      0.0000      0.0208      0.0000      0.0996      0.0000      0.0000      0.0295      0.0062      0.0075
 44      0.0000      0.0210      0.0141      0.0582      0.0000      0.0721      0.0305      0.0069      0.0216
 45      0.0000      0.0223      0.0451      0.0184      0.0942      0.0187      0.0673      0.0003      0.0000
 46      0.0000      0.0218      0.0555      0.0093      0.0882      0.0092      0.0081      0.0000      0.0451
 47      0.0000      0.0192      0.0697      0.0000      0.0733      0.0000      0.0366      0.0192      0.0109
 48      0.0000      0.0283      0.0231      0.0749      0.0702      0.0293      0.0000      0.0170      0.0000
 49      0.0000      0.0234      0.0189      0.0774      0.0158      0.0248      0.0074      0.0064      0.0150
 50      0.0000      0.1339      0.1469      0.1147      0.1339      0.2951      0.1476      0.0638      0.0287
 51      1.1627     68.5832     68.9094     67.9869     66.9214     67.4829     67.7991     65.4546     68.4608
 52      0.0000      0.0228      0.0613      0.0212      0.0204      0.0359      0.0000      0.0025      0.1389
 53      0.0000      0.0226      0.0930      0.0609      0.0092      0.0435      0.0000      0.0000      0.0243
 54      0.0000      0.0304      0.1129      0.0000      0.0018      0.0350      0.0216      0.0032      0.0817
 55      0.0000      0.0201      0.0000      0.0249      0.0222      0.0233      0.0640      0.0041      0.0161
 56      0.0000      0.0267      0.1377      0.0459      0.1436      0.0128      0.0363      0.0000      0.0006
 57      0.0000      0.0224      0.0107      0.0649      0.1123      0.0715      0.0000      0.0041      0.0005
 58      0.0000      0.0219      0.0133      0.0633      0.0065      0.1056      0.0476      0.0000      0.0656
 59      0.0000      0.0271      0.1216      0.0055      0.0311      0.0144      0.0528      0.0060      0.0659
 60      0.0000      0.0256      0.0000      0.1349      0.0211      0.0990      0.0000      0.0100      0.0845
 61      0.0000      0.0184      0.0204      0.0141      0.0014      0.0070      0.0359      0.0039      0.0536
 62      0.0000      0.0216      0.0736      0.0012      0.0091      0.0336      0.0396      0.0138      0.0180
 63      0.0000      0.0205      0.0313      0.0579      0.0960      0.0366      0.0000      0.0062      0.0000
 64      0.0000      0.0227      0.0689      0.0022      0.1951      0.0538      0.0000      0.0093      0.0000
 65      0.0000      0.0297      0.0054      0.0165      0.0076      0.0000      0.1065      0.0000      0.0977
 66      0.0000      0.4185      0.4231      0.4212      0.3064      0.5972      0.4359      0.2093      0.4644

# j      m_j: min, <> & last-chain-values for 1 ...  7 chains
  1  1.1291E-01  1.8913E-01  1.8682E-01  1.8731E-01  1.8853E-01  1.8437E-01  1.8967E-01  1.8033E-01  1.8373E-01
  2  0.0000E+00  4.6522E-05  1.6192E-04  1.2456E-05  0.0000E+00  1.4703E-04  1.5658E-04  5.5058E-05  6.4062E-05
  3  0.0000E+00  8.2524E-05  1.7601E-04  2.8218E-05  7.2587E-05  8.3063E-05  1.7932E-04  6.1964E-05  3.7455E-04
  4  0.0000E+00  7.5341E-05  1.8767E-04  2.4177E-04  1.3489E-04  1.4000E-04  2.8335E-04  1.4043E-05  1.7389E-04
  5  0.0000E+00  1.1554E-04  1.1377E-03  0.0000E+00  0.0000E+00  2.2974E-04  0.0000E+00  5.2471E-05  8.2050E-05
  6  0.0000E+00  2.0613E-04  0.0000E+00  2.4855E-04  3.1231E-04  1.9055E-04  2.5514E-04  0.0000E+00  0.0000E+00
  7  0.0000E+00  4.9896E-04  2.2327E-03  1.3583E-04  1.6940E-03  7.0426E-04  3.2692E-04  1.8760E-04  7.6916E-04
  8  0.0000E+00  4.1889E-04  2.5903E-03  1.4916E-03  1.1998E-03  6.0802E-05  1.1302E-03  0.0000E+00  2.4296E-03
  9  0.0000E+00  6.1254E-04  8.8025E-04  1.2727E-03  9.3765E-04  0.0000E+00  1.2016E-03  5.2987E-05  1.9753E-03
 10  0.0000E+00  8.2531E-04  4.1246E-05  1.4680E-03  6.6095E-05  6.0086E-04  6.4851E-04  1.8713E-04  5.4796E-04
 11  0.0000E+00  1.2603E-03  2.5200E-03  3.1146E-03  5.4975E-03  2.3641E-03  2.8867E-03  0.0000E+00  5.1756E-03
 12  0.0000E+00  2.1295E-03  1.3413E-03  5.6001E-03  2.5243E-03  9.9996E-03  8.4633E-03  1.7008E-03  6.1774E-03
 13  0.0000E+00  6.8401E-03  8.7945E-03  1.2831E-02  8.8984E-03  3.9646E-03  1.4269E-02  2.1853E-03  1.0935E-03
 14  2.9765E+01  2.0957E-02  3.2172E-02  1.3114E-01  1.5021E-01  3.6381E-02  1.1009E-02  0.0000E+00  3.2217E-02
 15  0.0000E+00  4.5993E-02  9.9761E-02  1.4702E-01  1.0993E-01  1.2956E-02  3.7295E-02  2.1559E-02  0.0000E+00
 16  0.0000E+00  7.1240E-02  3.0966E-01  1.9739E-02  1.2014E-01  5.1741E-01  1.0631E-01  1.5072E-02  0.0000E+00
 17  0.0000E+00  6.0490E-02  4.1039E-02  1.0696E-01  1.6163E-01  1.5199E-01  2.2315E-01  2.0463E-02  1.2763E-01
 18  2.6964E-01  7.3465E-02  6.7337E-02  7.3397E-02  7.2145E-02  7.1957E-02  7.2842E-02  9.6790E-02  7.3249E-02
 19  0.0000E+00  7.5162E-05  1.6400E-04  1.4014E-04  4.9074E-05  1.3592E-04  1.9723E-05  3.8780E-05  8.4169E-05
 20  0.0000E+00  7.7204E-05  7.7581E-05  9.0408E-05  3.6786E-04  2.1466E-04  5.6969E-05  0.0000E+00  0.0000E+00
 21  0.0000E+00  8.0046E-05  4.1128E-04  9.9170E-05  2.0265E-04  0.0000E+00  2.6867E-05  6.9572E-05  1.4721E-05
 22  0.0000E+00  1.7934E-04  1.2709E-04  3.5843E-04  7.3543E-05  4.1310E-04  0.0000E+00  1.5357E-04  5.2388E-04
 23  0.0000E+00  2.3904E-04  6.8231E-04  1.4111E-03  6.7077E-04  4.6810E-05  2.4962E-04  0.0000E+00  5.0849E-04
 24  0.0000E+00  2.8140E-04  7.4620E-04  0.0000E+00  2.7982E-04  0.0000E+00  0.0000E+00  1.5807E-05  7.4427E-04
 25  0.0000E+00  4.8068E-04  7.7906E-05  5.1766E-04  1.5652E-03  0.0000E+00  2.0182E-03  0.0000E+00  1.7004E-03
 26  0.0000E+00  8.0893E-04  2.6055E-03  4.8797E-04  5.1696E-04  1.1941E-03  6.6723E-04  1.4498E-04  4.6840E-04
 27  0.0000E+00  1.4876E-03  1.5107E-03  2.2655E-03  0.0000E+00  3.3605E-04  0.0000E+00  2.5337E-03  7.7394E-04
 28  0.0000E+00  3.4677E-03  0.0000E+00  3.7756E-03  2.3745E-02  6.9824E-05  5.6500E-04  3.1253E-03  2.0012E-02
 29  0.0000E+00  7.3466E-03  0.0000E+00  0.0000E+00  2.0461E-03  1.6204E-03  4.5222E-03  2.1910E-03  3.6493E-03
 30  0.0000E+00  1.7585E-02  3.4861E-02  2.1874E-02  7.1077E-02  6.3351E-02  1.8906E-02  9.2195E-04  5.9443E-02
 31  0.0000E+00  2.7750E-02  2.8908E-03  4.3740E-03  1.9367E-02  2.2691E-02  0.0000E+00  1.3026E-02  6.5817E-03
 32  0.0000E+00  3.5520E-02  3.4821E-02  8.3264E-02  1.0347E-01  0.0000E+00  0.0000E+00  8.2684E-04  1.1063E-01
 33  4.7163E+01  1.4496E+00  1.4329E+00  1.4401E+00  1.6304E+00  1.4944E+00  1.2697E+00  2.3477E-01  1.4339E+00
 34  2.2628E+01  9.1769E+01  9.1280E+01  9.1489E+01  9.1658E+01  8.8559E+01  9.1190E+01  9.6349E+01  9.1619E+01
 35  5.7832E-02  6.1489E-02  5.9867E-02  6.1174E-02  6.1507E-02  5.9548E-02  6.2028E-02  6.7149E-02  6.0939E-02
 36  0.0000E+00  5.6917E-05  6.6517E-06  6.5545E-05  1.2854E-04  2.0152E-06  4.4444E-05  2.3007E-05  0.0000E+00
 37  0.0000E+00  6.2436E-05  0.0000E+00  1.1273E-04  2.4795E-04  1.7107E-04  1.0285E-04  1.5432E-05  7.7879E-06
 38  0.0000E+00  1.5852E-04  0.0000E+00  9.0215E-04  6.1864E-04  1.3939E-04  2.1649E-04  6.2319E-05  3.1132E-04
 39  0.0000E+00  2.1720E-04  3.9791E-04  0.0000E+00  8.3163E-04  0.0000E+00  8.3412E-05  8.6842E-05  0.0000E+00
 40  0.0000E+00  4.8052E-04  1.2681E-03  1.0416E-04  0.0000E+00  3.9547E-04  1.0449E-03  1.0069E-04  7.3043E-04
 41  0.0000E+00  7.1646E-04  6.2122E-04  1.4601E-03  1.9654E-04  3.2144E-03  2.4123E-03  0.0000E+00  0.0000E+00
 42  0.0000E+00  1.3824E-03  2.4808E-03  3.8304E-03  1.0704E-02  2.3294E-03  5.7054E-04  2.3044E-06  2.5961E-04
 43  0.0000E+00  1.5048E-03  0.0000E+00  7.2245E-03  0.0000E+00  0.0000E+00  2.1238E-03  4.4178E-04  5.3986E-04
 44  0.0000E+00  2.6212E-03  1.7695E-03  7.2630E-03  0.0000E+00  8.7318E-03  3.7799E-03  8.5171E-04  2.6859E-03
 45  0.0000E+00  5.5088E-03  1.1212E-02  4.5687E-03  2.3192E-02  4.4862E-03  1.6541E-02  6.2779E-05  0.0000E+00
 46  0.0000E+00  9.9061E-03  2.5345E-02  4.2224E-03  3.9916E-02  4.0841E-03  3.6404E-03  0.0000E+00  2.0466E-02
 47  0.0000E+00  1.7736E-02  6.4475E-02  0.0000E+00  6.7193E-02  0.0000E+00  3.3461E-02  1.7413E-02  9.9920E-03
 48  0.0000E+00  4.6042E-02  3.7655E-02  1.2195E-01  1.1349E-01  4.6283E-02  0.0000E+00  2.7328E-02  0.0000E+00
 49  0.0000E+00  8.6317E-02  7.0010E-02  2.8623E-01  5.7902E-02  8.9014E-02  2.7177E-02  2.3332E-02  5.5079E-02
 50  0.0000E+00  9.1622E-01  1.0090E+00  7.8610E-01  9.1173E-01  1.9610E+00  1.0024E+00  4.3048E-01  1.9574E-01
 51  3.6354E-03  2.5722E-01  2.5944E-01  2.5535E-01  2.4974E-01  2.4577E-01  2.5240E-01  2.4210E-01  2.5602E-01
 52  0.0000E+00  4.3741E-05  1.1826E-04  4.0850E-05  3.9091E-05  6.6935E-05  0.0000E+00  4.7431E-06  2.6628E-04
 53  0.0000E+00  6.5453E-05  2.7015E-04  1.7658E-04  2.6497E-05  1.2230E-04  0.0000E+00  0.0000E+00  7.0095E-05
 54  0.0000E+00  1.8041E-04  6.7238E-04  0.0000E+00  1.0395E-05  2.0179E-04  1.2729E-04  1.8697E-05  4.8336E-04
 55  0.0000E+00  1.8330E-04  0.0000E+00  2.2732E-04  2.0209E-04  2.0666E-04  5.8017E-04  3.6977E-05  1.4622E-04
 56  0.0000E+00  4.8216E-04  2.4998E-03  8.3168E-04  2.5822E-03  2.2407E-04  6.5093E-04  0.0000E+00  1.0847E-05
 57  0.0000E+00  5.3692E-04  2.5835E-04  1.5598E-03  2.6812E-03  1.6666E-03  0.0000E+00  9.6606E-05  1.2216E-05
 58  0.0000E+00  8.8697E-04  5.4160E-04  2.5726E-03  2.6119E-04  4.1612E-03  1.9192E-03  0.0000E+00  2.6553E-03
 59  0.0000E+00  2.3658E-03  1.0661E-02  4.8390E-04  2.7059E-03  1.2237E-03  4.5750E-03  5.1801E-04  5.7426E-03
 60  0.0000E+00  4.1467E-03  0.0000E+00  2.1911E-02  3.4068E-03  1.5601E-02  0.0000E+00  1.5964E-03  1.3675E-02
 61  0.0000E+00  6.5174E-03  7.2529E-03  4.9884E-03  4.8173E-04  2.3956E-03  1.2617E-02  1.3569E-03  1.8932E-02
 62  0.0000E+00  1.3991E-02  4.7770E-02  7.9228E-04  5.8238E-03  2.1118E-02  2.5423E-02  8.7764E-03  1.1620E-02
 63  0.0000E+00  2.6339E-02  4.0363E-02  7.4614E-02  1.2283E-01  4.5763E-02  0.0000E+00  7.8488E-03  0.0000E+00
 64  0.0000E+00  8.0742E-02  2.4612E-01  7.8557E-03  6.9044E-01  1.8585E-01  0.0000E+00  3.2722E-02  0.0000E+00
 65  0.0000E+00  2.2329E-01  4.0769E-02  1.2453E-01  5.7192E-02  0.0000E+00  7.9447E-01  0.0000E+00  7.3209E-01
 66  0.0000E+00  4.4443E+00  4.5108E+00  4.4795E+00  3.2381E+00  6.1596E+00  4.5952E+00  2.1923E+00  4.9183E+00

# AV, chi2 & Mass for <> & i_chain = 1 ...  7 solutions
AV       0.5859      1.2430      1.4494      1.4472      1.4266      1.4322      1.4500      1.4407      1.4489
chi2 3.0839E-05  4.2901E-05  3.1404E-05  3.1403E-05  3.1389E-05  3.1396E-05  3.1407E-05  3.1404E-05  3.1406E-05
Mass 2.4612E-13  4.9592E-13  6.5181E-13  6.5147E-13  6.3777E-13  6.5838E-13  6.5966E-13  6.5573E-13  6.5578E-13
-192.33                                  [v0_min (km/s) before EX0s...]
  70.38                                  [vd_min (km/s) before EX0s...]


## Synthetic spectrum (Best Model) ##l_obs f_obs f_syn wei
 3478    [Nl_obs]
 3741.00    1.78440   1.09658    0.000
 3742.00    2.21747   1.06521    0.000
 3743.00    2.58548   1.03446    0.000
 3744.00    2.32918   1.00326    0.000
 3745.00    1.70913   0.96405   -1.000
 3746.00    1.20491   0.92001   -1.000
 3747.00    0.75951   0.89937   -1.000
 3748.00    0.70961   0.92540   -1.000
 3749.00    0.83362   0.98550   -1.000
 3750.00    1.22325   1.04843   -1.000
 3751.00    1.71316   1.09870   -1.000
 3752.00    1.79435   1.13586   -1.000
 3753.00    1.74455   1.15199   -1.000
 3754.00    2.10032   1.13616   -1.000
 3755.00    2.56478   1.10024   -1.000
 3756.00    2.15979   1.07513   -1.000
 3757.00    1.56398   1.07738   -1.000
 3758.00    1.29085   1.09883   -1.000
 3759.00    1.07405   1.12112   -1.000
 3760.00    1.27793   1.13011   -1.000
 3761.00    1.53770   1.12672   -1.000
 3762.00    1.74162   1.11833   -1.000
 3763.00    1.94029   1.10066   -1.000
 3764.00    1.83224   1.06975   -1.000
 3765.00    1.70649   1.03652   -1.000
 3766.00    1.24325   1.00718   -1.000
 3767.00    0.77849   0.97902   -1.000
 3768.00    1.10112   0.96629   -1.000
 3769.00    1.40421   0.98903   -1.000
 3770.00    1.23287   1.03693   -1.000
 3771.00    1.08653   1.08124   -1.000
 3772.00    1.26784   1.11128   -1.000
 3773.00    1.48887   1.13548   -1.000
 3774.00    2.05863   1.16027   -1.000
 3775.00    2.49450   1.18395   -1.000
 3776.00    2.06222   1.20623   -1.000
 3777.00    1.66620   1.22798   -1.000
 3778.00    1.45372   1.24395   -1.000
 3779.00    1.30076   1.25052   -1.000
 3780.00    1.39135   1.25301   -1.000
 3781.00    1.50810   1.25407   -1.000
 3782.00    1.71350   1.24399   -1.000
 3783.00    1.96438   1.21601   -1.000
 3784.00    2.34533   1.18234   -1.000
 3785.00    2.63629   1.15841   -1.000
 3786.00    2.70740   1.14423   -1.000
 3787.00    2.49256   1.13472   -1.000
 3788.00    1.67500   1.12909   -1.000
 3789.00    1.17493   1.12169   -1.000
 3790.00    1.25641   1.10109   -1.000
 3791.00    1.44339   1.06376   -1.000
 3792.00    1.79927   1.01682   -1.000
 3793.00    1.78814   0.96525   -1.000
 3794.00    1.26150   0.91087   -1.000
 3795.00    0.84939   0.86995   -1.000
 3796.00    0.57885   0.87182   -1.000
 3797.00    0.58130   0.92470   -1.000
 3798.00    0.88119   1.00166   -1.000
 3799.00    1.09607   1.07232   -1.000
 3800.00    1.22926   1.12733   -1.000
 3801.00    1.45828   1.16527   -1.000
 3802.00    1.76851   1.18163   -1.000
 3803.00    1.77872   1.17904   -1.000
 3804.00    1.56505   1.17270   -1.000
 3805.00    1.50456   1.17996   -1.000
 3806.00    1.54450   1.20283   -1.000
 3807.00    1.67744   1.22575   -1.000
 3808.00    1.86375   1.23307   -1.000
 3809.00    1.75043   1.22074   -1.000
 3810.00    1.48736   1.19458   -1.000
 3811.00    1.08200   1.16601   -1.000
 3812.00    0.61512   1.14514   -1.000
 3813.00    0.30827   1.13756   -1.000
 3814.00    0.06077   1.14233   -1.000
 3815.00    0.09965   1.14238   -1.000
 3816.00    0.22857   1.11739   -1.000
 3817.00    0.29017   1.08026   -1.000
 3818.00    0.33411   1.06947   -1.000
 3819.00    0.49025   1.09413   -1.000
 3820.00    0.67044   1.11986   -1.000
 3821.00    1.13417   1.11598   -1.000
 3822.00    1.64603   1.08949   -1.000
 3823.00    1.61497   1.06535   -1.000
 3824.00    1.51423   1.05292   -1.000
 3825.00    1.07769   1.04511   -1.000
 3826.00    0.61101   1.03639   -1.000
 3827.00    0.99545   1.02399   -1.000
 3828.00    1.42563   0.99818   -1.000
 3829.00    1.08539   0.95076   -1.000
 3830.00    0.73285   0.88986   -1.000
 3831.00    0.64513   0.83311   -1.000
 3832.00    0.56805   0.79740   -1.000
 3833.00    0.72756   0.79530   -1.000
 3834.00    0.89489   0.82299   -1.000
 3835.00    1.15935   0.86279   -1.000
 3836.00    1.34895   0.90404   -1.000
 3837.00    0.90584   0.94687   -1.000
 3838.00    0.54492   0.99399   -1.000
 3839.00    0.70103   1.04623   -1.000
 3840.00    0.86687   1.09597   -1.000
 3841.00    1.08074   1.13148   -1.000
 3842.00    1.15515   1.15033   -1.000
 3843.00    0.67127   1.16058   -1.000
 3844.00    0.35243   1.17050   -1.000
 3845.00    0.58225   1.17762   -1.000
 3846.00    0.80246   1.17377   -1.000
 3847.00    0.99569   1.16399    0.000
 3848.00    1.18954   1.16431    0.000
 3849.00    1.38491   1.17710    0.000
 3850.00    1.64861   1.18743    0.000
 3851.00    2.05403   1.18481    0.000
 3852.00    2.12934   1.17171    0.000
 3853.00    1.60925   1.15597    0.000
 3854.00    1.16094   1.14348    0.000
 3855.00    0.82585   1.13135    0.000
 3856.00    0.78613   1.11530    0.000
 3857.00    1.15531   1.10643    0.000
 3858.00    1.27514   1.12065    0.000
 3859.00    1.09111   1.15345    0.000
 3860.00    0.98829   1.18318    0.000
 3861.00    0.97269   1.19446    0.000
 3862.00    0.93470   1.18934    0.000
 3863.00    0.87548   1.17961    0.000
 3864.00    0.87091   1.17375    0.000
 3865.00    0.91202   1.17278    0.000
 3866.00    1.21333   1.17185    0.000
 3867.00    1.70602   1.16164    0.000
 3868.00    1.90574   1.13814    0.000
 3869.00    1.91622   1.11309    0.000
 3870.00    1.93921   1.10660    0.000
 3871.00    1.96926   1.12498    0.000
 3872.00    1.88506   1.15070    0.000
 3873.00    1.74466   1.15913    0.000
 3874.00    1.48716   1.14138    0.000
 3875.00    1.17986   1.11224    0.000
 3876.00    1.31036   1.09646    0.000
 3877.00    1.60033   1.09841    0.000
 3878.00    1.54415   1.09721    0.000
 3879.00    1.38125   1.08229    0.000
 3880.00    1.11690   1.06617    0.000
 3881.00    0.82651   1.05199   -1.000
 3882.00    0.95272   1.02049   -1.000
 3883.00    1.16604   0.96217   -1.000
 3884.00    1.15043   0.89335   -1.000
 3885.00    1.09708   0.83430   -1.000
 3886.00    1.55174   0.80338   -1.000
 3887.00    2.06931   0.82141   -1.000
 3888.00    2.61424   0.88692   -1.000
 3889.00    3.16151   0.96690   -1.000
 3890.00    2.50799   1.02878   -1.000
 3891.00    1.79463   1.06385   -1.000
 3892.00    1.84326   1.08258   -1.000
 3893.00    1.90746   1.10074   -1.000
 3894.00    2.17093   1.12278   -1.000
 3895.00    2.41282   1.13781   -1.000
 3896.00    2.21313   1.14074   -1.000
 3897.00    2.00696   1.14367   -1.000
 3898.00    1.72408   1.15541   -1.000
 3899.00    1.45529   1.16705   -1.000
 3900.00    1.30131   1.16920   -1.000
 3901.00    1.22037   1.16410   -1.000
 3902.00    1.58563   1.15495   -1.000
 3903.00    1.82687   1.14837   -1.000
 3904.00    1.47137   1.15778   -1.000
 3905.00    1.21548   1.18367   -1.000
 3906.00    1.34970   1.20996   -1.000
 3907.00    1.41305   1.22562    0.223
 3908.00    1.24536   1.23331    0.042
 3909.00    1.09930   1.23692    0.027
 3910.00    1.01292   1.23458    0.027
 3911.00    0.83869   1.22737    0.028
 3912.00    0.45699   1.22022    0.028
 3913.00    0.43124   1.21316    0.028
 3914.00    1.13192   1.20389    0.028
 3915.00    1.48229   1.19149    0.028
 3916.00    1.21048   1.17384    0.028
 3917.00    0.84755   1.15192    0.028
 3918.00    0.34306   1.13357    0.028
 3919.00    0.09511   1.12591    0.028
 3920.00    0.19719   1.12751    0.027
 3921.00    0.22917   1.13046    0.027
 3922.00    0.17695   1.12586    0.028
 3923.00    0.56403   1.10888    0.028
 3924.00    1.41636   1.08228    0.029
 3925.00    1.84941   1.05190    0.029
 3926.00    1.89079   1.02005    0.030
 3927.00    1.49343   0.98559    0.030
 3928.00    0.73475   0.94687    0.029
 3929.00    0.57348   0.90523    0.029
 3930.00    0.84527   0.86909    0.029
 3931.00    0.70157   0.85284    0.029
 3932.00    0.29345   0.86671    0.028
 3933.00    0.03585   0.90672    0.029
 3934.00   -0.13798   0.95835    0.000
 3935.00   -0.43717   1.00890    0.000
 3936.00   -0.79705   1.05260    0.000
 3937.00   -0.83308   1.08566    0.000
 3938.00   -0.73371   1.10476    0.000
 3939.00   -0.35123   1.11097    0.000
 3940.00    0.13253   1.10894    0.030
 3941.00   -0.10689   1.10799    0.000
 3942.00   -0.56490   1.12102    0.000
 3943.00    0.27948   1.14726    0.030
 3944.00    1.45097   1.16743    0.031
 3945.00    1.56037   1.17174    0.030
 3946.00    1.45319   1.17353    0.030
 3947.00    1.16699   1.18388    0.029
 3948.00    0.85214   1.19382    0.029
 3949.00    0.60177   1.19265    0.029
 3950.00    0.35910   1.18827    0.029
 3951.00    0.59052   1.19162    0.030
 3952.00    0.86056   1.19377    0.030
 3953.00    0.87209   1.18236    0.029
 3954.00    0.87175   1.16610    0.028
 3955.00    0.56494   1.15956    0.028
 3956.00    0.26692   1.15658    0.028
 3957.00    0.63181   1.13610    0.028
 3958.00    0.99275   1.09064    0.029
 3959.00    1.27892   1.03807    0.028
 3960.00    1.46895   0.99702    0.000
 3961.00    0.57555   0.96245    0.000
 3962.00   -0.15157   0.91775    0.000
 3963.00    0.42842   0.85532    0.000
 3964.00    0.89140   0.77887    0.000
 3965.00    0.66013   0.70061    0.000
 3966.00    0.45722   0.64086    0.000
 3967.00    0.38750   0.62306    0.000
 3968.00    0.47813   0.65889    0.000
 3969.00    1.18326   0.73484    0.000
 3970.00    1.58221   0.82275    0.000
 3971.00    1.00251   0.90404    0.000
 3972.00    0.59079   0.97373    0.000
 3973.00    0.63403   1.03001    0.000
 3974.00    0.63241   1.07476    0.000
 3975.00    0.52662   1.11422    0.000
 3976.00    0.52239   1.15033    0.000
 3977.00    0.72215   1.17756    0.000
 3978.00    0.95122   1.18943    0.000
 3979.00    1.23157   1.18833    0.000
 3980.00    1.53234   1.18696    0.000
 3981.00    1.86438   1.19499    0.028
 3982.00    2.02337   1.20890    0.028
 3983.00    1.94963   1.22025    0.029
 3984.00    1.69544   1.22937    0.029
 3985.00    1.22758   1.24035    0.029
 3986.00    1.34920   1.24839    0.028
 3987.00    2.08636   1.25024    0.028
 3988.00    2.20521   1.25405    0.028
 3989.00    1.75457   1.26410    0.028
 3990.00    1.57785   1.27187    0.028
 3991.00    1.62354   1.26848    0.027
 3992.00    1.73068   1.25587    0.027
 3993.00    1.88172   1.24103    0.027
 3994.00    1.41938   1.22878    0.027
 3995.00    0.57244   1.22630    0.027
 3996.00    0.84987   1.24022    0.027
 3997.00    1.74347   1.26287    0.027
 3998.00    1.92207   1.27979    0.027
 3999.00    1.76009   1.28786    0.027
 4000.00    1.61604   1.28688    0.026
 4001.00    1.47937   1.26870    0.026
 4002.00    1.13926   1.23589    0.026
 4003.00    0.72770   1.21340    0.025
 4004.00    0.77316   1.21927    0.025
 4005.00    0.95404   1.24112    0.025
 4006.00    0.78798   1.25829    0.025
 4007.00    0.53670   1.26735    0.024
 4008.00    0.31866   1.27392    0.025
 4009.00    0.10724   1.27847    0.025
 4010.00    0.62438   1.28082    0.025
 4011.00    1.25472   1.28408    0.025
 4012.00    1.14476   1.28934    0.025
 4013.00    0.94968   1.29182    0.025
 4014.00    0.97563   1.28771    0.025
 4015.00    1.01867   1.28415    0.025
 4016.00    1.23983   1.28820    0.026
 4017.00    1.46849   1.29268    0.026
 4018.00    1.00000   1.28844    0.026
 4019.00    0.53919   1.27635    0.025
 4020.00    0.69358   1.25778    0.025
 4021.00    0.85221   1.23071    0.025
 4022.00    1.08563   1.20340    0.026
 4023.00    1.33604   1.19492    0.026
 4024.00    1.76936   1.21444    0.026
 4025.00    2.12481   1.24680    0.026
 4026.00    1.88923   1.26384    0.026
 4027.00    1.54019   1.25194    0.026
 4028.00    0.53680   1.22586    0.026
 4029.00   -0.17042   1.20814    0.000
 4030.00    0.47975   1.20541    0.026
 4031.00    0.96617   1.21468    0.026
 4032.00    0.83840   1.23570    0.025
 4033.00    0.74494   1.26773    0.025
 4034.00    0.75901   1.30213    0.026
 4035.00    0.77529   1.32507    0.026
 4036.00    0.79745   1.32803    0.026
 4037.00    1.08376   1.31528    0.026
 4038.00    1.97324   1.30200    0.026
 4039.00    2.45599   1.29680    0.026
 4040.00    2.13468   1.28622    0.026
 4041.00    1.72896   1.25192    0.026
 4042.00    1.17781   1.20334    0.027
 4043.00    0.76509   1.17789    0.026
 4044.00    0.56119   1.19837    0.026
 4045.00    0.41233   1.24380    0.025
 4046.00    0.33643   1.28090    0.025
 4047.00    0.45134   1.30042    0.025
 4048.00    0.78903   1.30678    0.025
 4049.00    1.01364   1.30190    0.025
 4050.00    1.12181   1.28893    0.026
 4051.00    1.15048   1.27396    0.026
 4052.00    1.10697   1.26283    0.025
 4053.00    1.34736   1.25701    0.025
 4054.00    1.81498   1.25240    0.025
 4055.00    1.77808   1.24938    0.025
 4056.00    1.38591   1.25594    0.025
 4057.00    0.87124   1.27118    0.025
 4058.00    0.28089   1.27720    0.025
 4059.00    0.19066   1.25655    0.024
 4060.00    0.37029   1.21766    0.024
 4061.00    0.56797   1.19383    0.024
 4062.00    0.77411   1.20299    0.024
 4063.00    0.91906   1.22434    0.024
 4064.00    1.03929   1.23581    0.024
 4065.00    1.20369   1.24246    0.024
 4066.00    1.38332   1.25088    0.024
 4067.00    1.15050   1.24865    0.024
 4068.00    0.79793   1.23000    0.024
 4069.00    0.59204   1.21703    0.024
 4070.00    0.42139   1.22921    0.025
 4071.00    0.52998   1.25003    0.024
 4072.00    0.69268   1.24867    0.024
 4073.00    0.62143   1.22006    0.024
 4074.00    0.51494   1.18755    0.024
 4075.00    1.15475   1.17833    0.024
 4076.00    1.87712   1.20039    0.024
 4077.00    2.09305   1.23957    0.024
 4078.00    2.27190   1.27333    0.024
 4079.00    1.55281   1.28496    0.024
 4080.00    0.79935   1.27380    0.024
 4081.00    1.07294   1.25459    0.024
 4082.00    1.33991   1.24459    0.025
 4083.00    1.14236   1.25129    0.025
 4084.00    0.97348   1.26994    0.024
 4085.00    1.27702   1.28736    0.025
 4086.00    1.55545   1.29327    0.025
 4087.00    1.57561   1.28817    0.025
 4088.00    1.62429   1.27667    0.025
 4089.00    1.88226   1.26278    0.025
 4090.00    2.07979   1.25114    0.025
 4091.00    1.93828   1.23776    0.025
 4092.00    1.81749   1.21012    0.000
 4093.00    1.78948   1.16850    0.000
 4094.00    1.67132   1.12639    0.000
 4095.00    1.22208   1.08747    0.000
 4096.00    1.06679   1.03793    0.000
 4097.00    1.81550   0.96533    0.000
 4098.00    2.27296   0.88620    0.000
 4099.00    1.96924   0.84729    0.000
 4100.00    1.73841   0.87816    0.000
 4101.00    1.67128   0.95725    0.000
 4102.00    1.60155   1.04311    0.000
 4103.00    1.52675   1.11146    0.000
 4104.00    1.58143   1.15589    0.000
 4105.00    1.85581   1.17914    0.000
 4106.00    1.96065   1.18838    0.000
 4107.00    1.81347   1.19262    0.000
 4108.00    1.65876   1.19997    0.000
 4109.00    1.49420   1.21386    0.000
 4110.00    1.28423   1.23256    0.000
 4111.00    1.02197   1.25001    0.000
 4112.00    0.83160   1.26066    0.000
 4113.00    0.71420   1.26461    0.023
 4114.00    1.14189   1.26161    0.023
 4115.00    2.05761   1.24899    0.023
 4116.00    2.13094   1.23323    0.023
 4117.00    1.53963   1.22639    0.023
 4118.00    1.00518   1.22991    0.023
 4119.00    0.51019   1.23775    0.023
 4120.00    0.51441   1.24822    0.023
 4121.00    0.82241   1.26219    0.022
 4122.00    1.08651   1.27453    0.022
 4123.00    1.32729   1.27609    0.023
 4124.00    1.68525   1.26582    0.023
 4125.00    2.09724   1.25262    0.023
 4126.00    1.97632   1.24417    0.023
 4127.00    1.64379   1.23784    0.023
 4128.00    1.05606   1.22543    0.023
 4129.00    0.38197   1.20720    0.023
 4130.00    0.58173   1.19608    0.022
 4131.00    1.03013   1.20295    0.022
 4132.00    1.30162   1.22630    0.022
 4133.00    1.53159   1.25406    0.023
 4134.00    1.52937   1.27383    0.023
 4135.00    1.48333   1.28523    0.022
 4136.00    1.68905   1.29219    0.023
 4137.00    1.93154   1.29083    0.023
 4138.00    2.02001   1.27118    0.023
 4139.00    2.09212   1.22759    0.023
 4140.00    1.68545   1.17617    0.024
 4141.00    1.24566   1.15304    0.024
 4142.00    1.16096   1.17508    0.024
 4143.00    1.08850   1.21818    0.023
 4144.00    1.48114   1.24953    0.023
 4145.00    1.85446   1.25874    0.023
 4146.00    1.55919   1.25330    0.024
 4147.00    1.27644   1.24567    0.024
 4148.00    1.18741   1.24341    0.024
 4149.00    1.16745   1.24286    0.024
 4150.00    1.82831   1.23765    0.024
 4151.00    2.42193   1.22933    0.024
 4152.00    2.53813   1.22454    0.024
 4153.00    2.58167   1.22606    0.024
 4154.00    2.22857   1.23384    0.024
 4155.00    1.91762   1.24765    0.024
 4156.00    1.79093   1.26303    0.024
 4157.00    1.69706   1.27311    0.023
 4158.00    1.72124   1.27715    0.023
 4159.00    1.75423   1.28053    0.022
 4160.00    1.81380   1.28357    0.022
 4161.00    1.71762   1.28154    0.022
 4162.00    1.22150   1.27438    0.022
 4163.00    0.76488   1.26430    0.022
 4164.00    0.39553   1.25287    0.022
 4165.00    0.44581   1.24658    0.022
 4166.00    1.29989   1.24926    0.023
 4167.00    1.77525   1.25001    0.023
 4168.00    1.61762   1.23401    0.022
 4169.00    1.54268   1.20388    0.022
 4170.00    1.58888   1.18058    0.022
 4171.00    1.69298   1.17985    0.022
 4172.00    1.87165   1.19539    0.022
 4173.00    1.74969   1.20983    0.022
 4174.00    1.28657   1.21467    0.022
 4175.00    1.08230   1.21681    0.022
 4176.00    1.13708   1.22611    0.021
 4177.00    1.28542   1.23816    0.021
 4178.00    1.51634   1.24031    0.021
 4179.00    1.46007   1.23337    0.021
 4180.00    1.18045   1.23077    0.021
 4181.00    1.15188   1.23779    0.021
 4182.00    1.29500   1.24462    0.021
 4183.00    1.58620   1.23803    0.021
 4184.00    1.96616   1.22039    0.022
 4185.00    1.72136   1.21158    0.021
 4186.00    1.14981   1.22061    0.021
 4187.00    1.05990   1.23355    0.021
 4188.00    1.18846   1.24023    0.021
 4189.00    1.65791   1.24853    0.021
 4190.00    2.26039   1.26164    0.021
 4191.00    2.20706   1.26428    0.021
 4192.00    1.93591   1.24575    0.021
 4193.00    1.56779   1.21552    0.021
 4194.00    1.17264   1.18550    0.021
 4195.00    1.30353   1.15924    0.021
 4196.00    1.55512   1.14228    0.021
 4197.00    1.67196   1.13995    0.021
 4198.00    1.76403   1.14753    0.021
 4199.00    1.75576   1.15981    0.021
 4200.00    1.73330   1.17792    0.021
 4201.00    1.79029   1.19907    0.021
 4202.00    1.85537   1.21779    0.020
 4203.00    1.47295   1.23494    0.020
 4204.00    1.06136   1.25186    0.020
 4205.00    1.23055   1.26366    0.020
 4206.00    1.41737   1.26533    0.020
 4207.00    1.46785   1.26061    0.021
 4208.00    1.51088   1.25905    0.021
 4209.00    1.33538   1.26242    0.021
 4210.00    1.17364   1.26089    0.021
 4211.00    1.21232   1.24495    0.021
 4212.00    1.24952   1.21944    0.021
 4213.00    1.27267   1.20542    0.021
 4214.00    1.31830   1.21816    0.021
 4215.00    1.51858   1.24666    0.021
 4216.00    1.67703   1.27092    0.021
 4217.00    1.61320   1.28426    0.021
 4218.00    1.57084   1.28559    0.021
 4219.00    1.62016   1.27064    0.021
 4220.00    1.63864   1.23899    0.021
 4221.00    1.54847   1.19432    0.021
 4222.00    1.41172   1.13965    0.021
 4223.00    1.13704   1.08825    0.021
 4224.00    1.05556   1.07138    0.021
 4225.00    1.46167   1.10816    0.021
 4226.00    1.61441   1.17442    0.021
 4227.00    1.21660   1.22885    0.020
 4228.00    0.84624   1.25325    0.020
 4229.00    0.52764   1.25116    0.020
 4230.00    0.59900   1.23604    0.020
 4231.00    1.31239   1.22280    0.020
 4232.00    1.69196   1.21361    0.020
 4233.00    1.58967   1.20458    0.020
 4234.00    1.41296   1.20095    0.020
 4235.00    1.14179   1.20646    0.020
 4236.00    1.08693   1.21611    0.019
 4237.00    1.27409   1.22792    0.019
 4238.00    1.31636   1.24180    0.019
 4239.00    1.21564   1.25277    0.019
 4240.00    1.35799   1.26063    0.019
 4241.00    1.71189   1.27044    0.019
 4242.00    1.83281   1.27568    0.019
 4243.00    1.77511   1.26394    0.020
 4244.00    1.70519   1.23866    0.020
 4245.00    1.62703   1.21451    0.020
 4246.00    1.30308   1.19791    0.020
 4247.00    0.83402   1.18959    0.020
 4248.00    0.88254   1.19500    0.020
 4249.00    1.19757   1.21125    0.021
 4250.00    1.17454   1.21915    0.021
 4251.00    1.00069   1.21094    0.020
 4252.00    1.22294   1.20574    0.020
 4253.00    1.59707   1.22006    0.021
 4254.00    1.92173   1.24036    0.020
 4255.00    2.23027   1.24000    0.020
 4256.00    2.45518   1.21400    0.020
 4257.00    2.65726   1.18474    0.020
 4258.00    2.24440   1.17865    0.020
 4259.00    1.69373   1.20282    0.020
 4260.00    1.77932   1.24010    0.020
 4261.00    1.97870   1.26900    0.020
 4262.00    2.02141   1.28222    0.020
 4263.00    2.04269   1.28044    0.020
 4264.00    1.54312   1.26545    0.020
 4265.00    0.99267   1.24419    0.019
 4266.00    1.25637   1.22079    0.019
 4267.00    1.56987   1.18885    0.019
 4268.00    1.49906   1.15056    0.019
 4269.00    1.41903   1.12619    0.019
 4270.00    1.56381   1.12620    0.019
 4271.00    1.70252   1.13847    0.019
 4272.00    1.68054   1.15617    0.019
 4273.00    1.63920   1.18616    0.019
 4274.00    1.33186   1.22379    0.019
 4275.00    1.05370   1.24882    0.019
 4276.00    1.04074   1.24752    0.019
 4277.00    1.03292   1.22781    0.019
 4278.00    1.05936   1.21095    0.019
 4279.00    1.13583   1.20886    0.019
 4280.00    1.47135   1.21536    0.019
 4281.00    1.74303   1.21724    0.019
 4282.00    1.74819   1.20820   -2.000
 4283.00    1.75399   1.19514   -2.000
 4284.00    1.76198   1.18525   -2.000
 4285.00    1.73691   1.17100   -2.000
 4286.00    1.61569   1.14604   -2.000
 4287.00    1.41486   1.12629   -2.000
 4288.00    1.01654   1.13356   -2.000
 4289.00    0.74487   1.16419   -2.000
 4290.00    0.74393   1.19141   -2.000
 4291.00    0.84490   1.19800   -2.000
 4292.00    1.13504   1.19034   -2.000
 4293.00    1.27571   1.17828   -2.000
 4294.00    1.17395   1.15835   -2.000
 4295.00    0.95566   1.12471   -2.000
 4296.00    0.57160   1.08451   -2.000
 4297.00    0.54719   1.05614   -2.000
 4298.00    0.97291   1.04997    0.020
 4299.00    1.42839   1.05734    0.020
 4300.00    1.91671   1.06733    0.020
 4301.00    1.93400   1.07766    0.020
 4302.00    1.49300   1.08420    0.020
 4303.00    1.28241   1.07878    0.020
 4304.00    1.26951   1.06009    0.019
 4305.00    1.14962   1.03971    0.019
 4306.00    0.94889   1.03478    0.019
 4307.00    0.99854   1.05088    0.019
 4308.00    1.21447   1.07783    0.019
 4309.00    1.30909   1.10438    0.019
 4310.00    1.33317   1.12839    0.020
 4311.00    1.41293   1.15690    0.019
 4312.00    1.52092   1.19974    0.019
 4313.00    1.28717   1.25391    0.019
 4314.00    0.90345   1.29855    0.018
 4315.00    0.95873   1.31667    0.019
 4316.00    1.17938   1.31188    0.019
 4317.00    1.27149   1.29611    0.019
 4318.00    1.32251   1.27566    0.019
 4319.00    1.50765   1.24786    0.020
 4320.00    1.72864   1.20571    0.020
 4321.00    1.88409   1.15183    0.020
 4322.00    2.02519   1.10894    0.020
 4323.00    1.60611   1.10540    0.019
 4324.00    1.08957   1.14697    0.019
 4325.00    1.14970   1.20547    0.019
 4326.00    1.28610   1.24365    0.019
 4327.00    1.39503   1.25090    0.020
 4328.00    1.50140   1.24404    0.020
 4329.00    1.37608   1.23921    0.019
 4330.00    1.23752   1.23713    0.000
 4331.00    1.67185   1.23160    0.000
 4332.00    2.11398   1.21368    0.000
 4333.00    1.92028   1.16888    0.000
 4334.00    1.74311   1.09125    0.000
 4335.00    1.96304   0.99560    0.000
 4336.00    2.15197   0.90608    0.000
 4337.00    1.93731   0.84949    0.000
 4338.00    1.70722   0.85368    0.000
 4339.00    1.34227   0.91908    0.000
 4340.00    1.03459   1.00616    0.000
 4341.00    1.09677   1.07878    0.000
 4342.00    1.15647   1.13197    0.000
 4343.00    1.20369   1.17059    0.000
 4344.00    1.28401   1.19811    0.000
 4345.00    1.49945   1.22115    0.000
 4346.00    1.70442   1.23615    0.000
 4347.00    1.87393   1.22553    0.000
 4348.00    1.88663   1.18850    0.000
 4349.00    1.45190   1.15759    0.000
 4350.00    1.08626   1.16194    0.000
 4351.00    0.88909   1.19259    0.019
 4352.00    0.94251   1.22427    0.018
 4353.00    1.52305   1.24754    0.019
 4354.00    1.80810   1.26087    0.019
 4355.00    1.55298   1.25993    0.019
 4356.00    1.49145   1.25166    0.019
 4357.00    1.73925   1.25394    0.018
 4358.00    1.81139   1.27111    0.018
 4359.00    1.63723   1.28913    0.018
 4360.00    1.54345   1.29944    0.019
 4361.00    1.54882   1.30693    0.019
 4362.00    1.64743   1.31108    0.019
 4363.00    1.84745   1.30139    0.018
 4364.00    1.83829   1.27838    0.018
 4365.00    1.62847   1.25917    0.018
 4366.00    1.51782   1.25438    0.018
 4367.00    1.49106   1.25776    0.018
 4368.00    1.38079   1.26018    0.018
 4369.00    1.20834   1.25600    0.017
 4370.00    1.18935   1.23928    0.018
 4371.00    1.27078   1.21311    0.018
 4372.00    1.27397   1.19703    0.018
 4373.00    1.23235   1.20863    0.018
 4374.00    1.16089   1.24112    0.018
 4375.00    1.07454   1.27013    0.018
 4376.00    1.04127   1.28004    0.018
 4377.00    1.03090   1.27223    0.018
 4378.00    0.94967   1.24704    0.018
 4379.00    0.84222   1.19678    0.017
 4380.00    0.78070   1.13113    0.017
 4381.00    0.73360   1.08908    0.017
 4382.00    1.08903   1.09952    0.017
 4383.00    1.54977   1.14413    0.017
 4384.00    1.72162   1.18240    0.018
 4385.00    1.83177   1.19780    0.018
 4386.00    1.62042   1.20131    0.018
 4387.00    1.35471   1.20648    0.017
 4388.00    1.39145   1.21888    0.017
 4389.00    1.46683   1.23542    0.017
 4390.00    1.25634   1.24393    0.017
 4391.00    1.02033   1.23827    0.017
 4392.00    1.13992   1.23330    0.017
 4393.00    1.27845   1.24705    0.017
 4394.00    1.52565   1.27209    0.034
 4395.00    1.77021   1.28266   -1.000
 4396.00    1.62791   1.26794   -1.000
 4397.00    1.48015   1.24514   -1.000
 4398.00    1.21227   1.23794   -1.000
 4399.00    0.93770   1.24498   -1.000
 4400.00    0.58047   1.23919   -1.000
 4401.00    0.21487   1.21012   -1.000
 4402.00   -0.22107   1.18527    0.000
 4403.00   -0.57037   1.18786    0.000
 4404.00   -0.37668   1.20442    0.000
 4405.00   -0.10336   1.21750    0.000
 4406.00    0.56167   1.23461    0.030
 4407.00    1.17239   1.26415    0.018
 4408.00    1.56628   1.29528    0.018
 4409.00    1.82444   1.31184    0.018
 4410.00    1.63245   1.30381    0.017
 4411.00    1.40330   1.27069    0.017
 4412.00    1.07002   1.23157    0.017
 4413.00    0.87934   1.21499    0.017
 4414.00    1.03042   1.22960    0.017
 4415.00    1.06108   1.26151    0.017
 4416.00    0.84249   1.29277    0.017
 4417.00    0.62607   1.30796    0.017
 4418.00    0.41355   1.30052    0.017
 4419.00    0.50285   1.28181    0.017
 4420.00    1.06725   1.27039    0.017
 4421.00    1.46422   1.27115    0.017
 4422.00    1.62981   1.27388    0.017
 4423.00    1.72551   1.27187    0.018
 4424.00    1.73620   1.27058    0.018
 4425.00    1.66863   1.27414    0.018
 4426.00    1.51712   1.27619    0.018
 4427.00    1.55043   1.27274    0.017
 4428.00    1.75856   1.27122    0.017
 4429.00    1.67823   1.27333    0.017
 4430.00    1.35736   1.26538    0.017
 4431.00    1.15773   1.24198    0.017
 4432.00    1.04713   1.22178    0.018
 4433.00    0.92114   1.22764    0.018
 4434.00    0.78525   1.26072    0.018
 4435.00    0.98868   1.29960    0.018
 4436.00    1.38352   1.32061    0.018
 4437.00    1.56646   1.31345    0.018
 4438.00    1.64536   1.28406    0.018
 4439.00    1.70844   1.25103    0.018
 4440.00    1.76483   1.23560    0.018
 4441.00    1.71033   1.24803    0.018
 4442.00    1.61553   1.27841    0.018
 4443.00    1.67390   1.30440    0.018
 4444.00    1.77938   1.31398    0.018
 4445.00    1.61016   1.31319    0.018
 4446.00    1.37061   1.30891    0.018
 4447.00    1.38526   1.30228    0.018
 4448.00    1.45289   1.29680    0.018
 4449.00    1.35412   1.29181    0.018
 4450.00    1.22801   1.27658    0.018
 4451.00    1.12585   1.24800    0.018
 4452.00    1.02664   1.22207    0.018
 4453.00    1.21286   1.21555    0.018
 4454.00    1.42335   1.22436    0.018
 4455.00    1.48808   1.23187    0.017
 4456.00    1.54561   1.23109    0.017
 4457.00    1.11028   1.22574    0.017
 4458.00    0.67763   1.22175    0.017
 4459.00    0.90642   1.22738    0.017
 4460.00    1.11839   1.24674    0.017
 4461.00    0.99000   1.26883    0.000
 4462.00    0.87125   1.27969    0.000
 4463.00    0.86588   1.27878    0.000
 4464.00    0.86957   1.27078    0.000
 4465.00    0.94673   1.25647    0.000
 4466.00    1.01461   1.23883    0.000
 4467.00    1.02608   1.22680    0.000
 4468.00    1.11701   1.22999    0.000
 4469.00    1.58912   1.25271    0.000
 4470.00    1.97172   1.28811    0.000
 4471.00    2.00475   1.31895    0.000
 4472.00    1.89327   1.33498    0.000
 4473.00    1.31194   1.34341    0.000
 4474.00    0.92768   1.35142    0.000
 4475.00    1.08563   1.35018    0.000
 4476.00    1.25579   1.32781    0.000
 4477.00    1.45471   1.28988    0.000
 4478.00    1.60550   1.25864    0.000
 4479.00    1.65826   1.25438    0.000
 4480.00    1.56769   1.27884    0.000
 4481.00    1.22302   1.31518    0.000
 4482.00    1.07564   1.34370    0.017
 4483.00    1.23426   1.35433    0.017
 4484.00    1.34630   1.34494    0.017
 4485.00    1.39489   1.32016    0.017
 4486.00    1.50484   1.29458    0.017
 4487.00    1.68836   1.28581    0.017
 4488.00    1.61461   1.29776    0.017
 4489.00    1.26887   1.31456    0.017
 4490.00    1.19215   1.31636    0.017
 4491.00    1.36630   1.30064    0.017
 4492.00    1.30679   1.28376    0.017
 4493.00    1.05519   1.28218    0.017
 4494.00    0.93257   1.29807    0.017
 4495.00    0.90330   1.32082    0.017
 4496.00    1.11873   1.33545    0.017
 4497.00    1.48961   1.33482    0.016
 4498.00    1.63936   1.32886    0.016
 4499.00    1.66628   1.33588    0.016
 4500.00    1.53204   1.35966    0.016
 4501.00    1.31993   1.38340    0.016
 4502.00    1.32561   1.39156    0.017
 4503.00    1.42215   1.38483    0.017
 4504.00    1.52876   1.37322    0.017
 4505.00    1.63896   1.36613    0.017
 4506.00    1.88204   1.36690    0.017
 4507.00    2.16518   1.37070    0.016
 4508.00    1.95260   1.36885    0.016
 4509.00    1.61587   1.35774    0.017
 4510.00    1.65712   1.34239    0.017
 4511.00    1.77522   1.33052    0.017
 4512.00    1.39652   1.32602    0.016
 4513.00    0.93857   1.32605    0.016
 4514.00    1.04489   1.32455    0.016
 4515.00    1.21826   1.32268    0.016
 4516.00    1.36113   1.32791    0.016
 4517.00    1.50153   1.33878    0.016
 4518.00    1.49614   1.34276    0.016
 4519.00    1.48411   1.33254    0.016
 4520.00    1.51666   1.31597    0.016
 4521.00    1.54753   1.30319    0.016
 4522.00    1.46493   1.29101    0.016
 4523.00    1.37787   1.27221    0.016
 4524.00    1.20722   1.24953    0.016
 4525.00    1.07392   1.23223    0.016
 4526.00    1.35901   1.22765    0.016
 4527.00    1.60593   1.23642    0.016
 4528.00    1.55412   1.25130    0.016
 4529.00    1.49474   1.25997    0.016
 4530.00    1.39057   1.25256    0.016
 4531.00    1.32884   1.23506    0.016
 4532.00    1.46576   1.22984    0.016
 4533.00    1.52543   1.25275    0.016
 4534.00    1.28985   1.29272    0.016
 4535.00    1.14104   1.32016    0.016
 4536.00    1.26888   1.31739    0.016
 4537.00    1.36786   1.29435    0.016
 4538.00    1.38888   1.27509    0.016
 4539.00    1.48478   1.27434    0.015
 4540.00    1.75418   1.28476    0.015
 4541.00    1.87370   1.29101    0.016
 4542.00    1.69277   1.29206    0.015
 4543.00    1.59972   1.29509    0.015
 4544.00    1.66005   1.29654    0.015
 4545.00    1.67284   1.28806    0.016
 4546.00    1.61296   1.27525    0.016
 4547.00    1.54788   1.27348    0.016
 4548.00    1.47582   1.28352    0.016
 4549.00    1.33062   1.28889    0.016
 4550.00    1.09897   1.28146    0.000
 4551.00    1.08780   1.27098    0.000
 4552.00    1.30645   1.27179    0.000
 4553.00    1.43793   1.29017    0.000
 4554.00    1.48927   1.31875    0.000
 4555.00    1.56803   1.34298    0.000
 4556.00    1.66901   1.35543    0.000
 4557.00    1.66653   1.35916    0.000
 4558.00    1.59025   1.35766    0.000
 4559.00    1.36956   1.34819    0.000
 4560.00    1.05850   1.32893    0.000
 4561.00    1.01207   1.30913    0.000
 4562.00    1.11038   1.30324    0.000
 4563.00    1.36459   1.31603    0.000
 4564.00    1.69292   1.33811    0.000
 4565.00    1.70244   1.35419    0.000
 4566.00    1.58120   1.35453    0.000
 4567.00    1.52342   1.33905    0.000
 4568.00    1.48787   1.31905    0.000
 4569.00    1.55783   1.31403    0.000
 4570.00    1.65898   1.32946    0.000
 4571.00    1.55334   1.34780    0.000
 4572.00    1.39704   1.35500    0.000
 4573.00    1.21094   1.35398    0.000
 4574.00    1.01893   1.34868    0.000
 4575.00    1.12289   1.33614    0.000
 4576.00    1.27265   1.31583    0.000
 4577.00    1.34585   1.29622    0.000
 4578.00    1.41029   1.28770    0.000
 4579.00    1.47478   1.29076    0.000
 4580.00    1.53928   1.29629    0.000
 4581.00    1.65197   1.29816    0.000
 4582.00    1.76666   1.29887    0.000
 4583.00    1.83729   1.30446    0.000
 4584.00    1.89974   1.31822    0.000
 4585.00    1.62747   1.33484    0.000
 4586.00    1.38071   1.34355    0.000
 4587.00    1.58003   1.33860    0.000
 4588.00    1.75455   1.32430    0.000
 4589.00    1.66385   1.31093    0.000
 4590.00    1.58907   1.30534    0.000
 4591.00    1.63475   1.30590    0.000
 4592.00    1.66690   1.30844    0.000
 4593.00    1.62135   1.31247    0.000
 4594.00    1.56795   1.31813    0.000
 4595.00    1.47872   1.32288    0.000
 4596.00    1.41231   1.32243    0.000
 4597.00    1.43130   1.31576    0.000
 4598.00    1.44243   1.30991    0.000
 4599.00    1.42898   1.31110    0.000
 4600.00    1.37317   1.31658    0.000
 4601.00    1.20494   1.32119    0.000
 4602.00    1.13403   1.32424    0.000
 4603.00    1.28489   1.32995    0.000
 4604.00    1.42933   1.34279    0.000
 4605.00    1.56112   1.36093    0.000
 4606.00    1.65272   1.37464    0.000
 4607.00    1.67520   1.37532    0.000
 4608.00    1.62495   1.36541    0.000
 4609.00    1.46520   1.35432    0.000
 4610.00    1.40128   1.34894    0.000
 4611.00    1.46415   1.35066    0.000
 4612.00    1.52593   1.35482    0.000
 4613.00    1.58645   1.35601    0.000
 4614.00    1.53468   1.35429    0.000
 4615.00    1.36752   1.35016    0.000
 4616.00    1.35605   1.34619    0.000
 4617.00    1.48571   1.34941    0.000
 4618.00    1.57361   1.35952    0.000
 4619.00    1.62813   1.36737    0.000
 4620.00    1.53030   1.36868    0.000
 4621.00    1.32539   1.36556    0.000
 4622.00    1.37562   1.36051    0.000
 4623.00    1.58316   1.35658    0.000
 4624.00    1.61910   1.35419    0.000
 4625.00    1.56262   1.34954    0.000
 4626.00    1.47641   1.34359    0.000
 4627.00    1.37630   1.34347    0.000
 4628.00    1.40462   1.34860    0.000
 4629.00    1.48471   1.34898    0.000
 4630.00    1.54536   1.34219    0.000
 4631.00    1.59931   1.33582    0.000
 4632.00    1.61116   1.33295    0.000
 4633.00    1.61081   1.32905    0.000
 4634.00    1.54048   1.32095    0.000
 4635.00    1.45337   1.31213    0.000
 4636.00    1.24398   1.30900    0.000
 4637.00    1.01097   1.31548    0.000
 4638.00    1.10449   1.32961    0.000
 4639.00    1.24703   1.34214    0.000
 4640.00    1.48315   1.34417    0.000
 4641.00    1.72958   1.33353    0.000
 4642.00    1.61587   1.31171    0.000
 4643.00    1.47599   1.28539    0.000
 4644.00    1.35432   1.26873    0.000
 4645.00    1.23334   1.27109    0.000
 4646.00    1.12662   1.28713    0.000
 4647.00    1.02636   1.30510    0.000
 4648.00    1.16261   1.31840    0.000
 4649.00    1.29278   1.32579    0.000
 4650.00    1.32345   1.32462    0.000
 4651.00    1.35194   1.31368    0.000
 4652.00    1.35812   1.30204    0.000
 4653.00    1.37518   1.30261    0.000
 4654.00    1.47178   1.32064    0.000
 4655.00    1.54921   1.35000    0.000
 4656.00    1.51948   1.37553    0.000
 4657.00    1.52860   1.38391    0.000
 4658.00    1.71103   1.37336    0.000
 4659.00    1.81400   1.35332    0.000
 4660.00    1.62586   1.33540    0.000
 4661.00    1.44925   1.32257    0.000
 4662.00    1.30803   1.30603    0.000
 4663.00    1.23427   1.27770    0.000
 4664.00    1.33646   1.24788    0.000
 4665.00    1.42249   1.23833    0.000
 4666.00    1.47227   1.25623    0.000
 4667.00    1.40673   1.28783    0.000
 4668.00    1.11720   1.31453    0.000
 4669.00    1.03655   1.32629    0.000
 4670.00    1.30965   1.32636    0.000
 4671.00    1.41589   1.32611    0.000
 4672.00    1.27455   1.33294    0.000
 4673.00    1.18497   1.34273    0.000
 4674.00    1.16289   1.34420    0.000
 4675.00    1.20952   1.33254    0.000
 4676.00    1.33509   1.31439    0.000
 4677.00    1.35495   1.29888    0.000
 4678.00    1.26772   1.29084    0.000
 4679.00    1.26965   1.29080    0.000
 4680.00    1.35128   1.29332    0.000
 4681.00    1.49137   1.28923    0.000
 4682.00    1.67750   1.27887    0.000
 4683.00    1.55586   1.27460    0.000
 4684.00    1.22103   1.28359    0.000
 4685.00    1.14214   1.29965    0.000
 4686.00    1.21869   1.31235    0.000
 4687.00    1.28636   1.31720    0.000
 4688.00    1.34933   1.31894    0.000
 4689.00    1.36785   1.32521    0.000
 4690.00    1.36592   1.33690    0.000
 4691.00    1.39431   1.34991    0.000
 4692.00    1.43473   1.35987    0.000
 4693.00    1.36434   1.36059    0.000
 4694.00    1.25654   1.34729    0.000
 4695.00    1.11895   1.32567    0.000
 4696.00    0.97292   1.30961    0.000
 4697.00    1.17829   1.30382    0.000
 4698.00    1.46592   1.29912    0.000
 4699.00    1.38042   1.29030    0.000
 4700.00    1.22474   1.28592    0.000
 4701.00    1.23473   1.29366    0.000
 4702.00    1.26882   1.30525    0.000
 4703.00    1.34939   1.30666    0.000
 4704.00    1.43487   1.29655    0.000
 4705.00    1.34375   1.28602    0.000
 4706.00    1.24050   1.28639    0.000
 4707.00    1.38246   1.30016    0.000
 4708.00    1.53276   1.31763    0.000
 4709.00    1.57050   1.32398    0.000
 4710.00    1.60953   1.31630    0.000
 4711.00    1.69619   1.30728    0.000
 4712.00    1.77377   1.31089    0.000
 4713.00    1.71203   1.32781    0.000
 4714.00    1.64648   1.34711    0.000
 4715.00    1.54357   1.36042    0.000
 4716.00    1.44070   1.36758    0.000
 4717.00    1.33818   1.36968    0.000
 4718.00    1.25463   1.36655    0.000
 4719.00    1.27433   1.36184    0.000
 4720.00    1.29386   1.36235    0.000
 4721.00    1.31263   1.36814    0.000
 4722.00    1.38531   1.36853    0.000
 4723.00    1.65139   1.35307    0.000
 4724.00    1.77901   1.32535    0.000
 4725.00    1.48979   1.30159    0.000
 4726.00    1.33827   1.29273    0.000
 4727.00    1.53958   1.29567    0.000
 4728.00    1.63967   1.30381    0.000
 4729.00    1.51666   1.31437    0.000
 4730.00    1.40575   1.32519    0.000
 4731.00    1.31800   1.33275    0.000
 4732.00    1.21458   1.33342    0.000
 4733.00    1.08503   1.32836    0.000
 4734.00    1.28431   1.32689    0.000
 4735.00    1.96441   1.33385    0.000
 4736.00    2.35442   1.34058    0.000
 4737.00    2.37149   1.33994    0.000
 4738.00    2.24423   1.33740    0.000
 4739.00    1.95346   1.34042    0.000
 4740.00    1.75212   1.34721    0.000
 4741.00    1.64013   1.35170    0.000
 4742.00    1.52748   1.35403    0.000
 4743.00    1.41425   1.35812    0.000
 4744.00    1.30548   1.36273    0.000
 4745.00    1.20016   1.36454    0.000
 4746.00    1.23886   1.36454    0.000
 4747.00    1.37588   1.36384    0.000
 4748.00    1.38252   1.35983    0.000
 4749.00    1.31117   1.35100    0.000
 4750.00    1.26190   1.34046    0.000
 4751.00    1.22415   1.33229    0.000
 4752.00    1.19502   1.32788    0.000
 4753.00    1.16980   1.32662    0.000
 4754.00    1.24743   1.32836    0.000
 4755.00    1.36510   1.33310    0.000
 4756.00    1.40939   1.33819    0.000
 4757.00    1.42936   1.33681    0.000
 4758.00    1.45790   1.32360    0.000
 4759.00    1.48881   1.30331    0.000
 4760.00    1.44956   1.28678    0.000
 4761.00    1.39425   1.27854    0.014
 4762.00    1.37368   1.27683    0.014
 4763.00    1.35948   1.28171    0.014
 4764.00    1.30650   1.29424    0.014
 4765.00    1.24807   1.31140    0.014
 4766.00    1.33195   1.32613    0.014
 4767.00    1.43026   1.33111    0.014
 4768.00    1.49064   1.32632    0.014
 4769.00    1.54856   1.32232    0.015
 4770.00    1.26640   1.32872    0.014
 4771.00    0.97529   1.34200    0.014
 4772.00    1.34849   1.35165    0.014
 4773.00    1.69867   1.35431    0.014
 4774.00    1.38176   1.35299    0.014
 4775.00    1.10095   1.34842    0.014
 4776.00    1.34170   1.34124    0.014
 4777.00    1.55983   1.33497    0.014
 4778.00    1.56507   1.33017    0.014
 4779.00    1.55615   1.32396    0.014
 4780.00    1.45024   1.31799    0.013
 4781.00    1.38498   1.31567    0.013
 4782.00    1.53503   1.31339    0.013
 4783.00    1.69472   1.30798    0.013
 4784.00    1.89550   1.30378    0.013
 4785.00    1.97619   1.30338    0.014
 4786.00    1.63486   1.30567    0.014
 4787.00    1.37973   1.31145    0.014
 4788.00    1.37926   1.32144    0.014
 4789.00    1.41253   1.33531    0.014
 4790.00    1.53076   1.35225    0.014
 4791.00    1.60757   1.36780    0.014
 4792.00    1.59455   1.37466    0.014
 4793.00    1.54989   1.36920    0.014
 4794.00    1.44570   1.35405    0.014
 4795.00    1.39960   1.33614    0.014
 4796.00    1.44895   1.32473    0.014
 4797.00    1.49533   1.32660    0.014
 4798.00    1.53741   1.33965    0.014
 4799.00    1.49697   1.35298    0.014
 4800.00    1.35193   1.35561    0.014
 4801.00    1.36426   1.34613    0.014
 4802.00    1.55237   1.33321    0.014
 4803.00    1.64814   1.32484    0.014
 4804.00    1.65295   1.32189    0.014
 4805.00    1.66546   1.32314    0.014
 4806.00    1.68468   1.32779    0.014
 4807.00    1.59177   1.33315    0.014
 4808.00    1.41306   1.33664    0.014
 4809.00    1.37876   1.33876    0.014
 4810.00    1.44161   1.34158    0.014
 4811.00    1.44383   1.34617    0.014
 4812.00    1.41032   1.35219    0.013
 4813.00    1.37694   1.35868    0.013
 4814.00    1.34364   1.36429    0.013
 4815.00    1.33654   1.36778    0.014
 4816.00    1.34111   1.36815    0.014
 4817.00    1.28239   1.36421    0.014
 4818.00    1.19944   1.35365    0.014
 4819.00    1.25791   1.33510    0.014
 4820.00    1.36235   1.31596    0.014
 4821.00    1.25815   1.31002    0.014
 4822.00    1.09713   1.31998    0.014
 4823.00    1.09307   1.33277    0.014
 4824.00    1.12408   1.33626    0.014
 4825.00    1.22440   1.33161    0.013
 4826.00    1.33709   1.32627    0.013
 4827.00    1.32094   1.32202    0.013
 4828.00    1.28724   1.31692    0.013
 4829.00    1.26690   1.31449    0.013
 4830.00    1.24786   1.31960    0.014
 4831.00    1.21334   1.32882    0.013
 4832.00    1.17788   1.33478    0.013
 4833.00    1.32779   1.33542    0.013
 4834.00    1.48115   1.33133    0.013
 4835.00    1.37080   1.32167    0.013
 4836.00    1.26835   1.30925    0.013
 4837.00    1.37218   1.30138    0.013
 4838.00    1.47010   1.30062    0.013
 4839.00    1.48731   1.30240    0.013
 4840.00    1.51955   1.30531    0.014
 4841.00    1.68776   1.31278    0.014
 4842.00    1.82967   1.32229    0.014
 4843.00    1.79703   1.32417    0.013
 4844.00    1.70676   1.31402    0.013
 4845.00    1.31912   1.30018    0.013
 4846.00    1.06848   1.29418    0.013
 4847.00    1.38814   1.29624    0.013
 4848.00    1.60713   1.29727    0.000
 4849.00    1.47952   1.29032    0.000
 4850.00    1.36884   1.27193    0.000
 4851.00    1.30727   1.24239    0.000
 4852.00    1.26535   1.21168    0.000
 4853.00    1.27207   1.19017    0.000
 4854.00    1.28163   1.16931    0.000
 4855.00    1.29727   1.12591    0.000
 4856.00    1.35428   1.04956    0.000
 4857.00    1.48797   0.96331    0.000
 4858.00    1.47114   0.91507    0.000
 4859.00    1.21066   0.93588    0.000
 4860.00    1.01159   1.00771    0.000
 4861.00    0.89974   1.08756    0.000
 4862.00    0.84901   1.15010    0.000
 4863.00    0.87466   1.19310    0.000
 4864.00    0.95106   1.22116    0.000
 4865.00    1.08337   1.23675    0.000
 4866.00    1.19997   1.23775    0.000
 4867.00    1.30133   1.22404    0.000
 4868.00    1.26763   1.20899    0.000
 4869.00    1.11826   1.21126    0.000
 4870.00    1.03480   1.23194    0.000
 4871.00    1.00106   1.25518    0.000
 4872.00    1.04067   1.27052    0.000
 4873.00    1.12890   1.28044    0.000
 4874.00    1.13370   1.29060    0.000
 4875.00    1.09007   1.30360    0.013
 4876.00    1.12074   1.31541    0.013
 4877.00    1.18898   1.31734    0.012
 4878.00    1.26814   1.30923    0.012
 4879.00    1.35208   1.30136    0.013
 4880.00    1.38600   1.29768    0.013
 4881.00    1.40112   1.29190    0.013
 4882.00    1.37404   1.28248    0.013
 4883.00    1.33350   1.27637    0.013
 4884.00    1.22608   1.27646    0.013
 4885.00    1.10083   1.27539    0.013
 4886.00    1.21876   1.26497    0.013
 4887.00    1.38975   1.24987    0.013
 4888.00    1.26196   1.24875    0.012
 4889.00    1.08238   1.27438    0.012
 4890.00    1.09699   1.31695    0.012
 4891.00    1.13718   1.35594    0.013
 4892.00    1.18114   1.38000    0.013
 4893.00    1.22544   1.38913    0.013
 4894.00    1.20514   1.38633    0.013
 4895.00    1.18118   1.37372    0.013
 4896.00    1.30142   1.35628    0.013
 4897.00    1.42200   1.34270    0.013
 4898.00    1.22075   1.33609    0.013
 4899.00    1.03551   1.33150    0.013
 4900.00    1.23045   1.32861    0.013
 4901.00    1.40985   1.33457    0.013
 4902.00    1.38826   1.34943    0.013
 4903.00    1.35684   1.36084    0.013
 4904.00    1.24007   1.35734    0.013
 4905.00    1.13929   1.33911    0.013
 4906.00    1.14131   1.31593    0.013
 4907.00    1.15432   1.30082    0.013
 4908.00    1.22255   1.30175    0.013
 4909.00    1.29990   1.31545    0.013
 4910.00    1.41438   1.33298    0.013
 4911.00    1.47999   1.34863    0.013
 4912.00    1.38063   1.35731    0.013
 4913.00    1.34071   1.34975    0.013
 4914.00    1.46997   1.31906    0.013
 4915.00    1.53481   1.27115    0.013
 4916.00    1.44293   1.22509    0.013
 4917.00    1.28108   1.20161    0.013
 4918.00    0.97230   1.20847    0.013
 4919.00    0.86133   1.23403    0.013
 4920.00    1.11127   1.25928    0.013
 4921.00    1.24259   1.27822    0.013
 4922.00    1.18473   1.29843    0.013
 4923.00    1.23959   1.32320    0.013
 4924.00    1.45220   1.34643    0.013
 4925.00    1.49672   1.36343    0.013
 4926.00    1.33424   1.37378    0.013
 4927.00    1.27726   1.37576    0.013
 4928.00    1.33480   1.36527    0.013
 4929.00    1.27326   1.34160    0.013
 4930.00    1.09767   1.31550    0.013
 4931.00    1.04986   1.30371    0.013
 4932.00    1.10993   1.30742    0.013
 4933.00    1.19572   1.30827    0.013
 4934.00    1.30062   1.29419    0.013
 4935.00    1.41161   1.27685    0.013
 4936.00    1.52658   1.27712    0.013
 4937.00    1.48362   1.29967    0.013
 4938.00    1.35038   1.32957    0.013
 4939.00    1.27183   1.35192    0.013
 4940.00    1.22052   1.36342    0.000
 4941.00    1.33385   1.36551    0.000
 4942.00    1.51807   1.36151    0.000
 4943.00    1.51294   1.35944    0.000
 4944.00    1.43789   1.36488    0.000
 4945.00    1.45718   1.37428    0.000
 4946.00    1.50597   1.38145    0.000
 4947.00    1.54866   1.38421    0.000
 4948.00    1.58977   1.38217    0.000
 4949.00    1.55023   1.37528    0.000
 4950.00    1.49353   1.36493    0.000
 4951.00    1.53979   1.34947    0.000
 4952.00    1.60340   1.32131    0.000
 4953.00    1.44757   1.27978    0.000
 4954.00    1.26382   1.24639    0.000
 4955.00    1.29291   1.24837    0.000
 4956.00    1.34088   1.28351    0.000
 4957.00    1.24536   1.32199    0.000
 4958.00    1.14228   1.34257    0.000
 4959.00    1.20893   1.34678    0.000
 4960.00    1.27923   1.34182    0.000
 4961.00    1.38156   1.32974    0.000
 4962.00    1.47662   1.31413    0.000
 4963.00    1.41370   1.30264    0.000
 4964.00    1.36456   1.29901    0.000
 4965.00    1.48463   1.30099    0.000
 4966.00    1.56946   1.30605    0.000
 4967.00    1.35934   1.31409    0.000
 4968.00    1.17763   1.32516    0.000
 4969.00    1.17332   1.33729    0.000
 4970.00    1.20514   1.34741    0.000
 4971.00    1.41403   1.35295    0.000
 4972.00    1.56635   1.35201    0.000
 4973.00    1.49339   1.34408    0.000
 4974.00    1.45008   1.33074    0.000
 4975.00    1.50481   1.31531    0.000
 4976.00    1.49483   1.29964    0.000
 4977.00    1.30395   1.28029    0.000
 4978.00    1.16202   1.25417    0.000
 4979.00    1.13713   1.22897    0.000
 4980.00    1.10928   1.21868    0.000
 4981.00    1.07533   1.22874    0.000
 4982.00    1.06453   1.25300    0.000
 4983.00    1.09530   1.28147    0.000
 4984.00    1.15093   1.30404    0.000
 4985.00    1.24560   1.31296    0.000
 4986.00    1.24141   1.30878    0.000
 4987.00    1.10085   1.30076    0.000
 4988.00    1.06414   1.29802    0.000
 4989.00    1.15350   1.30116    0.000
 4990.00    1.29099   1.30556    0.000
 4991.00    1.48001   1.31061    0.000
 4992.00    1.55583   1.31732    0.000
 4993.00    1.52479   1.32153    0.000
 4994.00    1.44560   1.31703    0.000
 4995.00    1.32634   1.30193    0.000
 4996.00    1.31850   1.28141    0.000
 4997.00    1.39232   1.26553    0.000
 4998.00    1.32912   1.26066    0.000
 4999.00    1.17774   1.26374    0.000
 5000.00    1.16076   1.26515    0.000
 5001.00    1.21944   1.25675    0.000
 5002.00    1.28765   1.24177    0.000
 5003.00    1.36053   1.23551    0.000
 5004.00    1.40945   1.24874    0.000
 5005.00    1.44824   1.27282    0.000
 5006.00    1.41312   1.28857    0.000
 5007.00    1.35120   1.28499    0.000
 5008.00    1.34846   1.26419    0.000
 5009.00    1.36387   1.23605    0.000
 5010.00    1.41878   1.21299    0.000
 5011.00    1.48377   1.20453    0.000
 5012.00    1.31448   1.21098    0.000
 5013.00    1.09652   1.22301    0.000
 5014.00    0.95831   1.23225    0.000
 5015.00    0.83316   1.24027    0.000
 5016.00    1.04018   1.25113    0.000
 5017.00    1.28797   1.26095    0.000
 5018.00    1.30640   1.26422    0.000
 5019.00    1.30544   1.26518    0.000
 5020.00    1.19350   1.27165    0.000
 5021.00    1.07614   1.28176    0.000
 5022.00    1.01422   1.28657    0.000
 5023.00    0.95536   1.28294    0.000
 5024.00    1.03014   1.27826    0.000
 5025.00    1.10557   1.28196    0.000
 5026.00    1.19374   1.29434    0.000
 5027.00    1.26681   1.30894    0.000
 5028.00    1.16341   1.32244    0.000
 5029.00    1.09566   1.33282    0.012
 5030.00    1.31577   1.33287    0.012
 5031.00    1.48781   1.31648    0.012
 5032.00    1.36833   1.29066    0.012
 5033.00    1.30208   1.27087    0.012
 5034.00    1.49037   1.26049    0.012
 5035.00    1.57745   1.24641    0.012
 5036.00    1.27036   1.21961    0.012
 5037.00    1.04680   1.19172    0.012
 5038.00    1.09416   1.18637    0.012
 5039.00    1.11738   1.21398    0.012
 5040.00    1.07430   1.26006    0.012
 5041.00    1.05900   1.30226    0.012
 5042.00    1.10906   1.32830    0.012
 5043.00    1.21096   1.33355    0.012
 5044.00    1.41827   1.31798    0.012
 5045.00    1.50570   1.29110    0.012
 5046.00    1.38100   1.26834    0.012
 5047.00    1.30173   1.25913    0.012
 5048.00    1.29277   1.26378    0.012
 5049.00    1.29520   1.27901    0.012
 5050.00    1.31310   1.29944    0.012
 5051.00    1.26437   1.31747    0.012
 5052.00    1.13589   1.32823    0.012
 5053.00    1.10497   1.33294    0.012
 5054.00    1.17704   1.33531    0.012
 5055.00    1.23888   1.33720    0.012
 5056.00    1.29122   1.33933    0.012
 5057.00    1.39312   1.34244    0.012
 5058.00    1.53570   1.34346    0.012
 5059.00    1.49448   1.33441    0.012
 5060.00    1.32051   1.31136    0.012
 5061.00    1.24826   1.28393    0.012
 5062.00    1.24051   1.26826    0.012
 5063.00    1.25074   1.26841    0.012
 5064.00    1.27093   1.27464    0.012
 5065.00    1.23412   1.28053    0.012
 5066.00    1.16981   1.28683    0.012
 5067.00    1.28457   1.29070    0.012
 5068.00    1.47388   1.28796    0.012
 5069.00    1.41553   1.28334    0.012
 5070.00    1.26901   1.28394    0.012
 5071.00    1.23320   1.28793    0.012
 5072.00    1.23068   1.29010    0.012
 5073.00    1.22091   1.28849    0.012
 5074.00    1.20934   1.27858    0.012
 5075.00    1.20623   1.25541    0.012
 5076.00    1.20483   1.22763    0.012
 5077.00    1.16945   1.21374    0.011
 5078.00    1.12867   1.21966    0.011
 5079.00    1.15559   1.23476    0.011
 5080.00    1.19052   1.25045    0.011
 5081.00    1.14703   1.26695    0.011
 5082.00    1.09724   1.28300    0.011
 5083.00    1.16945   1.29360    0.011
 5084.00    1.24714   1.29806    0.011
 5085.00    1.20649   1.30054    0.011
 5086.00    1.16548   1.30365    0.011
 5087.00    1.17614   1.30780    0.011
 5088.00    1.18858   1.31429    0.011
 5089.00    1.23433   1.32291    0.011
 5090.00    1.27176   1.32829    0.011
 5091.00    1.21669   1.32389    0.011
 5092.00    1.15494   1.30854    0.011
 5093.00    1.04126   1.28622    0.011
 5094.00    0.94576   1.26223    0.011
 5095.00    0.95737   1.24414    0.011
 5096.00    0.98355   1.24150    0.011
 5097.00    1.07770   1.25626    0.011
 5098.00    1.17184   1.27691    0.011
 5099.00    1.26591   1.28943    0.011
 5100.00    1.33318   1.28984    0.011
 5101.00    1.31519   1.28246    0.011
 5102.00    1.24955   1.27142    0.011
 5103.00    1.05546   1.25893    0.011
 5104.00    0.90870   1.24874    0.011
 5105.00    0.87139   1.24458    0.011
 5106.00    0.90165   1.24664    0.011
 5107.00    1.06711   1.25438    0.012
 5108.00    1.17463   1.26751    0.012
 5109.00    1.18119   1.28213    0.012
 5110.00    1.18867   1.29359    0.012
 5111.00    1.19752   1.30173    0.012
 5112.00    1.22304   1.30930    0.012
 5113.00    1.27087   1.31768    0.012
 5114.00    1.27238   1.32441    0.012
 5115.00    1.21922   1.32462    0.012
 5116.00    1.17124   1.31607    0.012
 5117.00    1.12864   1.30056    0.012
 5118.00    1.16596   1.28049    0.012
 5119.00    1.27663   1.25773    0.012
 5120.00    1.27744   1.23740    0.012
 5121.00    1.18937   1.22689    0.012
 5122.00    1.22971   1.22740    0.012
 5123.00    1.36147   1.23192    0.012
 5124.00    1.32897   1.23402    0.012
 5125.00    1.19387   1.23396    0.012
 5126.00    1.10059   1.23645    0.012
 5127.00    1.03013   1.24477    0.012
 5128.00    1.06811   1.25693    0.012
 5129.00    1.15754   1.26843    0.012
 5130.00    1.13219   1.27813    0.012
 5131.00    1.05987   1.28635    0.012
 5132.00    1.03510   1.28864    0.012
 5133.00    1.02696   1.27942    0.012
 5134.00    1.05986   1.26121    0.012
 5135.00    1.10485   1.24418    0.012
 5136.00    1.20822   1.23724    0.012
 5137.00    1.32586   1.23879    0.012
 5138.00    1.23660   1.23895    0.012
 5139.00    1.10647   1.23553    0.012
 5140.00    1.07270   1.23628    0.012
 5141.00    1.05378   1.24159    0.011
 5142.00    0.94732   1.24334    0.011
 5143.00    0.83090   1.24037    0.011
 5144.00    0.86795   1.23973    0.011
 5145.00    0.91671   1.24406    0.011
 5146.00    0.94658   1.24688    0.011
 5147.00    0.97566   1.24181    0.011
 5148.00    0.97861   1.23156    0.011
 5149.00    0.98310   1.22427    0.011
 5150.00    1.06182   1.22546    0.011
 5151.00    1.13804   1.23679    0.011
 5152.00    1.17103   1.25693    0.011
 5153.00    1.19420   1.28034    0.011
 5154.00    1.11297   1.29929    0.011
 5155.00    1.04383   1.30940    0.011
 5156.00    1.06569   1.31187    0.011
 5157.00    1.08857   1.30883    0.011
 5158.00    1.11728   1.30026    0.011
 5159.00    1.15040   1.28646    0.011
 5160.00    1.20357   1.26579    0.011
 5161.00    1.23380   1.23030    0.011
 5162.00    1.17836   1.17462    0.011
 5163.00    1.12915   1.11129    0.011
 5164.00    1.09935   1.06845    0.011
 5165.00    1.06360   1.06479    0.011
 5166.00    1.01214   1.08602    0.011
 5167.00    0.93985   1.09532    0.011
 5168.00    0.82022   1.07606    0.011
 5169.00    0.77603   1.05595    0.011
 5170.00    0.88039   1.07408    0.011
 5171.00    0.93715   1.13171    0.011
 5172.00    0.91223   1.19501    0.011
 5173.00    0.88253   1.23710    0.011
 5174.00    0.84568   1.25613    0.011
 5175.00    0.85986   1.25948    0.011
 5176.00    0.94146   1.24893    0.011
 5177.00    1.07355   1.21984    0.011
 5178.00    1.26439   1.16802    0.011
 5179.00    1.35122   1.10424    0.011
 5180.00    1.33133   1.06208    0.011
 5181.00    1.23509   1.07343    0.011
 5182.00    1.06976   1.13141    0.011
 5183.00    0.97169   1.19623    0.011
 5184.00    0.92727   1.23771    0.011
 5185.00    0.91372   1.25542    0.011
 5186.00    0.92183   1.25874    0.011
 5187.00    0.98781   1.24797    0.011
 5188.00    1.08942   1.22545    0.011
 5189.00    1.11351   1.20728    0.011
 5190.00    1.09594   1.20641    0.000
 5191.00    1.05993   1.21782    0.000
 5192.00    1.01531   1.23172    0.000
 5193.00    1.03676   1.24628    0.000
 5194.00    1.08477   1.26203    0.000
 5195.00    0.98184   1.27680    0.000
 5196.00    0.82709   1.28725    0.000
 5197.00    0.83080   1.29016    0.000
 5198.00    0.88030   1.28375    0.000
 5199.00    0.86558   1.26771    0.000
 5200.00    0.83552   1.24218    0.000
 5201.00    1.01502   1.21142    0.000
 5202.00    1.23486   1.18568    0.000
 5203.00    1.21596   1.17177    0.000
 5204.00    1.16137   1.16701    0.000
 5205.00    1.08925   1.16966    0.000
 5206.00    1.01522   1.18491    0.000
 5207.00    0.97395   1.21508    0.000
 5208.00    0.93504   1.25291    0.000
 5209.00    0.94845   1.28535    0.000
 5210.00    0.96381   1.30039    0.000
 5211.00    1.02131   1.29489    0.011
 5212.00    1.08090   1.27932    0.011
 5213.00    1.20941   1.27067    0.011
 5214.00    1.32789   1.27778    0.011
 5215.00    1.28397   1.29577    0.011
 5216.00    1.24653   1.31421    0.011
 5217.00    1.27508   1.32604    0.011
 5218.00    1.29105   1.32751    0.011
 5219.00    1.21552   1.31530    0.011
 5220.00    1.15154   1.28788    0.011
 5221.00    1.15192   1.24856    0.011
 5222.00    1.14943   1.20804    0.011
 5223.00    1.13415   1.18440    0.011
 5224.00    1.11622   1.19280    0.011
 5225.00    1.08862   1.22880    0.011
 5226.00    1.05012   1.26933    0.011
 5227.00    0.97826   1.29330    0.011
 5228.00    0.92093   1.29418    0.011
 5229.00    0.90141   1.27936    0.011
 5230.00    0.90094   1.26515    0.011
 5231.00    0.94308   1.26555    0.011
 5232.00    1.05183   1.28190    0.011
 5233.00    1.28968   1.30454    0.011
 5234.00    1.38730   1.32230    0.011
 5235.00    1.24787   1.33049    0.011
 5236.00    1.14035   1.33206    0.011
 5237.00    1.08007   1.33180    0.011
 5238.00    1.07656   1.33168    0.011
 5239.00    1.14694   1.33250    0.011
 5240.00    1.22452   1.33477    0.011
 5241.00    1.31036   1.33387    0.011
 5242.00    1.34069   1.32166    0.011
 5243.00    1.31488   1.29919    0.011
 5244.00    1.26191   1.27906    0.011
 5245.00    1.18469   1.26893    0.011
 5246.00    1.23043   1.26470    0.011
 5247.00    1.37284   1.26359    0.011
 5248.00    1.35226   1.26838    0.011
 5249.00    1.21897   1.27700    0.011
 5250.00    1.11256   1.28239    0.011
 5251.00    1.02245   1.28469    0.011
 5252.00    1.01397   1.29334    0.011
 5253.00    1.04870   1.31332    0.011
 5254.00    1.07555   1.33590    0.011
 5255.00    1.09878   1.34712    0.011
 5256.00    1.14986   1.33932    0.011
 5257.00    1.21194   1.31294    0.011
 5258.00    1.21370   1.27401    0.011
 5259.00    1.19514   1.23206    0.012
 5260.00    1.19658   1.19627    0.012
 5261.00    1.20369   1.17289    0.012
 5262.00    1.15989   1.16583    0.012
 5263.00    1.10421   1.17234    0.012
 5264.00    0.98769   1.17656    0.012
 5265.00    0.85976   1.16401    0.012
 5266.00    0.79629   1.14748    0.012
 5267.00    0.74216   1.15551    0.012
 5268.00    0.84254   1.19181    0.012
 5269.00    0.95918   1.23069    0.012
 5270.00    0.90479   1.25199    0.012
 5271.00    0.83875   1.25918    0.012
 5272.00    0.96537   1.26807    0.012
 5273.00    1.09846   1.28918    0.012
 5274.00    1.13963   1.31685    0.012
 5275.00    1.18466   1.33459    0.012
 5276.00    1.35628   1.33237    0.012
 5277.00    1.51034   1.31431    0.012
 5278.00    1.39691   1.29142    0.011
 5279.00    1.28784   1.27435    0.011
 5280.00    1.22120   1.27255    0.011
 5281.00    1.15554   1.29090    0.011
 5282.00    1.09679   1.32195    0.011
 5283.00    1.05138   1.34898    0.011
 5284.00    1.07830   1.36166    0.011
 5285.00    1.10693   1.36399    0.011
 5286.00    1.14304   1.36464    0.011
 5287.00    1.15193   1.36574    0.011
 5288.00    1.06344   1.36403    0.011
 5289.00    1.03765   1.35832    0.011
 5290.00    1.20020   1.34979    0.011
 5291.00    1.32318   1.33607    0.011
 5292.00    1.34502   1.31207    0.011
 5293.00    1.35881   1.28041    0.011
 5294.00    1.35492   1.25603    0.011
 5295.00    1.33132   1.25282    0.011
 5296.00    1.27013   1.26743    0.011
 5297.00    1.19156   1.28474    0.011
 5298.00    1.08405   1.29798    0.011
 5299.00    1.08380   1.31287    0.011
 5300.00    1.24006   1.33271    0.011
 5301.00    1.28156   1.35038    0.011
 5302.00    1.17576   1.35721    0.011
 5303.00    1.14239   1.35414    0.011
 5304.00    1.19094   1.35058    0.011
 5305.00    1.26195   1.35332    0.011
 5306.00    1.35538   1.35994    0.011
 5307.00    1.37629   1.36387    0.011
 5308.00    1.33340   1.36234    0.011
 5309.00    1.25671   1.35720    0.011
 5310.00    1.15382   1.35062    0.011
 5311.00    1.13460   1.34228    0.011
 5312.00    1.17239   1.33200    0.011
 5313.00    1.27370   1.32384    0.011
 5314.00    1.41293   1.32267    0.011
 5315.00    1.42457   1.32705    0.011
 5316.00    1.36974   1.33087    0.011
 5317.00    1.20742   1.33000    0.011
 5318.00    0.99655   1.32311    0.011
 5319.00    1.07821   1.31008    0.011
 5320.00    1.27351   1.29430    0.011
 5321.00    1.34791   1.28051    0.011
 5322.00    1.38234   1.26460    0.011
 5323.00    1.20055   1.23567    0.011
 5324.00    0.95880   1.19888    0.011
 5325.00    0.97642   1.18237    0.011
 5326.00    1.05320   1.20509    0.011
 5327.00    1.08338   1.25095    0.011
 5328.00    1.10505   1.28934    0.011
 5329.00    1.10960   1.30913    0.011
 5330.00    1.11176   1.31943    0.011
 5331.00    1.12838   1.32763    0.011
 5332.00    1.14645   1.33144    0.011
 5333.00    1.20303   1.32844    0.011
 5334.00    1.26207   1.31968    0.011
 5335.00    1.28841   1.30483    0.011
 5336.00    1.31343   1.28578    0.011
 5337.00    1.20392   1.27343    0.011
 5338.00    1.10033   1.27852    0.011
 5339.00    1.16573   1.29669    0.011
 5340.00    1.23310   1.31282    0.011
 5341.00    1.32866   1.31776    0.011
 5342.00    1.40498   1.31430    0.011
 5343.00    1.30121   1.30869    0.011
 5344.00    1.20114   1.30293    0.011
 5345.00    1.12627   1.29869    0.011
 5346.00    1.08845   1.30193    0.011
 5347.00    1.24624   1.31542    0.011
 5348.00    1.37473   1.33274    0.011
 5349.00    1.37883   1.34655    0.011
 5350.00    1.35900   1.35719    0.011
 5351.00    1.25530   1.36783    0.011
 5352.00    1.19709   1.37746    0.011
 5353.00    1.27295   1.38356    0.011
 5354.00    1.32992   1.38602    0.011
 5355.00    1.33946   1.38496    0.011
 5356.00    1.33490   1.37833    0.011
 5357.00    1.29985   1.36487    0.011
 5358.00    1.29107   1.34778    0.011
 5359.00    1.33164   1.33261    0.011
 5360.00    1.37775   1.32187    0.011
 5361.00    1.43295   1.31493    0.011
 5362.00    1.45411   1.31138    0.011
 5363.00    1.42632   1.30980    0.011
 5364.00    1.41364   1.30470    0.011
 5365.00    1.42007   1.28935    0.011
 5366.00    1.32896   1.26436    0.011
 5367.00    1.12911   1.24327    0.011
 5368.00    1.09563   1.24418   -2.000
 5369.00    1.22573   1.27149   -2.000
 5370.00    1.27253   1.31024   -2.000
 5371.00    1.24710   1.34119   -2.000
 5372.00    1.04795   1.35632   -2.000
 5373.00    0.71608   1.35933   -2.000
 5374.00    0.73632   1.35719   -2.000
 5375.00    0.99297   1.35306   -2.000
 5376.00    1.30523   1.34637   -2.000
 5377.00    1.65019   1.33752   -2.000
 5378.00    1.64297   1.32913   -2.000
 5379.00    1.45513   1.32424   -2.000
 5380.00    1.26426   1.32540   -2.000
 5381.00    1.07204   1.33246   -2.000
 5382.00    1.03088   1.34073   -2.000
 5383.00    1.04739   1.34433    0.011
 5384.00    1.08806   1.34063    0.011
 5385.00    1.13657   1.33079    0.011
 5386.00    1.18642   1.31844    0.011
 5387.00    1.23662   1.30756    0.011
 5388.00    1.23372   1.29978    0.011
 5389.00    1.21900   1.29434    0.011
 5390.00    1.18946   1.28915    0.011
 5391.00    1.15730   1.28066    0.011
 5392.00    1.25922   1.26675    0.011
 5393.00    1.37933   1.25397    0.011
 5394.00    1.31239   1.25474    0.010
 5395.00    1.22737   1.27135    0.010
 5396.00    1.09130   1.29188    0.010
 5397.00    0.95215   1.30484    0.010
 5398.00    0.92093   1.30625    0.010
 5399.00    0.89360   1.29331    0.011
 5400.00    1.04776   1.26616    0.010
 5401.00    1.19615   1.23605    0.010
 5402.00    1.19595   1.22019    0.011
 5403.00    1.19895   1.22459    0.011
 5404.00    1.24531   1.23675    0.011
 5405.00    1.27354   1.24059    0.010
 5406.00    1.13870   1.23638    0.010
 5407.00    1.03045   1.23855    0.010
 5408.00    1.09786   1.25503    0.010
 5409.00    1.14934   1.27813    0.010
 5410.00    1.11892   1.29662    0.010
 5411.00    1.11085   1.30879    0.011
 5412.00    1.19557   1.31978    0.011
 5413.00    1.27941   1.33073    0.011
 5414.00    1.36019   1.33683    0.011
 5415.00    1.41829   1.33528    0.011
 5416.00    1.41071   1.32987    0.011
 5417.00    1.36021   1.32627    0.011
 5418.00    1.20369   1.32467    0.011
 5419.00    1.13644   1.32022    0.011
 5420.00    1.25926   1.31297    0.011
 5421.00    1.33680   1.31165    0.011
 5422.00    1.33058   1.32097    0.011
 5423.00    1.32975   1.33041    0.011
 5424.00    1.33760   1.32372    0.011
 5425.00    1.36696   1.29972    0.011
 5426.00    1.42682   1.27692    0.011
 5427.00    1.40806   1.27080    0.011
 5428.00    1.29124   1.27497    0.011
 5429.00    1.27475   1.27428    0.011
 5430.00    1.36853   1.26644    0.011
 5431.00    1.35457   1.26187    0.011
 5432.00    1.23617   1.27011    0.011
 5433.00    1.19184   1.29163    0.011
 5434.00    1.21083   1.31936    0.011
 5435.00    1.18628   1.34436    0.011
 5436.00    1.12895   1.36108    0.011
 5437.00    1.20883   1.36906    0.011
 5438.00    1.37950   1.37026    0.011
 5439.00    1.47422   1.36434    0.011
 5440.00    1.52495   1.34718    0.011
 5441.00    1.48940   1.31658    0.011
 5442.00    1.41030   1.28076    0.010
 5443.00    1.36447   1.25814    0.010
 5444.00    1.33318   1.26204    0.010
 5445.00    1.34544   1.28613    0.010
 5446.00    1.37404   1.31150    0.010
 5447.00    1.35819   1.32504    0.010
 5448.00    1.32820   1.32470    0.010
 5449.00    1.22525   1.31204    0.010
 5450.00    1.10291   1.28917    0.010
 5451.00    1.14722   1.26487    0.010
 5452.00    1.22778   1.25534    0.010
 5453.00    1.21851   1.26953    0.010
 5454.00    1.19372   1.29706    0.010
 5455.00    1.20809   1.31853    0.010
 5456.00    1.22761   1.32368    0.010
 5457.00    1.29098   1.31484    0.010
 5458.00    1.35841   1.29988    0.010
 5459.00    1.29021   1.28791    0.010
 5460.00    1.21440   1.28631    0.010
 5461.00    1.17027   1.29494    0.010
 5462.00    1.12746   1.30638    0.010
 5463.00    1.14864   1.31493    0.011
 5464.00    1.16665   1.31977    0.011
 5465.00    1.11004   1.32029    0.023
 5466.00    1.05738   1.31607   -1.000
 5467.00    1.05553   1.30942   -1.000
 5468.00    1.05368   1.30248   -1.000
 5469.00    1.05188   1.29448   -1.000
 5470.00    1.05280   1.28386   -1.000
 5471.00    1.07113   1.26932   -1.000
 5472.00    1.08494   1.25225   -1.000
 5473.00    1.07612   1.24226   -1.000
 5474.00    1.06224   1.24971    0.108
 5475.00    1.02778   1.26893    0.018
 5476.00    0.99475   1.28205    0.011
 5477.00    0.96656   1.28189    0.011
 5478.00    0.96409   1.27889   -2.000
 5479.00    1.03465   1.28510   -2.000
 5480.00    1.08220   1.30031   -2.000
 5481.00    1.07390   1.31470   -2.000
 5482.00    1.02470   1.31895   -2.000
 5483.00    0.88983   1.31274   -2.000
 5484.00    0.64509   1.30498   -2.000
 5485.00    0.20031   1.30382   -2.000
 5486.00   -0.36896   1.30860   -2.000
 5487.00   -1.13636   1.31402   -2.000
 5488.00   -1.49288   1.31705   -2.000
 5489.00   -1.27543   1.31733   -2.000
 5490.00   -0.69943   1.31617   -2.000
 5491.00    0.31736   1.31444   -2.000
 5492.00    1.42814   1.31048   -2.000
 5493.00    2.64077   1.30465   -2.000
 5494.00    2.96712   1.30264   -2.000
 5495.00    2.44628   1.30668   -2.000
 5496.00    2.03033   1.30910   -2.000
 5497.00    1.70277   1.30339   -2.000
 5498.00    1.37078   1.29473   -2.000
 5499.00    1.03548   1.29147   -2.000
 5500.00    0.94079   1.29263   -2.000
 5501.00    1.00296   1.29070   -2.000
 5502.00    1.10506   1.28406    0.010
 5503.00    1.22996   1.28045    0.010
 5504.00    1.22360   1.28595    0.010
 5505.00    1.15203   1.29534    0.010
 5506.00    1.08802   1.29835    0.010
 5507.00    1.02726   1.29085    0.010
 5508.00    1.02872   1.27721    0.010
 5509.00    1.05309   1.26623    0.010
 5510.00    1.07792   1.26503    0.011
 5511.00    1.10290   1.27434    0.011
 5512.00    1.16629   1.28979    0.011
 5513.00    1.23968   1.30673    0.011
 5514.00    1.24932   1.32219    0.011
 5515.00    1.24544   1.33353    0.011
 5516.00    1.26844   1.33859    0.011
 5517.00    1.29596   1.33820    0.011
 5518.00    1.22552   1.33561    0.011
 5519.00    1.14267   1.33267    0.011
 5520.00    1.18220   1.32767    0.011
 5521.00    1.23251   1.31719    0.011
 5522.00    1.23921   1.29991    0.011
 5523.00    1.24363   1.27967    0.011
 5524.00    1.16625   1.26583    0.011
 5525.00    1.08860   1.26760    0.011
 5526.00    1.10543   1.28425    0.011
 5527.00    1.12898   1.30373    0.011
 5528.00    1.29736   1.31426    0.011
 5529.00    1.44013   1.31389    0.011
 5530.00    1.27041   1.30797    0.010
 5531.00    1.11571   1.30308    0.010
 5532.00    1.08622   1.30347    0.010
 5533.00    1.07166   1.30894    0.010
 5534.00    1.15005   1.31645    0.010
 5535.00    1.21893   1.32443    0.010
 5536.00    1.24130   1.33233    0.010
 5537.00    1.25242   1.33709    0.010
 5538.00    1.21881   1.33501    0.010
 5539.00    1.20371   1.32718    0.010
 5540.00    1.24966   1.31931    0.010
 5541.00    1.28350   1.31605    0.010
 5542.00    1.28356   1.31811    0.010
 5543.00    1.28977   1.32456    0.010
 5544.00    1.31067   1.33388    0.010
 5545.00    1.34942   1.34283    0.010
 5546.00    1.42497   1.34789    0.010
 5547.00    1.45737   1.34756    0.010
 5548.00    1.41237   1.34199    0.010
 5549.00    1.39223   1.33271    0.010
 5550.00    1.41108   1.32358    0.010
 5551.00    1.42939   1.31904    0.010
 5552.00    1.44699   1.31990    0.010
 5553.00    1.42353   1.32289    0.010
 5554.00    1.35033   1.32513    0.010
 5555.00    1.26291   1.32630    0.010
 5556.00    1.16030   1.32615    0.011
 5557.00    1.12007   1.32311    0.011
 5558.00    1.13865   1.31655    0.011
 5559.00    1.15437   1.30859    0.011
 5560.00    1.16772   1.30226    0.010
 5561.00    1.21160   1.29843    0.010
 5562.00    1.27782   1.29617    0.011
 5563.00    1.33975   1.29482    0.011
 5564.00    1.39891   1.29381    0.011
 5565.00    1.39327   1.29287    0.011
 5566.00    1.35120   1.29289    0.011
 5567.00    1.37277   1.29346    0.010
 5568.00    1.42545   1.29254    0.010
 5569.00    1.36831   1.29154    0.010
 5570.00    1.26476   1.29470    0.010
 5571.00    1.27127   1.30164    0.010
 5572.00    1.31761   1.30808    0.010
 5573.00    1.25254   1.31279    0.010
 5574.00    1.15339   1.31703    0.010
 5575.00    1.16212   1.32046    0.010
 5576.00    1.19832   1.32149    0.010
 5577.00    1.21253   1.31947    0.010
 5578.00    1.22219   1.31578    0.010
 5579.00    1.16797   1.31223    0.010
 5580.00    1.10333   1.30683    0.010
 5581.00    1.09463   1.29422    0.010
 5582.00    1.09275   1.27250    0.010
 5583.00    1.15405   1.24767    0.010
 5584.00    1.22065   1.22997    0.010
 5585.00    1.22851   1.22644    0.020
 5586.00    1.23352   1.23621    1.342
 5587.00    1.15976   1.25150   -1.000
 5588.00    1.08757   1.26352   -1.000
 5589.00    1.17772   1.26931   -1.000
 5590.00    1.26684   1.27345   -1.000
 5591.00    1.33522   1.28161   -1.000
 5592.00    1.39796   1.29166   -1.000
 5593.00    1.39527   1.29454   -1.000
 5594.00    1.37994   1.28617   -1.000
 5595.00    1.26303   1.27302   -1.000
 5596.00    1.17835   1.26236    0.149
 5597.00    1.28845   1.25507    0.019
 5598.00    1.37751   1.25164    0.011
 5599.00    1.36629   1.25733    0.011
 5600.00    1.34030   1.27561    0.011
 5601.00    1.25693   1.30115    0.011
 5602.00    1.15168   1.32364    0.012
 5603.00    0.97561   1.33691    0.029
 5604.00    0.87822   1.34176   -1.000
 5605.00    0.99630   1.34219   -1.000
 5606.00    1.09710   1.34176   -1.000
 5607.00    1.15734   1.34155   -1.000
 5608.00    1.20891   1.33854   -1.000
 5609.00    1.24288   1.32638   -1.000
 5610.00    1.25589   1.30189   -1.000
 5611.00    1.23189   1.27339   -1.000
 5612.00    1.22883   1.25751    0.051
 5613.00    1.25811   1.26225    0.014
 5614.00    1.27337   1.27839    0.010
 5615.00    1.26960   1.29248    0.010
 5616.00    1.28035   1.30092    0.010
 5617.00    1.30844   1.30632    0.010
 5618.00    1.30399   1.30740    0.010
 5619.00    1.26527   1.30013    0.010
 5620.00    1.27434   1.28669    0.010
 5621.00    1.32782   1.27721    0.010
 5622.00    1.29741   1.27963    0.010
 5623.00    1.19827   1.29171    0.010
 5624.00    1.14915   1.30598    0.010
 5625.00    1.13608   1.31795    0.010
 5626.00    1.17675   1.32648    0.010
 5627.00    1.25141   1.33085    0.010
 5628.00    1.26086   1.33075    0.010
 5629.00    1.23423   1.32706    0.010
 5630.00    1.26599   1.32101    0.010
 5631.00    1.32583   1.31335    0.010
 5632.00    1.34014   1.30483    0.010
 5633.00    1.33554   1.29733    0.010
 5634.00    1.24083   1.29309    0.010
 5635.00    1.11411   1.29188    0.010
 5636.00    1.14375   1.29096    0.010
 5637.00    1.22030   1.28940    0.010
 5638.00    1.27547   1.28971    0.010
 5639.00    1.32531   1.29356    0.010
 5640.00    1.34180   1.29913    0.010
 5641.00    1.35155   1.30419    0.010
 5642.00    1.32340   1.30839    0.010
 5643.00    1.28925   1.31179    0.010
 5644.00    1.34796   1.31368    0.010
 5645.00    1.41761   1.31397    0.010
 5646.00    1.32484   1.31446    0.010
 5647.00    1.21910   1.31708    0.010
 5648.00    1.29563   1.32054    0.010
 5649.00    1.38028   1.32073    0.010
 5650.00    1.44155   1.31533    0.010
 5651.00    1.50012   1.30562    0.010
 5652.00    1.44001   1.29240    0.010
 5653.00    1.37717   1.27458    0.010
 5654.00    1.26386   1.25628    0.010
 5655.00    1.16412   1.24830    0.010
 5656.00    1.21469   1.25489    0.010
 5657.00    1.24342   1.26649    0.010
 5658.00    1.10267   1.27327    0.010
 5659.00    0.98518   1.27749    0.010
 5660.00    1.00423   1.28533    0.009
 5661.00    1.03152   1.29499    0.009
 5662.00    1.09710   1.29962    0.009
 5663.00    1.13821   1.29724    0.009
 5664.00    1.08629   1.29266    0.009
 5665.00    1.05102   1.29160    0.009
 5666.00    1.06854   1.29598    0.009
 5667.00    1.09389   1.30459    0.009
 5668.00    1.14031   1.31506    0.009
 5669.00    1.17407   1.32432    0.009
 5670.00    1.17858   1.32957    0.009
 5671.00    1.19241   1.33088    0.009
 5672.00    1.22485   1.33100    0.009
 5673.00    1.21556   1.33123    0.009
 5674.00    1.13370   1.33009    0.010
 5675.00    1.10806   1.32646    0.010
 5676.00    1.16800   1.32053    0.010
 5677.00    1.18754   1.31210    0.010
 5678.00    1.15303   1.30173    0.010
 5679.00    1.15084   1.29318    0.010
 5680.00    1.18672   1.29022    0.010
 5681.00    1.21470   1.29117    0.010
 5682.00    1.23449   1.29061    0.010
 5683.00    1.22359   1.28665    0.010
 5684.00    1.18459   1.28369    0.010
 5685.00    1.20873   1.28730    0.010
 5686.00    1.28387   1.29814    0.010
 5687.00    1.29092   1.31186    0.010
 5688.00    1.24960   1.32318    0.010
 5689.00    1.23585   1.32910    0.010
 5690.00    1.23929   1.32983    0.010
 5691.00    1.17181   1.32771    0.010
 5692.00    1.06569   1.32428    0.010
 5693.00    1.16645   1.31877    0.010
 5694.00    1.36514   1.31052    0.010
 5695.00    1.36077   1.30095    0.010
 5696.00    1.27347   1.29182    0.010
 5697.00    1.27863   1.28456    0.010
 5698.00    1.31606   1.28164    0.010
 5699.00    1.34527   1.28432    0.010
 5700.00    1.37208   1.28878    0.010
 5701.00    1.36253   1.28850    0.009
 5702.00    1.34414   1.28057    0.009
 5703.00    1.36204   1.26727    0.009
 5704.00    1.38708   1.25295    0.009
 5705.00    1.33530   1.24205    0.009
 5706.00    1.27172   1.23816    0.009
 5707.00    1.19675   1.24278    0.009
 5708.00    1.12050   1.25545    0.009
 5709.00    1.12605   1.27384    0.009
 5710.00    1.13781   1.29289    0.009
 5711.00    1.17153   1.30717    0.009
 5712.00    1.20615   1.31501    0.009
 5713.00    1.17669   1.31877    0.009
 5714.00    1.14876   1.32182    0.009
 5715.00    1.20489   1.32621    0.009
 5716.00    1.26256   1.33196    0.009
 5717.00    1.34675   1.33787    0.009
 5718.00    1.41806   1.34267    0.010
 5719.00    1.35311   1.34512    0.009
 5720.00    1.29010   1.34375    0.009
 5721.00    1.24159   1.33760    0.009
 5722.00    1.20411   1.32791    0.009
 5723.00    1.22957   1.31910    0.009
 5724.00    1.23762   1.31583    0.009
 5725.00    1.16666   1.31765    0.010
 5726.00    1.11304   1.31944    0.010
 5727.00    1.12396   1.31875    0.010
 5728.00    1.15089   1.31905    0.010
 5729.00    1.22767   1.32385    0.010
 5730.00    1.29322   1.33122    0.009
 5731.00    1.32913   1.33632    0.009
 5732.00    1.34476   1.33687    0.009
 5733.00    1.31439   1.33436    0.009
 5734.00    1.29018   1.33141    0.009
 5735.00    1.27808   1.32935    0.009
 5736.00    1.29220   1.32802    0.009
 5737.00    1.35124   1.32689    0.009
 5738.00    1.40166   1.32611    0.009
 5739.00    1.43916   1.32690    0.009
 5740.00    1.42756   1.33018    0.000
 5741.00    1.35123   1.33418    0.000
 5742.00    1.30303   1.33486    0.000
 5743.00    1.28751   1.33048    0.000
 5744.00    1.28130   1.32499    0.000
 5745.00    1.28461   1.32384    0.000
 5746.00    1.31041   1.32628    0.000
 5747.00    1.35650   1.32513    0.000
 5748.00    1.35926   1.31568    0.000
 5749.00    1.32751   1.30233    0.000
 5750.00    1.28935   1.29517    0.000
 5751.00    1.24669   1.30044    0.000
 5752.00    1.23987   1.31499    0.000
 5753.00    1.25506   1.32984    0.000
 5754.00    1.28733   1.33738    0.000
 5755.00    1.32876   1.33497    0.000
 5756.00    1.33017   1.32425    0.000
 5757.00    1.31293   1.30980    0.000
 5758.00    1.32128   1.29831    0.000
 5759.00    1.33989   1.29617    0.000
 5760.00    1.39531   1.30492    0.000
 5761.00    1.46333   1.31917    0.000
 5762.00    1.39444   1.33117    0.000
 5763.00    1.28610   1.33708    0.000
 5764.00    1.30514   1.33787    0.000
 5765.00    1.35453   1.33596    0.000
 5766.00    1.36683   1.33289    0.000
 5767.00    1.37200   1.32922    0.000
 5768.00    1.35871   1.32537    0.000
 5769.00    1.34266   1.32195    0.000
 5770.00    1.27404   1.31969    0.000
 5771.00    1.19968   1.31926    0.000
 5772.00    1.23493   1.32049    0.000
 5773.00    1.27804   1.32116    0.000
 5774.00    1.27676   1.31726    0.000
 5775.00    1.27385   1.30582    0.000
 5776.00    1.29611   1.28822    0.000
 5777.00    1.31793   1.27085    0.000
 5778.00    1.32032   1.26055    0.000
 5779.00    1.31931   1.25862    0.000
 5780.00    1.26348   1.26141    0.000
 5781.00    1.21117   1.26673    0.000
 5782.00    1.19449   1.27589    0.000
 5783.00    1.18279   1.28865    0.000
 5784.00    1.20726   1.30060    0.000
 5785.00    1.23206   1.30690    0.000
 5786.00    1.25868   1.30709    0.000
 5787.00    1.29426   1.30552    0.000
 5788.00    1.36959   1.30737    0.000
 5789.00    1.42148   1.31400    0.000
 5790.00    1.38795   1.32205    0.000
 5791.00    1.35475   1.32651   -2.000
 5792.00    1.32254   1.32466   -2.000
 5793.00    1.28529   1.31907   -2.000
 5794.00    1.23493   1.31646   -2.000
 5795.00    1.18573   1.32149   -2.000
 5796.00    1.13911   1.33201   -2.000
 5797.00    1.14100   1.34165   -2.000
 5798.00    1.23675   1.34537   -2.000
 5799.00    1.29978   1.34188   -2.000
 5800.00    1.30763   1.33369   -2.000
 5801.00    1.30895   1.32573   -2.000
 5802.00    1.30064   1.32211   -2.000
 5803.00    1.32394   1.32332   -2.000
 5804.00    1.38834   1.32702   -2.000
 5805.00    1.41457   1.33087   -2.000
 5806.00    1.39711   1.33380   -2.000
 5807.00    1.36416   1.33536   -2.000
 5808.00    1.31556   1.33510   -2.000
 5809.00    1.27102   1.33243   -2.000
 5810.00    1.23010   1.32706   -2.000
 5811.00    1.25618   1.32045    0.000
 5812.00    1.33485   1.31651    0.000
 5813.00    1.32065   1.31881    0.000
 5814.00    1.24236   1.32671    0.000
 5815.00    1.24986   1.33575    0.000
 5816.00    1.30928   1.34184    0.000
 5817.00    1.30703   1.34396    0.000
 5818.00    1.27220   1.34339    0.000
 5819.00    1.28535   1.34223    0.000
 5820.00    1.32050   1.34218    0.000
 5821.00    1.37391   1.34348    0.000
 5822.00    1.43452   1.34506    0.000
 5823.00    1.43241   1.34595    0.000
 5824.00    1.40922   1.34635    0.000
 5825.00    1.38790   1.34677    0.000
 5826.00    1.36710   1.34705    0.000
 5827.00    1.30755   1.34657    0.000
 5828.00    1.23898   1.34504    0.000
 5829.00    1.21967   1.34268    0.000
 5830.00    1.20957   1.34022    0.000
 5831.00    1.24681   1.33865    0.000
 5832.00    1.29087   1.33814    0.000
 5833.00    1.30551   1.33768    0.000
 5834.00    1.31707   1.33695    0.000
 5835.00    1.31153   1.33754    0.000
 5836.00    1.30484   1.34084    0.000
 5837.00    1.28149   1.34569    0.000
 5838.00    1.25759   1.34930    0.000
 5839.00    1.21590   1.34968    0.000
 5840.00    1.17349   1.34650    0.000
 5841.00    1.10840   1.34045    0.000
 5842.00    1.05523   1.33301    0.000
 5843.00    1.18207   1.32642    0.000
 5844.00    1.29874   1.32260    0.000
 5845.00    1.31670   1.32120    0.000
 5846.00    1.32535   1.31913    0.000
 5847.00    1.26865   1.31305    0.000
 5848.00    1.22978   1.30296    0.000
 5849.00    1.28731   1.29307    0.000
 5850.00    1.34233   1.28729    0.000
 5851.00    1.38649   1.28410    0.000
 5852.00    1.40565   1.27874    0.000
 5853.00    1.33566   1.27113    0.000
 5854.00    1.27750   1.26753    0.000
 5855.00    1.25480   1.27268    0.000
 5856.00    1.23737   1.28365    0.000
 5857.00    1.23337   1.29353    0.000
 5858.00    1.22724   1.29894    0.000
 5859.00    1.21644   1.30149    0.000
 5860.00    1.21500   1.30302    0.000
 5861.00    1.23141   1.30288    0.000
 5862.00    1.25294   1.30108    0.000
 5863.00    1.28295   1.30080    0.000
 5864.00    1.31473   1.30529    0.000
 5865.00    1.34905   1.31339    0.000
 5866.00    1.33619   1.32058    0.000
 5867.00    1.26286   1.32324    0.000
 5868.00    1.24051   1.32068    0.000
 5869.00    1.27572   1.31413    0.000
 5870.00    1.28478   1.30542    0.000
 5871.00    1.26782   1.29702    0.000
 5872.00    1.26248   1.29162    0.000
 5873.00    1.26734   1.29015    0.000
 5874.00    1.29060   1.29056    0.000
 5875.00    1.32810   1.29019    0.000
 5876.00    1.36837   1.28889    0.000
 5877.00    1.41052   1.28815    0.000
 5878.00    1.42422   1.28800    0.000
 5879.00    1.42097   1.28718    0.000
 5880.00    1.39867   1.28526    0.000
 5881.00    1.36648   1.28137    0.000
 5882.00    1.33515   1.26973    0.000
 5883.00    1.30421   1.23954    0.000
 5884.00    1.28546   1.18574    0.000
 5885.00    1.27143   1.12299    0.000
 5886.00    1.28976   1.08205    0.000
 5887.00    1.31876   1.08346    0.000
 5888.00    1.25998   1.11590    0.000
 5889.00    1.17693   1.14548    0.000
 5890.00    1.15236   1.14723    0.000
 5891.00    1.14109   1.12652    0.000
 5892.00    1.11059   1.11141    0.000
 5893.00    1.07660   1.12409    0.000
 5894.00    1.06325   1.16149    0.000
 5895.00    1.05279   1.20421    0.000
 5896.00    1.06828   1.23784    0.000
 5897.00    1.08638   1.26017    0.000
 5898.00    1.06267   1.27406    0.000
 5899.00    1.03630   1.28167    0.000
 5900.00    1.08229   1.28453    0.000
 5901.00    1.13026   1.28485    0.009
 5902.00    1.12980   1.28525    0.009
 5903.00    1.12926   1.28726    0.009
 5904.00    1.12664   1.29026    0.009
 5905.00    1.12522   1.29291    0.009
 5906.00    1.14086   1.29461    0.009
 5907.00    1.15661   1.29446    0.009
 5908.00    1.17345   1.29027    0.009
 5909.00    1.19966   1.28120    0.009
 5910.00    1.28958   1.27077    0.009
 5911.00    1.36077   1.26476    0.009
 5912.00    1.33336   1.26611    0.008
 5913.00    1.30527   1.27298    0.008
 5914.00    1.27433   1.28132    0.008
 5915.00    1.24741   1.28788    0.008
 5916.00    1.23447   1.29109    0.008
 5917.00    1.23454   1.29119    0.008
 5918.00    1.27281   1.29035    0.008
 5919.00    1.29102   1.29113    0.008
 5920.00    1.25896   1.29418    0.008
 5921.00    1.22882   1.29770    0.008
 5922.00    1.20282   1.29896    0.008
 5923.00    1.19101   1.29627    0.008
 5924.00    1.20580   1.29011    0.008
 5925.00    1.22069   1.28365    0.008
 5926.00    1.23575   1.28129    0.008
 5927.00    1.26097   1.28457    0.008
 5928.00    1.30078   1.28982    0.008
 5929.00    1.33821   1.29185    0.008
 5930.00    1.37262   1.29015    0.008
 5931.00    1.36932   1.28907    0.008
 5932.00    1.32406   1.29191    0.009
 5933.00    1.27280   1.29732    0.009
 5934.00    1.21566   1.30119    0.009
 5935.00    1.20590   1.30028    0.009
 5936.00    1.23716   1.29475    0.009
 5937.00    1.25795   1.28839    0.009
 5938.00    1.27076   1.28566    0.009
 5939.00    1.27195   1.28821    0.009
 5940.00    1.26536   1.29418    0.009
 5941.00    1.27021   1.29978    0.008
 5942.00    1.28177   1.30117    0.008
 5943.00    1.27871   1.29655    0.008
 5944.00    1.26816   1.28856    0.008
 5945.00    1.26339   1.28272    0.008
 5946.00    1.26118   1.28165    0.008
 5947.00    1.25791   1.28254    0.008
 5948.00    1.25423   1.28217    0.008
 5949.00    1.21923   1.28135    0.008
 5950.00    1.17409   1.28179    0.008
 5951.00    1.15784   1.28225    0.008
 5952.00    1.14942   1.28110    0.008
 5953.00    1.17014   1.28013    0.008
 5954.00    1.19733   1.28286    0.008
 5955.00    1.25783   1.29016    0.008
 5956.00    1.32422   1.29936    0.008
 5957.00    1.31296   1.30686    0.008
 5958.00    1.29120   1.31062    0.008
 5959.00    1.25633   1.31035    0.008
 5960.00    1.22020   1.30689    0.008
 5961.00    1.27495   1.30243    0.008
 5962.00    1.33513   1.30007    0.008
 5963.00    1.38536   1.30146    0.008
 5964.00    1.43462   1.30573    0.008
 5965.00    1.37346   1.31071    0.008
 5966.00    1.31620   1.31470    0.008
 5967.00    1.35831   1.31678    0.008
 5968.00    1.40038   1.31642    0.008
 5969.00    1.44194   1.31292    0.008
 5970.00    1.47777   1.30573    0.008
 5971.00    1.46237   1.29576    0.008
 5972.00    1.44042   1.28602    0.009
 5973.00    1.37536   1.28035    0.008
 5974.00    1.32578   1.28101    0.008
 5975.00    1.35560   1.28696    0.008
 5976.00    1.36647   1.29400    0.008
 5977.00    1.29889   1.29705    0.008
 5978.00    1.24117   1.29300    0.008
 5979.00    1.21722   1.28349    0.008
 5980.00    1.19884   1.27485    0.008
 5981.00    1.19653   1.27266    0.008
 5982.00    1.20960   1.27707    0.008
 5983.00    1.26055   1.28418    0.008
 5984.00    1.30403   1.29041    0.008
 5985.00    1.33165   1.29421    0.008
 5986.00    1.34579   1.29566    0.008
 5987.00    1.33507   1.29669    0.008
 5988.00    1.32767   1.29989    0.008
 5989.00    1.32566   1.30544    0.008
 5990.00    1.32857   1.31013    0.008
 5991.00    1.33844   1.31031    0.008
 5992.00    1.34654   1.30552    0.008
 5993.00    1.35244   1.29902    0.008
 5994.00    1.34648   1.29481    0.008
 5995.00    1.32749   1.29421    0.008
 5996.00    1.31389   1.29503    0.008
 5997.00    1.30549   1.29395    0.008
 5998.00    1.29263   1.29047    0.008
 5999.00    1.27595   1.28749    0.008
 6000.00    1.28288   1.28659    0.008
 6001.00    1.30754   1.28534    0.008
 6002.00    1.30678   1.28043    0.008
 6003.00    1.28922   1.27286    0.008
 6004.00    1.28918   1.26878    0.008
 6005.00    1.29925   1.27263    0.008
 6006.00    1.29302   1.28138    0.008
 6007.00    1.27858   1.28770    0.008
 6008.00    1.24899   1.28802    0.008
 6009.00    1.21279   1.28532    0.008
 6010.00    1.19220   1.28373    0.008
 6011.00    1.17744   1.28349    0.008
 6012.00    1.19860   1.28319    0.008
 6013.00    1.23115   1.28258    0.008
 6014.00    1.26128   1.28110    0.008
 6015.00    1.29077   1.27779    0.008
 6016.00    1.28580   1.27359    0.008
 6017.00    1.27335   1.27123    0.008
 6018.00    1.23213   1.27224    0.008
 6019.00    1.18594   1.27595    0.008
 6020.00    1.18849   1.28139    0.008
 6021.00    1.19739   1.28738    0.008
 6022.00    1.20692   1.29266    0.008
 6023.00    1.21650   1.29744    0.008
 6024.00    1.27821   1.30242    0.008
 6025.00    1.34283   1.30720    0.008
 6026.00    1.35832   1.31091    0.008
 6027.00    1.37236   1.31369    0.008
 6028.00    1.35014   1.31610    0.008
 6029.00    1.32795   1.31811    0.008
 6030.00    1.30670   1.31922    0.008
 6031.00    1.28609   1.31933    0.008
 6032.00    1.27357   1.31879    0.008
 6033.00    1.26508   1.31761    0.008
 6034.00    1.29132   1.31535    0.008
 6035.00    1.31710   1.31229    0.008
 6036.00    1.33997   1.30972    0.008
 6037.00    1.35606   1.30895    0.008
 6038.00    1.33829   1.31075    0.008
 6039.00    1.33327   1.31461    0.008
 6040.00    1.37989   1.31899    0.008
 6041.00    1.42070   1.32255    0.008
 6042.00    1.44200   1.32481    0.008
 6043.00    1.46240   1.32577    0.008
 6044.00    1.48023   1.32567    0.008
 6045.00    1.49372   1.32533    0.008
 6046.00    1.49672   1.32507    0.008
 6047.00    1.49227   1.32409    0.008
 6048.00    1.47222   1.32134    0.008
 6049.00    1.44964   1.31681    0.008
 6050.00    1.42246   1.31136    0.008
 6051.00    1.39744   1.30623    0.008
 6052.00    1.37588   1.30321    0.008
 6053.00    1.37081   1.30373    0.008
 6054.00    1.38876   1.30761    0.008
 6055.00    1.38939   1.31273    0.008
 6056.00    1.36876   1.31615    0.008
 6057.00    1.34144   1.31543    0.008
 6058.00    1.30689   1.30946    0.008
 6059.00    1.30165   1.29881    0.008
 6060.00    1.32439   1.28659    0.008
 6061.00    1.33454   1.27957    0.008
 6062.00    1.33411   1.28352    0.008
 6063.00    1.31173   1.29682    0.008
 6064.00    1.27309   1.31213    0.008
 6065.00    1.27761   1.32325    0.008
 6066.00    1.31020   1.32894    0.008
 6067.00    1.33432   1.33123    0.008
 6068.00    1.35360   1.33204    0.008
 6069.00    1.35210   1.33197    0.008
 6070.00    1.34030   1.33075    0.008
 6071.00    1.33824   1.32750    0.008
 6072.00    1.34036   1.32121    0.008
 6073.00    1.33753   1.31223    0.008
 6074.00    1.33288   1.30324    0.008
 6075.00    1.34005   1.29724    0.008
 6076.00    1.35089   1.29401    0.008
 6077.00    1.35459   1.29133    0.008
 6078.00    1.35645   1.28883    0.008
 6079.00    1.36367   1.28774    0.008
 6080.00    1.37203   1.28846    0.008
 6081.00    1.38552   1.29073    0.008
 6082.00    1.39987   1.29436    0.008
 6083.00    1.37169   1.29805    0.008
 6084.00    1.33814   1.29890    0.008
 6085.00    1.30816   1.29536    0.008
 6086.00    1.27848   1.28998    0.008
 6087.00    1.28416   1.28714    0.008
 6088.00    1.29166   1.28872    0.008
 6089.00    1.29998   1.29408    0.008
 6090.00    1.30767   1.30142    0.008
 6091.00    1.26903   1.30781    0.008
 6092.00    1.23388   1.31114    0.008
 6093.00    1.27312   1.31207    0.008
 6094.00    1.31384   1.31207    0.008
 6095.00    1.37262   1.30973    0.008
 6096.00    1.42862   1.30032    0.008
 6097.00    1.46171   1.28145    0.008
 6098.00    1.48387   1.26060    0.008
 6099.00    1.43837   1.25187    0.008
 6100.00    1.39292   1.26061    0.008
 6101.00    1.34772   1.27793    0.008
 6102.00    1.31838   1.29163    0.008
 6103.00    1.35177   1.29741    0.008
 6104.00    1.37743   1.29904    0.008
 6105.00    1.37764   1.30072    0.008
 6106.00    1.36282   1.30243    0.008
 6107.00    1.30616   1.30350    0.008
 6108.00    1.27289   1.30534    0.008
 6109.00    1.29530   1.30856    0.008
 6110.00    1.31847   1.31110    0.008
 6111.00    1.34324   1.31071    0.008
 6112.00    1.36760   1.30804    0.008
 6113.00    1.39123   1.30499    0.008
 6114.00    1.42576   1.30035    0.008
 6115.00    1.47736   1.29053    0.008
 6116.00    1.48294   1.27477    0.008
 6117.00    1.42531   1.25802    0.008
 6118.00    1.38096   1.24947    0.008
 6119.00    1.35268   1.25471    0.008
 6120.00    1.33913   1.26841    0.008
 6121.00    1.34128   1.28031    0.008
 6122.00    1.32436   1.28579    0.008
 6123.00    1.28950   1.28704    0.008
 6124.00    1.27530   1.28868    0.008
 6125.00    1.27824   1.29354    0.008
 6126.00    1.29252   1.30072    0.008
 6127.00    1.31508   1.30660    0.008
 6128.00    1.32361   1.30763    0.008
 6129.00    1.32314   1.30088    0.008
 6130.00    1.32802   1.28358    0.008
 6131.00    1.33589   1.25635    0.008
 6132.00    1.32926   1.22794    0.008
 6133.00    1.31555   1.21344    0.008
 6134.00    1.28023   1.22137    0.008
 6135.00    1.23578   1.24253    0.008
 6136.00    1.20073   1.25984    0.008
 6137.00    1.16907   1.26706    0.008
 6138.00    1.17924   1.27185    0.008
 6139.00    1.20217   1.28182    0.008
 6140.00    1.22757   1.29492    0.008
 6141.00    1.25360   1.30432    0.008
 6142.00    1.29131   1.30607    0.008
 6143.00    1.33142   1.30079    0.008
 6144.00    1.35054   1.29200    0.008
 6145.00    1.36623   1.28432    0.008
 6146.00    1.36341   1.28126    0.008
 6147.00    1.35834   1.28365    0.008
 6148.00    1.33561   1.28882    0.008
 6149.00    1.31141   1.29213    0.008
 6150.00    1.29804   1.29114    0.008
 6151.00    1.28520   1.28794    0.008
 6152.00    1.32403   1.28493    0.008
 6153.00    1.36349   1.28091    0.008
 6154.00    1.39579   1.27236    0.008
 6155.00    1.42517   1.25501    0.008
 6156.00    1.39717   1.22688    0.008
 6157.00    1.37042   1.19430    0.008
 6158.00    1.35802   1.17145    0.008
 6159.00    1.34518   1.16881    0.008
 6160.00    1.32879   1.18374    0.008
 6161.00    1.30666   1.20434    0.008
 6162.00    1.24996   1.21941    0.008
 6163.00    1.19063   1.22358    0.008
 6164.00    1.11878   1.21714    0.008
 6165.00    1.05973   1.20753    0.008
 6166.00    1.05026   1.20620    0.008
 6167.00    1.05490   1.21676    0.008
 6168.00    1.10506   1.23148    0.008
 6169.00    1.15273   1.24211    0.008
 6170.00    1.19358   1.24736    0.008
 6171.00    1.22087   1.24961    0.008
 6172.00    1.21643   1.25142    0.008
 6173.00    1.22454   1.25469    0.008
 6174.00    1.25806   1.25937    0.008
 6175.00    1.26992   1.26352    0.008
 6176.00    1.24364   1.26675    0.008
 6177.00    1.21691   1.27038    0.008
 6178.00    1.18949   1.27383    0.008
 6179.00    1.16690   1.27511    0.008
 6180.00    1.15086   1.27301    0.008
 6181.00    1.17063   1.26715    0.008
 6182.00    1.23311   1.25833    0.008
 6183.00    1.25588   1.24864    0.008
 6184.00    1.23688   1.23896    0.008
 6185.00    1.23465   1.22801    0.008
 6186.00    1.24797   1.21552    0.008
 6187.00    1.24678   1.20673    0.008
 6188.00    1.23372   1.20987    0.008
 6189.00    1.23291   1.22490    0.008
 6190.00    1.24091   1.24277    0.008
 6191.00    1.27692   1.25604    0.008
 6192.00    1.33062   1.26245    0.008
 6193.00    1.31779   1.26199    0.008
 6194.00    1.26823   1.25561    0.008
 6195.00    1.02219   1.24689    0.008
 6196.00    0.68180   1.24232   -2.000
 6197.00    0.07252   1.24563   -2.000
 6198.00   -0.64823   1.25404   -2.000
 6199.00   -0.88886   1.26224   -2.000
 6200.00   -0.95932   1.26769   -2.000
 6201.00   -0.21756   1.27122   -2.000
 6202.00    0.76728   1.27405   -2.000
 6203.00    1.64840   1.27597   -2.000
 6204.00    2.50376   1.27617   -2.000
 6205.00    2.52146   1.27380   -2.000
 6206.00    2.37049   1.26786   -2.000
 6207.00    1.97080   1.25791   -2.000
 6208.00    1.53187   1.24416    0.008
 6209.00    1.41649   1.22843    0.008
 6210.00    1.33903   1.21596    0.008
 6211.00    1.29639   1.21108    0.008
 6212.00    1.25652   1.21351    0.008
 6213.00    1.20078   1.21892    0.008
 6214.00    1.14433   1.22138    0.008
 6215.00    1.22038   1.21973    0.008
 6216.00    1.29687   1.21884    0.008
 6217.00    1.32512   1.22222    0.008
 6218.00    1.35110   1.22849    0.007
 6219.00    1.33538   1.23402    0.007
 6220.00    1.31908   1.23711    0.008
 6221.00    1.29636   1.23879    0.007
 6222.00    1.27322   1.23900    0.007
 6223.00    1.24682   1.23546    0.007
 6224.00    1.22607   1.22584    0.008
 6225.00    1.23846   1.21028    0.008
 6226.00    1.23858   1.19450    0.008
 6227.00    1.18174   1.18793    0.008
 6228.00    1.13269   1.19488    0.008
 6229.00    1.11316   1.21125    0.008
 6230.00    1.11075   1.22968    0.008
 6231.00    1.16256   1.24246    0.008
 6232.00    1.23151   1.24535    0.008
 6233.00    1.34646   1.23982    0.008
 6234.00    1.41850   1.23046    0.008
 6235.00    1.39172   1.22167    0.008
 6236.00    1.36833   1.21577    0.008
 6237.00    1.35168   1.21234    0.008
 6238.00    1.34430   1.20822    0.008
 6239.00    1.35301   1.20258    0.008
 6240.00    1.35147   1.19878    0.008
 6241.00    1.33437   1.19893    0.008
 6242.00    1.31389   1.20398    0.008
 6243.00    1.28890   1.21450    0.008
 6244.00    1.26625   1.22708    0.008
 6245.00    1.24633   1.23507    0.008
 6246.00    1.24080   1.23354    0.008
 6247.00    1.25018   1.22228    0.007
 6248.00    1.26444   1.20670    0.007
 6249.00    1.28316   1.19464    0.007
 6250.00    1.29005   1.18902    0.007
 6251.00    1.28743   1.18656    0.008
 6252.00    1.28011   1.18321    0.008
 6253.00    1.26946   1.17943    0.008
 6254.00    1.26238   1.17948    0.008
 6255.00    1.25752   1.18722    0.008
 6256.00    1.24885   1.20153    0.008
 6257.00    1.23810   1.21725    0.008
 6258.00    1.13589   1.23059    0.008
 6259.00    0.99047   1.23877    0.008
 6260.00    0.77958   1.24032    0.009
 6261.00    0.54201   1.23846    0.009
 6262.00    0.58507   1.23818    0.010
 6263.00    0.72578   1.23980    0.010
 6264.00    1.03444   1.24040    0.010
 6265.00    1.39237   1.23946    0.010
 6266.00    1.62435   1.23944    0.009
 6267.00    1.82573   1.24224    0.009
 6268.00    1.73732   1.24697    0.008
 6269.00    1.59202   1.25088    0.008
 6270.00    1.46034   1.25224    0.008
 6271.00    1.33075   1.25167    0.007
 6272.00    1.30553   1.24984    0.007
 6273.00    1.29209   1.24607    0.008
 6274.00    1.29093   1.23952    0.008
 6275.00    1.29069   1.23104    0.007
 6276.00    1.34650   1.22402    0.007
 6277.00    1.40456   1.22246    0.007
 6278.00    1.45785   1.22665    0.007
 6279.00    1.50935   1.23351    0.007
 6280.00    1.48960   1.24024    0.000
 6281.00    1.46853   1.24648    0.000
 6282.00    1.42499   1.25377    0.000
 6283.00    1.38327   1.26168    0.000
 6284.00    1.36071   1.26726    0.000
 6285.00    1.34169   1.26800    0.000
 6286.00    1.34913   1.26397    0.000
 6287.00    1.35638   1.25826    0.000
 6288.00    1.36258   1.25423    0.000
 6289.00    1.36919   1.25244    0.000
 6290.00    1.37767   1.25066    0.000
 6291.00    1.39240   1.24602    0.000
 6292.00    1.43032   1.23861    0.000
 6293.00    1.46668   1.23215    0.000
 6294.00    1.49820   1.22928    0.000
 6295.00    1.51980   1.22793    0.000
 6296.00    1.51520   1.22484    0.000
 6297.00    1.49373   1.22110    0.000
 6298.00    1.43403   1.22147    0.000
 6299.00    1.38317   1.22821    0.000
 6300.00    1.34966   1.23853    0.000
 6301.00    1.33069   1.24856    0.000
 6302.00    1.33657   1.25706    0.000
 6303.00    1.36072   1.26375    0.000
 6304.00    1.41223   1.26693    0.000
 6305.00    1.45243   1.26536    0.000
 6306.00    1.47774   1.26055    0.000
 6307.00    1.47302   1.25526    0.000
 6308.00    1.43349   1.25083    0.000
 6309.00    1.42219   1.24644    0.000
 6310.00    1.43978   1.24058    0.000
 6311.00    1.44202   1.23397    0.000
 6312.00    1.43044   1.22874    0.000
 6313.00    1.36744   1.22513    0.000
 6314.00    1.26357   1.22383    0.000
 6315.00    1.21480   1.22738    0.000
 6316.00    1.20455   1.23521    0.000
 6317.00    1.22754   1.24364    0.000
 6318.00    1.27091   1.25081    0.000
 6319.00    1.29498   1.25753    0.000
 6320.00    1.30870   1.26394    0.000
 6321.00    1.34264   1.26849    0.007
 6322.00    1.38598   1.27036    0.008
 6323.00    1.40415   1.27022    0.008
 6324.00    1.41224   1.26963    0.008
 6325.00    1.38719   1.26943    0.007
 6326.00    1.35082   1.26996    0.007
 6327.00    1.34032   1.27167    0.007
 6328.00    1.33724   1.27244    0.007
 6329.00    1.32894   1.26789    0.007
 6330.00    1.31938   1.25622    0.007
 6331.00    1.34788   1.24192    0.007
 6332.00    1.38366   1.23331    0.007
 6333.00    1.40822   1.23493    0.007
 6334.00    1.43112   1.24405    0.008
 6335.00    1.44741   1.25502    0.008
 6336.00    1.46299   1.26362    0.008
 6337.00    1.47868   1.26691    0.008
 6338.00    1.49438   1.26384    0.008
 6339.00    1.45616   1.25687    0.008
 6340.00    1.41598   1.25092    0.008
 6341.00    1.41568   1.24997    0.008
 6342.00    1.41512   1.25395    0.008
 6343.00    1.40006   1.26055    0.008
 6344.00    1.38249   1.26794    0.008
 6345.00    1.32492   1.27437    0.008
 6346.00    1.27056   1.27795    0.007
 6347.00    1.24842   1.27758    0.008
 6348.00    1.23304   1.27307    0.008
 6349.00    1.26653   1.26515    0.008
 6350.00    1.29942   1.25616    0.008
 6351.00    1.32900   1.24880    0.007
 6352.00    1.35591   1.24354    0.007
 6353.00    1.37102   1.23813    0.007
 6354.00    1.38419   1.23143    0.007
 6355.00    1.39029   1.22559    0.007
 6356.00    1.39098   1.22240    0.007
 6357.00    1.37520   1.22099    0.007
 6358.00    1.37139   1.22083    0.007
 6359.00    1.39856   1.22346    0.008
 6360.00    1.41857   1.22982    0.008
 6361.00    1.42263   1.23872    0.008
 6362.00    1.41370   1.24810    0.008
 6363.00    1.37970   1.25611    0.008
 6364.00    1.34593   1.26143    0.008
 6365.00    1.31255   1.26390    0.008
 6366.00    1.29256   1.26545    0.008
 6367.00    1.29234   1.26858    0.008
 6368.00    1.30117   1.27368    0.008
 6369.00    1.32176   1.27875    0.008
 6370.00    1.34202   1.28161    0.008
 6371.00    1.36192   1.28151    0.008
 6372.00    1.37589   1.27855    0.008
 6373.00    1.38388   1.27304    0.008
 6374.00    1.38448   1.26606    0.007
 6375.00    1.37852   1.26001    0.007
 6376.00    1.37510   1.25724    0.007
 6377.00    1.37366   1.25807    0.007
 6378.00    1.37570   1.26083    0.007
 6379.00    1.38014   1.26337    0.007
 6380.00    1.39327   1.26488    0.007
 6381.00    1.41166   1.26634    0.007
 6382.00    1.40979   1.26838    0.007
 6383.00    1.39724   1.27010    0.007
 6384.00    1.39719   1.27024    0.007
 6385.00    1.40285   1.26811    0.007
 6386.00    1.42142   1.26276    0.007
 6387.00    1.44506   1.25343    0.007
 6388.00    1.46349   1.24222    0.007
 6389.00    1.48016   1.23497    0.007
 6390.00    1.44713   1.23755    0.008
 6391.00    1.40010   1.24902    0.008
 6392.00    1.33798   1.26061    0.008
 6393.00    1.27235   1.26311    0.008
 6394.00    1.26463   1.25450    0.008
 6395.00    1.26770   1.24167    0.008
 6396.00    1.32377   1.23573    0.008
 6397.00    1.38744   1.24336    0.008
 6398.00    1.41855   1.26011    0.008
 6399.00    1.44627   1.27535    0.008
 6400.00    1.42840   1.28231    0.008
 6401.00    1.40747   1.28026    0.008
 6402.00    1.32199   1.27254    0.008
 6403.00    1.23441   1.26441    0.007
 6404.00    1.26907   1.25965    0.007
 6405.00    1.30379   1.25824    0.007
 6406.00    1.33922   1.25717    0.007
 6407.00    1.37221   1.25489    0.007
 6408.00    1.36868   1.25400    0.007
 6409.00    1.36632   1.25682    0.007
 6410.00    1.37534   1.26168    0.007
 6411.00    1.38804   1.26587    0.007
 6412.00    1.42646   1.26791    0.007
 6413.00    1.45923   1.26650    0.008
 6414.00    1.46155   1.26055    0.008
 6415.00    1.45631   1.25139    0.008
 6416.00    1.41844   1.24394    0.008
 6417.00    1.38215   1.24417    0.008
 6418.00    1.35146   1.25373    0.008
 6419.00    1.33054   1.26769    0.008
 6420.00    1.33881   1.27911    0.008
 6421.00    1.36817   1.28522    0.008
 6422.00    1.45119   1.28708    0.008
 6423.00    1.50349   1.28499    0.008
 6424.00    1.48850   1.27746    0.008
 6425.00    1.46121   1.26477    0.008
 6426.00    1.41058   1.25169    0.008
 6427.00    1.35210   1.24512    0.008
 6428.00    1.28064   1.24885    0.008
 6429.00    1.24185   1.25982    0.008
 6430.00    1.25057   1.27109    0.008
 6431.00    1.28066   1.27663    0.008
 6432.00    1.33806   1.27313    0.008
 6433.00    1.38440   1.26208    0.008
 6434.00    1.41827   1.25058    0.008
 6435.00    1.41842   1.24735    0.007
 6436.00    1.38508   1.25629    0.007
 6437.00    1.35645   1.27252    0.007
 6438.00    1.33194   1.28730    0.007
 6439.00    1.32833   1.29629    0.008
 6440.00    1.34086   1.30011    0.008
 6441.00    1.35948   1.29978    0.008
 6442.00    1.38222   1.29410    0.008
 6443.00    1.40466   1.28038    0.008
 6444.00    1.42692   1.25958    0.008
 6445.00    1.41400   1.23965    0.008
 6446.00    1.38283   1.23086    0.008
 6447.00    1.34739   1.23742    0.008
 6448.00    1.31004   1.25224    0.008
 6449.00    1.28814   1.26328    0.008
 6450.00    1.27221   1.26527    0.008
 6451.00    1.29316   1.26234    0.008
 6452.00    1.32625   1.26225    0.008
 6453.00    1.36256   1.26901    0.008
 6454.00    1.39975   1.27853    0.007
 6455.00    1.39949   1.28191    0.007
 6456.00    1.39073   1.27330    0.007
 6457.00    1.36392   1.25568    0.007
 6458.00    1.33383   1.23939    0.007
 6459.00    1.31665   1.23491    0.007
 6460.00    1.30126   1.24505    0.007
 6461.00    1.33004   1.26227    0.007
 6462.00    1.36322   1.27672    0.007
 6463.00    1.36638   1.28378    0.008
 6464.00    1.36766   1.28340    0.008
 6465.00    1.37720   1.27782    0.008
 6466.00    1.38694   1.27083    0.008
 6467.00    1.38738   1.26590    0.008
 6468.00    1.38807   1.26404    0.008
 6469.00    1.39606   1.26413    0.008
 6470.00    1.40116   1.26459    0.008
 6471.00    1.36562   1.26553    0.008
 6472.00    1.33152   1.26849    0.008
 6473.00    1.31082   1.27307    0.008
 6474.00    1.29654   1.27569    0.008
 6475.00    1.32572   1.27261    0.008
 6476.00    1.35431   1.26333    0.008
 6477.00    1.37978   1.25144    0.008
 6478.00    1.39871   1.24290    0.008
 6479.00    1.39004   1.24237    0.008
 6480.00    1.38973   1.24936    0.008
 6481.00    1.41858   1.25893    0.007
 6482.00    1.44140   1.26628    0.007
 6483.00    1.44653   1.26926    0.007
 6484.00    1.44814   1.26750    0.007
 6485.00    1.44094   1.26107    0.007
 6486.00    1.43665   1.24990    0.008
 6487.00    1.43865   1.23302    0.008
 6488.00    1.44382   1.20953    0.008
 6489.00    1.45492   1.18172    0.008
 6490.00    1.46155   1.15604    0.008
 6491.00    1.46090   1.14112    0.008
 6492.00    1.44321   1.14165    0.008
 6493.00    1.40111   1.15430    0.008
 6494.00    1.36160   1.17325    0.008
 6495.00    1.32536   1.19380    0.008
 6496.00    1.30315   1.21342    0.008
 6497.00    1.29653   1.23132    0.008
 6498.00    1.32229   1.24596    0.008
 6499.00    1.37978   1.25661    0.008
 6500.00    1.40802   1.26371    0.008
 6501.00    1.41099   1.26756    0.008
 6502.00    1.39522   1.26844    0.008
 6503.00    1.36519   1.26725    0.008
 6504.00    1.34647   1.26575    0.008
 6505.00    1.33531   1.26559    0.007
 6506.00    1.34883   1.26679    0.007
 6507.00    1.37680   1.26775    0.008
 6508.00    1.41328   1.26642    0.008
 6509.00    1.45411   1.26188    0.007
 6510.00    1.48004   1.25472    0.007
 6511.00    1.49939   1.24672    0.007
 6512.00    1.47717   1.24009    0.007
 6513.00    1.43917   1.23699    0.008
 6514.00    1.38035   1.23871    0.008
 6515.00    1.31481   1.24471    0.008
 6516.00    1.31187   1.25304    0.008
 6517.00    1.32584   1.26067    0.008
 6518.00    1.36978   1.26526    0.008
 6519.00    1.42037   1.26644    0.008
 6520.00    1.43776   1.26469    0.008
 6521.00    1.44929   1.26092    0.008
 6522.00    1.44470   1.25698    0.008
 6523.00    1.43793   1.25516    0.008
 6524.00    1.35967   1.25645    0.008
 6525.00    1.27457   1.25901    0.008
 6526.00    1.30421   1.25981    0.008
 6527.00    1.34063   1.25792    0.008
 6528.00    1.37927   1.25539    0.000
 6529.00    1.41788   1.25493    0.000
 6530.00    1.44438   1.25728    0.000
 6531.00    1.47125   1.26103    0.000
 6532.00    1.50731   1.26431    0.000
 6533.00    1.53673   1.26665    0.000
 6534.00    1.47716   1.26860    0.000
 6535.00    1.43114   1.27001    0.000
 6536.00    1.50579   1.26951    0.000
 6537.00    1.57342   1.26585    0.000
 6538.00    1.59502   1.25893    0.000
 6539.00    1.59918   1.24933    0.000
 6540.00    1.51427   1.23801    0.000
 6541.00    1.44239   1.22760    0.000
 6542.00    1.42431   1.22154    0.000
 6543.00    1.43186   1.22161    0.000
 6544.00    1.52702   1.22576    0.000
 6545.00    1.60468   1.22894    0.000
 6546.00    1.63190   1.22791    0.000
 6547.00    1.63764   1.22270    0.000
 6548.00    1.59053   1.21441    0.000
 6549.00    1.53353   1.20402    0.000
 6550.00    1.45558   1.19292    0.000
 6551.00    1.39395   1.18302    0.000
 6552.00    1.36238   1.17483    0.000
 6553.00    1.35638   1.16517    0.000
 6554.00    1.39156   1.14693    0.000
 6555.00    1.41473   1.11106    0.000
 6556.00    1.42096   1.05280    0.000
 6557.00    1.42136   0.98308    0.000
 6558.00    1.41451   0.93056    0.000
 6559.00    1.40973   0.92363    0.000
 6560.00    1.40722   0.96815    0.000
 6561.00    1.44043   1.04075    0.000
 6562.00    1.50813   1.10721    0.000
 6563.00    1.54654   1.15041    0.000
 6564.00    1.56002   1.17303    0.000
 6565.00    1.57369   1.18365    0.000
 6566.00    1.58751   1.18840    0.000
 6567.00    1.54899   1.18955    0.000
 6568.00    1.47597   1.18794    0.000
 6569.00    1.42308   1.18660    0.000
 6570.00    1.38179   1.19017    0.000
 6571.00    1.37232   1.20061    0.000
 6572.00    1.37884   1.21515    0.000
 6573.00    1.36066   1.22837    0.000
 6574.00    1.33172   1.23576    0.000
 6575.00    1.31066   1.23683    0.000
 6576.00    1.29253   1.23485    0.000
 6577.00    1.33542   1.23382    0.000
 6578.00    1.39762   1.23527    0.000
 6579.00    1.48404   1.23795    0.000
 6580.00    1.57687   1.23953    0.000
 6581.00    1.55052   1.23993    0.000
 6582.00    1.49841   1.24126    0.000
 6583.00    1.53019   1.24451    0.000
 6584.00    1.57636   1.24804    0.000
 6585.00    1.64697   1.24772    0.000
 6586.00    1.72074   1.23971    0.000
 6587.00    1.64409   1.22457    0.000
 6588.00    1.55369   1.20856    0.000
 6589.00    1.51594   1.20031    0.000
 6590.00    1.48109   1.20385    0.000
 6591.00    1.44624   1.21533    0.000
 6592.00    1.41135   1.22647    0.000
 6593.00    1.37234   1.23272    0.000
 6594.00    1.33638   1.23627    0.000
 6595.00    1.37030   1.24078    0.000
 6596.00    1.40392   1.24673    0.000
 6597.00    1.43378   1.25141    0.000
 6598.00    1.45539   1.25179    0.000
 6599.00    1.40629   1.24776    0.000
 6600.00    1.36231   1.24164    0.000
 6601.00    1.35089   1.23550    0.000
 6602.00    1.34730   1.23006    0.000
 6603.00    1.38268   1.22549    0.000
 6604.00    1.40799   1.22320    0.000
 6605.00    1.39263   1.22537    0.000
 6606.00    1.36895   1.23186    0.000
 6607.00    1.31741   1.23949    0.000
 6608.00    1.29311   1.24463    0.000
 6609.00    1.34582   1.24692    0.008
 6610.00    1.38004   1.24881    0.008
 6611.00    1.36958   1.25172    0.008
 6612.00    1.34132   1.25494    0.008
 6613.00    1.27590   1.25717    0.008
 6614.00    1.25931   1.25857    0.008
 6615.00    1.33129   1.25961    0.008
 6616.00    1.39398   1.25972    0.008
 6617.00    1.44195   1.25744    0.008
 6618.00    1.46147   1.25204    0.008
 6619.00    1.44140   1.24463    0.008
 6620.00    1.42438   1.23818    0.008
 6621.00    1.41107   1.23525    0.008
 6622.00    1.41095   1.23613    0.008
 6623.00    1.42506   1.23887    0.008
 6624.00    1.43350   1.24074    0.008
 6625.00    1.43654   1.24025    0.008
 6626.00    1.43258   1.23701    0.008
 6627.00    1.42274   1.23134    0.008
 6628.00    1.43883   1.22474    0.008
 6629.00    1.47409   1.22033    0.008
 6630.00    1.46735   1.22080    0.008
 6631.00    1.43334   1.22621    0.008
 6632.00    1.41941   1.23372    0.008
 6633.00    1.41688   1.23948    0.008
 6634.00    1.38034   1.24205    0.008
 6635.00    1.32696   1.24220    0.008
 6636.00    1.28253   1.24061    0.008
 6637.00    1.24192   1.23662    0.008
 6638.00    1.26513   1.23040    0.008
 6639.00    1.31175   1.22479    0.008
 6640.00    1.34564   1.22314    0.008
 6641.00    1.37558   1.22636    0.008
 6642.00    1.38930   1.23175    0.008
 6643.00    1.39882   1.23612    0.008
 6644.00    1.39149   1.23856    0.008
 6645.00    1.38061   1.23933    0.008
 6646.00    1.42482   1.23859    0.008
 6647.00    1.47820   1.23685    0.008
 6648.00    1.51413   1.23510    0.008
 6649.00    1.54785   1.23421    0.008
 6650.00    1.51440   1.23424    0.008
 6651.00    1.47508   1.23460    0.008
 6652.00    1.53016   1.23499    0.008
 6653.00    1.59007   1.23503    0.008
 6654.00    1.53099   1.23417    0.008
 6655.00    1.47025   1.23152    0.008
 6656.00    1.44098   1.22631    0.008
 6657.00    1.40948   1.21879    0.008
 6658.00    1.33079   1.21116    0.008
 6659.00    1.26050   1.20689    0.008
 6660.00    1.29124   1.20754    0.008
 6661.00    1.32362   1.21203    0.008
 6662.00    1.36958   1.21763    0.008
 6663.00    1.40403   1.22275    0.008
 6664.00    1.36740   1.22788    0.008
 6665.00    1.34628   1.23319    0.008
 6666.00    1.40056   1.23768    0.008
 6667.00    1.43701   1.24022    0.008
 6668.00    1.40305   1.24061    0.008
 6669.00    1.37327   1.23884    0.008
 6670.00    1.35724   1.23404    0.008
 6671.00    1.35042   1.22443    0.008
 6672.00    1.36920   1.21036    0.008
 6673.00    1.38905   1.19688    0.008
 6674.00    1.41145   1.19057    0.008
 6675.00    1.41714   1.19367    0.008
 6676.00    1.38851   1.20270    0.008
 6677.00    1.37443   1.21204    0.008
 6678.00    1.38635   1.21875    0.008
 6679.00    1.39559   1.22305    0.008
 6680.00    1.40066   1.22549    0.008
 6681.00    1.38085   1.22633    0.008
 6682.00    1.32693   1.22607    0.008
 6683.00    1.30469   1.22568    0.008
 6684.00    1.32072   1.22612    0.008
 6685.00    1.35735   1.22731    0.008
 6686.00    1.41592   1.22858    0.008
 6687.00    1.44459   1.22904    0.008
 6688.00    1.44518   1.22806    0.008
 6689.00    1.42263   1.22529    0.008
 6690.00    1.38092   1.22088    0.008
 6691.00    1.36722   1.21604    0.008
 6692.00    1.37394   1.21309    0.008
 6693.00    1.40918   1.21347    0.008
 6694.00    1.46267   1.21710    0.008
 6695.00    1.49423   1.22197    0.008
 6696.00    1.51350   1.22542    0.000
 6697.00    1.48664   1.22575    0.000
 6698.00    1.43732   1.22304    0.000
 6699.00    1.42640   1.21945    0.000
 6700.00    1.43164   1.21765    0.000
 6701.00    1.47854   1.21864    0.000
 6702.00    1.54044   1.22138    0.000
 6703.00    1.49464   1.22371    0.000
 6704.00    1.41605   1.22432    0.000
 6705.00    1.34996   1.22309    0.000
 6706.00    1.28704   1.22107    0.000
 6707.00    1.32820   1.21859    0.000
 6708.00    1.39080   1.21507    0.000
 6709.00    1.35363   1.20960    0.000
 6710.00    1.30031   1.20144    0.000
 6711.00    1.34100   1.19142    0.000
 6712.00    1.39307   1.18222    0.000
 6713.00    1.46817   1.17793    0.000
 6714.00    1.54517   1.18069    0.000
 6715.00    1.51137   1.18836    0.000
 6716.00    1.47233   1.19675    0.000
 6717.00    1.59140   1.20290    0.000
 6718.00    1.70631   1.20673    0.000
 6719.00    1.46141   1.20883    0.000
 6720.00    1.22989   1.20939    0.000
 6721.00    1.25892   1.20877    0.000
 6722.00    1.29067   1.20853    0.000
 6723.00    1.35359   1.20981    0.000
 6724.00    1.40965   1.21239    0.000
 6725.00    1.41101   1.21491    0.000
 6726.00    1.41642   1.21604    0.000
 6727.00    1.44606   1.21574    0.000
 6728.00    1.47111   1.21484    0.000
 6729.00    1.47434   1.21439    0.000
 6730.00    1.48403   1.21463    0.000
 6731.00    1.51867   1.21478    0.000
 6732.00    1.54581   1.21353    0.000
 6733.00    1.54883   1.21061    0.000
 6734.00    1.53561   1.20716    0.000
 6735.00    1.47810   1.20464    0.000
 6736.00    1.44156   1.20332    0.000
 6737.00    1.45402   1.20225    0.000
 6738.00    1.45965   1.20130    0.000
 6739.00    1.45146   1.20136    0.000
 6740.00    1.44213   1.20264    0.000
 6741.00    1.43078   1.20390    0.000
 6742.00    1.40837   1.20336    0.000
 6743.00    1.36893   1.20027    0.000
 6744.00    1.33662   1.19571    0.000
 6745.00    1.31394   1.19179    0.000
 6746.00    1.27099   1.19040    0.000
 6747.00    1.20391   1.19158    0.000
 6748.00    1.20360   1.19446    0.000
 6749.00    1.27336   1.19863    0.000
 6750.00    1.35958   1.20345    0.000
 6751.00    1.46105   1.20876    0.000
 6752.00    1.39816   1.21388    0.000
 6753.00    1.20113   1.21819    0.010
 6754.00    1.09600   1.22135    0.010
 6755.00    1.05690   1.22319    0.010
 6756.00    1.07239   1.22379    0.010
 6757.00    1.12230   1.22335    0.010
 6758.00    1.21375   1.22240    0.010
 6759.00    1.32809   1.22058    0.010
 6760.00    1.34062   1.21717    0.010
 6761.00    1.30435   1.21169    0.011
 6762.00    1.41445   1.20518    0.011
 6763.00    1.58510   1.20024    0.011
 6764.00    1.62692   1.19837    0.011
 6765.00    1.62320   1.19874    0.011
 6766.00    1.64315   1.20013    0.011
 6767.00    1.67017   1.20262    0.011
 6768.00    1.57285   1.20681    0.011
 6769.00    1.44472   1.21280    0.010
 6770.00    1.50910   1.21918    0.010
 6771.00    1.61212   1.22447    0.010
 6772.00    1.57933   1.22795    0.010
 6773.00    1.52519   1.22973    0.010
 6774.00    1.58145   1.22995    0.010
 6775.00    1.65057   1.22803    0.010
 6776.00    1.57056   1.22341    0.010
 6777.00    1.47879   1.21594    0.010
 6778.00    1.49790   1.20704    0.010
 6779.00    1.52183   1.19929    0.010
 6780.00    1.54097   1.19502    0.010
 6781.00    1.55968   1.19487    0.010
 6782.00    1.56141   1.19792    0.010
 6783.00    1.56089   1.20225    0.010
 6784.00    1.51970   1.20595    0.010
 6785.00    1.48562   1.20805    0.010
 6786.00    1.52932   1.20862    0.010
 6787.00    1.55667   1.20786    0.010
 6788.00    1.45831   1.20618    0.010
 6789.00    1.37724   1.20449    0.010
 6790.00    1.39700   1.20381    0.010
 6791.00    1.43654   1.20446    0.010
 6792.00    1.56757   1.20625    0.010
 6793.00    1.65018   1.20834    0.010
 6794.00    1.54971   1.21048    0.010
 6795.00    1.47343   1.21264    0.010
 6796.00    1.47353   1.21454    0.010
 6797.00    1.45905   1.21572    0.010
 6798.00    1.40555   1.21565    0.010
 6799.00    1.41903   1.21444    0.010
 6800.00    1.58641   1.21292    0.010
 6801.00    1.63325   1.21151    0.010
 6802.00    1.44039   1.21052    0.010
 6803.00    1.33756   1.21027    0.010
 6804.00    1.39070   1.21025    0.010
 6805.00    1.45574   1.21027    0.010
 6806.00    1.53884   1.21071    0.010
 6807.00    1.54047   1.21126    0.010
 6808.00    1.43350   1.21139    0.010
 6809.00    1.41838   1.21043    0.010
 6810.00    1.51105   1.20914    0.010
 6811.00    1.51273   1.20903    0.010
 6812.00    1.42021   1.21026    0.010
 6813.00    1.35420   1.21153    0.010
 6814.00    1.31237   1.21154    0.010
 6815.00    1.33599   1.21076    0.010
 6816.00    1.41227   1.21091    0.010
 6817.00    1.48490   1.21295    0.010
 6818.00    1.55496   1.21611    0.010
 6819.00    1.46995   1.21881    0.010
 6820.00    1.28863   1.21974    0.010
 6821.00    1.26279   1.21831    0.010
 6822.00    1.32133   1.21475    0.010
 6823.00    1.31478   1.21064    0.010
 6824.00    1.27753   1.20853    0.010
 6825.00    1.30930   1.20953    0.010
 6826.00    1.36913   1.21264    0.010
 6827.00    1.38691   1.21573    0.010
 6828.00    1.39008   1.21772    0.010
 6829.00    1.32144   1.21889    0.010
 6830.00    1.23180   1.21932    0.010
 6831.00    1.29570   1.21837    0.010
 6832.00    1.39680   1.21515    0.010
 6833.00    1.45909   1.20935    0.010
 6834.00    1.51380   1.20150    0.010
 6835.00    1.51882   1.19309    0.010
 6836.00    1.51626   1.18608    0.010
 6837.00    1.36908   1.18298    0.010
 6838.00    1.20566   1.18515    0.010
 6839.00    1.36415   1.19174    0.011
 6840.00    1.54671   1.19997    0.011
 6841.00    1.48179   1.20674    0.011
 6842.00    1.40705   1.21076    0.011
 6843.00    1.39885   1.21252    0.021
 6844.00    1.39201   1.21301   -1.000
 6845.00    1.42084   1.21298   -1.000
 6846.00    1.44431   1.21248   -1.000
 6847.00    1.37718   1.21088   -1.000
 6848.00    1.31904   1.20739   -1.000
 6849.00    1.35507   1.20162   -1.000
 6850.00    1.37638   1.19512   -1.000
 6851.00    1.28832   1.19054   -1.000
 6852.00    1.21941   1.18922   -1.000
 6853.00    1.25905   1.19023   -1.000
 6854.00    1.29294   1.19151    0.107
 6855.00    1.30085   1.19146    0.016
 6856.00    1.31447   1.19070    0.010
 6857.00    1.34918   1.19164    0.010
 6858.00    1.36772   1.19582    0.010
 6859.00    1.33621   1.20190    0.010
 6860.00    1.30617   1.20638    0.010
 6861.00    1.27999   1.20685    0.010
 6862.00    1.30370   1.20389    0.010
 6863.00    1.44016   1.19990    0.010
 6864.00    1.49392   1.19724    0.010
 6865.00    1.38582   1.19629    0.010
 6866.00    1.34328   1.19606    0.010
 6867.00    1.41262   1.19588    0.011
 6868.00    1.44784   1.19634    0.011
 6869.00    1.43205   1.19822    0.010
 6870.00    1.40310   1.20154    0.010
 6871.00    1.35688   1.20596    0.010
 6872.00    1.34527   1.21065    0.010
 6873.00    1.37371   1.21455    0.010
 6874.00    1.39910   1.21609    0.010
 6875.00    1.42138   1.21432    0.010
 6876.00    1.44809   1.20962    0.010
 6877.00    1.47877   1.20398    0.010
 6878.00    1.52172   1.20005    0.010
 6879.00    1.57438   1.19912    0.010
 6880.00    1.54871   1.20063    0.010
 6881.00    1.46838   1.20327    0.010
 6882.00    1.40919   1.20666    0.010
 6883.00    1.36294   1.21078    0.010
 6884.00    1.31384   1.21508    0.010
 6885.00    1.26323   1.21869    0.010
 6886.00    1.29855   1.22112    0.010
 6887.00    1.37373   1.22215    0.010
 6888.00    1.44256   1.22177    0.010
 6889.00    1.50886   1.22030    0.010
 6890.00    1.46480   1.21840    0.010
 6891.00    1.38312   1.21693    0.010
 6892.00    1.36801   1.21628    0.010
 6893.00    1.37199   1.21625    0.010
 6894.00    1.29486   1.21624    0.010
 6895.00    1.19852   1.21597    0.010
 6896.00    1.26275   1.21614    0.010
 6897.00    1.35758   1.21758    0.010
 6898.00    1.33912   1.21998    0.010
 6899.00    1.30393   1.22231    0.010
 6900.00    1.30823   1.22420    0.010
 6901.00    1.31678   1.22633    0.010
 6902.00    1.39309   1.22920    0.011
 6903.00    1.47418   1.23189    0.011
 6904.00    1.48982   1.23289    0.010
 6905.00    1.50311   1.23139    0.010
 6906.00    1.53415   1.22758    0.010
 6907.00    1.56274   1.22222    0.010
 6908.00    1.50459   1.21603    0.010
 6909.00    1.44301   1.21013    0.010
 6910.00    1.32718   1.20642    0.010
 6911.00    1.23005   1.20586    0.010
 6912.00    1.32010   1.20792    0.010
 6913.00    1.38582   1.21151    0.010
 6914.00    1.27674   1.21544    0.010
 6915.00    1.19192   1.21918    0.010
 6916.00    1.24087   1.22190    0.010
 6917.00    1.28090   1.22235    0.010
 6918.00    1.28157   1.21970    0.010
 6919.00    1.27938   1.21478    0.010
 6920.00    1.26686   1.21047    0.010
 6921.00    1.30478   1.20956    0.010
 6922.00    1.49605   1.21276    0.010
 6923.00    1.59166   1.21811    0.010
 6924.00    1.44000   1.22271    0.010
 6925.00    1.33250   1.22477    0.010
 6926.00    1.32317   1.22407    0.010
 6927.00    1.34059   1.22174    0.010
 6928.00    1.40956   1.21943    0.011
 6929.00    1.40823   1.21873    0.011
 6930.00    1.28875   1.21994    0.010
 6931.00    1.23248   1.22197    0.010
 6932.00    1.26930   1.22368    0.010
 6933.00    1.28922   1.22484    0.011
 6934.00    1.28724   1.22604    0.011
 6935.00    1.29461   1.22749    0.011
 6936.00    1.31262   1.22837    0.011
 6937.00    1.29094   1.22719    0.010
 6938.00    1.22932   1.22310    0.010
 6939.00    1.23988   1.21719    0.010
 6940.00    1.31448   1.21246    0.010
 6941.00    1.39259   1.21209    0.010
 6942.00    1.47343   1.21640    0.010
 6943.00    1.46593   1.22259    0.010
 6944.00    1.39770   1.22696    0.011
 6945.00    1.37090   1.22760    0.011
 6946.00    1.36908   1.22508    0.011
 6947.00    1.36036   1.22153    0.011
 6948.00    1.34802   1.21892    0.011
 6949.00    1.30847   1.21827    0.011
 6950.00    1.25650   1.21982    0.010
 6951.00    1.36184   1.22307    0.011
 6952.00    1.52895   1.22684    0.011
 6953.00    1.53227   1.22991    0.011
 6954.00    1.48081   1.23183    0.011
 6955.00    1.43829   1.23310    0.011
 6956.00    1.39828   1.23438    0.010
 6957.00    1.32543   1.23579    0.010
 6958.00    1.24497   1.23683    0.010
 6959.00    1.20215   1.23700    0.010
 6960.00    1.16633   1.23648    0.010
 6961.00    1.20989   1.23623    0.010
 6962.00    1.26481   1.23707    0.010
 6963.00    1.27007   1.23872    0.010
 6964.00    1.27018   1.23987    0.010
 6965.00    1.38360   1.23962    0.011
 6966.00    1.50457   1.23842    0.011
 6967.00    1.38091   1.23727    0.011
 6968.00    1.24944   1.23611    0.011
 6969.00    1.32581   1.23332    0.011
 6970.00    1.39497   1.22698    0.011
 6971.00    1.24332   1.21650    0.011
 6972.00    1.10779   1.20363    0.011
 6973.00    1.21220   1.19238    0.011
 6974.00    1.30946   1.18785    0.011
 6975.00    1.33813   1.19286    0.011
 6976.00    1.35573   1.20543    0.011
 6977.00    1.29628   1.22020    0.011
 6978.00    1.25824   1.23218    0.011
 6979.00    1.33521   1.23937    0.010
 6980.00    1.37669   1.24222    0.010
 6981.00    1.26528   1.24194    0.010
 6982.00    1.19890   1.23943    0.010
 6983.00    1.29238   1.23561    0.010
 6984.00    1.36384   1.23201    0.010
 6985.00    1.36962   1.23040    0.010
 6986.00    1.40606   1.23133    0.010
 6987.00    1.52040   1.23362    0.011
 6988.00    1.56557   1.23549    0.011
 6989.00    1.45952   1.23614    0.011
 6990.00    1.37062   1.23597    0.011
 6991.00    1.31424   1.23521    0.011
 6992.00    1.28513   1.23318    0.011
 6993.00    1.30115   1.22920    0.011
 6994.00    1.33234   1.22414    0.011
 6995.00    1.38554   1.22037    0.011
 6996.00    1.43591   1.21957    0.011
 6997.00    1.48268   1.22079    0.011
 6998.00    1.46047   1.22136    0.011
 6999.00    1.36070   1.21991    0.012
 7000.00    1.31794   1.21783    0.012
 7001.00    1.33175   1.21757    0.012
 7002.00    1.26688   1.22023    0.011
 7003.00    1.13319   1.22476    0.011
 7004.00    1.05665   1.22911    0.011
 7005.00    1.02416   1.23174    0.012
 7006.00    0.64298   1.23240    0.011
 7007.00    0.02553   1.23154    0.010
 7008.00    0.20645   1.22885    0.014
 7009.00    0.86141   1.22298    0.054
 7010.00    1.15762   1.21389   -1.000
 7011.00    1.26804   1.20524   -1.000
 7012.00    1.28509   1.20272   -1.000
 7013.00    1.26023   1.20894   -1.000
 7014.00    1.26986   1.22061   -1.000
 7015.00    1.29281   1.23125   -1.000
 7016.00    1.27380   1.23601   -1.000
 7017.00    1.24101   1.23406   -1.000
 7018.00    1.17219   1.22812   -1.000
 7019.00    1.09345   1.22253   -1.000
 7020.00    1.18218   1.22070   -1.000
 7021.00    1.30877   1.22311   -1.000
 7022.00    1.25018   1.22781   -1.000
 7023.00    1.15813   1.23256   -1.000
 7024.00    1.20156   1.23641   -1.000
 7025.00    1.26376   1.23923   -1.000
 7026.00    1.32686   1.24089   -1.000
 7027.00    1.39005   1.24117   -1.000
 7028.00    1.18133   1.24035   -1.000
 7029.00    0.95558   1.23917   -1.000
 7030.00    0.98659   1.23797   -1.000
 7031.00    1.02500   1.23611   -1.000
 7032.00    1.09126   1.23313   -1.000
 7033.00    1.15930   1.23076   -1.000
 7034.00    1.27580   1.23262   -1.000
 7035.00    1.37651   1.24077   -1.000
 7036.00    1.25534   1.25290   -1.000
 7037.00    1.13697   1.26392   -1.000
 7038.00    1.04434   1.27004   -1.000
 7039.00    0.97920   1.27112   -1.000
 7040.00    1.09937   1.26992   -1.000
 7041.00    1.20157   1.26946   -1.000
 7042.00    1.20979   1.27073   -1.000
 7043.00    1.20972   1.27226   -1.000
 7044.00    1.17472   1.27168   -1.000
 7045.00    1.17085   1.26742   -1.000
 7046.00    1.27530   1.25903   -1.000
 7047.00    1.32213   1.24724   -1.000
 7048.00    1.20034   1.23406   -1.000
 7049.00    1.14270   1.22259   -1.000
 7050.00    1.24524   1.21559   -2.000
 7051.00    1.32417   1.21354   -2.000
 7052.00    1.35237   1.21425   -2.000
 7053.00    1.35732   1.21435   -2.000
 7054.00    1.31885   1.21184   -2.000
 7055.00    1.30417   1.20766   -2.000
 7056.00    1.32829   1.20443   -2.000
 7057.00    1.33475   1.20394   -2.000
 7058.00    1.31593   1.20573   -2.000
 7059.00    1.31950   1.20755   -2.000
 7060.00    1.35122   1.20710   -2.000
 7061.00    1.34618   1.20368   -2.000
 7062.00    1.30040   1.19876   -2.000
 7063.00    0.83906   1.19545   -2.000
 7064.00   -0.02875   1.19634   -2.000
 7065.00   -0.00742   1.20184   -2.000
 7066.00    0.78084   1.20993   -2.000
 7067.00    1.19614   1.21769   -2.000
 7068.00    1.32806   1.22321   -2.000
 7069.00    1.37534   1.22606   -2.000
 7070.00    1.36610   1.22672   -2.000
 7071.00    1.31920   1.22619   -2.000
 7072.00    1.25026   1.22564   -2.000
 7073.00    1.27626   1.22585   -2.000
 7074.00    1.35064   1.22669   -2.000
 7075.00    1.48626   1.22696   -2.000
 7076.00    1.64893   1.22478   -2.000
 7077.00    1.58705   1.21848   -2.000
 7078.00    1.44002   1.20798   -2.000
 7079.00    1.47904   1.19559   -2.000
 7080.00    1.57798   1.18477   -2.000
 7081.00    1.66576   1.17724   -2.000
 7082.00    1.75054   1.17218   -2.000
 7083.00    1.57861   1.16754   -2.000
 7084.00    1.35000   1.16276   -2.000
 7085.00    1.26762   1.15895   -2.000
 7086.00    1.21094   1.15732   -2.000
 7087.00    1.37880   1.15774   -2.000
 7088.00    1.57675   1.15915   -2.000
 7089.00    1.48620   1.16026   -2.000
 7090.00    1.36824   1.16096   -2.000
 7091.00    1.34766   1.16202   -2.000
 7092.00    1.33279   1.16460   -2.000
 7093.00    1.27126   1.16949   -2.000
 7094.00    1.20994   1.17567   -2.000
 7095.00    1.33278   1.18130   -2.000
 7096.00    1.45281   1.18438   -2.000
 7097.00    1.50306   1.18505   -2.000
 7098.00    1.54741   1.18501   -2.000
 7099.00    1.51343   1.18596   -2.000
 7100.00    1.47020   1.18793   -2.000
 7101.00    1.34491   1.18976   -2.000
 7102.00    1.23018   1.19043   -2.000
 7103.00    1.18433   1.18971   -2.000
 7104.00    1.14510   1.18764   -2.000
 7105.00    1.13953   1.18449   -2.000
 7106.00    1.11877   1.18145   -2.000
 7107.00    1.03545   1.18040   -2.000
 7108.00    1.01131   1.18237   -2.000
 7109.00    1.18894   1.18662   -2.000
 7110.00    1.32260   1.19145   -2.000
 7111.00    1.32993   1.19553   -2.000
 7112.00    1.30761   1.19840   -2.000
 7113.00    1.21251   1.19975   -2.000
 7114.00    1.16133   1.19937   -2.000
 7115.00    1.20307   1.19737   -2.000
 7116.00    1.19967   1.19445   -2.000
 7117.00    1.11328   1.19196   -2.000
 7118.00    1.14108   1.19039   -2.000
 7119.00    1.35233   1.18872   -2.000
 7120.00    1.46950   1.18528   -2.000
 7121.00    1.45407   1.17960   -2.000
 7122.00    1.42249   1.17305   -2.000
 7123.00    1.37090   1.16691   -2.000
 7124.00    1.12789   1.16127   -2.000
 7125.00    0.67558   1.15633   -2.000
 7126.00    0.50902   1.15370   -2.000
 7127.00    0.61804   1.15509   -2.000
 7128.00    0.88995   1.16068   -2.000
 7129.00    1.30039   1.16822   -2.000
 7130.00    1.37133   1.17507   -2.000
 7131.00    1.18803   1.17962   -2.000
 7132.00    1.13568   1.18139   -2.000
 7133.00    1.16949   1.18116   -2.000
 7134.00    1.40817   1.18036   -2.000
 7135.00    1.76485   1.18048   -2.000
 7136.00    1.68197   1.18204   -2.000
 7137.00    1.37853   1.18431   -2.000
 7138.00    1.25419   1.18591   -2.000
 7139.00    1.20762   1.18577   -2.000
 7140.00    1.11036   1.18325   -2.000
 7141.00    0.99422   1.17778   -2.000
 7142.00    1.08829   1.17039   -2.000
 7143.00    1.24876   1.16437   -2.000
 7144.00    1.34331   1.16320   -2.000
 7145.00    1.42047   1.16822   -2.000
 7146.00    1.45429   1.17724   -2.000
 7147.00    1.47877   1.18656   -2.000
 7148.00    1.38692   1.19385   -2.000
 7149.00    1.27519   1.19856   -2.000
 7150.00    0.99878   1.20158   -2.000
 7151.00    0.70106   1.20399   -2.000
 7152.00    0.89575   1.20574   -2.000
 7153.00    1.13515   1.20586   -2.000
 7154.00    1.14973   1.20375   -2.000
 7155.00    1.15200   1.20024   -2.000
 7156.00    1.10739   1.19616   -2.000
 7157.00    1.06270   1.19065   -2.000
 7158.00    1.10048   1.18272   -2.000
 7159.00    1.12181   1.17366   -2.000
 7160.00    0.76975   1.16777   -2.000
 7161.00    0.42531   1.16851   -2.000
 7162.00    0.17684   1.17534   -2.000
 7163.00    0.02414   1.18416   -2.000
 7164.00    0.68837   1.19130   -2.000
 7165.00    1.32857   1.19611   -2.000
 7166.00    1.81655   1.19972   -2.000
 7167.00    2.12590   1.20269   -2.000
 7168.00    1.54834   1.20421   -2.000
 7169.00    1.04070   1.20326   -2.000
 7170.00    0.81453   1.20009   -2.000
 7171.00    0.73053   1.19649   -2.000
 7172.00    1.12149   1.19373   -2.000
 7173.00    1.38543   1.19123   -2.000
 7174.00    1.29102   1.18740   -2.000
 7175.00    1.21786   1.18223   -2.000
 7176.00    1.19594   1.17855   -2.000
 7177.00    1.21392   1.17965   -2.000
 7178.00    1.31496   1.18533   -2.000
 7179.00    1.33608   1.19143   -2.000
 7180.00    1.21253   1.19269   -2.000
 7181.00    1.19153   1.18692   -2.000
 7182.00    1.33287   1.17721   -2.000
 7183.00    1.43349   1.16895   -2.000
 7184.00    1.47754   1.16651   -2.000
 7185.00    1.42394   1.17028   -2.000
 7186.00    1.25092   1.17688   -2.000
 7187.00    1.18894   1.18301   -2.000
 7188.00    1.24667   1.18705   -2.000
 7189.00    1.17251   1.18948   -2.000
 7190.00    0.97293   1.19077   -2.000
 7191.00    0.99417   1.19086   -2.000
 7192.00    1.20052   1.19031   -2.000
 7193.00    1.22000   1.18992   -2.000
 7194.00    1.10153   1.19011   -2.000
 7195.00    0.96832   1.18965   -2.000
 7196.00    0.82556   1.18791   -2.000
 7197.00    0.87850   1.18651   -2.000
 7198.00    1.04245   1.18698   -2.000
 7199.00    0.96706   1.18854   -2.000
 7200.00    0.77347   1.18735   -2.000
 7201.00    0.61367   1.18079   -2.000
 7202.00    0.46829   1.17177   -2.000
 7203.00    0.68870   1.16585   -2.000
 7204.00    1.04294   1.16751   -2.000
 7205.00    1.44203   1.17590   -2.000
 7206.00    1.85503   1.18590   -2.000
 7207.00    1.61448   1.19289   -2.000
 7208.00    1.20525   1.19490   -2.000
 7209.00    1.22547   1.19371   -2.000
 7210.00    1.33602   1.19256   -2.000
 7211.00   -1.07258   1.19378   -2.000
 7212.00   -3.89957   1.19751   -2.000
 7213.00   -1.07129   1.20195   -2.000
 7214.00    2.46360   1.20514   -2.000
 7215.00    2.86716   1.20579   -2.000
 7216.00    2.99951   1.20434   -2.000
 7217.00    2.91530   1.20213   -2.000
 7218.00    2.82009   1.20111   -2.000
