###################################################################
## OUTPUT of StarlightChains_v04.for    [Cid@UFSC - 01/Apr/2007] ##
###################################################################

## Some input info
KUG0210-078._43_44.txt                   [arq_obs]
Base.CB07.vall.4m                        [arq_base]
Masks.EmLines.NEW.gm                     [arq_masks]
StCv04.C11.config                        [arq_config]
   66                                    [N_base]
    0                                    [N_YAV_components = # of components with extra extinction!]
    0                                    [i_FitPowerLaw (1/0 = Yes/No)]
-9.99                                    [alpha_PowerLaw]
CCM                                      [red_law_option]
 1.458241                                [q_norm = A(l_norm)/A(V)]

## (Re)Sampling Parameters
 3741.00                                 [l_ini (A)]
 7218.00                                 [l_fin (A)]
    1.00                                 [dl    (A)]     (OBS: dl_cushion =    50.00 A)

## Normalization info
 4020.00                                 [l_norm (A) - for base]
 4010.00                                 [llow_norm (A) - window for f_obs]
 4060.00                                 [lupp_norm (A) - window for f_obs]
1.019186E-17                             [fobs_norm (in input units)]

## S/N
 3691.00                                 [llow_SN (A) - window for S/N]
 7268.00                                 [lupp_SN (A) - window for S/N]
   4.449                                 [S/N in S/N window]
   4.623                                 [S/N in norm. window]
   0.011                                 [S/N_err in S/N window]
   0.012                                 [S/N_err in norm. window]
  1.0000                                 [fscale_chi2]

## etc...
    -2007816                             [idum_orig]
  2420                                   [NOl_eff]
  2377                                   [Nl_eff]
    43    NSIGMA                         [Ntot_cliped & clip_method]
  6189400                                [Nglobal_steps]
   7                                     [N_chains]
  16                                     [NEX0s_base = N_base in EX0s-fits]
 0   1   1       44   2.0   2.864E+03    [Clip-Bug, RC-Crash & Burn-In warning-flags, n_censored_weights, wei_nsig_threshold & wei_limit]
    79     79.232     78.574      0.658  [idt_all, wdt_TotTime, wdt_UsrTime & wdt_SysTime (sec)]

## Synthesis Results - Best model ##

 5.12534E-04                             [chi2/Nl_eff]
    55.24469                             [adev (%)]

   111.41190                             [sum-of-x (%)]
 8.18117E-18                             [Flux_tot (units of input spectrum!)]
 1.82756E-13                             [Mini_tot (???)]
 9.82797E-14                             [Mcor_tot (???)]

-374.27                                  [v0_min  (km/s)]
  45.96                                  [vd_min  (km/s)]
-0.2441                                  [AV_min  (mag)]
 0.0000                                  [YAV_min (mag)]

# j     x_j(%)      Mini_j(%)     Mcor_j(%)     age_j(yr)     Z_j      (L/M)_j    YAV?  Mstars   component_j        a/Fe...       SSP_chi2r SSP_adev(%)   SSP_AV   SSP_x(%)
  1      0.0000     0.0000E+00    0.0000E+00    1.000000E+06  0.00400  1.094E-02    0   1.0000   age020_m42            0.0000     1.8024E-05    65.6419   3.5898    82.0513
  2      0.0000     0.0000E+00    0.0000E+00    3.160000E+06  0.00400  4.007E-02    0   0.9999   age045_m42            0.0000     1.7346E-05    58.0852   2.8832    88.1005
  3      0.0000     0.0000E+00    0.0000E+00    5.010000E+06  0.00400  2.539E-02    0   0.9488   age055_m42            0.0000     1.7485E-05    59.4475   3.1951    85.6648
  4      0.0000     0.0000E+00    0.0000E+00    6.610000E+06  0.00400  2.620E-02    0   0.9220   age061_m42            0.0000     1.7332E-05    56.2904   2.8146    88.0728
  5      0.0000     0.0000E+00    0.0000E+00    1.000000E+07  0.00400  1.322E-02    0   0.8862   age070_m42            0.0000     1.8308E-05    59.9916   2.5839    89.0448
  6      0.0000     0.0000E+00    0.0000E+00    1.445000E+07  0.00400  7.883E-03    0   0.8571   age078_m42            0.0000     1.8335E-05    61.0350   2.9008    86.8629
  7      0.0000     0.0000E+00    0.0000E+00    2.512000E+07  0.00400  5.251E-03    0   0.8174   age090_m42            0.0000     1.8413E-05    59.9232   2.4620    89.4529
  8      0.0000     0.0000E+00    0.0000E+00    4.000000E+07  0.00400  3.649E-03    0   0.7851   age104_m42            0.0000     1.8192E-05    58.7951   2.2322    90.1720
  9      0.0000     0.0000E+00    0.0000E+00    5.500000E+07  0.00400  3.098E-03    0   0.7629   age110_m42            0.0000     1.7737E-05    55.8914   2.3629    90.6810
 10      0.0000     0.0000E+00    0.0000E+00    1.015200E+08  0.00400  2.228E-03    0   0.7207   age116_m42            0.0000     1.7505E-05    53.2485   2.3725    91.0586
 11      0.0000     0.0000E+00    0.0000E+00    2.861200E+08  0.00400  1.093E-03    0   0.6648   age125_m42            0.0000     1.7956E-05    53.1381   1.8293    93.6068
 12      0.0000     0.0000E+00    0.0000E+00    5.088000E+08  0.00400  6.597E-04    0   0.6365   age130_m42            0.0000     1.7398E-05    50.3413   1.7937    94.8424
 13      0.6730     1.2684E-01    1.3675E-01    1.434000E+09  0.00400  2.132E-04    0   0.5798   age139_m42            0.0000     1.6399E-05    51.2388   0.7961    96.4906
 14      0.0000     0.0000E+00    0.0000E+00    4.250000E+09  0.00400  5.895E-05    0   0.5377   age158_m42            0.0000     1.5751E-05    54.6878   0.3100    93.1975
 15      3.6061     4.1280E+00    4.0008E+00    7.500000E+09  0.00400  3.510E-05    0   0.5212   age171_m42            0.0000     1.5761E-05    55.6545   0.1122    92.7249
 16      0.5378     1.0778E+00    1.0089E+00    1.300000E+10  0.00400  2.005E-05    0   0.5034   age193_m42            0.0000     1.5834E-05    56.6330  -0.0599    92.2217
 17      0.3148     8.2944E-01    7.6610E-01    1.800000E+10  0.00400  1.525E-05    0   0.4967   age213_m42            0.0000     1.5761E-05    56.6436  -0.0860    91.7852
 18      0.0000     0.0000E+00    0.0000E+00    1.000000E+06  0.00800  1.238E-02    0   1.0000   age020_m52            0.0000     1.8014E-05    65.5578   3.5839    82.2483
 19      0.0000     0.0000E+00    0.0000E+00    3.160000E+06  0.00800  3.074E-02    0   0.9966   age045_m52            0.0000     1.7819E-05    63.0356   3.5048    83.0349
 20      0.0000     0.0000E+00    0.0000E+00    5.010000E+06  0.00800  2.668E-02    0   0.9443   age055_m52            0.0000     1.7594E-05    60.1066   3.2742    84.7983
 21      0.0000     0.0000E+00    0.0000E+00    6.610000E+06  0.00800  2.136E-02    0   0.9177   age061_m52            0.0000     1.7966E-05    62.8366   2.0746    89.9826
 22      0.0000     0.0000E+00    0.0000E+00    1.000000E+07  0.00800  1.215E-02    0   0.8827   age070_m52            0.0000     1.8637E-05    61.8661   2.7671    88.6914
 23      0.0000     0.0000E+00    0.0000E+00    1.445000E+07  0.00800  8.717E-03    0   0.8552   age078_m52            0.0000     1.8173E-05    60.2334   2.8626    88.0405
 24      0.0000     0.0000E+00    0.0000E+00    2.512000E+07  0.00800  5.592E-03    0   0.8162   age090_m52            0.0000     1.8279E-05    59.2015   2.5196    90.4177
 25      0.0000     0.0000E+00    0.0000E+00    4.000000E+07  0.00800  3.896E-03    0   0.7841   age104_m52            0.0000     1.8012E-05    57.4994   2.4241    91.4339
 26      0.0000     0.0000E+00    0.0000E+00    1.015200E+08  0.00800  2.148E-03    0   0.7226   age116_m52            0.0000     1.7498E-05    53.9656   2.3428    91.6574
 27      0.0000     0.0000E+00    0.0000E+00    2.861200E+08  0.00800  9.925E-04    0   0.6683   age125_m52            0.0000     1.7335E-05    49.9906   1.8499    95.5489
 28      0.0000     0.0000E+00    0.0000E+00    9.047900E+08  0.00800  3.141E-04    0   0.6138   age135_m52            0.0000     1.6303E-05    49.3754   1.0121   100.2173
 29      1.6586     3.8768E-01    4.2195E-01    1.434000E+09  0.00800  1.719E-04    0   0.5853   age139_m52            0.0000     1.5933E-05    52.2795   0.4169    97.9106
 30      0.0000     0.0000E+00    0.0000E+00    2.500000E+09  0.00800  7.872E-05    0   0.5600   age150_m52            0.0000     1.5550E-05    52.8489   0.1094    95.7363
 31      7.5163     6.9651E+00    7.0277E+00    4.250000E+09  0.00800  4.336E-05    0   0.5426   age158_m52            0.0000     1.5659E-05    53.8877   0.0990    94.7564
 32      1.2226     1.5551E+00    1.5381E+00    6.250000E+09  0.00800  3.159E-05    0   0.5319   age166_m52            0.0000     1.5693E-05    53.7129  -0.1219    95.0571
 33      0.0000     0.0000E+00    0.0000E+00    1.300000E+10  0.00800  1.361E-05    0   0.5073   age193_m52            0.0000     1.5712E-05    53.6325  -0.6250    94.7584
 34      0.0000     0.0000E+00    0.0000E+00    1.800000E+10  0.00800  9.886E-06    0   0.4990   age213_m52            0.0000     1.5886E-05    52.8681  -0.7531    94.7534
 35      0.0000     0.0000E+00    0.0000E+00    1.000000E+06  0.02000  1.544E-02    0   1.0000   age020_m62            0.0000     1.8016E-05    65.1398   3.5779    82.4638
 36      0.0000     0.0000E+00    0.0000E+00    3.160000E+06  0.02000  3.762E-02    0   0.9858   age045_m62            0.0000     1.7917E-05    62.9464   3.5144    83.2029
 37      0.0000     0.0000E+00    0.0000E+00    5.010000E+06  0.02000  3.296E-02    0   0.9342   age055_m62            0.0000     1.7235E-05    56.8474   3.1426    86.8907
 38      0.0000     0.0000E+00    0.0000E+00    8.710000E+06  0.02000  1.154E-02    0   0.8861   age067_m62            0.0000     2.1426E-05    70.1965   2.2957    89.7414
 39      0.0000     0.0000E+00    0.0000E+00    1.445000E+07  0.02000  7.663E-03    0   0.8472   age078_m62            0.0000     1.9321E-05    64.3009   2.4391    90.3162
 40      0.0000     0.0000E+00    0.0000E+00    2.512000E+07  0.02000  4.532E-03    0   0.8099   age090_m62            0.0000     1.9468E-05    63.1630   2.4369    90.0236
 41      0.0000     0.0000E+00    0.0000E+00    5.500000E+07  0.02000  2.733E-03    0   0.7595   age110_m62            0.0000     1.7967E-05    56.9617   2.4035    90.6686
 42      0.0000     0.0000E+00    0.0000E+00    1.609000E+08  0.02000  1.369E-03    0   0.6985   age120_m62            0.0000     1.7486E-05    50.6761   2.2195    93.7243
 43      0.0000     0.0000E+00    0.0000E+00    2.861200E+08  0.02000  9.013E-04    0   0.6714   age125_m62            0.0000     1.7238E-05    47.5093   1.9527    96.6970
 44      0.0000     0.0000E+00    0.0000E+00    5.088000E+08  0.02000  5.028E-04    0   0.6449   age130_m62            0.0000     1.6472E-05    45.6073   1.5324   100.0976
 45      0.0000     0.0000E+00    0.0000E+00    9.047900E+08  0.02000  2.428E-04    0   0.6179   age135_m62            0.0000     1.5673E-05    48.5252   0.9186    99.8983
 46      0.0000     0.0000E+00    0.0000E+00    1.434000E+09  0.02000  1.263E-04    0   0.5908   age139_m62            0.0000     1.5374E-05    50.6211   0.4466    98.3634
 47      0.8062     5.4123E-01    5.7096E-01    2.500000E+09  0.02000  5.985E-05    0   0.5673   age150_m62            0.0000     1.5453E-05    51.8386   0.0584    97.3609
 48      0.0000     0.0000E+00    0.0000E+00    4.250000E+09  0.02000  3.271E-05    0   0.5468   age158_m62            0.0000     1.5596E-05    51.7588  -0.2753    96.8138
 49      2.6181     7.7349E+00    7.4319E+00    1.000000E+10  0.02000  1.360E-05    0   0.5167   age181_m62            0.0000     1.6064E-05    50.9092  -0.6551    97.0938
 50      2.7653     1.5597E+01    1.4539E+01    1.800000E+10  0.02000  7.124E-06    0   0.5013   age213_m62            0.0000     1.6488E-05    49.8417  -0.8990    96.9503
 51      0.0000     0.0000E+00    0.0000E+00    1.000000E+06  0.05000  2.592E-02    0   0.9998   age020_m72            0.0000     1.8120E-05    65.1795   3.5683    82.5178
 52      0.0000     0.0000E+00    0.0000E+00    3.160000E+06  0.05000  4.845E-02    0   0.9577   age045_m72            0.0000     1.7470E-05    59.3913   3.3939    84.4129
 53      0.0000     0.0000E+00    0.0000E+00    5.010000E+06  0.05000  3.072E-02    0   0.9147   age055_m72            0.0000     1.8946E-05    63.4459   2.9907    87.5115
 54      0.0000     0.0000E+00    0.0000E+00    6.610000E+06  0.05000  1.455E-02    0   0.8877   age061_m72            0.0000     2.5099E-05    75.8626   2.3999    91.2851
 55      0.0000     0.0000E+00    0.0000E+00    1.000000E+07  0.05000  9.074E-03    0   0.8524   age070_m72            0.0000     1.9798E-05    64.5730   3.1855    87.5769
 56      0.0000     0.0000E+00    0.0000E+00    2.512000E+07  0.05000  4.250E-03    0   0.7902   age090_m72            0.0000     1.8993E-05    60.0859   2.8854    89.0310
 57      0.0000     0.0000E+00    0.0000E+00    4.000000E+07  0.05000  3.087E-03    0   0.7618   age104_m72            0.0000     1.9030E-05    58.6579   2.6621    90.4300
 58      0.0000     0.0000E+00    0.0000E+00    1.015200E+08  0.05000  1.700E-03    0   0.7096   age116_m72            0.0000     1.7823E-05    51.7520   2.3725    93.0965
 59      0.0000     0.0000E+00    0.0000E+00    2.861200E+08  0.05000  7.384E-04    0   0.6633   age125_m72            0.0000     1.6850E-05    45.8128   1.7946    98.5014
 60      0.0000     0.0000E+00    0.0000E+00    5.088000E+08  0.05000  3.819E-04    0   0.6372   age130_m72            0.0000     1.5778E-05    45.9079   1.2528   100.9221
 61     27.9859     6.7093E+00    7.6230E+00    9.047900E+08  0.05000  1.676E-04    0   0.6110   age135_m72            0.0000     1.5227E-05    48.6293   0.5050    99.8166
 62     55.6229     2.5291E+01    2.7625E+01    1.434000E+09  0.05000  8.837E-05    0   0.5874   age139_m72            0.0000     1.5389E-05    50.7083   0.0380    99.0276
 63      1.1829     1.1228E+00    1.1688E+00    2.500000E+09  0.05000  4.233E-05    0   0.5598   age150_m72            0.0000     1.5640E-05    50.5085  -0.2959    97.9731
 64      1.9312     5.4075E+00    5.2782E+00    6.250000E+09  0.05000  1.435E-05    0   0.5249   age166_m72            0.0000     1.6111E-05    50.2352  -0.7790    96.8892
 65      1.4170     8.7420E+00    8.1866E+00    1.300000E+10  0.05000  6.513E-06    0   0.5036   age193_m72            0.0000     1.7016E-05    47.9242  -1.0000    94.7064
 66      1.5531     1.3785E+01    1.2676E+01    1.800000E+10  0.05000  4.527E-06    0   0.4945   age213_m72            0.0000     1.8272E-05    44.4086  -1.0000    87.4604


## Synthesis Results - Average & Chains ##

# j      x_j: min, <> & last-chain-values for 1 ...  7 chains
  1      0.0000      0.0233      0.0666      0.0000      0.0000      0.0000      0.0000      0.1453      0.0534
  2      0.0000      0.0360      0.0000      0.0000      0.0000      0.0000      0.0646      0.0000      0.0000
  3      0.0000      0.0367      0.0241      0.0154      0.0000      0.0000      0.0000      0.0000      0.0000
  4      0.0000      0.0315      0.0000      0.0000      0.0000      0.0000      0.0000      0.0000      0.0000
  5      0.0000      0.0224      0.0000      0.0000      0.0000      0.0000      0.0000      0.0000      0.0000
  6      0.0000      0.0419      0.0000      0.1714      0.0000      0.0000      0.2347      0.0000      0.2035
  7      0.0000      0.0213      0.0238      0.0000      0.0000      0.0000      0.2027      0.0000      0.0000
  8      0.0000      0.0514      0.0000      0.0000      0.0000      0.1734      0.0000      0.0325      0.1970
  9      0.0000      0.0684      0.3731      0.0000      0.0000      0.0000      0.2095      0.0000      0.0934
 10      0.0000      0.0501      0.0000      0.0000      0.0000      0.0000      0.0000      0.1928      0.0000
 11      0.0000      0.0740      0.0000      0.0000      0.0000      0.0000      0.0000      0.0000      0.0547
 12      0.0000      0.0815      0.3278      0.0000      0.0277      0.0000      0.0646      0.3685      0.0000
 13      0.6730      0.2457      0.0162      0.0000      0.0000      0.0000      0.0000      0.3922      0.2917
 14      0.0000      1.4886      1.4900      0.5218      1.7095      1.8428      1.7213      0.0000      1.3610
 15      3.6061      1.6902      4.6595      3.0340      0.9766      1.2623      1.4408      3.9267      4.8248
 16      0.5378      0.8054      1.1800      0.7561      0.0000      0.0000      0.9358      2.1361      1.2223
 17      0.3148      0.6609      0.0000      0.0000      0.4604      0.0000      0.5134      1.1040      0.0000
 18      0.0000      0.0202      0.0000      0.0454      0.0000      0.0000      0.0000      0.0000      0.0041
 19      0.0000      0.0430      0.1376      0.0000      0.0000      0.1136      0.0000      0.0000      0.0000
 20      0.0000      0.0325      0.0000      0.0000      0.0599      0.0000      0.0000      0.0000      0.0432
 21      0.0000      0.0509      0.0000      0.0000      0.0000      0.1344      0.0880      0.0000      0.0094
 22      0.0000      0.0406      0.0000      0.0613      0.0000      0.0000      0.0000      0.0000      0.0000
 23      0.0000      0.0526      0.0000      0.0000      0.0000      0.0000      0.0000      0.0000      0.0000
 24      0.0000      0.0425      0.0000      0.0000      0.0439      0.2316      0.0000      0.0000      0.0000
 25      0.0000      0.0925      0.0000      0.0000      0.0307      0.0000      0.4322      0.0000      0.2405
 26      0.0000      0.0358      0.0920      0.0250      0.0000      0.0000      0.0828      0.0000      0.1457
 27      0.0000      0.0564      0.0000      0.2009      0.0000      0.0000      0.2439      0.1677      0.3006
 28      0.0000      0.0468      0.0000      0.0000      0.0000      0.0000      0.0000      0.1965      0.0169
 29      1.6586      0.6311      0.8769      1.6056      0.1272      0.4237      0.9974      0.9107      0.6336
 30      0.0000      2.1592      0.9882      0.0000      3.2923      5.4676      2.6093      0.3713      0.0000
 31      7.5163      1.9786      2.3337      1.4366      0.3622      1.3996      3.6447      2.0714      0.0000
 32      1.2226      0.6819      0.2497      0.0000      0.3356      0.3132      0.6008      0.6878      1.9841
 33      0.0000      0.1317      0.0000      0.2292      0.2128      0.0000      0.0601      0.0056      0.0862
 34      0.0000      0.1519      0.0415      0.1248      0.2114      0.0266      0.4041      0.0466      0.0000
 35      0.0000      0.0268      0.0000      0.0000      0.0000      0.0000      0.0000      0.0000      0.3349
 36      0.0000      0.0498      0.1132      0.0000      0.0000      0.1085      0.0018      0.2103      0.0979
 37      0.0000      0.0286      0.0000      0.0000      0.0000      0.0000      0.0000      0.0000      0.0097
 38      0.0000      0.0717      0.3331      0.0000      0.0067      0.1749      0.0000      0.0000      0.0000
 39      0.0000      0.0695      0.1115      0.0000      0.0000      0.0000      0.0000      0.0000      0.3469
 40      0.0000      0.0349      0.0000      0.1351      0.0000      0.0000      0.1907      0.0000      0.2416
 41      0.0000      0.0276      0.0000      0.0000      0.0000      0.0441      0.0000      0.0000      0.0000
 42      0.0000      0.0404      0.0000      0.0000      0.0000      0.0000      0.0000      0.1128      0.0000
 43      0.0000      0.0523      0.0000      0.0000      0.0000      0.1657      0.0000      0.2034      0.0000
 44      0.0000      0.0848      0.0000      0.0000      0.0344      0.0000      0.0000      0.0000      0.0000
 45      0.0000      0.1087      0.0000      0.0000      0.0000      0.3376      0.2404      0.0000      0.0000
 46      0.0000      0.4305      0.0000      0.4260      0.0000      0.0000      0.7740      0.0000      0.4310
 47      0.8062      2.4112      2.4866      2.4578      2.8027      2.8159      1.8787      3.1975      2.4039
 48      0.0000      0.5852      0.5463      0.8952      0.1834      1.1144      1.1236      0.0000      1.0589
 49      2.6181      2.7352      2.8729      2.6390      2.9888      2.7374      2.6516      2.2017      3.2976
 50      2.7653      2.8607      3.5001      2.9535      3.0262      2.8299      2.7639      2.6813      2.9215
 51      0.0000      0.0458      0.0000      0.0000      0.0000      0.0000      0.0000      0.0000      0.2501
 52      0.0000      0.0259      0.0000      0.0000      0.0000      0.0000      0.0000      0.0846      0.0531
 53      0.0000      0.0653      0.0265      0.1955      0.0000      0.0000      0.0687      0.0000      0.0711
 54      0.0000      0.0582      0.0000      0.0000      0.0000      0.0000      0.3475      0.0000      0.0000
 55      0.0000      0.0135      0.1642      0.0000      0.0000      0.0000      0.0000      0.0000      0.0000
 56      0.0000      0.0934      0.7422      0.0000      0.0000      0.0000      0.0000      0.0000      0.0000
 57      0.0000      0.0329      0.0745      0.0000      0.0000      0.0000      0.0000      0.0054      0.0000
 58      0.0000      0.0611      0.4108      0.1343      0.0000      0.0000      0.0000      0.0000      0.0000
 59      0.0000      0.0483      0.0000      0.0000      0.0000      0.0695      0.0000      0.0000      0.0000
 60      0.0000      0.0767      0.0000      0.0232      0.0000      0.2398      0.0000      0.0000      0.4883
 61     27.9859     27.0264     27.2012     33.0458     36.0696     30.7843     26.5833     32.6907     26.6008
 62     55.6229     55.6618     52.7931     52.8160     51.6765     51.5107     53.4343     50.4605     53.8139
 63      1.1829      1.5114      1.6685      1.6436      0.6952      1.9604      1.6613      1.6894      1.5736
 64      1.9312      2.6257      2.7672      2.9392      2.6333      2.3109      2.8134      2.4255      2.9845
 65      1.4170      1.5986      1.7018      1.7533      2.0813      1.6729      1.4707      1.6100      1.5252
 66      1.5531      1.5562      1.5294      1.6464      1.7276      1.5117      1.3152      1.5188      1.5190

# j      m_j: min, <> & last-chain-values for 1 ...  7 chains
  1  0.0000E+00  1.5593E-04  4.2932E-04  0.0000E+00  0.0000E+00  0.0000E+00  0.0000E+00  9.8041E-04  3.4907E-04
  2  0.0000E+00  6.5695E-05  0.0000E+00  0.0000E+00  0.0000E+00  0.0000E+00  1.1959E-04  0.0000E+00  0.0000E+00
  3  0.0000E+00  1.0030E-04  6.3579E-05  4.1824E-05  0.0000E+00  0.0000E+00  0.0000E+00  0.0000E+00  0.0000E+00
  4  0.0000E+00  8.1011E-05  0.0000E+00  0.0000E+00  0.0000E+00  0.0000E+00  0.0000E+00  0.0000E+00  0.0000E+00
  5  0.0000E+00  1.0988E-04  0.0000E+00  0.0000E+00  0.0000E+00  0.0000E+00  0.0000E+00  0.0000E+00  0.0000E+00
  6  0.0000E+00  3.3322E-04  0.0000E+00  1.3581E-03  0.0000E+00  0.0000E+00  1.8922E-03  0.0000E+00  1.5834E-03
  7  0.0000E+00  2.4234E-04  2.6055E-04  0.0000E+00  0.0000E+00  0.0000E+00  2.3402E-03  0.0000E+00  0.0000E+00
  8  0.0000E+00  8.1004E-04  0.0000E+00  0.0000E+00  0.0000E+00  2.8484E-03  0.0000E+00  5.1691E-04  3.0323E-03
  9  0.0000E+00  1.2330E-03  6.4757E-03  0.0000E+00  0.0000E+00  0.0000E+00  3.8257E-03  0.0000E+00  1.6455E-03
 10  0.0000E+00  1.1850E-03  0.0000E+00  0.0000E+00  0.0000E+00  0.0000E+00  0.0000E+00  4.6042E-03  0.0000E+00
 11  0.0000E+00  3.2934E-03  0.0000E+00  0.0000E+00  0.0000E+00  0.0000E+00  0.0000E+00  0.0000E+00  2.3823E-03
 12  0.0000E+00  5.7527E-03  2.2291E-02  0.0000E+00  1.9325E-03  0.0000E+00  4.6219E-03  2.6249E-02  0.0000E+00
 13  1.3675E-01  4.8894E-02  3.0995E-03  0.0000E+00  0.0000E+00  0.0000E+00  0.0000E+00  7.8737E-02  5.6759E-02
 14  0.0000E+00  9.9363E-01  9.5780E-01  3.4691E-01  1.1266E+00  1.2835E+00  1.1642E+00  0.0000E+00  8.8821E-01
 15  4.0008E+00  1.8367E+00  4.8760E+00  3.2839E+00  1.0477E+00  1.4312E+00  1.5864E+00  4.3044E+00  5.1262E+00
 16  1.0089E+00  1.4797E+00  2.0880E+00  1.3838E+00  0.0000E+00  0.0000E+00  1.7423E+00  3.9592E+00  2.1959E+00
 17  7.6610E-01  1.5751E+00  0.0000E+00  0.0000E+00  1.0833E+00  0.0000E+00  1.2400E+00  2.6546E+00  0.0000E+00
 18  0.0000E+00  1.1946E-04  0.0000E+00  2.6732E-04  0.0000E+00  0.0000E+00  0.0000E+00  0.0000E+00  2.3751E-05
 19  0.0000E+00  1.0205E-04  3.1429E-04  0.0000E+00  0.0000E+00  2.8124E-04  0.0000E+00  0.0000E+00  0.0000E+00
 20  0.0000E+00  8.4262E-05  0.0000E+00  0.0000E+00  1.5315E-04  0.0000E+00  0.0000E+00  0.0000E+00  1.0947E-04
 21  0.0000E+00  1.6007E-04  0.0000E+00  0.0000E+00  0.0000E+00  4.4084E-04  2.8022E-04  0.0000E+00  2.9024E-05
 22  0.0000E+00  2.1582E-04  0.0000E+00  3.2487E-04  0.0000E+00  0.0000E+00  0.0000E+00  0.0000E+00  0.0000E+00
 23  0.0000E+00  3.7761E-04  0.0000E+00  0.0000E+00  0.0000E+00  0.0000E+00  0.0000E+00  0.0000E+00  0.0000E+00
 24  0.0000E+00  4.5386E-04  0.0000E+00  0.0000E+00  4.6252E-04  2.5818E-03  0.0000E+00  0.0000E+00  0.0000E+00
 25  0.0000E+00  1.3629E-03  0.0000E+00  0.0000E+00  4.4706E-04  0.0000E+00  6.4505E-03  0.0000E+00  3.4634E-03
 26  0.0000E+00  8.8033E-04  2.1821E-03  6.1332E-04  0.0000E+00  0.0000E+00  2.0651E-03  0.0000E+00  3.5064E-03
 27  0.0000E+00  2.7789E-03  0.0000E+00  9.8611E-03  0.0000E+00  0.0000E+00  1.2180E-02  8.3350E-03  1.4482E-02
 28  0.0000E+00  6.6897E-03  0.0000E+00  0.0000E+00  0.0000E+00  0.0000E+00  0.0000E+00  2.8350E-02  2.3677E-03
 29  4.2195E-01  1.5725E-01  2.1042E-01  3.9847E-01  3.1300E-02  1.1015E-01  2.5182E-01  2.2892E-01  1.5437E-01
 30  0.0000E+00  1.1241E+00  4.9540E-01  0.0000E+00  1.6922E+00  2.9701E+00  1.3764E+00  1.9497E-01  0.0000E+00
 31  7.0277E+00  1.8119E+00  2.0580E+00  1.3104E+00  3.2746E-01  1.3374E+00  3.3821E+00  1.9135E+00  0.0000E+00
 32  1.5381E+00  8.4019E-01  2.9624E-01  0.0000E+00  4.0831E-01  4.0265E-01  7.5012E-01  8.5498E-01  2.3903E+00
 33  0.0000E+00  3.5934E-01  0.0000E+00  6.2284E-01  5.7297E-01  0.0000E+00  1.6599E-01  1.5532E-02  2.2994E-01
 34  0.0000E+00  5.6101E-01  1.4768E-01  4.5913E-01  7.7086E-01  1.0238E-01  1.5124E+00  1.7371E-01  0.0000E+00
 35  0.0000E+00  1.2684E-04  0.0000E+00  0.0000E+00  0.0000E+00  0.0000E+00  0.0000E+00  0.0000E+00  1.5521E-03
 36  0.0000E+00  9.5435E-05  2.0903E-04  0.0000E+00  0.0000E+00  2.1708E-04  3.4230E-06  4.0680E-04  1.8347E-04
 37  0.0000E+00  5.9259E-05  0.0000E+00  0.0000E+00  0.0000E+00  0.0000E+00  0.0000E+00  0.0000E+00  1.9689E-05
 38  0.0000E+00  4.0292E-04  1.8027E-03  0.0000E+00  3.7317E-05  1.0254E-03  0.0000E+00  0.0000E+00  0.0000E+00
 39  0.0000E+00  5.6251E-04  8.6912E-04  0.0000E+00  0.0000E+00  0.0000E+00  0.0000E+00  0.0000E+00  2.7440E-03
 40  0.0000E+00  4.5634E-04  0.0000E+00  1.7598E-03  0.0000E+00  0.0000E+00  2.5274E-03  0.0000E+00  3.0889E-03
 41  0.0000E+00  5.6187E-04  0.0000E+00  0.0000E+00  0.0000E+00  9.3489E-04  0.0000E+00  0.0000E+00  0.0000E+00
 42  0.0000E+00  1.5102E-03  0.0000E+00  0.0000E+00  0.0000E+00  0.0000E+00  0.0000E+00  4.2493E-03  0.0000E+00
 43  0.0000E+00  2.8524E-03  0.0000E+00  0.0000E+00  0.0000E+00  9.4282E-03  0.0000E+00  1.1183E-02  0.0000E+00
 44  0.0000E+00  7.9593E-03  0.0000E+00  0.0000E+00  3.1901E-03  0.0000E+00  0.0000E+00  0.0000E+00  0.0000E+00
 45  0.0000E+00  2.0247E-02  0.0000E+00  0.0000E+00  0.0000E+00  6.5608E-02  4.5371E-02  0.0000E+00  0.0000E+00
 46  0.0000E+00  1.4738E-01  0.0000E+00  1.4526E-01  0.0000E+00  0.0000E+00  2.6847E-01  0.0000E+00  1.4426E-01
 47  5.7096E-01  1.6725E+00  1.6610E+00  1.6981E+00  1.9194E+00  2.0381E+00  1.3205E+00  2.2374E+00  1.6304E+00
 48  0.0000E+00  7.1585E-01  6.4362E-01  1.0907E+00  2.2147E-01  1.4225E+00  1.3928E+00  0.0000E+00  1.2666E+00
 49  7.4319E+00  7.6047E+00  7.6922E+00  7.3081E+00  8.2041E+00  7.9415E+00  7.4703E+00  6.1751E+00  8.9643E+00
 50  1.4539E+01  1.4731E+01  1.7357E+01  1.5149E+01  1.5385E+01  1.5206E+01  1.4422E+01  1.3928E+01  1.4710E+01
 51  0.0000E+00  1.2941E-04  0.0000E+00  0.0000E+00  0.0000E+00  0.0000E+00  0.0000E+00  0.0000E+00  6.9031E-04
 52  0.0000E+00  3.7432E-05  0.0000E+00  0.0000E+00  0.0000E+00  0.0000E+00  0.0000E+00  1.2345E-04  7.5118E-05
 53  0.0000E+00  1.4229E-04  5.5662E-05  4.2429E-04  0.0000E+00  0.0000E+00  1.5158E-04  0.0000E+00  1.5142E-04
 54  0.0000E+00  2.5971E-04  0.0000E+00  0.0000E+00  0.0000E+00  0.0000E+00  1.5723E-03  0.0000E+00  0.0000E+00
 55  0.0000E+00  9.2874E-05  1.0867E-03  0.0000E+00  0.0000E+00  0.0000E+00  0.0000E+00  0.0000E+00  0.0000E+00
 56  0.0000E+00  1.2710E-03  9.7255E-03  0.0000E+00  0.0000E+00  0.0000E+00  0.0000E+00  0.0000E+00  0.0000E+00
 57  0.0000E+00  5.9409E-04  1.2951E-03  0.0000E+00  0.0000E+00  0.0000E+00  0.0000E+00  9.7914E-05  0.0000E+00
 58  0.0000E+00  1.8662E-03  1.2085E-02  4.0847E-03  0.0000E+00  0.0000E+00  0.0000E+00  0.0000E+00  0.0000E+00
 59  0.0000E+00  3.1780E-03  0.0000E+00  0.0000E+00  0.0000E+00  4.7639E-03  0.0000E+00  0.0000E+00  0.0000E+00
 60  0.0000E+00  9.3613E-03  0.0000E+00  2.8159E-03  0.0000E+00  3.0557E-02  0.0000E+00  0.0000E+00  5.8296E-02
 61  7.6230E+00  7.2102E+00  6.9885E+00  8.7811E+00  9.5005E+00  8.5696E+00  7.1864E+00  8.7979E+00  6.9387E+00
 62  2.7625E+01  2.7075E+01  2.4730E+01  2.5589E+01  2.4818E+01  2.6145E+01  2.6338E+01  2.4761E+01  2.5594E+01
 63  1.1688E+00  1.4627E+00  1.5550E+00  1.5843E+00  6.6425E-01  1.9797E+00  1.6292E+00  1.6493E+00  1.4890E+00
 64  5.2782E+00  7.0284E+00  7.1332E+00  7.8364E+00  6.9592E+00  6.4547E+00  7.6312E+00  6.5496E+00  7.8111E+00
 65  8.1866E+00  9.0455E+00  9.2736E+00  9.8817E+00  1.1627E+01  9.8775E+00  8.4325E+00  9.1900E+00  8.4384E+00
 66  1.2676E+01  1.2440E+01  1.1774E+01  1.3109E+01  1.3634E+01  1.2609E+01  1.0653E+01  1.2248E+01  1.1872E+01

# AV, chi2 & Mass for <> & i_chain = 1 ...  7 solutions
AV      -0.2441     -0.2449     -0.2445     -0.2430     -0.2424     -0.2327     -0.2429     -0.2255     -0.2425
chi2 5.1253E-04  2.2482E-05  1.8755E-05  2.0764E-05  1.6899E-05  2.4976E-05  2.3685E-05  1.6830E-05  2.4621E-05
Mass 9.8280E-14  1.0024E-13  1.0414E-13  1.0089E-13  1.0186E-13  9.7642E-14  9.9185E-14  1.0198E-13  1.0284E-13
-374.27                                  [v0_min (km/s) before EX0s...]
  45.96                                  [vd_min (km/s) before EX0s...]


## Synthetic spectrum (Best Model) ##l_obs f_obs f_syn wei
 3478    [Nl_obs]
 3741.00    0.66771   0.48279    0.000
 3742.00    0.78079   0.44677    0.000
 3743.00    0.81857   0.40113    0.000
 3744.00    0.72423   0.35375    0.000
 3745.00    0.55292   0.35588    0.032
 3746.00    0.33585   0.42600    0.031
 3747.00    0.09555   0.52068    0.029
 3748.00    0.04630   0.60080    0.030
 3749.00    0.08105   0.66932    0.031
 3750.00    0.21229   0.72325    0.030
 3751.00    0.37995   0.72458    0.029
 3752.00    0.52099   0.64933    0.028
 3753.00    0.65349   0.54757    0.027
 3754.00    0.71387   0.50145    0.027
 3755.00    0.75491   0.52204    0.027
 3756.00    1.13147   0.56089    0.027
 3757.00    1.58167   0.58949    0.027
 3758.00    1.42601   0.60490    0.028
 3759.00    1.16459   0.61577    0.029
 3760.00    0.81221   0.62676    0.028
 3761.00    0.44774   0.61198    0.026
 3762.00    0.50059   0.57379    0.026
 3763.00    0.59266   0.55651    0.025
 3764.00    0.36301   0.55658    0.025
 3765.00    0.11481   0.54411    0.025
 3766.00    0.00102   0.54844    0.025
 3767.00   -0.10367   0.59846    0.000
 3768.00    0.50833   0.65404    0.026
 3769.00    1.10121   0.67203    0.026
 3770.00    1.22974   0.66561    0.026
 3771.00    1.33625   0.67016    0.026
 3772.00    1.15425   0.69335    0.026
 3773.00    0.99580   0.72101    0.027
 3774.00    1.04402   0.75430    0.026
 3775.00    1.08275   0.79374    0.025
 3776.00    1.06006   0.81391    0.026
 3777.00    0.99273   0.80976    0.026
 3778.00    0.69950   0.81106    0.025
 3779.00    0.50917   0.82331    0.025
 3780.00    0.74004   0.79939    0.025
 3781.00    0.82867   0.71810    0.026
 3782.00    0.43485   0.64166    0.025
 3783.00    0.13723   0.61002    0.025
 3784.00    0.11472   0.59942    0.025
 3785.00    0.11131   0.60342    0.025
 3786.00    0.15456   0.62851    0.025
 3787.00    0.21131   0.64414    0.025
 3788.00    0.29652   0.62068    0.025
 3789.00    0.35046   0.57544    0.025
 3790.00    0.34709   0.54063    0.024
 3791.00    0.29055   0.51612    0.024
 3792.00    0.14887   0.47734    0.023
 3793.00    0.10841   0.43973    0.023
 3794.00    0.21012   0.45392    0.023
 3795.00    0.38811   0.52486    0.023
 3796.00    0.66040   0.60682    0.023
 3797.00    0.76078   0.67482    0.023
 3798.00    0.67387   0.73343    0.023
 3799.00    0.57811   0.76868    0.023
 3800.00    0.47385   0.76203    0.024
 3801.00    0.27835   0.72164    0.024
 3802.00    0.00554   0.68614    0.023
 3803.00   -0.05240   0.69918    0.000
 3804.00    0.04999   0.75585    0.024
 3805.00    0.02688   0.80841    0.024
 3806.00   -0.07851   0.82197    0.000
 3807.00    0.09040   0.78286    0.024
 3808.00    0.41673   0.70178    0.024
 3809.00    0.51445   0.62487    0.024
 3810.00    0.49791   0.58784    0.023
 3811.00    0.26679   0.59733    0.023
 3812.00   -0.05714   0.64527    0.000
 3813.00    0.09165   0.68316    0.024
 3814.00    0.41575   0.66083    0.023
 3815.00    0.63605   0.60162    0.023
 3816.00    0.82372   0.58291    0.024
 3817.00    0.30761   0.62336    0.025
 3818.00   -0.39312   0.64612    0.000
 3819.00   -0.39718   0.60055    0.000
 3820.00   -0.25198   0.53612    0.000
 3821.00    0.07713   0.50653    0.022
 3822.00    0.43745   0.50771    0.022
 3823.00    0.51066   0.51788    0.022
 3824.00    0.54702   0.52828    0.022
 3825.00    0.16448   0.53399    0.022
 3826.00   -0.25567   0.51585    0.000
 3827.00   -0.10591   0.46407    0.000
 3828.00    0.07447   0.41025    0.023
 3829.00    0.25763   0.38373    0.023
 3830.00    0.43499   0.38464    0.022
 3831.00    0.11854   0.40550    0.022
 3832.00   -0.17553   0.42896    0.000
 3833.00    0.02756   0.43892    0.022
 3834.00    0.22658   0.44549    0.022
 3835.00    0.37492   0.46696    0.023
 3836.00    0.49269   0.51575    0.023
 3837.00    0.35212   0.58723    0.025
 3838.00    0.28492   0.64475    0.027
 3839.00    0.67928   0.66944    0.025
 3840.00    0.99872   0.67481    0.024
 3841.00    0.94846   0.68073    0.024
 3842.00    0.86153   0.70121    0.024
 3843.00    0.62778   0.71501    0.024
 3844.00    0.46129   0.69314    0.024
 3845.00    0.51835   0.66668    0.024
 3846.00    0.59759   0.68440    0.024
 3847.00    0.73909   0.72461    0.000
 3848.00    0.92558   0.73700    0.000
 3849.00    1.22013   0.72221    0.000
 3850.00    1.22260   0.69933    0.000
 3851.00    0.61929   0.68057    0.000
 3852.00    0.35656   0.67441    0.000
 3853.00    0.70813   0.65380    0.000
 3854.00    1.01462   0.61069    0.000
 3855.00    1.25003   0.60123    0.000
 3856.00    1.29096   0.65443    0.000
 3857.00    1.06267   0.72592    0.000
 3858.00    0.99607   0.76626    0.000
 3859.00    1.12650   0.76968    0.000
 3860.00    1.05561   0.75468    0.000
 3861.00    0.76848   0.74065    0.000
 3862.00    0.59557   0.73976    0.000
 3863.00    0.53088   0.74745    0.000
 3864.00    0.56694   0.74596    0.000
 3865.00    0.68718   0.71978    0.000
 3866.00    0.76876   0.67085    0.000
 3867.00    0.82191   0.62222    0.000
 3868.00    0.84751   0.61766    0.000
 3869.00    0.85531   0.67207    0.000
 3870.00    0.73678   0.73608    0.000
 3871.00    0.54684   0.75198    0.000
 3872.00    0.52686   0.70793    0.000
 3873.00    0.59048   0.64568    0.000
 3874.00    0.61572   0.63448    0.000
 3875.00    0.62465   0.67047    0.000
 3876.00    0.53326   0.67745    0.000
 3877.00    0.40533   0.64775    0.000
 3878.00    0.57311   0.63798    0.000
 3879.00    0.83203   0.64429    0.000
 3880.00    0.74370   0.61092    0.000
 3881.00    0.56622   0.54528    0.022
 3882.00    0.38170   0.49994    0.022
 3883.00    0.19571   0.48015    0.022
 3884.00    0.25378   0.47885    0.022
 3885.00    0.35209   0.51850    0.023
 3886.00    0.36743   0.59520    0.023
 3887.00    0.37248   0.66549    0.023
 3888.00    0.40295   0.69637    0.023
 3889.00    0.43558   0.69268    0.023
 3890.00    0.18356   0.68266    0.022
 3891.00   -0.08264   0.69398    0.000
 3892.00    0.01455   0.71918    0.022
 3893.00    0.11804   0.72234    0.023
 3894.00    0.24440   0.70777    0.022
 3895.00    0.36944   0.71795    0.022
 3896.00    0.46742   0.75997    0.022
 3897.00    0.57066   0.78097    0.022
 3898.00    0.73611   0.75912    0.021
 3899.00    0.90089   0.72982    0.021
 3900.00    1.06013   0.69971    0.021
 3901.00    1.14859   0.68044    0.020
 3902.00    0.80471   0.71054    0.019
 3903.00    0.53304   0.77735    0.019
 3904.00    0.60882   0.83266    0.018
 3905.00    0.65168   0.85998    0.018
 3906.00    0.56558   0.87329    0.018
 3907.00    0.48804   0.87419    0.018
 3908.00    0.43837   0.85268    0.019
 3909.00    0.34450   0.82620    0.019
 3910.00    0.12870   0.81231    0.019
 3911.00    0.05519   0.79684    0.020
 3912.00    0.31769   0.77797    0.020
 3913.00    0.54903   0.76059    0.020
 3914.00    0.71680   0.73422    0.021
 3915.00    0.64967   0.70259    0.021
 3916.00    0.16535   0.68626    0.021
 3917.00   -0.02866   0.69426    0.000
 3918.00    0.22843   0.71328    0.021
 3919.00    0.52793   0.72236    0.022
 3920.00    0.88529   0.70086    0.022
 3921.00    0.97941   0.65084    0.022
 3922.00    0.75732   0.58751    0.022
 3923.00    0.59221   0.51491    0.022
 3924.00    0.48743   0.44037    0.022
 3925.00    0.40279   0.36954    0.022
 3926.00    0.33696   0.30269    0.023
 3927.00    0.49991   0.24329    0.023
 3928.00    0.85128   0.20048    0.023
 3929.00    0.75937   0.18823    0.023
 3930.00    0.34611   0.21498    0.023
 3931.00    0.17113   0.27532    0.023
 3932.00    0.14778   0.35397    0.022
 3933.00    0.35856   0.43885    0.022
 3934.00    0.69963   0.52117    0.023
 3935.00    0.67276   0.58345    0.023
 3936.00    0.46777   0.61344    0.023
 3937.00    0.41156   0.62015    0.023
 3938.00    0.41756   0.61581    0.023
 3939.00    0.31555   0.62355    0.023
 3940.00    0.17492   0.67371    0.022
 3941.00    0.39586   0.74159    0.022
 3942.00    0.72610   0.76432    0.022
 3943.00    1.00340   0.74669    0.023
 3944.00    1.26740   0.74904    0.023
 3945.00    1.24568   0.78207    0.023
 3946.00    1.16570   0.80056    0.023
 3947.00    0.74643   0.78891    0.023
 3948.00    0.27283   0.79282    0.022
 3949.00    0.37815   0.82712    0.022
 3950.00    0.55258   0.83076    0.022
 3951.00    0.50962   0.78453    0.022
 3952.00    0.44895   0.75316    0.022
 3953.00    0.53393   0.77014    0.022
 3954.00    0.62561   0.78904    0.023
 3955.00    1.07131   0.75126    0.022
 3956.00    1.51528   0.66016    0.022
 3957.00    1.63340   0.57636    0.023
 3958.00    1.73383   0.53139    0.023
 3959.00    1.49929   0.49625    0.023
 3960.00    1.25397   0.43790    0.000
 3961.00    0.88718   0.35541    0.000
 3962.00    0.55386   0.27174    0.000
 3963.00    0.48367   0.21487    0.000
 3964.00    0.45777   0.20394    0.000
 3965.00    0.69466   0.24084    0.000
 3966.00    0.84001   0.31004    0.000
 3967.00    0.55557   0.38795    0.000
 3968.00    0.34533   0.45956    0.000
 3969.00    0.41949   0.52936    0.000
 3970.00    0.57159   0.60043    0.000
 3971.00    0.97280   0.66024    0.000
 3972.00    1.14042   0.71089    0.000
 3973.00    0.67545   0.76930    0.000
 3974.00    0.21945   0.83171    0.000
 3975.00   -0.21569   0.87014    0.000
 3976.00   -0.25454   0.86292    0.000
 3977.00    0.50260   0.83418    0.000
 3978.00    1.03152   0.82737    0.000
 3979.00    1.16121   0.84893    0.000
 3980.00    1.09286   0.87745    0.000
 3981.00    0.72132   0.89499    0.023
 3982.00    0.69969   0.91045    0.023
 3983.00    1.14863   0.93100    0.024
 3984.00    1.23689   0.93261    0.024
 3985.00    0.89799   0.92235    0.023
 3986.00    0.74118   0.93545    0.023
 3987.00    0.77449   0.96818    0.023
 3988.00    0.82199   0.98916    0.023
 3989.00    0.88255   0.97914    0.023
 3990.00    0.89490   0.94413    0.023
 3991.00    0.86811   0.90034    0.023
 3992.00    1.06198   0.86812    0.022
 3993.00    1.41349   0.88056    0.023
 3994.00    1.45443   0.94440    0.023
 3995.00    1.30064   1.00695    0.023
 3996.00    1.03761   1.02837    0.022
 3997.00    0.71470   1.03163    0.022
 3998.00    0.55702   1.02404    0.034
 3999.00    0.47804   0.96853    0.150
 4000.00    0.36025   0.88285   -1.000
 4001.00    0.22652   0.85625   -1.000
 4002.00    0.54542   0.91370   -1.000
 4003.00    1.02330   0.98551   -1.000
 4004.00    1.18999   1.02130   -1.000
 4005.00    1.26447   1.03102   -1.000
 4006.00    1.16316   1.03343   -1.000
 4007.00    1.01866   1.03182   -1.000
 4008.00    0.95341   1.03181   -1.000
 4009.00    0.90391   1.03973   -1.000
 4010.00    0.86428   1.05524    0.050
 4011.00    0.82618   1.05907    0.023
 4012.00    0.87804   1.04335    0.022
 4013.00    0.94024   1.04730    0.022
 4014.00    0.77879   1.08271    0.022
 4015.00    0.60004   1.09901    0.022
 4016.00    0.53952   1.07773    0.021
 4017.00    0.48399   1.04943    0.021
 4018.00    0.57669   1.02529    0.021
 4019.00    0.67045   1.00367    0.022
 4020.00    0.75152   1.01393    0.022
 4021.00    0.85232   1.06789    0.022
 4022.00    1.30114   1.11780    0.022
 4023.00    1.70145   1.11828    0.022
 4024.00    1.57968   1.05603    0.022
 4025.00    1.41896   0.95043    0.022
 4026.00    0.96260   0.86506    0.022
 4027.00    0.56928   0.83782    0.022
 4028.00    0.53953   0.84939    0.022
 4029.00    0.53664   0.88733    0.022
 4030.00    0.65683   0.95109    0.022
 4031.00    0.81638   1.03207    0.022
 4032.00    1.12356   1.10556    0.022
 4033.00    1.31673   1.13862    0.022
 4034.00    1.15246   1.12064    0.021
 4035.00    1.04295   1.07771    0.021
 4036.00    1.07910   1.05600    0.021
 4037.00    1.11806   1.06391    0.021
 4038.00    1.16348   1.03910    0.021
 4039.00    1.14495   0.93898    0.021
 4040.00    1.00000   0.82973    0.022
 4041.00    0.97284   0.82391    0.022
 4042.00    1.14861   0.92872    0.022
 4043.00    1.29362   1.03163    0.022
 4044.00    1.39223   1.07358    0.022
 4045.00    1.29112   1.08687    0.022
 4046.00    0.92524   1.08334    0.023
 4047.00    0.77444   1.05318    0.023
 4048.00    0.87477   1.00925    0.022
 4049.00    0.91550   0.97234    0.022
 4050.00    0.89489   0.95862    0.022
 4051.00    1.01685   0.96044    0.022
 4052.00    1.26827   0.95212    0.022
 4053.00    1.31758   0.94991    0.022
 4054.00    1.20512   0.98801    0.022
 4055.00    1.39974   1.03878    0.023
 4056.00    1.81057   1.03552    0.023
 4057.00    1.76578   0.95596    0.023
 4058.00    1.43955   0.86612    0.022
 4059.00    1.19623   0.85925    0.022
 4060.00    0.99764   0.92283    0.022
 4061.00    1.03009   0.96205    0.022
 4062.00    1.17082   0.96913    0.022
 4063.00    1.04912   1.00549    0.022
 4064.00    0.82139   1.05050    0.022
 4065.00    0.58962   1.02743    0.021
 4066.00    0.35645   0.95284    0.021
 4067.00    0.52697   0.92895    0.021
 4068.00    0.81472   0.97912    0.021
 4069.00    0.87462   1.01448    0.021
 4070.00    0.87980   0.97317    0.022
 4071.00    1.10034   0.88068    0.022
 4072.00    1.36261   0.81058    0.022
 4073.00    1.34818   0.82266    0.021
 4074.00    1.29206   0.90736    0.021
 4075.00    1.33216   1.00836    0.021
 4076.00    1.38290   1.07305    0.021
 4077.00    1.28568   1.07215    0.021
 4078.00    1.17764   1.02672    0.021
 4079.00    0.97371   0.98610    0.021
 4080.00    0.76611   0.97621    0.021
 4081.00    0.84944   1.00416    0.021
 4082.00    0.93643   1.06207    0.021
 4083.00    1.10046   1.11460    0.021
 4084.00    1.26867   1.12865    0.021
 4085.00    1.50575   1.10940    0.021
 4086.00    1.69219   1.08154    0.021
 4087.00    1.35747   1.06379    0.021
 4088.00    1.01465   1.06251    0.021
 4089.00    0.61249   1.04817    0.021
 4090.00    0.30895   0.99375    0.021
 4091.00    0.55870   0.93233    0.021
 4092.00    0.77806   0.89924    0.000
 4093.00    0.86146   0.87977    0.000
 4094.00    0.83843   0.83891    0.000
 4095.00    0.42452   0.75919    0.000
 4096.00    0.16808   0.67882    0.000
 4097.00    0.39593   0.66950    0.000
 4098.00    0.56286   0.73962    0.000
 4099.00    0.57059   0.83383    0.000
 4100.00    0.60302   0.91404    0.000
 4101.00    0.69091   0.96632    0.000
 4102.00    0.81133   0.98347    0.000
 4103.00    0.99506   0.97395    0.000
 4104.00    1.08274   0.95237    0.000
 4105.00    1.00743   0.93700    0.000
 4106.00    0.96109   0.94418    0.000
 4107.00    0.95779   0.97420    0.000
 4108.00    0.91451   1.01487    0.000
 4109.00    0.81899   1.05144    0.000
 4110.00    0.89040   1.07857    0.000
 4111.00    1.15398   1.08997    0.000
 4112.00    1.13850   1.06356    0.000
 4113.00    0.83974   1.00485    0.021
 4114.00    0.78594   0.96998    0.021
 4115.00    0.95144   0.98260    0.022
 4116.00    0.80416   0.99697    0.021
 4117.00    0.41008   0.98983    0.021
 4118.00    0.41335   0.99295    0.030
 4119.00    0.69235   1.02285    0.108
 4120.00    0.78553   1.04660   -1.000
 4121.00    0.76564   1.03291   -1.000
 4122.00    0.95111   0.99384   -1.000
 4123.00    1.24569   0.96276   -1.000
 4124.00    1.25042   0.95763   -1.000
 4125.00    1.12150   0.95748   -1.000
 4126.00    1.06696   0.93207   -1.000
 4127.00    1.04194   0.89552   -1.000
 4128.00    1.10847   0.89216    0.057
 4129.00    1.20599   0.93540    0.024
 4130.00    1.03703   1.00424    0.021
 4131.00    0.79225   1.05776    0.021
 4132.00    0.59154   1.07798    0.021
 4133.00    0.40118   1.09669    0.020
 4134.00    0.79049   1.12190    0.021
 4135.00    1.28921   1.12155    0.021
 4136.00    1.04084   1.06901    0.021
 4137.00    0.68338   0.96879    0.021
 4138.00    0.62653   0.88461    0.020
 4139.00    0.60163   0.89015    0.020
 4140.00    0.73755   0.96602    0.021
 4141.00    0.88460   1.03121    0.021
 4142.00    0.85881   1.05146    0.021
 4143.00    0.82706   1.03700    0.021
 4144.00    1.08033   1.00725    0.021
 4145.00    1.32639   0.99040    0.021
 4146.00    1.31556   0.99438    0.021
 4147.00    1.30083   0.99671    0.020
 4148.00    1.22558   0.98129    0.020
 4149.00    1.16320   0.95623    0.020
 4150.00    1.22759   0.94221    0.020
 4151.00    1.29449   0.94579    0.020
 4152.00    1.37924   0.97033    0.020
 4153.00    1.42417   1.01349    0.020
 4154.00    1.25170   1.04686    0.020
 4155.00    1.10310   1.05304    0.020
 4156.00    1.05888   1.05516    0.020
 4157.00    0.99112   1.07785    0.019
 4158.00    0.83871   1.09795    0.020
 4159.00    0.75229   1.09404    0.020
 4160.00    0.86500   1.07762    0.020
 4161.00    1.01182   1.05113    0.020
 4162.00    1.24621   1.02734    0.020
 4163.00    1.45092   1.03593    0.020
 4164.00    1.59005   1.06046    0.020
 4165.00    1.61305   1.04334    0.020
 4166.00    1.41359   0.96498    0.020
 4167.00    1.21827   0.87478    0.020
 4168.00    1.02985   0.84094    0.020
 4169.00    0.89701   0.87407    0.020
 4170.00    0.84556   0.92386    0.020
 4171.00    0.89489   0.94120    0.020
 4172.00    1.07400   0.92561    0.020
 4173.00    1.00668   0.92065    0.020
 4174.00    0.65972   0.95466    0.020
 4175.00    0.59318   0.99467    0.020
 4176.00    0.80731   0.99610    0.021
 4177.00    1.04433   0.97662    0.021
 4178.00    1.30154   0.98078    0.021
 4179.00    1.33065   1.01341    0.021
 4180.00    1.18233   1.03826    0.020
 4181.00    1.19639   1.01288    0.020
 4182.00    1.32150   0.96574    0.020
 4183.00    1.07829   0.97098    0.021
 4184.00    0.61431   1.01784    0.020
 4185.00    0.59370   1.04018    0.020
 4186.00    0.80499   1.04271    0.020
 4187.00    0.83916   1.07441    0.020
 4188.00    0.79299   1.11471    0.020
 4189.00    0.85404   1.09880    0.020
 4190.00    0.95694   1.03041    0.020
 4191.00    0.90725   0.96752    0.020
 4192.00    0.80688   0.92872    0.020
 4193.00    0.59063   0.90643    0.020
 4194.00    0.34207   0.91743    0.020
 4195.00    0.48122   0.94440    0.020
 4196.00    0.70931   0.94284    0.021
 4197.00    0.90504   0.93278    0.021
 4198.00    1.09481   0.94906    0.021
 4199.00    1.21173   0.97489    0.021
 4200.00    1.31835   1.00101    0.020
 4201.00    1.14958   1.03763    0.020
 4202.00    0.95273   1.07211    0.020
 4203.00    0.76425   1.08204    0.020
 4204.00    0.57631   1.06684    0.020
 4205.00    0.93587   1.05922    0.020
 4206.00    1.31113   1.08183    0.020
 4207.00    0.96169   1.10653    0.020
 4208.00    0.62298   1.09114    0.020
 4209.00    0.59983   1.02761    0.020
 4210.00    0.60470   0.96368    0.020
 4211.00    1.01758   0.97332    0.020
 4212.00    1.37369   1.05316    0.020
 4213.00    1.19292   1.12115    0.020
 4214.00    1.01761   1.14331    0.020
 4215.00    0.87985   1.14670    0.020
 4216.00    0.77224   1.13472    0.020
 4217.00    0.82486   1.08708    0.019
 4218.00    0.90834   1.00991    0.019
 4219.00    1.12360   0.91214    0.019
 4220.00    1.22630   0.79805    0.019
 4221.00    0.93242   0.71746    0.019
 4222.00    0.64870   0.74969    0.019
 4223.00    0.39502   0.89181    0.019
 4224.00    0.33070   1.03762    0.019
 4225.00    0.74429   1.11424    0.019
 4226.00    1.03670   1.11760    0.019
 4227.00    1.06582   1.06378    0.019
 4228.00    1.01250   1.00752    0.019
 4229.00    0.80370   0.99101    0.018
 4230.00    0.73340   0.98660    0.018
 4231.00    0.89112   0.98156    0.018
 4232.00    0.89266   0.99275    0.018
 4233.00    0.66875   1.00430    0.018
 4234.00    0.70221   1.01435    0.018
 4235.00    1.06245   1.04759    0.018
 4236.00    1.34298   1.09073    0.018
 4237.00    1.53434   1.11530    0.018
 4238.00    1.54393   1.13751    0.018
 4239.00    1.37416   1.16192    0.018
 4240.00    1.18995   1.14517    0.018
 4241.00    0.99317   1.08295    0.018
 4242.00    0.90190   1.02970    0.018
 4243.00    0.89152   1.01052    0.018
 4244.00    1.03663   0.99337    0.018
 4245.00    1.28652   0.97448    0.018
 4246.00    1.29443   0.99552    0.019
 4247.00    1.15945   1.03553    0.019
 4248.00    1.11543   1.03278    0.019
 4249.00    1.11825   1.00575    0.019
 4250.00    1.13968   1.02124    0.019
 4251.00    1.16942   1.07638    0.019
 4252.00    1.14522   1.09824    0.019
 4253.00    1.10033   1.05205    0.019
 4254.00    1.02212   0.97835    0.019
 4255.00    0.93306   0.93821    0.018
 4256.00    0.75851   0.97336    0.018
 4257.00    0.56063   1.06622    0.018
 4258.00    0.58594   1.15000    0.018
 4259.00    0.66128   1.19276    0.018
 4260.00    0.81987   1.20704    0.018
 4261.00    0.99335   1.19296    0.019
 4262.00    0.96726   1.14693    0.019
 4263.00    0.91387   1.09048    0.019
 4264.00    0.87629   1.02918    0.019
 4265.00    0.84026   0.94550    0.019
 4266.00    0.85217   0.86846    0.019
 4267.00    0.86702   0.85666    0.019
 4268.00    0.88398   0.89164    0.019
 4269.00    0.90118   0.92185    0.018
 4270.00    0.95264   0.96765    0.018
 4271.00    0.98944   1.04901    0.018
 4272.00    0.63874   1.12225    0.018
 4273.00    0.33526   1.14399    0.018
 4274.00    0.68095   1.11417    0.019
 4275.00    0.98969   1.07218    0.019
 4276.00    0.96270   1.05328    0.019
 4277.00    0.96266   1.05299    0.019
 4278.00    1.14212   1.05874    0.019
 4279.00    1.31649   1.05714    0.019
 4280.00    1.46455   1.04018    0.019
 4281.00    1.52353   1.02187    0.019
 4282.00    1.21062   0.99569   -2.000
 4283.00    0.94710   0.93369   -2.000
 4284.00    0.85407   0.85791   -2.000
 4285.00    0.76181   0.84490   -2.000
 4286.00    0.67182   0.91997   -2.000
 4287.00    0.62536   1.00986   -2.000
 4288.00    0.68685   1.03669   -2.000
 4289.00    0.79936   1.01311   -2.000
 4290.00    1.02096   0.99571   -2.000
 4291.00    1.19185   0.98449   -2.000
 4292.00    1.26859   0.94417   -2.000
 4293.00    1.30948   0.86235   -2.000
 4294.00    1.29223   0.77627   -2.000
 4295.00    1.17429   0.74614   -2.000
 4296.00    0.91308   0.76498   -2.000
 4297.00    0.71380   0.78896   -2.000
 4298.00    0.59202   0.81852    0.019
 4299.00    0.73367   0.84814    0.019
 4300.00    1.16591   0.84879    0.019
 4301.00    1.26916   0.81921    0.019
 4302.00    1.05235   0.77576    0.019
 4303.00    0.85659   0.75155    0.019
 4304.00    0.67891   0.78327    0.019
 4305.00    0.74578   0.85814    0.019
 4306.00    0.99745   0.92557    0.019
 4307.00    1.05003   0.95424    0.019
 4308.00    0.97040   0.95778    0.019
 4309.00    1.05420   0.98495    0.019
 4310.00    1.23305   1.07387    0.019
 4311.00    1.28952   1.18400    0.019
 4312.00    1.28395   1.24005    0.019
 4313.00    1.32395   1.23450    0.019
 4314.00    1.38394   1.20129    0.019
 4315.00    1.29290   1.16239    0.018
 4316.00    1.14498   1.13492    0.018
 4317.00    0.98907   1.10480    0.018
 4318.00    0.83062   1.02773    0.018
 4319.00    0.67997   0.91163    0.018
 4320.00    0.53139   0.83828    0.018
 4321.00    0.69822   0.88433    0.019
 4322.00    0.93407   1.02290    0.019
 4323.00    0.97518   1.14054    0.019
 4324.00    0.98241   1.16657    0.019
 4325.00    1.09176   1.13781    0.019
 4326.00    1.21462   1.12639    0.018
 4327.00    0.91651   1.14235    0.019
 4328.00    0.57906   1.15943    0.019
 4329.00    0.71479   1.16936    0.019
 4330.00    0.87758   1.14416    0.000
 4331.00    0.76513   1.04469    0.000
 4332.00    0.64735   0.90318    0.000
 4333.00    0.65434   0.78977    0.000
 4334.00    0.66128   0.71981    0.000
 4335.00    0.66713   0.70400    0.000
 4336.00    0.67680   0.77230    0.000
 4337.00    0.73611   0.87951    0.000
 4338.00    0.79530   0.95240    0.000
 4339.00    0.85348   1.00194    0.000
 4340.00    0.90184   1.05624    0.000
 4341.00    0.88684   1.09866    0.000
 4342.00    0.88459   1.13345    0.000
 4343.00    0.94671   1.17283    0.000
 4344.00    0.94199   1.16941    0.000
 4345.00    0.66448   1.07940    0.000
 4346.00    0.48013   0.96849    0.000
 4347.00    0.61098   0.94680    0.000
 4348.00    0.78001   1.01351    0.000
 4349.00    1.05802   1.08732    0.000
 4350.00    1.25734   1.14123    0.000
 4351.00    1.26483   1.18057    0.019
 4352.00    1.21941   1.17778    0.019
 4353.00    1.06271   1.13381    0.018
 4354.00    1.05793   1.11361    0.022
 4355.00    1.33089   1.15385    0.059
 4356.00    1.50142   1.21075   -1.000
 4357.00    1.50828   1.24041   -1.000
 4358.00    1.45867   1.25900   -1.000
 4359.00    1.32988   1.28318   -1.000
 4360.00    1.25549   1.28010   -1.000
 4361.00    1.24823   1.22346   -1.000
 4362.00    1.16961   1.15097   -1.000
 4363.00    1.01337   1.11868   -1.000
 4364.00    0.85122   1.12792    0.071
 4365.00    0.68338   1.14965    0.024
 4366.00    0.69227   1.16678    0.018
 4367.00    0.85066   1.15181    0.018
 4368.00    0.91977   1.08367    0.018
 4369.00    0.92238   1.00895    0.018
 4370.00    0.98095   1.00896    0.018
 4371.00    1.07614   1.09353    0.018
 4372.00    1.04924   1.18649    0.018
 4373.00    0.95242   1.22083    0.018
 4374.00    0.80418   1.20195    0.018
 4375.00    0.63029   1.16359    0.018
 4376.00    0.71833   1.09159    0.018
 4377.00    0.91941   0.95680    0.018
 4378.00    0.80647   0.82055    0.018
 4379.00    0.57735   0.79578    0.018
 4380.00    0.56952   0.89470    0.018
 4381.00    0.63108   1.01374    0.018
 4382.00    0.75366   1.07222    0.018
 4383.00    0.89220   1.07967    0.018
 4384.00    0.78711   1.07005    0.018
 4385.00    0.62997   1.06646    0.018
 4386.00    0.82450   1.08821    0.018
 4387.00    1.07849   1.11542    0.017
 4388.00    1.24711   1.10402    0.017
 4389.00    1.40484   1.07048    0.017
 4390.00    1.25029   1.08555    0.017
 4391.00    1.06787   1.15753    0.017
 4392.00    0.92831   1.20545    0.017
 4393.00    0.79103   1.17648    0.017
 4394.00    0.80785   1.10354    0.017
 4395.00    0.82871   1.06232    0.017
 4396.00    0.93398   1.09296    0.017
 4397.00    1.03522   1.12651    0.017
 4398.00    1.04773   1.07763    0.017
 4399.00    1.05397   0.99962    0.017
 4400.00    0.98269   0.99522    0.017
 4401.00    0.92482   1.03818    0.017
 4402.00    0.97978   1.05047    0.017
 4403.00    1.04682   1.05662    0.018
 4404.00    1.18953   1.10989    0.018
 4405.00    1.28884   1.18372    0.018
 4406.00    1.17465   1.23291    0.018
 4407.00    1.10587   1.24009    0.017
 4408.00    1.21830   1.18260    0.017
 4409.00    1.26041   1.07832    0.017
 4410.00    1.06931   1.01431    0.017
 4411.00    0.91253   1.03212    0.017
 4412.00    0.85190   1.09377    0.017
 4413.00    0.86927   1.16902    0.017
 4414.00    1.07359   1.22990    0.017
 4415.00    1.21491   1.23167    0.017
 4416.00    1.22584   1.17622    0.017
 4417.00    1.28955   1.12687    0.017
 4418.00    1.44827   1.12982    0.017
 4419.00    1.46990   1.15794    0.017
 4420.00    1.27576   1.16810    0.017
 4421.00    1.17024   1.16439    0.017
 4422.00    1.18718   1.16982    0.017
 4423.00    1.22268   1.17531    0.017
 4424.00    1.28075   1.15476    0.017
 4425.00    1.16240   1.13260    0.017
 4426.00    0.85488   1.14373    0.017
 4427.00    0.72952   1.14976    0.017
 4428.00    0.77646   1.10640    0.017
 4429.00    0.93131   1.04671    0.017
 4430.00    1.17616   1.04288    0.017
 4431.00    1.15299   1.11825    0.017
 4432.00    0.93304   1.21996    0.017
 4433.00    0.99402   1.28379    0.017
 4434.00    1.23612   1.28054    0.017
 4435.00    1.22582   1.21275    0.017
 4436.00    1.07316   1.11626    0.018
 4437.00    0.99471   1.04760    0.018
 4438.00    0.95270   1.05391    0.018
 4439.00    1.06049   1.13423    0.018
 4440.00    1.23186   1.22097    0.018
 4441.00    1.13039   1.25166    0.018
 4442.00    0.92977   1.24709    0.018
 4443.00    1.02284   1.24182    0.018
 4444.00    1.20623   1.22342    0.018
 4445.00    1.18167   1.20188    0.017
 4446.00    1.10388   1.20167    0.017
 4447.00    1.07507   1.19260    0.017
 4448.00    1.05647   1.13509    0.018
 4449.00    1.26919   1.05523    0.017
 4450.00    1.51992   1.01941    0.017
 4451.00    1.46133   1.03974    0.017
 4452.00    1.36460   1.06301    0.018
 4453.00    1.36383   1.06146    0.018
 4454.00    1.37122   1.05045    0.017
 4455.00    1.30842   1.03456    0.017
 4456.00    1.24215   1.02803    0.017
 4457.00    1.13759   1.06782    0.017
 4458.00    1.03097   1.13231    0.017
 4459.00    0.83353   1.16308    0.017
 4460.00    0.65340   1.16070    0.017
 4461.00    0.82386   1.15116    0.000
 4462.00    0.98386   1.13268    0.000
 4463.00    1.02089   1.10510    0.000
 4464.00    1.07102   1.09699    0.000
 4465.00    1.22742   1.12877    0.000
 4466.00    1.34240   1.18494    0.000
 4467.00    1.20535   1.24158    0.000
 4468.00    1.07320   1.28030    0.000
 4469.00    0.96453   1.29044    0.000
 4470.00    0.88610   1.29144    0.000
 4471.00    0.92573   1.31124    0.000
 4472.00    0.94854   1.32790    0.000
 4473.00    0.91668   1.29203    0.000
 4474.00    0.90240   1.20162    0.000
 4475.00    0.93646   1.11021    0.000
 4476.00    0.95481   1.07711    0.000
 4477.00    0.93614   1.12334    0.000
 4478.00    0.93303   1.21192    0.000
 4479.00    0.96161   1.28677    0.000
 4480.00    0.98203   1.32267    0.000
 4481.00    0.98799   1.31158    0.000
 4482.00    1.01002   1.25127    0.017
 4483.00    1.05698   1.17221    0.017
 4484.00    0.93683   1.13045    0.017
 4485.00    0.58905   1.15259    0.017
 4486.00    0.56492   1.20589    0.017
 4487.00    0.92887   1.22889    0.017
 4488.00    1.21385   1.19512    0.017
 4489.00    1.41536   1.14781    0.017
 4490.00    1.43079   1.14029    0.017
 4491.00    1.27269   1.17687    0.017
 4492.00    1.13054   1.23368    0.017
 4493.00    1.00150   1.27718    0.017
 4494.00    0.96728   1.27716    0.017
 4495.00    1.00166   1.24414    0.017
 4496.00    1.15730   1.24056    0.017
 4497.00    1.38996   1.30236    0.017
 4498.00    1.33418   1.37717    0.017
 4499.00    1.11820   1.40393    0.017
 4500.00    1.08342   1.38285    0.017
 4501.00    1.13618   1.34281    0.017
 4502.00    1.22228   1.31171    0.017
 4503.00    1.32229   1.31122    0.017
 4504.00    1.19985   1.33713    0.017
 4505.00    0.99802   1.35523    0.017
 4506.00    1.00585   1.33897    0.017
 4507.00    1.07690   1.29858    0.017
 4508.00    1.30955   1.25937    0.017
 4509.00    1.58269   1.23928    0.017
 4510.00    1.42243   1.24274    0.017
 4511.00    1.17408   1.24868    0.017
 4512.00    1.16710   1.24310    0.017
 4513.00    1.19862   1.24831    0.017
 4514.00    1.20564   1.27522    0.017
 4515.00    1.20974   1.29754    0.017
 4516.00    1.00821   1.28313    0.017
 4517.00    0.79004   1.24253    0.017
 4518.00    0.98902   1.21462    0.017
 4519.00    1.20697   1.19414    0.017
 4520.00    1.18775   1.15646    0.017
 4521.00    1.16405   1.10850    0.017
 4522.00    1.05967   1.06821    0.017
 4523.00    0.96099   1.05132    0.017
 4524.00    0.96930   1.06711    0.017
 4525.00    0.98026   1.10481    0.017
 4526.00    1.02085   1.13935    0.017
 4527.00    1.04273   1.13712    0.017
 4528.00    0.91813   1.09508    0.017
 4529.00    0.81915   1.06921    0.017
 4530.00    0.87165   1.11562    0.017
 4531.00    0.91915   1.21994    0.017
 4532.00    0.94328   1.30024    0.017
 4533.00    0.98699   1.30245    0.017
 4534.00    1.10551   1.25465    0.017
 4535.00    1.19023   1.21538    0.017
 4536.00    1.16718   1.21902    0.017
 4537.00    1.12089   1.24522    0.017
 4538.00    1.01179   1.24388    0.017
 4539.00    1.03481   1.21526    0.017
 4540.00    1.36396   1.20423    0.017
 4541.00    1.49343   1.21307    0.017
 4542.00    1.22265   1.20012    0.017
 4543.00    1.08024   1.15654    0.017
 4544.00    1.16197   1.13504    0.017
 4545.00    1.18294   1.16524    0.017
 4546.00    1.11106   1.19553    0.017
 4547.00    1.06401   1.18345    0.017
 4548.00    1.05028   1.14720    0.017
 4549.00    1.05045   1.12634    0.017
 4550.00    1.06703   1.15301    0.000
 4551.00    1.09126   1.21948    0.000
 4552.00    1.12348   1.27744    0.000
 4553.00    1.10829   1.30134    0.000
 4554.00    1.04952   1.30858    0.000
 4555.00    0.98428   1.31517    0.000
 4556.00    0.91380   1.30958    0.000
 4557.00    0.92503   1.26804    0.000
 4558.00    0.99453   1.20482    0.000
 4559.00    1.10574   1.17172    0.000
 4560.00    1.24306   1.19835    0.000
 4561.00    1.23299   1.26397    0.000
 4562.00    1.14230   1.31821    0.000
 4563.00    1.19557   1.33155    0.000
 4564.00    1.31728   1.30415    0.000
 4565.00    1.25511   1.24759    0.000
 4566.00    1.11754   1.21397    0.000
 4567.00    1.12306   1.24806    0.000
 4568.00    1.17874   1.30063    0.000
 4569.00    1.11731   1.31307    0.000
 4570.00    1.02126   1.30234    0.000
 4571.00    1.08199   1.29487    0.000
 4572.00    1.18112   1.27857    0.000
 4573.00    1.20431   1.23560    0.000
 4574.00    1.21245   1.18295    0.000
 4575.00    1.04508   1.15679    0.000
 4576.00    0.85053   1.16184    0.000
 4577.00    0.85949   1.16986    0.000
 4578.00    0.89173   1.17090    0.000
 4579.00    0.73872   1.17760    0.000
 4580.00    0.57147   1.19364    0.000
 4581.00    0.76225   1.22209    0.000
 4582.00    0.96794   1.25992    0.000
 4583.00    0.96079   1.28649    0.000
 4584.00    0.95477   1.28242    0.000
 4585.00    1.07683   1.24841    0.000
 4586.00    1.19333   1.21034    0.000
 4587.00    1.21251   1.19672    0.000
 4588.00    1.21544   1.20320    0.000
 4589.00    1.04454   1.20666    0.000
 4590.00    0.88622   1.20717    0.000
 4591.00    0.82304   1.21546    0.000
 4592.00    0.79597   1.22901    0.000
 4593.00    0.97646   1.23563    0.000
 4594.00    1.11876   1.22248    0.000
 4595.00    1.08652   1.20688    0.000
 4596.00    1.08077   1.21394    0.000
 4597.00    1.17411   1.23015    0.000
 4598.00    1.22440   1.23410    0.000
 4599.00    1.14006   1.22769    0.000
 4600.00    1.09247   1.23382    0.000
 4601.00    1.14240   1.26996    0.000
 4602.00    1.15625   1.32442    0.000
 4603.00    1.08792   1.36496    0.000
 4604.00    1.11168   1.36568    0.000
 4605.00    1.31713   1.33499    0.000
 4606.00    1.32082   1.30262    0.000
 4607.00    0.97760   1.28538    0.000
 4608.00    0.77527   1.28961    0.000
 4609.00    0.78512   1.30522    0.000
 4610.00    0.82471   1.31000    0.000
 4611.00    0.90367   1.30697    0.000
 4612.00    0.94940   1.29854    0.000
 4613.00    0.95642   1.27974    0.000
 4614.00    0.91522   1.27803    0.000
 4615.00    0.82448   1.30656    0.000
 4616.00    0.79484   1.33177    0.000
 4617.00    0.82059   1.33700    0.000
 4618.00    0.78678   1.33126    0.000
 4619.00    0.70537   1.31534    0.000
 4620.00    0.78741   1.30017    0.000
 4621.00    0.98432   1.29952    0.000
 4622.00    1.10298   1.29603    0.000
 4623.00    1.17339   1.27890    0.000
 4624.00    1.20947   1.27965    0.000
 4625.00    1.22706   1.30944    0.000
 4626.00    1.11919   1.32138    0.000
 4627.00    0.95266   1.29131    0.000
 4628.00    0.94895   1.25763    0.000
 4629.00    1.01088   1.24961    0.000
 4630.00    1.09208   1.25099    0.000
 4631.00    1.17990   1.24015    0.000
 4632.00    1.12721   1.22281    0.000
 4633.00    1.03382   1.21439    0.000
 4634.00    1.12150   1.22144    0.000
 4635.00    1.25256   1.24716    0.000
 4636.00    1.31273   1.27429    0.000
 4637.00    1.35920   1.27546    0.000
 4638.00    1.24112   1.25037    0.000
 4639.00    1.09833   1.20842    0.000
 4640.00    1.03595   1.15425    0.000
 4641.00    0.98242   1.11485    0.000
 4642.00    1.16004   1.11883    0.000
 4643.00    1.35447   1.16135    0.000
 4644.00    1.20611   1.21526    0.000
 4645.00    1.04478   1.25511    0.000
 4646.00    0.94380   1.27544    0.000
 4647.00    0.84649   1.27579    0.000
 4648.00    0.87412   1.24668    0.000
 4649.00    0.89757   1.20335    0.000
 4650.00    0.85284   1.18268    0.000
 4651.00    0.83055   1.20631    0.000
 4652.00    1.03779   1.27111    0.000
 4653.00    1.20782   1.34105    0.000
 4654.00    1.10581   1.37058    0.000
 4655.00    1.02685   1.34709    0.000
 4656.00    1.07668   1.29370    0.000
 4657.00    1.12933   1.24592    0.000
 4658.00    1.19459   1.22340    0.000
 4659.00    1.22543   1.20228    0.000
 4660.00    1.13022   1.14273    0.000
 4661.00    1.07683   1.06413    0.000
 4662.00    1.15175   1.03541    0.000
 4663.00    1.17167   1.07917    0.000
 4664.00    1.04819   1.15419    0.000
 4665.00    0.99506   1.21692    0.000
 4666.00    1.09964   1.24541    0.000
 4667.00    1.15340   1.24387    0.000
 4668.00    1.10847   1.24144    0.000
 4669.00    1.08582   1.25998    0.000
 4670.00    1.10089   1.28898    0.000
 4671.00    1.09759   1.29496    0.000
 4672.00    1.06705   1.26359    0.000
 4673.00    1.06565   1.22058    0.000
 4674.00    1.10226   1.19319    0.000
 4675.00    1.11719   1.18502    0.000
 4676.00    1.10720   1.19706    0.000
 4677.00    1.04438   1.22808    0.000
 4678.00    0.92802   1.25723    0.000
 4679.00    0.86700   1.26722    0.000
 4680.00    0.85542   1.26408    0.000
 4681.00    0.97434   1.25562    0.000
 4682.00    1.19602   1.24704    0.000
 4683.00    1.24616   1.24331    0.000
 4684.00    1.17748   1.23742    0.000
 4685.00    0.99316   1.22600    0.000
 4686.00    0.73860   1.22382    0.000
 4687.00    0.67364   1.23791    0.000
 4688.00    0.70919   1.26017    0.000
 4689.00    0.82349   1.28416    0.000
 4690.00    0.97403   1.29635    0.000
 4691.00    0.94009   1.27449    0.000
 4692.00    0.83306   1.22327    0.000
 4693.00    0.94077   1.18438    0.000
 4694.00    1.12100   1.18008    0.000
 4695.00    1.13059   1.18254    0.000
 4696.00    1.09175   1.16667    0.000
 4697.00    1.05553   1.15203    0.000
 4698.00    1.01992   1.16889    0.000
 4699.00    0.95838   1.20245    0.000
 4700.00    0.89196   1.20974    0.000
 4701.00    0.99547   1.18247    0.000
 4702.00    1.12368   1.15294    0.000
 4703.00    1.07018   1.15189    0.000
 4704.00    0.99746   1.18693    0.000
 4705.00    0.81114   1.23688    0.000
 4706.00    0.61701   1.26082    0.000
 4707.00    0.81011   1.24107    0.000
 4708.00    1.01639   1.20478    0.000
 4709.00    1.06771   1.19902    0.000
 4710.00    1.11393   1.23768    0.000
 4711.00    1.00199   1.28420    0.000
 4712.00    0.89602   1.31125    0.000
 4713.00    0.88156   1.32756    0.000
 4714.00    0.85488   1.33830    0.000
 4715.00    0.70845   1.33434    0.000
 4716.00    0.59758   1.31936    0.000
 4717.00    0.73807   1.31550    0.000
 4718.00    0.88380   1.33249    0.000
 4719.00    1.05805   1.34492    0.000
 4720.00    1.20092   1.31734    0.000
 4721.00    1.20699   1.24839    0.000
 4722.00    1.19068   1.18166    0.000
 4723.00    1.09406   1.15412    0.000
 4724.00    1.04318   1.15801    0.000
 4725.00    1.13000   1.17557    0.000
 4726.00    1.15141   1.20408    0.000
 4727.00    1.00526   1.23497    0.000
 4728.00    0.94713   1.25594    0.000
 4729.00    1.08306   1.25889    0.000
 4730.00    1.15901   1.24066    0.000
 4731.00    1.12025   1.23059    0.000
 4732.00    1.03289   1.25704    0.000
 4733.00    0.86444   1.28703    0.000
 4734.00    0.77767   1.28451    0.000
 4735.00    0.81034   1.27016    0.000
 4736.00    0.88855   1.27469    0.000
 4737.00    1.02531   1.29154    0.000
 4738.00    1.15324   1.29701    0.000
 4739.00    1.27115   1.29387    0.000
 4740.00    1.30308   1.30195    0.000
 4741.00    1.24910   1.31486    0.000
 4742.00    1.14121   1.31635    0.000
 4743.00    0.98581   1.31462    0.000
 4744.00    0.94714   1.31643    0.000
 4745.00    0.99911   1.30837    0.000
 4746.00    1.12052   1.28471    0.000
 4747.00    1.28933   1.25807    0.000
 4748.00    1.32847   1.23923    0.000
 4749.00    1.29002   1.23115    0.000
 4750.00    1.13786   1.23310    0.000
 4751.00    0.92633   1.24434    0.000
 4752.00    0.94969   1.26383    0.000
 4753.00    1.07939   1.28402    0.000
 4754.00    1.13965   1.28673    0.000
 4755.00    1.17288   1.25449    0.000
 4756.00    1.24537   1.20150    0.000
 4757.00    1.33088   1.16360    0.000
 4758.00    1.15679   1.14735    0.000
 4759.00    0.91054   1.13809    0.000
 4760.00    1.01579   1.14129    0.000
 4761.00    1.20145   1.17025    0.015
 4762.00    1.24727   1.21659    0.015
 4763.00    1.26748   1.25868    0.015
 4764.00    1.18460   1.27437    0.015
 4765.00    1.08720   1.25756    0.015
 4766.00    1.09144   1.23958    0.015
 4767.00    1.10599   1.25474    0.015
 4768.00    1.04674   1.29163    0.015
 4769.00    0.98271   1.31328    0.015
 4770.00    1.02902   1.31475    0.015
 4771.00    1.07852   1.31772    0.015
 4772.00    1.06148   1.31813    0.015
 4773.00    1.04600   1.30274    0.015
 4774.00    1.07625   1.28641    0.015
 4775.00    1.10857   1.27904    0.015
 4776.00    1.17092   1.26256    0.015
 4777.00    1.22559   1.23801    0.015
 4778.00    1.20805   1.23217    0.015
 4779.00    1.17597   1.23606    0.014
 4780.00    1.04439   1.22490    0.014
 4781.00    0.93960   1.21678    0.014
 4782.00    0.97671   1.22270    0.014
 4783.00    1.04108   1.22501    0.014
 4784.00    1.22155   1.22888    0.014
 4785.00    1.34348   1.24613    0.014
 4786.00    1.25967   1.27356    0.014
 4787.00    1.16264   1.31220    0.014
 4788.00    1.02654   1.35302    0.014
 4789.00    0.93372   1.37099    0.014
 4790.00    0.94985   1.35515    0.014
 4791.00    0.98582   1.31721    0.014
 4792.00    1.06481   1.27364    0.014
 4793.00    1.07921   1.24365    0.014
 4794.00    0.97201   1.24553    0.014
 4795.00    0.91634   1.27858    0.014
 4796.00    0.94533   1.31650    0.014
 4797.00    1.00817   1.32583    0.014
 4798.00    1.11980   1.29869    0.015
 4799.00    1.17230   1.26293    0.015
 4800.00    1.14984   1.24623    0.015
 4801.00    1.07854   1.24183    0.015
 4802.00    0.95269   1.24159    0.014
 4803.00    0.94655   1.25272    0.014
 4804.00    1.05834   1.26871    0.015
 4805.00    1.11586   1.27641    0.015
 4806.00    1.12624   1.27752    0.014
 4807.00    1.04648   1.28113    0.014
 4808.00    0.89774   1.29065    0.015
 4809.00    0.93160   1.30400    0.015
 4810.00    1.08827   1.31926    0.015
 4811.00    1.09508   1.33360    0.014
 4812.00    1.01357   1.34528    0.014
 4813.00    1.04775   1.35278    0.014
 4814.00    1.14137   1.34961    0.014
 4815.00    1.09207   1.32773    0.014
 4816.00    0.97913   1.27878    0.015
 4817.00    1.07693   1.21676    0.015
 4818.00    1.25535   1.19290    0.015
 4819.00    1.10399   1.22711    0.015
 4820.00    0.84540   1.27248    0.015
 4821.00    0.96545   1.28625    0.015
 4822.00    1.18858   1.27415    0.015
 4823.00    1.21056   1.26316    0.015
 4824.00    1.18760   1.25894    0.015
 4825.00    1.10931   1.24532    0.015
 4826.00    1.02117   1.23035    0.015
 4827.00    1.08120   1.23943    0.015
 4828.00    1.16142   1.26404    0.014
 4829.00    1.10563   1.27652    0.015
 4830.00    1.03664   1.27510    0.015
 4831.00    1.06305   1.27094    0.014
 4832.00    1.09526   1.25552    0.014
 4833.00    1.13084   1.22714    0.014
 4834.00    1.16596   1.21105    0.015
 4835.00    1.10016   1.21812    0.014
 4836.00    1.04127   1.22544    0.014
 4837.00    1.16271   1.22457    0.014
 4838.00    1.27608   1.23811    0.014
 4839.00    1.27931   1.26573    0.014
 4840.00    1.28664   1.27353    0.014
 4841.00    1.33098   1.24406    0.014
 4842.00    1.36420   1.20278    0.014
 4843.00    1.32367   1.19305    0.014
 4844.00    1.26541   1.21831    0.014
 4845.00    1.11561   1.23909    0.014
 4846.00    1.03122   1.23425    0.014
 4847.00    1.21909   1.20389    0.014
 4848.00    1.34463   1.14473    0.000
 4849.00    1.25558   1.08407    0.000
 4850.00    1.14405   1.06930    0.000
 4851.00    0.96734   1.08757    0.000
 4852.00    0.81174   1.07290    0.000
 4853.00    0.70842   0.99217    0.000
 4854.00    0.71085   0.87738    0.000
 4855.00    0.93887   0.80582    0.000
 4856.00    1.08341   0.83438    0.000
 4857.00    1.07324   0.92561    0.000
 4858.00    1.09491   1.00572    0.000
 4859.00    1.16812   1.06136    0.000
 4860.00    1.14617   1.10692    0.000
 4861.00    0.98909   1.13981    0.000
 4862.00    0.89301   1.15704    0.000
 4863.00    0.87311   1.15180    0.000
 4864.00    0.83766   1.10701    0.000
 4865.00    0.78507   1.04700    0.000
 4866.00    0.79845   1.03625    0.000
 4867.00    0.87590   1.08301    0.000
 4868.00    0.91528   1.13178    0.000
 4869.00    0.92207   1.15421    0.000
 4870.00    0.92959   1.16688    0.000
 4871.00    0.93768   1.18529    0.000
 4872.00    1.06290   1.21585    0.000
 4873.00    1.26576   1.25209    0.000
 4874.00    1.24726   1.25998    0.000
 4875.00    1.10028   1.23061    0.014
 4876.00    1.00961   1.20378    0.014
 4877.00    0.94743   1.19415    0.014
 4878.00    0.99398   1.17617    0.014
 4879.00    1.08815   1.14664    0.014
 4880.00    1.09937   1.13212    0.014
 4881.00    1.07941   1.14286    0.014
 4882.00    1.11629   1.15593    0.014
 4883.00    1.17130   1.14141    0.014
 4884.00    1.22588   1.09865    0.014
 4885.00    1.28035   1.07808    0.014
 4886.00    1.23476   1.12923    0.014
 4887.00    1.16734   1.22421    0.014
 4888.00    1.09231   1.30368    0.014
 4889.00    1.01596   1.34618    0.014
 4890.00    1.01099   1.35721    0.014
 4891.00    1.01541   1.34837    0.014
 4892.00    1.01242   1.32246    0.014
 4893.00    1.00873   1.28225    0.014
 4894.00    0.99644   1.25468    0.014
 4895.00    0.98365   1.25482    0.014
 4896.00    0.95623   1.25466    0.014
 4897.00    0.93033   1.24284    0.014
 4898.00    1.10737   1.25124    0.014
 4899.00    1.27546   1.29042    0.014
 4900.00    1.23120   1.32225    0.014
 4901.00    1.19135   1.31265    0.014
 4902.00    1.20844   1.26678    0.014
 4903.00    1.21610   1.20840    0.014
 4904.00    1.14174   1.16758    0.014
 4905.00    1.08302   1.17105    0.014
 4906.00    1.12497   1.21055    0.014
 4907.00    1.14872   1.25378    0.014
 4908.00    1.08098   1.28756    0.014
 4909.00    1.03335   1.30994    0.014
 4910.00    1.06753   1.30062    0.014
 4911.00    1.08609   1.23926    0.014
 4912.00    1.05194   1.13962    0.014
 4913.00    1.04463   1.04892    0.014
 4914.00    1.11368   1.01515    0.014
 4915.00    1.14192   1.05009    0.014
 4916.00    1.07087   1.11117    0.014
 4917.00    1.05896   1.14229    0.014
 4918.00    1.17119   1.14864    0.014
 4919.00    1.25342   1.17815    0.014
 4920.00    1.28090   1.23435    0.014
 4921.00    1.21328   1.28157    0.014
 4922.00    0.99399   1.31156    0.014
 4923.00    0.88461   1.33160    0.014
 4924.00    0.92906   1.33575    0.014
 4925.00    1.01713   1.31776    0.014
 4926.00    1.15890   1.27101    0.014
 4927.00    1.20644   1.21161    0.014
 4928.00    1.15168   1.19021    0.014
 4929.00    1.12295   1.21385    0.014
 4930.00    1.11916   1.22091    0.014
 4931.00    1.07181   1.17673    0.014
 4932.00    0.98770   1.12218    0.014
 4933.00    0.99514   1.12014    0.014
 4934.00    1.07066   1.18190    0.014
 4935.00    1.18072   1.25579    0.014
 4936.00    1.31335   1.29970    0.014
 4937.00    1.24582   1.31839    0.014
 4938.00    1.06388   1.31744    0.014
 4939.00    1.05324   1.29777    0.014
 4940.00    1.12787   1.28507    0.000
 4941.00    1.06497   1.29784    0.000
 4942.00    0.94283   1.31843    0.000
 4943.00    0.95714   1.32920    0.000
 4944.00    1.02182   1.33461    0.000
 4945.00    1.06593   1.33506    0.000
 4946.00    1.10360   1.32169    0.000
 4947.00    1.12006   1.30133    0.000
 4948.00    1.13098   1.28414    0.000
 4949.00    1.04326   1.24967    0.000
 4950.00    0.93452   1.17114    0.000
 4951.00    1.09135   1.09082    0.000
 4952.00    1.29292   1.09799    0.000
 4953.00    1.18455   1.19028    0.000
 4954.00    1.03675   1.27301    0.000
 4955.00    1.15284   1.29940    0.000
 4956.00    1.29233   1.29791    0.000
 4957.00    1.31240   1.29132    0.000
 4958.00    1.32617   1.26709    0.000
 4959.00    1.23512   1.22635    0.000
 4960.00    1.14145   1.19873    0.000
 4961.00    0.99937   1.19576    0.000
 4962.00    0.86657   1.20325    0.000
 4963.00    0.93550   1.21287    0.000
 4964.00    1.00026   1.22736    0.000
 4965.00    1.01390   1.25002    0.000
 4966.00    1.02975   1.27523    0.000
 4967.00    1.06420   1.29430    0.000
 4968.00    1.09723   1.30445    0.000
 4969.00    1.12139   1.30220    0.000
 4970.00    1.13680   1.28626    0.000
 4971.00    1.10931   1.25770    0.000
 4972.00    1.08966   1.22313    0.000
 4973.00    1.10119   1.19569    0.000
 4974.00    1.07526   1.16759    0.000
 4975.00    0.92539   1.11538    0.000
 4976.00    0.85340   1.05241    0.000
 4977.00    0.99914   1.02578    0.000
 4978.00    1.09575   1.05130    0.000
 4979.00    1.07486   1.10523    0.000
 4980.00    1.02113   1.16758    0.000
 4981.00    0.89957   1.22037    0.000
 4982.00    0.87704   1.24038    0.000
 4983.00    1.03246   1.22741    0.000
 4984.00    1.13979   1.20511    0.000
 4985.00    1.17157   1.19623    0.000
 4986.00    1.17867   1.20131    0.000
 4987.00    1.15173   1.20391    0.000
 4988.00    1.09528   1.20907    0.000
 4989.00    1.00302   1.22752    0.000
 4990.00    0.94299   1.24225    0.000
 4991.00    0.91746   1.23683    0.000
 4992.00    0.88101   1.20793    0.000
 4993.00    0.83424   1.16336    0.000
 4994.00    0.86922   1.12706    0.000
 4995.00    0.97225   1.11609    0.000
 4996.00    0.99581   1.12519    0.000
 4997.00    0.96115   1.13340    0.000
 4998.00    1.01929   1.11505    0.000
 4999.00    1.13716   1.07351    0.000
 5000.00    1.12203   1.05606    0.000
 5001.00    1.03203   1.09650    0.000
 5002.00    1.06657   1.16211    0.000
 5003.00    1.16214   1.19654    0.000
 5004.00    1.19793   1.18371    0.000
 5005.00    1.20841   1.13809    0.000
 5006.00    1.19295   1.08066    0.000
 5007.00    1.16809   1.04015    0.000
 5008.00    1.12262   1.03876    0.000
 5009.00    1.07082   1.06923    0.000
 5010.00    1.11104   1.09124    0.000
 5011.00    1.17477   1.08099    0.000
 5012.00    1.17636   1.07015    0.000
 5013.00    1.16504   1.08977    0.000
 5014.00    0.98446   1.11741    0.000
 5015.00    0.77617   1.12282    0.000
 5016.00    0.93947   1.12097    0.000
 5017.00    1.14837   1.14086    0.000
 5018.00    1.01440   1.17281    0.000
 5019.00    0.85145   1.18568    0.000
 5020.00    0.91381   1.16866    0.000
 5021.00    0.98717   1.14393    0.000
 5022.00    1.05782   1.14719    0.000
 5023.00    1.12574   1.17645    0.000
 5024.00    1.02944   1.20330    0.000
 5025.00    0.94167   1.22774    0.000
 5026.00    1.02531   1.25767    0.000
 5027.00    1.09958   1.27058    0.000
 5028.00    1.06448   1.23833    0.000
 5029.00    1.03126   1.17697    0.013
 5030.00    1.01314   1.14024    0.014
 5031.00    0.98369   1.13984    0.014
 5032.00    0.88561   1.12655    0.013
 5033.00    0.82064   1.07193    0.013
 5034.00    0.91404   1.00680    0.013
 5035.00    0.99573   0.99221    0.014
 5036.00    1.03176   1.05725    0.014
 5037.00    1.07266   1.15566    0.013
 5038.00    1.12936   1.23149    0.013
 5039.00    1.12942   1.27469    0.013
 5040.00    0.97396   1.28039    0.013
 5041.00    0.85563   1.23881    0.013
 5042.00    0.82460   1.17330    0.013
 5043.00    0.85760   1.12782    0.013
 5044.00    1.02078   1.11642    0.013
 5045.00    1.14214   1.12450    0.013
 5046.00    1.18953   1.14808    0.013
 5047.00    1.18762   1.18796    0.013
 5048.00    1.10942   1.22630    0.013
 5049.00    1.02082   1.24537    0.013
 5050.00    0.91809   1.24973    0.013
 5051.00    0.95316   1.25480    0.013
 5052.00    1.15316   1.26402    0.013
 5053.00    1.21301   1.27366    0.013
 5054.00    1.12496   1.28608    0.013
 5055.00    1.08397   1.29623    0.013
 5056.00    1.08679   1.28344    0.013
 5057.00    1.03549   1.23343    0.013
 5058.00    0.93978   1.16934    0.013
 5059.00    0.87490   1.13949    0.013
 5060.00    0.83229   1.14933    0.013
 5061.00    0.93236   1.15906    0.013
 5062.00    1.12289   1.16094    0.013
 5063.00    1.15686   1.17613    0.013
 5064.00    1.10402   1.19083    0.013
 5065.00    1.05599   1.17831    0.013
 5066.00    1.01026   1.15983    0.013
 5067.00    1.02107   1.16524    0.013
 5068.00    1.05542   1.17716    0.013
 5069.00    1.02456   1.17806    0.013
 5070.00    0.97049   1.18016    0.013
 5071.00    1.01451   1.17312    0.013
 5072.00    1.08803   1.12496    0.013
 5073.00    0.94502   1.05691    0.013
 5074.00    0.74793   1.03256    0.013
 5075.00    0.80759   1.06062    0.013
 5076.00    0.91927   1.09446    0.013
 5077.00    0.94956   1.11582    0.013
 5078.00    0.96691   1.14265    0.013
 5079.00    0.97340   1.17299    0.013
 5080.00    0.97860   1.18665    0.012
 5081.00    0.96866   1.18704    0.012
 5082.00    0.95751   1.19279    0.012
 5083.00    1.00639   1.20398    0.012
 5084.00    1.05799   1.21222    0.012
 5085.00    1.03357   1.22383    0.012
 5086.00    1.00691   1.24391    0.012
 5087.00    0.91258   1.25747    0.012
 5088.00    0.82717   1.24763    0.012
 5089.00    0.90750   1.21527    0.012
 5090.00    0.97907   1.16977    0.012
 5091.00    0.95313   1.11781    0.012
 5092.00    0.92576   1.07432    0.012
 5093.00    0.88733   1.06940    0.012
 5094.00    0.86680   1.11269    0.012
 5095.00    0.95168   1.16780    0.013
 5096.00    1.01518   1.19464    0.013
 5097.00    0.97886   1.19097    0.013
 5098.00    0.96696   1.17703    0.013
 5099.00    1.04817   1.16216    0.013
 5100.00    1.09901   1.14114    0.013
 5101.00    1.05328   1.11919    0.012
 5102.00    1.02805   1.10923    0.013
 5103.00    1.05807   1.10887    0.013
 5104.00    1.04873   1.11980    0.013
 5105.00    0.94836   1.14859    0.013
 5106.00    0.91249   1.17961    0.013
 5107.00    1.00565   1.19778    0.013
 5108.00    1.06925   1.20724    0.013
 5109.00    1.08133   1.21656    0.013
 5110.00    1.04056   1.23207    0.013
 5111.00    0.91916   1.24780    0.013
 5112.00    0.85789   1.24770    0.013
 5113.00    0.87722   1.22777    0.013
 5114.00    0.95977   1.19737    0.013
 5115.00    1.11691   1.16251    0.013
 5116.00    1.12708   1.12147    0.013
 5117.00    0.98433   1.08348    0.013
 5118.00    0.90552   1.06965    0.013
 5119.00    0.88539   1.08025    0.013
 5120.00    0.91740   1.09269    0.013
 5121.00    0.99159   1.09317    0.013
 5122.00    1.05037   1.08738    0.013
 5123.00    1.09819   1.09006    0.013
 5124.00    1.00598   1.10919    0.013
 5125.00    0.82631   1.13344    0.013
 5126.00    0.87928   1.14814    0.013
 5127.00    1.05925   1.15949    0.013
 5128.00    1.06230   1.17818    0.013
 5129.00    0.98143   1.18676    0.013
 5130.00    0.95259   1.16403    0.013
 5131.00    0.94505   1.12414    0.013
 5132.00    0.95166   1.09448    0.013
 5133.00    0.96322   1.09354    0.013
 5134.00    0.98093   1.11304    0.013
 5135.00    1.00046   1.11386    0.013
 5136.00    0.95522   1.09667    0.013
 5137.00    0.89414   1.10211    0.013
 5138.00    0.86039   1.12115    0.013
 5139.00    0.83202   1.11705    0.013
 5140.00    1.00301   1.09729    0.013
 5141.00    1.20474   1.09165    0.013
 5142.00    1.18802   1.10654    0.013
 5143.00    1.14643   1.12061    0.012
 5144.00    1.03749   1.11438    0.012
 5145.00    0.92341   1.09576    0.012
 5146.00    0.99403   1.08007    0.013
 5147.00    1.07226   1.07429    0.013
 5148.00    1.08488   1.08896    0.013
 5149.00    1.09441   1.12683    0.013
 5150.00    0.99648   1.17098    0.012
 5151.00    0.90308   1.20109    0.012
 5152.00    0.88806   1.21026    0.012
 5153.00    0.88169   1.20807    0.012
 5154.00    0.96737   1.19982    0.013
 5155.00    1.03511   1.17893    0.013
 5156.00    0.96787   1.15305    0.013
 5157.00    0.90620   1.12917    0.012
 5158.00    0.87645   1.08289    0.012
 5159.00    0.84643   0.99419    0.012
 5160.00    0.81519   0.88864    0.012
 5161.00    0.83363   0.82397    0.013
 5162.00    1.03749   0.83978    0.013
 5163.00    1.18823   0.90503    0.013
 5164.00    1.17327   0.93251    0.013
 5165.00    1.11194   0.88379    0.013
 5166.00    0.92782   0.83657    0.012
 5167.00    0.82950   0.88246    0.012
 5168.00    0.92630   0.99776    0.013
 5169.00    0.96780   1.09264    0.013
 5170.00    0.90041   1.13474    0.013
 5171.00    0.85122   1.14958    0.013
 5172.00    0.83325   1.15218    0.013
 5173.00    0.82881   1.13774    0.013
 5174.00    0.84469   1.09866    0.013
 5175.00    0.87498   1.02122    0.013
 5176.00    0.92431   0.91119    0.013
 5177.00    0.91775   0.83614    0.013
 5178.00    0.84617   0.86866    0.012
 5179.00    0.80860   0.98078    0.012
 5180.00    0.80591   1.07906    0.012
 5181.00    0.81234   1.12005    0.012
 5182.00    0.82701   1.13189    0.012
 5183.00    0.84499   1.14069    0.012
 5184.00    0.86561   1.11989    0.012
 5185.00    0.95738   1.06156    0.012
 5186.00    1.09907   1.02535    0.012
 5187.00    1.12618   1.04112    0.012
 5188.00    1.08280   1.06606    0.012
 5189.00    1.06404   1.07628    0.012
 5190.00    1.05852   1.09135    0.000
 5191.00    1.06991   1.11849    0.000
 5192.00    1.08919   1.14825    0.000
 5193.00    1.07196   1.17054    0.000
 5194.00    1.04003   1.17632    0.000
 5195.00    1.06827   1.16577    0.000
 5196.00    1.11716   1.14296    0.000
 5197.00    1.13994   1.10053    0.000
 5198.00    1.15517   1.03936    0.000
 5199.00    1.16786   0.99286    0.000
 5200.00    1.17994   0.98257    0.000
 5201.00    1.11022   0.98506    0.000
 5202.00    1.02475   0.99019    0.000
 5203.00    0.94402   1.01958    0.000
 5204.00    0.86399   1.07498    0.000
 5205.00    0.90804   1.13714    0.000
 5206.00    0.96568   1.18500    0.000
 5207.00    1.01789   1.19583    0.000
 5208.00    1.06971   1.16442    0.000
 5209.00    1.02136   1.12150    0.000
 5210.00    0.96928   1.10914    0.000
 5211.00    0.94709   1.13802    0.013
 5212.00    0.92628   1.18412    0.013
 5213.00    0.95067   1.21953    0.013
 5214.00    0.98247   1.23559    0.012
 5215.00    1.13432   1.23400    0.012
 5216.00    1.25922   1.21059    0.012
 5217.00    1.10972   1.16139    0.012
 5218.00    0.96334   1.08987    0.012
 5219.00    0.83978   1.01061    0.012
 5220.00    0.75323   0.96349    0.012
 5221.00    0.87289   0.99301    0.012
 5222.00    0.97613   1.08052    0.012
 5223.00    1.00635   1.15709    0.012
 5224.00    1.03154   1.18727    0.012
 5225.00    1.03832   1.17198    0.012
 5226.00    1.04004   1.12804    0.013
 5227.00    1.02628   1.09553    0.012
 5228.00    1.02888   1.10303    0.012
 5229.00    1.07405   1.14273    0.012
 5230.00    1.06039   1.18936    0.012
 5231.00    0.91519   1.21934    0.013
 5232.00    0.84473   1.22691    0.012
 5233.00    0.91915   1.22437    0.012
 5234.00    1.00570   1.22375    0.012
 5235.00    1.11277   1.22314    0.012
 5236.00    1.11672   1.22188    0.012
 5237.00    0.96796   1.23104    0.012
 5238.00    0.91940   1.24131    0.012
 5239.00    1.00132   1.22078    0.012
 5240.00    1.06754   1.17238    0.012
 5241.00    1.11578   1.13938    0.012
 5242.00    1.10097   1.13307    0.012
 5243.00    1.02240   1.12597    0.012
 5244.00    1.03962   1.12006    0.012
 5245.00    1.14232   1.13668    0.012
 5246.00    1.15467   1.16052    0.012
 5247.00    1.09600   1.16125    0.012
 5248.00    1.08302   1.14676    0.012
 5249.00    1.10164   1.15676    0.012
 5250.00    1.07867   1.20334    0.012
 5251.00    1.03049   1.25228    0.012
 5252.00    1.00694   1.27024    0.012
 5253.00    0.99643   1.24988    0.012
 5254.00    1.04973   1.19689    0.012
 5255.00    1.13233   1.12345    0.012
 5256.00    1.15621   1.04900    0.012
 5257.00    1.15688   0.98943    0.012
 5258.00    1.11529   0.95123    0.012
 5259.00    1.05947   0.94464    0.013
 5260.00    1.05428   0.97396    0.013
 5261.00    1.06342   0.99674    0.013
 5262.00    1.06822   0.96305    0.013
 5263.00    1.07201   0.91688    0.013
 5264.00    1.00102   0.94444    0.013
 5265.00    0.91600   1.03089    0.013
 5266.00    0.95483   1.09292    0.013
 5267.00    1.01160   1.10206    0.013
 5268.00    1.07376   1.08871    0.013
 5269.00    1.13649   1.09602    0.013
 5270.00    1.18582   1.14713    0.013
 5271.00    1.23425   1.21063    0.013
 5272.00    1.15854   1.23582    0.013
 5273.00    1.07867   1.21524    0.013
 5274.00    1.05420   1.17598    0.013
 5275.00    1.03028   1.13936    0.013
 5276.00    1.02175   1.11220    0.013
 5277.00    1.00650   1.10919    0.013
 5278.00    0.88903   1.15175    0.013
 5279.00    0.79252   1.22385    0.012
 5280.00    0.90041   1.27483    0.013
 5281.00    1.00294   1.28433    0.013
 5282.00    1.06775   1.27856    0.012
 5283.00    1.12602   1.28257    0.012
 5284.00    1.14876   1.29049    0.012
 5285.00    1.15536   1.28523    0.012
 5286.00    1.09179   1.26795    0.012
 5287.00    1.04099   1.25300    0.012
 5288.00    1.03584   1.23680    0.012
 5289.00    1.04284   1.19616    0.012
 5290.00    1.08630   1.13068    0.012
 5291.00    1.12458   1.08384    0.012
 5292.00    1.14962   1.09464    0.012
 5293.00    1.17823   1.13979    0.012
 5294.00    1.21470   1.16765    0.012
 5295.00    1.19545   1.17501    0.012
 5296.00    1.06990   1.19570    0.013
 5297.00    0.99772   1.23691    0.013
 5298.00    1.01441   1.27065    0.012
 5299.00    1.00775   1.27451    0.012
 5300.00    0.96703   1.25803    0.012
 5301.00    0.93329   1.24967    0.012
 5302.00    0.90850   1.26265    0.012
 5303.00    0.92381   1.28152    0.012
 5304.00    0.98446   1.28723    0.012
 5305.00    1.03581   1.27809    0.012
 5306.00    1.07788   1.26258    0.012
 5307.00    1.12684   1.24837    0.012
 5308.00    1.18184   1.23361    0.012
 5309.00    1.15081   1.21186    0.012
 5310.00    1.05310   1.19526    0.012
 5311.00    1.01875   1.20080    0.012
 5312.00    1.02758   1.21807    0.012
 5313.00    1.02952   1.22850    0.012
 5314.00    1.02736   1.22943    0.012
 5315.00    1.08885   1.21917    0.012
 5316.00    1.18350   1.19046    0.012
 5317.00    1.15058   1.15192    0.012
 5318.00    1.06004   1.12993    0.012
 5319.00    1.07655   1.11835    0.012
 5320.00    1.13465   1.07102    0.012
 5321.00    1.10964   0.99309    0.012
 5322.00    1.05717   0.96833    0.012
 5323.00    0.99903   1.03664    0.012
 5324.00    0.93933   1.13137    0.012
 5325.00    0.98203   1.18142    0.012
 5326.00    1.04807   1.19226    0.012
 5327.00    1.06127   1.20388    0.012
 5328.00    1.06482   1.22327    0.012
 5329.00    1.10805   1.22946    0.012
 5330.00    1.15684   1.21906    0.012
 5331.00    1.15528   1.20303    0.012
 5332.00    1.14863   1.17449    0.012
 5333.00    1.04856   1.13142    0.012
 5334.00    0.94250   1.11108    0.012
 5335.00    1.05315   1.14160    0.012
 5336.00    1.16981   1.19196    0.012
 5337.00    1.10070   1.21713    0.012
 5338.00    1.03434   1.20881    0.012
 5339.00    1.04640   1.18956    0.012
 5340.00    1.05766   1.17966    0.012
 5341.00    1.05744   1.17120    0.012
 5342.00    1.06234   1.15885    0.012
 5343.00    1.11524   1.16624    0.012
 5344.00    1.15673   1.20256    0.012
 5345.00    1.12037   1.24011    0.012
 5346.00    1.09699   1.25914    0.012
 5347.00    1.14218   1.27334    0.012
 5348.00    1.15693   1.29439    0.012
 5349.00    1.04244   1.31144    0.012
 5350.00    0.97572   1.31712    0.012
 5351.00    1.07646   1.31698    0.012
 5352.00    1.16984   1.31372    0.014
 5353.00    1.24158   1.30170    0.033
 5354.00    1.29237   1.27546   -1.000
 5355.00    1.29055   1.24194   -1.000
 5356.00    1.29889   1.21664   -1.000
 5357.00    1.32920   1.20202   -1.000
 5358.00    1.31431   1.19103   -1.000
 5359.00    1.21452   1.18600   -1.000
 5360.00    1.12227   1.18631   -1.000
 5361.00    1.04240   1.17936   -1.000
 5362.00    0.98718   1.15039   -1.000
 5363.00    0.96743   1.09905   -1.000
 5364.00    1.00396   1.05970    0.053
 5365.00    1.11169   1.07670    0.016
 5366.00    1.09527   1.14693    0.012
 5367.00    0.94041   1.22069    0.011
 5368.00    0.89335   1.26105   -2.000
 5369.00    0.95226   1.26754   -2.000
 5370.00    1.02363   1.25863   -2.000
 5371.00    1.10581   1.25274   -2.000
 5372.00    1.13603   1.24956   -2.000
 5373.00    1.12657   1.23776   -2.000
 5374.00    1.14534   1.22029   -2.000
 5375.00    1.18306   1.20668   -2.000
 5376.00    1.15882   1.20045   -2.000
 5377.00    1.09814   1.20892   -2.000
 5378.00    1.11310   1.23145   -2.000
 5379.00    1.16684   1.24875   -2.000
 5380.00    1.19039   1.24871   -2.000
 5381.00    1.20053   1.23458   -2.000
 5382.00    1.27035   1.21070   -2.000
 5383.00    1.36295   1.18486    0.012
 5384.00    1.34835   1.16744    0.012
 5385.00    1.29897   1.15994    0.012
 5386.00    1.28500   1.15818    0.012
 5387.00    1.28065   1.15877    0.012
 5388.00    1.23655   1.15126    0.011
 5389.00    1.18361   1.12208    0.011
 5390.00    1.06250   1.08929    0.011
 5391.00    0.92929   1.09466    0.011
 5392.00    1.00486   1.13563    0.011
 5393.00    1.10875   1.16960    0.011
 5394.00    1.08734   1.18269    0.012
 5395.00    1.05383   1.18342    0.012
 5396.00    1.03176   1.15928    0.012
 5397.00    1.01037   1.10212    0.012
 5398.00    1.11277   1.04420    0.012
 5399.00    1.21738   1.02968    0.012
 5400.00    1.15327   1.06331    0.012
 5401.00    1.08969   1.10209    0.012
 5402.00    1.03985   1.10781    0.011
 5403.00    0.99812   1.09814    0.011
 5404.00    1.06632   1.11606    0.011
 5405.00    1.12564   1.16121    0.012
 5406.00    1.10500   1.19461    0.011
 5407.00    1.08350   1.19920    0.011
 5408.00    1.05639   1.19781    0.011
 5409.00    1.05098   1.21357    0.011
 5410.00    1.15722   1.23622    0.011
 5411.00    1.23298   1.24158    0.011
 5412.00    1.18222   1.22620    0.011
 5413.00    1.12688   1.20659    0.011
 5414.00    1.05584   1.19967    0.011
 5415.00    0.99618   1.20241    0.011
 5416.00    0.96941   1.19190    0.011
 5417.00    0.96102   1.16910    0.011
 5418.00    0.99798   1.17069    0.011
 5419.00    1.00203   1.20788    0.011
 5420.00    0.93600   1.23864    0.011
 5421.00    0.93201   1.21761    0.011
 5422.00    1.04276   1.15608    0.011
 5423.00    1.11896   1.11833    0.011
 5424.00    1.13936   1.13305    0.011
 5425.00    1.15416   1.15287    0.011
 5426.00    1.16104   1.13891    0.011
 5427.00    1.17813   1.11087    0.011
 5428.00    1.20795   1.10244    0.011
 5429.00    1.24857   1.12457    0.011
 5430.00    1.30107   1.16835    0.011
 5431.00    1.25657   1.21812    0.011
 5432.00    1.11803   1.25800    0.011
 5433.00    1.05698   1.27945    0.011
 5434.00    1.06218   1.28563    0.011
 5435.00    1.11662   1.28389    0.011
 5436.00    1.20813   1.27313    0.011
 5437.00    1.22668   1.24111    0.011
 5438.00    1.19694   1.18152    0.011
 5439.00    1.13218   1.11503    0.011
 5440.00    1.04713   1.08663    0.011
 5441.00    1.06154   1.11981    0.011
 5442.00    1.12616   1.18150    0.011
 5443.00    1.17905   1.22395    0.011
 5444.00    1.22682   1.23460    0.011
 5445.00    1.19816   1.22464    0.011
 5446.00    1.14084   1.19869    0.011
 5447.00    1.11188   1.15334    0.011
 5448.00    1.09193   1.10517    0.011
 5449.00    1.09028   1.09648    0.011
 5450.00    1.09350   1.14259    0.011
 5451.00    1.15305   1.20352    0.011
 5452.00    1.22486   1.23489    0.011
 5453.00    1.16251   1.22927    0.011
 5454.00    1.07699   1.20088    0.011
 5455.00    1.08896   1.16404    0.011
 5456.00    1.11372   1.13901    0.011
 5457.00    1.08263   1.14605    0.011
 5458.00    1.04639   1.17377    0.011
 5459.00    1.07307   1.19306    0.011
 5460.00    1.10329   1.20091    0.011
 5461.00    1.14880   1.20701    0.011
 5462.00    1.19417   1.20635    0.011
 5463.00    1.18963   1.19613    0.011
 5464.00    1.18355   1.18587    0.011
 5465.00    1.14167   1.17656    0.011
 5466.00    1.10550   1.16193    0.011
 5467.00    1.14257   1.14491    0.011
 5468.00    1.15843   1.12055    0.011
 5469.00    0.99073   1.08232    0.011
 5470.00    0.85078   1.06221    0.011
 5471.00    0.88873   1.09249    0.011
 5472.00    0.93041   1.14094    0.011
 5473.00    0.99076   1.15410    0.011
 5474.00    1.03589   1.13488    0.011
 5475.00    1.01917   1.12711    0.011
 5476.00    0.99954   1.15050    0.011
 5477.00    0.97007   1.18849    0.011
 5478.00    0.95618   1.21421   -2.000
 5479.00    0.98657   1.20861   -2.000
 5480.00    1.00072   1.17979   -2.000
 5481.00    0.97544   1.15977   -2.000
 5482.00    0.98744   1.16343   -2.000
 5483.00    1.07754   1.17723   -2.000
 5484.00    1.05246   1.18909   -2.000
 5485.00    0.81759   1.19305   -2.000
 5486.00    0.76884   1.18690   -2.000
 5487.00    1.01632   1.18244   -2.000
 5488.00    1.27958   1.18551   -2.000
 5489.00    1.56489   1.18128   -2.000
 5490.00    1.78650   1.16904   -2.000
 5491.00    1.92978   1.17343   -2.000
 5492.00    1.78630   1.19472   -2.000
 5493.00    1.33206   1.19823   -2.000
 5494.00    1.12009   1.17283   -2.000
 5495.00    1.13972   1.14848   -2.000
 5496.00    1.15149   1.14749   -2.000
 5497.00    1.15665   1.15675   -2.000
 5498.00    1.10839   1.15245   -2.000
 5499.00    1.02049   1.13573   -2.000
 5500.00    1.04008   1.13299   -2.000
 5501.00    1.12976   1.15180   -2.000
 5502.00    1.11340   1.16792    0.011
 5503.00    1.03654   1.16478    0.011
 5504.00    1.00606   1.14578    0.011
 5505.00    0.99863   1.12246    0.011
 5506.00    0.99962   1.11139    0.011
 5507.00    1.00423   1.12029    0.011
 5508.00    0.99334   1.14039    0.011
 5509.00    0.97673   1.16188    0.011
 5510.00    0.93968   1.18474    0.011
 5511.00    0.89625   1.20903    0.010
 5512.00    0.94379   1.22474    0.010
 5513.00    1.01501   1.22541    0.010
 5514.00    1.02319   1.21910    0.010
 5515.00    1.01799   1.21510    0.010
 5516.00    1.04637   1.21265    0.010
 5517.00    1.08039   1.20431    0.010
 5518.00    1.09945   1.18452    0.010
 5519.00    1.11661   1.15363    0.010
 5520.00    1.10731   1.11854    0.010
 5521.00    1.09568   1.09893    0.010
 5522.00    1.08288   1.11555    0.010
 5523.00    1.07002   1.15766    0.010
 5524.00    1.03008   1.18992    0.010
 5525.00    0.99098   1.19536    0.010
 5526.00    1.05256   1.18279    0.010
 5527.00    1.11125   1.16515    0.010
 5528.00    1.10790   1.15545    0.010
 5529.00    1.10129   1.16254    0.010
 5530.00    1.05490   1.17745    0.010
 5531.00    1.01205   1.18902    0.010
 5532.00    0.99863   1.20136    0.010
 5533.00    0.98962   1.21673    0.010
 5534.00    1.00806   1.22381    0.010
 5535.00    1.02343   1.21300    0.010
 5536.00    1.02376   1.19291    0.010
 5537.00    1.02673   1.18081    0.010
 5538.00    1.04023   1.18001    0.010
 5539.00    1.06290   1.18530    0.012
 5540.00    1.11582   1.19949    0.028
 5541.00    1.17111   1.22152   -1.000
 5542.00    1.23303   1.23865   -1.000
 5543.00    1.27448   1.24380   -1.000
 5544.00    1.26708   1.23930   -1.000
 5545.00    1.24912   1.22688   -1.000
 5546.00    1.20938   1.20900 2863.700
 5547.00    1.16458   1.19417   -1.000
 5548.00    1.11073   1.19118   -1.000
 5549.00    1.08508   1.19659    0.053
 5550.00    1.10367   1.19986    0.015
 5551.00    1.10565   1.19993    0.010
 5552.00    1.08475   1.20097    0.010
 5553.00    1.06524   1.19960    0.010
 5554.00    1.04742   1.19052    0.010
 5555.00    1.04407   1.17601    0.010
 5556.00    1.05619   1.16536    0.010
 5557.00    1.04805   1.16244    0.010
 5558.00    1.02082   1.15915    0.010
 5559.00    1.04584   1.15271    0.010
 5560.00    1.11429   1.15011    0.010
 5561.00    1.12600   1.15033    0.010
 5562.00    1.09623   1.15010    0.010
 5563.00    1.05249   1.15546    0.010
 5564.00    0.99980   1.16133    0.010
 5565.00    1.02290   1.15371    0.010
 5566.00    1.08860   1.14673    0.010
 5567.00    1.09308   1.15949    0.010
 5568.00    1.06763   1.17642    0.010
 5569.00    1.00914   1.18258    0.010
 5570.00    0.93670   1.18658    0.010
 5571.00    0.90069   1.19215    0.010
 5572.00    0.87787   1.19644    0.010
 5573.00    0.93468   1.19836    0.010
 5574.00    1.01586   1.19374    0.010
 5575.00    1.02071   1.18577    0.010
 5576.00    1.00613   1.18158    0.010
 5577.00    1.02403   1.17311    0.010
 5578.00    1.04866   1.14611    0.010
 5579.00    1.01111   1.10158    0.010
 5580.00    0.96342   1.05894    0.010
 5581.00    0.92866   1.03940    0.010
 5582.00    0.89549   1.04876    0.010
 5583.00    0.92900   1.07784    0.010
 5584.00    0.96813   1.10836    0.010
 5585.00    1.02418   1.12348    0.011
 5586.00    1.08105   1.12230    0.011
 5587.00    1.05401   1.12260    0.010
 5588.00    1.02550   1.14323    0.010
 5589.00    0.98411   1.17141    0.010
 5590.00    0.94632   1.17282    0.010
 5591.00    0.97982   1.14634    0.010
 5592.00    1.00787   1.12203    0.010
 5593.00    0.97269   1.10860    0.010
 5594.00    0.94130   1.09494    0.011
 5595.00    0.94034   1.08659    0.011
 5596.00    0.95239   1.10257    0.011
 5597.00    1.04312   1.14564    0.011
 5598.00    1.11568   1.19357    0.010
 5599.00    1.10170   1.22400    0.010
 5600.00    1.07873   1.23337    0.010
 5601.00    1.02088   1.23067    0.010
 5602.00    0.98498   1.22618    0.010
 5603.00    1.02009   1.22606    0.010
 5604.00    1.04174   1.23102    0.010
 5605.00    1.02650   1.23192    0.010
 5606.00    1.02784   1.20914    0.010
 5607.00    1.06804   1.15272    0.010
 5608.00    1.08557   1.09313    0.010
 5609.00    1.05712   1.07926    0.010
 5610.00    1.03618   1.11133    0.010
 5611.00    1.02848   1.14404    0.010
 5612.00    1.03951   1.15537    0.010
 5613.00    1.07949   1.16111    0.010
 5614.00    1.09976   1.17294    0.010
 5615.00    1.09332   1.17676    0.010
 5616.00    1.07862   1.15414    0.010
 5617.00    1.05407   1.11616    0.010
 5618.00    1.04641   1.09872    0.010
 5619.00    1.05653   1.11535    0.010
 5620.00    1.07065   1.14496    0.010
 5621.00    1.08849   1.17074    0.010
 5622.00    1.06973   1.19295    0.010
 5623.00    1.02099   1.20948    0.010
 5624.00    1.00287   1.21488    0.010
 5625.00    1.00684   1.20916    0.010
 5626.00    1.03956   1.19619    0.010
 5627.00    1.09047   1.18065    0.010
 5628.00    1.12184   1.16553    0.010
 5629.00    1.14241   1.15060    0.010
 5630.00    1.08711   1.13963    0.010
 5631.00    0.99532   1.13973    0.010
 5632.00    1.01970   1.14596    0.010
 5633.00    1.09234   1.14411    0.010
 5634.00    1.08526   1.13553    0.010
 5635.00    1.04985   1.13533    0.010
 5636.00    1.02311   1.14543    0.010
 5637.00    0.99896   1.15653    0.010
 5638.00    0.98468   1.16593    0.010
 5639.00    0.97285   1.17490    0.010
 5640.00    0.98231   1.18088    0.010
 5641.00    0.99607   1.17935    0.010
 5642.00    1.04643   1.17247    0.010
 5643.00    1.10258   1.17139    0.010
 5644.00    1.08433   1.18172    0.010
 5645.00    1.05732   1.19184    0.010
 5646.00    1.05035   1.18585    0.010
 5647.00    1.04499   1.16568    0.010
 5648.00    1.08098   1.14917    0.010
 5649.00    1.11880   1.13684    0.010
 5650.00    1.13281   1.10782    0.010
 5651.00    1.14558   1.07151    0.010
 5652.00    1.11116   1.06858    0.010
 5653.00    1.07600   1.09849    0.010
 5654.00    1.02717   1.11771    0.010
 5655.00    0.98368   1.11509    0.009
 5656.00    0.99932   1.11992    0.010
 5657.00    1.01761   1.14368    0.010
 5658.00    1.05646   1.16449    0.010
 5659.00    1.08615   1.16349    0.010
 5660.00    1.06206   1.14786    0.010
 5661.00    1.03212   1.13770    0.010
 5662.00    0.97499   1.14171    0.010
 5663.00    0.93035   1.15465    0.010
 5664.00    0.93320   1.17243    0.010
 5665.00    0.93613   1.19402    0.010
 5666.00    0.93933   1.21079    0.010
 5667.00    0.92849   1.21301    0.010
 5668.00    0.87989   1.20709    0.010
 5669.00    0.86374   1.20681    0.010
 5670.00    0.92249   1.20971    0.010
 5671.00    0.99005   1.20523    0.010
 5672.00    1.07517   1.19548    0.010
 5673.00    1.13504   1.18521    0.010
 5674.00    1.15098   1.16769    0.010
 5675.00    1.14787   1.14343    0.010
 5676.00    1.11574   1.13072    0.010
 5677.00    1.07934   1.13779    0.010
 5678.00    1.03721   1.14771    0.010
 5679.00    0.99719   1.14302    0.010
 5680.00    0.95964   1.12923    0.010
 5681.00    0.95693   1.12572    0.010
 5682.00    0.99038   1.14114    0.010
 5683.00    1.01975   1.16599    0.010
 5684.00    1.04537   1.18786    0.010
 5685.00    1.04705   1.20171    0.010
 5686.00    1.02941   1.20522    0.010
 5687.00    1.03162   1.20109    0.010
 5688.00    1.04792   1.19740    0.009
 5689.00    1.06145   1.19478    0.010
 5690.00    1.07323   1.18531    0.010
 5691.00    1.07339   1.16892    0.010
 5692.00    1.06722   1.15355    0.009
 5693.00    1.06517   1.13894    0.009
 5694.00    1.06507   1.12521    0.010
 5695.00    1.07390   1.12383    0.010
 5696.00    1.08637   1.13736    0.010
 5697.00    1.12608   1.14825    0.010
 5698.00    1.17529   1.14034    0.010
 5699.00    1.17954   1.11749    0.010
 5700.00    1.17056   1.09238    0.010
 5701.00    1.13740   1.07173    0.010
 5702.00    1.09836   1.06172    0.010
 5703.00    1.09450   1.06545    0.010
 5704.00    1.09755   1.07770    0.010
 5705.00    1.08238   1.09945    0.010
 5706.00    1.06441   1.13157    0.010
 5707.00    1.07138   1.16013    0.010
 5708.00    1.08117   1.17600    0.010
 5709.00    1.12243   1.18321    0.010
 5710.00    1.16608   1.18596    0.010
 5711.00    1.12197   1.18907    0.010
 5712.00    1.07429   1.19644    0.010
 5713.00    0.99933   1.20600    0.010
 5714.00    0.92623   1.21590    0.010
 5715.00    0.93882   1.22499    0.010
 5716.00    0.95338   1.22930    0.010
 5717.00    1.00191   1.22604    0.010
 5718.00    1.04791   1.21438    0.010
 5719.00    1.06701   1.19614    0.010
 5720.00    1.08412   1.18305    0.010
 5721.00    1.08636   1.18648    0.010
 5722.00    1.08253   1.19587    0.010
 5723.00    1.04403   1.19157    0.010
 5724.00    1.02519   1.17730    0.010
 5725.00    1.09565   1.17517    0.010
 5726.00    1.15467   1.19078    0.009
 5727.00    1.17107   1.20802    0.009
 5728.00    1.16869   1.21378    0.009
 5729.00    1.10784   1.20922    0.009
 5730.00    1.06842   1.20230    0.009
 5731.00    1.08563   1.19852    0.009
 5732.00    1.09741   1.19791    0.010
 5733.00    1.09688   1.19754    0.010
 5734.00    1.10492   1.19433    0.010
 5735.00    1.12983   1.18912    0.010
 5736.00    1.13488   1.18931    0.010
 5737.00    1.10593   1.19973    0.010
 5738.00    1.09879   1.21119    0.010
 5739.00    1.12437   1.20750    0.010
 5740.00    1.14599   1.18781    0.000
 5741.00    1.16240   1.17338    0.000
 5742.00    1.13915   1.18009    0.000
 5743.00    1.06986   1.19410    0.000
 5744.00    1.02658   1.18964    0.000
 5745.00    1.00994   1.16169    0.000
 5746.00    1.03570   1.13204    0.000
 5747.00    1.09977   1.12761    0.000
 5748.00    1.13628   1.15350    0.000
 5749.00    1.15085   1.18889    0.000
 5750.00    1.09841   1.21103    0.000
 5751.00    0.99905   1.21243    0.000
 5752.00    0.96712   1.19604    0.000
 5753.00    0.97660   1.16910    0.000
 5754.00    1.03236   1.14159    0.000
 5755.00    1.11296   1.12740    0.000
 5756.00    1.15904   1.13969    0.000
 5757.00    1.18905   1.17336    0.000
 5758.00    1.15823   1.20471    0.000
 5759.00    1.10300   1.21950    0.000
 5760.00    1.05813   1.22211    0.000
 5761.00    1.01681   1.21922    0.000
 5762.00    1.05741   1.21321    0.000
 5763.00    1.12163   1.20495    0.000
 5764.00    1.16401   1.19510    0.000
 5765.00    1.20120   1.18661    0.000
 5766.00    1.19864   1.18219    0.000
 5767.00    1.18844   1.18115    0.000
 5768.00    1.19671   1.18472    0.000
 5769.00    1.20773   1.19300    0.000
 5770.00    1.19393   1.19821    0.000
 5771.00    1.17743   1.19028    0.000
 5772.00    1.17783   1.16399    0.000
 5773.00    1.17945   1.12539    0.000
 5774.00    1.14107   1.09495    0.000
 5775.00    1.10122   1.08750    0.000
 5776.00    1.11306   1.09208    0.000
 5777.00    1.12598   1.09169    0.000
 5778.00    1.16952   1.09293    0.000
 5779.00    1.20566   1.11145    0.000
 5780.00    1.12286   1.14137    0.000
 5781.00    1.04579   1.16384    0.000
 5782.00    1.02677   1.16913    0.000
 5783.00    1.01705   1.16118    0.000
 5784.00    1.07463   1.15539    0.000
 5785.00    1.12455   1.16304    0.000
 5786.00    1.13188   1.17951    0.000
 5787.00    1.13724   1.19490    0.000
 5788.00    1.13384   1.19972    0.000
 5789.00    1.12714   1.18753    0.000
 5790.00    1.10838   1.16882    0.000
 5791.00    1.08985   1.16682   -2.000
 5792.00    1.07203   1.18788   -2.000
 5793.00    1.07298   1.21407   -2.000
 5794.00    1.12268   1.22833   -2.000
 5795.00    1.16210   1.22572   -2.000
 5796.00    1.17858   1.20782   -2.000
 5797.00    1.19421   1.18488   -2.000
 5798.00    1.20821   1.17139   -2.000
 5799.00    1.19960   1.17177   -2.000
 5800.00    1.15286   1.17936   -2.000
 5801.00    1.12768   1.18697   -2.000
 5802.00    1.13438   1.19362   -2.000
 5803.00    1.13081   1.20058   -2.000
 5804.00    1.11388   1.20539   -2.000
 5805.00    1.10985   1.20496   -2.000
 5806.00    1.12060   1.19843   -2.000
 5807.00    1.12080   1.18485   -2.000
 5808.00    1.11034   1.16816   -2.000
 5809.00    1.10828   1.16198   -2.000
 5810.00    1.11369   1.17573   -2.000
 5811.00    1.10229   1.19985    0.000
 5812.00    1.07771   1.21765    0.000
 5813.00    1.06289   1.22356    0.000
 5814.00    1.05481   1.22062    0.000
 5815.00    1.05114   1.21367    0.000
 5816.00    1.05013   1.20880    0.000
 5817.00    1.07966   1.20944    0.000
 5818.00    1.12531   1.21289    0.000
 5819.00    1.13218   1.21467    0.000
 5820.00    1.12128   1.21487    0.000
 5821.00    1.08048   1.21653    0.000
 5822.00    1.02789   1.21900    0.000
 5823.00    1.03750   1.21874    0.000
 5824.00    1.06800   1.21583    0.000
 5825.00    1.08826   1.21165    0.000
 5826.00    1.10562   1.20445    0.000
 5827.00    1.08882   1.19637    0.000
 5828.00    1.06407   1.19479    0.000
 5829.00    1.07078   1.19877    0.000
 5830.00    1.08336   1.19917    0.000
 5831.00    1.12016   1.19687    0.000
 5832.00    1.16045   1.20144    0.000
 5833.00    1.13253   1.21310    0.000
 5834.00    1.09748   1.22329    0.000
 5835.00    1.10733   1.22691    0.000
 5836.00    1.12021   1.22368    0.000
 5837.00    1.17147   1.21460    0.000
 5838.00    1.22399   1.20147    0.000
 5839.00    1.19074   1.18764    0.000
 5840.00    1.15732   1.17837    0.000
 5841.00    1.12066   1.17742    0.000
 5842.00    1.08486   1.18160    0.000
 5843.00    1.06217   1.18159    0.000
 5844.00    1.03837   1.16960    0.000
 5845.00    1.00376   1.14858    0.000
 5846.00    0.97983   1.13386    0.000
 5847.00    1.03080   1.13422    0.000
 5848.00    1.08129   1.13502    0.000
 5849.00    1.12916   1.11924    0.000
 5850.00    1.16009   1.09787    0.000
 5851.00    1.11758   1.09618    0.000
 5852.00    1.07937   1.11736    0.000
 5853.00    1.05652   1.14183    0.000
 5854.00    1.04854   1.15322    0.000
 5855.00    1.08508   1.15356    0.000
 5856.00    1.11570   1.15611    0.000
 5857.00    1.13123   1.16287    0.000
 5858.00    1.12642   1.16334    0.000
 5859.00    1.07699   1.15715    0.000
 5860.00    1.04140   1.15763    0.000
 5861.00    1.03220   1.17021    0.000
 5862.00    1.03080   1.18509    0.000
 5863.00    1.04237   1.19225    0.000
 5864.00    1.05106   1.19005    0.000
 5865.00    1.05553   1.18366    0.000
 5866.00    1.05512   1.18079    0.000
 5867.00    1.04845   1.18338    0.000
 5868.00    1.05569   1.18459    0.000
 5869.00    1.07864   1.17922    0.000
 5870.00    1.11241   1.16923    0.000
 5871.00    1.15694   1.15703    0.000
 5872.00    1.17046   1.14437    0.000
 5873.00    1.15676   1.13738    0.000
 5874.00    1.14393   1.13959    0.000
 5875.00    1.13179   1.14258    0.000
 5876.00    1.13096   1.13874    0.000
 5877.00    1.13784   1.13349    0.000
 5878.00    1.13743   1.13024    0.000
 5879.00    1.13268   1.11357    0.000
 5880.00    1.12874   1.05721    0.000
 5881.00    1.12521   0.95318    0.000
 5882.00    1.12413   0.84546    0.000
 5883.00    1.12415   0.80990    0.000
 5884.00    1.09983   0.86469    0.000
 5885.00    1.06606   0.94395    0.000
 5886.00    1.01878   0.97763    0.000
 5887.00    0.96704   0.94578    0.000
 5888.00    0.93499   0.88652    0.000
 5889.00    0.90838   0.87377    0.000
 5890.00    0.92843   0.93382    0.000
 5891.00    0.95908   1.01526    0.000
 5892.00    0.94082   1.07214    0.000
 5893.00    0.91367   1.10552    0.000
 5894.00    0.95667   1.12611    0.000
 5895.00    1.00947   1.13718    0.000
 5896.00    1.04528   1.14134    0.000
 5897.00    1.07940   1.13977    0.000
 5898.00    1.06793   1.13560    0.000
 5899.00    1.05357   1.13632    0.000
 5900.00    1.02890   1.14391    0.000
 5901.00    1.00383   1.15164    0.009
 5902.00    0.94455   1.15577    0.009
 5903.00    0.88847   1.15943    0.009
 5904.00    0.92263   1.16087    0.009
 5905.00    0.95953   1.15089    0.009
 5906.00    1.03539   1.12881    0.009
 5907.00    1.10147   1.10943    0.009
 5908.00    1.07646   1.10567    0.009
 5909.00    1.04846   1.11617    0.009
 5910.00    1.00016   1.13217    0.009
 5911.00    0.96261   1.14591    0.009
 5912.00    0.98173   1.15457    0.009
 5913.00    1.00192   1.15718    0.009
 5914.00    1.02665   1.15357    0.009
 5915.00    1.04184   1.14952    0.009
 5916.00    1.02367   1.15143    0.009
 5917.00    1.01556   1.15825    0.009
 5918.00    1.03708   1.16448    0.009
 5919.00    1.05300   1.16436    0.009
 5920.00    1.05490   1.15450    0.009
 5921.00    1.04665   1.13781    0.009
 5922.00    1.01649   1.12395    0.009
 5923.00    0.99981   1.12479    0.009
 5924.00    1.00840   1.14013    0.009
 5925.00    1.01792   1.15194    0.009
 5926.00    1.02895   1.14697    0.009
 5927.00    1.02555   1.13558    0.009
 5928.00    1.00141   1.13593    0.009
 5929.00    0.97977   1.14883    0.009
 5930.00    0.96129   1.16187    0.009
 5931.00    0.94439   1.16780    0.009
 5932.00    0.92927   1.16411    0.009
 5933.00    0.91574   1.15124    0.009
 5934.00    0.90379   1.13888    0.009
 5935.00    0.90569   1.13773    0.009
 5936.00    0.91958   1.14731    0.009
 5937.00    0.96468   1.16017    0.009
 5938.00    1.03357   1.16866    0.009
 5939.00    1.05970   1.16575    0.009
 5940.00    1.05719   1.15010    0.009
 5941.00    1.04954   1.13268    0.009
 5942.00    1.03889   1.12888    0.009
 5943.00    1.06597   1.13715    0.009
 5944.00    1.11237   1.13960    0.009
 5945.00    1.12586   1.13172    0.009
 5946.00    1.12476   1.12925    0.009
 5947.00    1.07450   1.13742    0.009
 5948.00    1.00552   1.14137    0.009
 5949.00    0.99029   1.13464    0.009
 5950.00    0.99245   1.12926    0.009
 5951.00    0.99511   1.13523    0.009
 5952.00    0.99791   1.14972    0.009
 5953.00    1.01925   1.16470    0.009
 5954.00    1.04471   1.17427    0.009
 5955.00    0.99788   1.17681    0.009
 5956.00    0.93825   1.17362    0.009
 5957.00    0.92881   1.16613    0.009
 5958.00    0.92614   1.15839    0.009
 5959.00    0.99688   1.15759    0.009
 5960.00    1.07467   1.16481    0.009
 5961.00    1.08303   1.17367    0.009
 5962.00    1.08724   1.18041    0.009
 5963.00    1.06186   1.18500    0.009
 5964.00    1.03566   1.18654    0.009
 5965.00    1.00001   1.18405    0.009
 5966.00    0.96613   1.17636    0.009
 5967.00    0.97715   1.16164    0.009
 5968.00    0.98808   1.14223    0.009
 5969.00    0.99788   1.12689    0.009
 5970.00    1.00961   1.12342    0.009
 5971.00    1.03860   1.13238    0.009
 5972.00    1.06402   1.14783    0.009
 5973.00    1.06590   1.15962    0.009
 5974.00    1.07073   1.15750    0.009
 5975.00    1.09064   1.13834    0.009
 5976.00    1.10470   1.11228    0.009
 5977.00    1.09456   1.09880    0.009
 5978.00    1.07791   1.10645    0.009
 5979.00    1.03895   1.12326    0.009
 5980.00    1.01307   1.13682    0.009
 5981.00    1.02495   1.14616    0.009
 5982.00    1.04384   1.15023    0.009
 5983.00    1.07995   1.14661    0.009
 5984.00    1.10681   1.14282    0.009
 5985.00    1.11402   1.14976    0.009
 5986.00    1.11513   1.16373    0.009
 5987.00    1.10499   1.17019    0.009
 5988.00    1.09126   1.16192    0.009
 5989.00    1.07175   1.14432    0.009
 5990.00    1.05536   1.12951    0.009
 5991.00    1.04340   1.12681    0.009
 5992.00    1.04591   1.13462    0.009
 5993.00    1.06644   1.14225    0.009
 5994.00    1.09240   1.14048    0.009
 5995.00    1.12433   1.13265    0.009
 5996.00    1.11681   1.13043    0.009
 5997.00    1.07111   1.13421    0.009
 5998.00    1.02510   1.13119    0.009
 5999.00    0.97880   1.11518    0.009
 6000.00    0.94547   1.09712    0.009
 6001.00    0.92188   1.09643    0.009
 6002.00    0.92470   1.11764    0.009
 6003.00    0.94496   1.13964    0.009
 6004.00    0.93288   1.14103    0.009
 6005.00    0.90210   1.12604    0.009
 6006.00    0.90522   1.11479    0.009
 6007.00    0.92541   1.11525    0.009
 6008.00    0.99685   1.11766    0.009
 6009.00    1.09064   1.11646    0.009
 6010.00    1.13547   1.11617    0.009
 6011.00    1.16197   1.11488    0.009
 6012.00    1.13443   1.10739    0.009
 6013.00    1.08973   1.09984    0.009
 6014.00    1.02609   1.10076    0.009
 6015.00    0.95742   1.10792    0.009
 6016.00    0.92091   1.11610    0.009
 6017.00    0.89136   1.12556    0.009
 6018.00    0.95002   1.13513    0.009
 6019.00    1.02386   1.14097    0.009
 6020.00    1.06102   1.14593    0.009
 6021.00    1.09340   1.15388    0.009
 6022.00    1.08242   1.16076    0.009
 6023.00    1.06747   1.16383    0.009
 6024.00    1.04131   1.16706    0.009
 6025.00    1.01454   1.17196    0.009
 6026.00    0.99717   1.17484    0.009
 6027.00    0.98049   1.17438    0.009
 6028.00    1.01186   1.17368    0.009
 6029.00    1.04195   1.17460    0.009
 6030.00    1.04227   1.17496    0.009
 6031.00    1.04326   1.17177    0.009
 6032.00    1.05285   1.16532    0.009
 6033.00    1.06205   1.15884    0.009
 6034.00    1.06790   1.15601    0.009
 6035.00    1.07132   1.16004    0.009
 6036.00    1.05925   1.16907    0.009
 6037.00    1.04374   1.17632    0.009
 6038.00    1.01104   1.17930    0.009
 6039.00    0.98849   1.18073    0.009
 6040.00    1.00698   1.18144    0.009
 6041.00    1.02820   1.18117    0.009
 6042.00    1.05855   1.18163    0.009
 6043.00    1.08239   1.18165    0.009
 6044.00    1.08773   1.17635    0.009
 6045.00    1.08176   1.16532    0.009
 6046.00    1.04839   1.15404    0.009
 6047.00    1.01689   1.14553    0.009
 6048.00    0.98929   1.13922    0.009
 6049.00    0.96170   1.13756    0.009
 6050.00    0.93412   1.14385    0.009
 6051.00    0.91850   1.15561    0.009
 6052.00    0.92185   1.16601    0.009
 6053.00    0.93374   1.16941    0.009
 6054.00    0.95755   1.16388    0.009
 6055.00    0.98994   1.15050    0.009
 6056.00    1.03287   1.13141    0.009
 6057.00    1.06633   1.11309    0.009
 6058.00    1.08956   1.11080    0.009
 6059.00    1.09955   1.13219    0.009
 6060.00    1.09689   1.16202    0.009
 6061.00    1.08659   1.18121    0.009
 6062.00    1.06986   1.18733    0.009
 6063.00    1.07626   1.18825    0.009
 6064.00    1.09979   1.18942    0.009
 6065.00    1.10567   1.19104    0.009
 6066.00    1.10005   1.19113    0.009
 6067.00    1.10177   1.18806    0.009
 6068.00    1.10766   1.18025    0.009
 6069.00    1.12960   1.16618    0.009
 6070.00    1.15950   1.14776    0.009
 6071.00    1.15711   1.13398    0.009
 6072.00    1.14087   1.13136    0.009
 6073.00    1.10654   1.13199    0.009
 6074.00    1.06555   1.12735    0.009
 6075.00    1.05192   1.12305    0.009
 6076.00    1.04681   1.12430    0.009
 6077.00    1.05177   1.12667    0.009
 6078.00    1.05934   1.12842    0.009
 6079.00    1.06286   1.13319    0.009
 6080.00    1.06552   1.13916    0.009
 6081.00    1.07456   1.13786    0.009
 6082.00    1.08468   1.12770    0.009
 6083.00    1.02085   1.11856    0.009
 6084.00    0.94770   1.11736    0.008
 6085.00    0.88200   1.12241    0.008
 6086.00    0.81695   1.13240    0.008
 6087.00    0.84606   1.14522    0.009
 6088.00    0.88004   1.15263    0.009
 6089.00    0.92739   1.15109    0.009
 6090.00    0.97479   1.14888    0.009
 6091.00    1.00831   1.15224    0.009
 6092.00    1.04124   1.15284    0.008
 6093.00    1.06167   1.13327    0.009
 6094.00    1.07767   1.09068    0.009
 6095.00    1.03999   1.05600    0.009
 6096.00    1.00268   1.06330    0.009
 6097.00    0.96844   1.10154    0.009
 6098.00    0.94266   1.13284    0.009
 6099.00    0.96929   1.14161    0.009
 6100.00    0.99837   1.14023    0.009
 6101.00    1.03934   1.14351    0.009
 6102.00    1.06789   1.14907    0.009
 6103.00    1.04725   1.14736    0.009
 6104.00    1.03519   1.14256    0.009
 6105.00    1.05143   1.14565    0.009
 6106.00    1.06273   1.15484    0.009
 6107.00    1.06031   1.15783    0.009
 6108.00    1.03631   1.15073    0.009
 6109.00    0.96096   1.14389    0.009
 6110.00    0.91191   1.14301    0.009
 6111.00    0.91697   1.13808    0.009
 6112.00    0.93044   1.11924    0.009
 6113.00    0.95896   1.08919    0.009
 6114.00    0.99648   1.06393    0.009
 6115.00    1.04810   1.06549    0.009
 6116.00    1.06910   1.09414    0.009
 6117.00    1.04803   1.12221    0.009
 6118.00    1.01395   1.13069    0.009
 6119.00    0.96413   1.12491    0.008
 6120.00    0.93119   1.11713    0.008
 6121.00    0.91625   1.11640    0.009
 6122.00    0.93264   1.12576    0.009
 6123.00    0.97851   1.13947    0.009
 6124.00    0.99184   1.14934    0.009
 6125.00    0.97819   1.15088    0.008
 6126.00    0.98620   1.13800    0.009
 6127.00    1.01003   1.10248    0.009
 6128.00    1.05161   1.04795    0.009
 6129.00    1.10456   1.00309    0.009
 6130.00    1.10960   1.00465    0.009
 6131.00    1.08776   1.05122    0.009
 6132.00    1.02718   1.09649    0.009
 6133.00    0.94768   1.10645    0.009
 6134.00    0.91232   1.09845    0.009
 6135.00    0.89556   1.10624    0.009
 6136.00    0.90155   1.13071    0.009
 6137.00    0.91576   1.14909    0.009
 6138.00    0.94805   1.15048    0.009
 6139.00    0.98586   1.13907    0.009
 6140.00    1.00535   1.12166    0.009
 6141.00    1.02020   1.10625    0.009
 6142.00    1.01361   1.10102    0.009
 6143.00    1.00260   1.10813    0.009
 6144.00    1.01916   1.12085    0.009
 6145.00    1.04019   1.12781    0.009
 6146.00    1.03584   1.12203    0.009
 6147.00    1.02839   1.11008    0.009
 6148.00    1.00515   1.10455    0.008
 6149.00    0.98058   1.10653    0.008
 6150.00    0.98099   1.10758    0.008
 6151.00    0.98260   1.09883    0.009
 6152.00    0.98291   1.06904    0.008
 6153.00    0.98321   1.01634    0.008
 6154.00    0.98444   0.96687    0.009
 6155.00    0.98592   0.95514    0.009
 6156.00    0.99236   0.98429    0.009
 6157.00    0.99750   1.02652    0.009
 6158.00    0.98753   1.05731    0.009
 6159.00    0.97513   1.07031    0.009
 6160.00    0.94332   1.06236    0.009
 6161.00    0.91826   1.03548    0.009
 6162.00    0.93383   1.01525    0.009
 6163.00    0.95057   1.02738    0.009
 6164.00    0.97294   1.05948    0.009
 6165.00    0.98511   1.08164    0.009
 6166.00    0.95779   1.08764    0.009
 6167.00    0.93676   1.08788    0.009
 6168.00    0.93599   1.08699    0.009
 6169.00    0.93991   1.08767    0.009
 6170.00    0.95666   1.09384    0.008
 6171.00    0.96576   1.10171    0.008
 6172.00    0.95696   1.10556    0.008
 6173.00    0.94532   1.10914    0.008
 6174.00    0.92794   1.11586    0.008
 6175.00    0.91511   1.12065    0.008
 6176.00    0.91032   1.11950    0.008
 6177.00    0.91933   1.11218    0.008
 6178.00    0.94965   1.09883    0.008
 6179.00    0.96342   1.08399    0.008
 6180.00    0.95480   1.07432    0.008
 6181.00    0.94472   1.06727    0.008
 6182.00    0.93292   1.05175    0.008
 6183.00    0.93529   1.02829    0.008
 6184.00    0.95256   1.01976    0.008
 6185.00    0.97677   1.04145    0.008
 6186.00    1.00742   1.07544    0.009
 6187.00    1.02008   1.09869    0.009
 6188.00    1.01801   1.11000    0.009
 6189.00    1.00778   1.11404    0.009
 6190.00    0.99167   1.10658    0.009
 6191.00    0.96367   1.08708    0.009
 6192.00    0.92817   1.07059    0.009
 6193.00    0.91822   1.07371    0.009
 6194.00    0.92239   1.09297    0.009
 6195.00    0.99937   1.11050    0.009
 6196.00    1.11132   1.11683   -2.000
 6197.00    1.25295   1.11677   -2.000
 6198.00    1.40688   1.11719   -2.000
 6199.00    1.45322   1.11860   -2.000
 6200.00    1.46141   1.11838   -2.000
 6201.00    1.32636   1.11529   -2.000
 6202.00    1.14844   1.10901   -2.000
 6203.00    0.92488   1.09885   -2.000
 6204.00    0.68997   1.08203   -2.000
 6205.00    0.68450   1.05678   -2.000
 6206.00    0.72524   1.03077   -2.000
 6207.00    0.82011   1.01776   -2.000
 6208.00    0.92352   1.02331    0.009
 6209.00    0.92644   1.03929    0.009
 6210.00    0.91759   1.04955    0.009
 6211.00    0.91886   1.04480    0.009
 6212.00    0.92094   1.03477    0.009
 6213.00    0.93934   1.03575    0.009
 6214.00    0.95846   1.04881    0.009
 6215.00    0.98666   1.06153    0.008
 6216.00    1.01375   1.06636    0.008
 6217.00    0.98352   1.06776    0.008
 6218.00    0.95310   1.07108    0.008
 6219.00    0.91901   1.07336    0.008
 6220.00    0.88993   1.06675    0.008
 6221.00    0.91604   1.04469    0.008
 6222.00    0.94085   1.01223    0.008
 6223.00    0.95558   0.99023    0.008
 6224.00    0.97178   0.99498    0.008
 6225.00    0.99654   1.02183    0.008
 6226.00    1.01724   1.05599    0.008
 6227.00    1.01905   1.08305    0.009
 6228.00    1.01498   1.09102    0.009
 6229.00    0.98859   1.07880    0.009
 6230.00    0.97505   1.05678    0.009
 6231.00    1.00218   1.03678    0.009
 6232.00    1.01740   1.02686    0.009
 6233.00    1.00063   1.02753    0.008
 6234.00    0.97821   1.02807    0.008
 6235.00    0.94278   1.01950    0.008
 6236.00    0.92250   1.00862    0.008
 6237.00    0.93243   1.00459    0.008
 6238.00    0.92993   1.00845    0.008
 6239.00    0.90588   1.02242    0.008
 6240.00    0.89110   1.04560    0.008
 6241.00    0.89043   1.06599    0.008
 6242.00    0.88635   1.07084    0.008
 6243.00    0.87772   1.05642    0.008
 6244.00    0.87559   1.02990    0.008
 6245.00    0.88110   1.00731    0.008
 6246.00    0.90704   0.99977    0.008
 6247.00    0.95416   1.00156    0.008
 6248.00    0.97847   0.99954    0.008
 6249.00    0.98192   0.98993    0.008
 6250.00    0.96894   0.98237    0.008
 6251.00    0.94273   0.98943    0.008
 6252.00    0.91507   1.01147    0.008
 6253.00    0.88640   1.03739    0.008
 6254.00    0.90099   1.05956    0.008
 6255.00    0.94250   1.07405    0.008
 6256.00    0.98583   1.07403    0.008
 6257.00    1.03014   1.06282    0.009
 6258.00    1.08830   1.05707    0.009
 6259.00    1.15301   1.06273    0.009
 6260.00    1.23685   1.06785    0.010
 6261.00    1.32850   1.06505    0.010
 6262.00    1.32675   1.06118    0.011
 6263.00    1.29250   1.06395    0.011
 6264.00    1.16870   1.07230    0.011
 6265.00    1.01864   1.07976    0.010
 6266.00    0.92084   1.08230    0.010
 6267.00    0.83574   1.08190    0.009
 6268.00    0.86023   1.08127    0.009
 6269.00    0.90622   1.07923    0.009
 6270.00    0.93775   1.07296    0.009
 6271.00    0.96707   1.06125    0.009
 6272.00    0.94077   1.04818    0.008
 6273.00    0.90820   1.04298    0.008
 6274.00    0.91308   1.05028    0.008
 6275.00    0.92079   1.06450    0.008
 6276.00    0.95116   1.07638    0.008
 6277.00    0.98245   1.08202    0.008
 6278.00    0.98312   1.08590    0.008
 6279.00    0.98386   1.09361    0.008
 6280.00    0.99623   1.10291    0.000
 6281.00    1.00636   1.10604    0.000
 6282.00    0.97839   1.09887    0.000
 6283.00    0.95272   1.08603    0.000
 6284.00    0.95120   1.07622    0.000
 6285.00    0.94750   1.07383    0.000
 6286.00    0.92752   1.07587    0.000
 6287.00    0.90667   1.07354    0.000
 6288.00    0.88090   1.06145    0.000
 6289.00    0.86213   1.04704    0.000
 6290.00    0.87505   1.04186    0.000
 6291.00    0.89505   1.04479    0.000
 6292.00    0.94133   1.04367    0.000
 6293.00    0.98032   1.03393    0.000
 6294.00    0.99663   1.02717    0.000
 6295.00    1.00992   1.03465    0.000
 6296.00    1.01522   1.05083    0.000
 6297.00    1.01819   1.06419    0.000
 6298.00    1.01589   1.07474    0.000
 6299.00    1.01284   1.08723    0.000
 6300.00    1.00833   1.09699    0.000
 6301.00    0.99240   1.09558    0.000
 6302.00    0.95694   1.08377    0.000
 6303.00    0.93558   1.07126    0.000
 6304.00    0.93532   1.06564    0.000
 6305.00    0.93670   1.06306    0.000
 6306.00    0.94023   1.05439    0.000
 6307.00    0.94516   1.04110    0.000
 6308.00    0.95171   1.03147    0.000
 6309.00    0.94222   1.02372    0.000
 6310.00    0.91632   1.01535    0.000
 6311.00    0.90943   1.01668    0.000
 6312.00    0.91967   1.03243    0.000
 6313.00    0.93275   1.05014    0.000
 6314.00    0.94810   1.06062    0.000
 6315.00    0.92784   1.06905    0.000
 6316.00    0.88269   1.08015    0.000
 6317.00    0.84410   1.08935    0.000
 6318.00    0.80954   1.09187    0.000
 6319.00    0.81938   1.09039    0.000
 6320.00    0.85299   1.09026    0.000
 6321.00    0.89878   1.09061    0.008
 6322.00    0.95022   1.08818    0.008
 6323.00    0.96102   1.08697    0.008
 6324.00    0.95553   1.09081    0.008
 6325.00    0.95033   1.09154    0.008
 6326.00    0.94523   1.07656    0.008
 6327.00    0.96704   1.04807    0.008
 6328.00    0.99659   1.02653    0.008
 6329.00    1.01486   1.02698    0.008
 6330.00    1.03046   1.04220    0.008
 6331.00    0.99611   1.05853    0.008
 6332.00    0.95220   1.07184    0.008
 6333.00    0.91582   1.07873    0.008
 6334.00    0.88054   1.07248    0.008
 6335.00    0.88757   1.05556    0.008
 6336.00    0.89919   1.04196    0.008
 6337.00    0.89687   1.04165    0.008
 6338.00    0.89357   1.05019    0.008
 6339.00    0.88212   1.06014    0.008
 6340.00    0.87037   1.07107    0.008
 6341.00    0.88017   1.08206    0.008
 6342.00    0.89004   1.08932    0.008
 6343.00    0.89946   1.09202    0.008
 6344.00    0.90741   1.08998    0.008
 6345.00    0.89179   1.08059    0.008
 6346.00    0.87958   1.06526    0.008
 6347.00    0.90172   1.05337    0.008
 6348.00    0.92105   1.05027    0.008
 6349.00    0.92003   1.04686    0.008
 6350.00    0.91812   1.03427    0.008
 6351.00    0.91122   1.01860    0.008
 6352.00    0.90387   1.00813    0.008
 6353.00    0.89449   1.00101    0.008
 6354.00    0.88940   0.99609    0.008
 6355.00    0.89994   0.99942    0.008
 6356.00    0.90452   1.01325    0.008
 6357.00    0.89097   1.03162    0.008
 6358.00    0.87799   1.04873    0.008
 6359.00    0.86647   1.06320    0.008
 6360.00    0.86586   1.07297    0.008
 6361.00    0.88952   1.07440    0.008
 6362.00    0.91746   1.07061    0.008
 6363.00    0.95367   1.07181    0.009
 6364.00    0.97183   1.08264    0.009
 6365.00    0.95959   1.09541    0.009
 6366.00    0.93527   1.10111    0.009
 6367.00    0.89315   1.10052    0.009
 6368.00    0.86642   1.09814    0.009
 6369.00    0.85966   1.09291    0.008
 6370.00    0.88188   1.08318    0.008
 6371.00    0.93722   1.07363    0.008
 6372.00    0.96153   1.06946    0.008
 6373.00    0.95456   1.07118    0.008
 6374.00    0.94387   1.07608    0.008
 6375.00    0.92987   1.07889    0.008
 6376.00    0.92224   1.07798    0.008
 6377.00    0.91959   1.07914    0.008
 6378.00    0.91631   1.08576    0.008
 6379.00    0.91261   1.09299    0.008
 6380.00    0.93772   1.09632    0.008
 6381.00    0.98021   1.09674    0.008
 6382.00    1.01310   1.09397    0.008
 6383.00    1.04091   1.08223    0.008
 6384.00    1.06233   1.05840    0.008
 6385.00    1.08082   1.03439    0.008
 6386.00    1.06578   1.03138    0.008
 6387.00    1.03755   1.05345    0.008
 6388.00    1.00079   1.08074    0.008
 6389.00    0.96117   1.09211    0.008
 6390.00    0.94159   1.07884    0.008
 6391.00    0.92766   1.04784    0.008
 6392.00    0.92814   1.02527    0.008
 6393.00    0.93197   1.03544    0.008
 6394.00    0.92097   1.06815    0.008
 6395.00    0.90721   1.09465    0.009
 6396.00    0.91947   1.10323    0.009
 6397.00    0.93547   1.09735    0.009
 6398.00    0.93069   1.08140    0.008
 6399.00    0.92375   1.06235    0.008
 6400.00    0.89376   1.05298    0.008
 6401.00    0.86222   1.05805    0.008
 6402.00    0.89045   1.06315    0.008
 6403.00    0.92064   1.05784    0.008
 6404.00    0.92307   1.05301    0.008
 6405.00    0.92462   1.05742    0.008
 6406.00    0.89909   1.06476    0.008
 6407.00    0.87467   1.07003    0.008
 6408.00    0.86710   1.07384    0.008
 6409.00    0.86017   1.07422    0.008
 6410.00    0.85945   1.06732    0.008
 6411.00    0.86080   1.05165    0.008
 6412.00    0.87651   1.03437    0.008
 6413.00    0.89104   1.03158    0.008
 6414.00    0.89914   1.05090    0.008
 6415.00    0.91159   1.07832    0.008
 6416.00    0.94282   1.09477    0.008
 6417.00    0.97110   1.09930    0.008
 6418.00    0.98888   1.10241    0.008
 6419.00    0.99551   1.10627    0.008
 6420.00    0.96882   1.10222    0.008
 6421.00    0.94049   1.08248    0.008
 6422.00    0.90798   1.05295    0.008
 6423.00    0.89324   1.03344    0.008
 6424.00    0.91742   1.03785    0.008
 6425.00    0.93882   1.05897    0.008
 6426.00    0.95491   1.08060    0.008
 6427.00    0.95162   1.09296    0.008
 6428.00    0.91617   1.09197    0.008
 6429.00    0.90123   1.07541    0.008
 6430.00    0.91609   1.04973    0.008
 6431.00    0.94329   1.03628    0.008
 6432.00    0.98627   1.05093    0.008
 6433.00    1.00841   1.08102    0.008
 6434.00    1.00708   1.10325    0.008
 6435.00    0.99264   1.11136    0.008
 6436.00    0.96515   1.11321    0.008
 6437.00    0.94811   1.11507    0.008
 6438.00    0.94021   1.11443    0.008
 6439.00    0.92787   1.10127    0.008
 6440.00    0.91209   1.06752    0.008
 6441.00    0.89710   1.02385    0.008
 6442.00    0.88263   1.00061    0.008
 6443.00    0.87516   1.01499    0.008
 6444.00    0.87185   1.04925    0.008
 6445.00    0.89843   1.07388    0.008
 6446.00    0.94052   1.07456    0.008
 6447.00    0.96907   1.05845    0.008
 6448.00    0.99153   1.04784    0.008
 6449.00    0.98924   1.05879    0.008
 6450.00    0.97736   1.08379    0.008
 6451.00    0.95444   1.10226    0.008
 6452.00    0.92788   1.09916    0.008
 6453.00    0.90130   1.07190    0.008
 6454.00    0.87473   1.03688    0.008
 6455.00    0.88966   1.02313    0.008
 6456.00    0.91400   1.04044    0.008
 6457.00    0.94416   1.06942    0.008
 6458.00    0.97537   1.09015    0.008
 6459.00    0.97129   1.09831    0.008
 6460.00    0.96230   1.09599    0.008
 6461.00    0.96361   1.08624    0.008
 6462.00    0.96596   1.07422    0.008
 6463.00    0.96734   1.06658    0.008
 6464.00    0.96867   1.06871    0.008
 6465.00    0.96368   1.07723    0.008
 6466.00    0.95855   1.08152    0.008
 6467.00    0.96251   1.08000    0.008
 6468.00    0.96671   1.08108    0.008
 6469.00    0.97773   1.08658    0.008
 6470.00    0.98770   1.09003    0.008
 6471.00    0.98280   1.08698    0.008
 6472.00    0.97562   1.07511    0.008
 6473.00    0.94730   1.05489    0.008
 6474.00    0.91719   1.03697    0.008
 6475.00    0.87498   1.03480    0.008
 6476.00    0.84055   1.04797    0.008
 6477.00    0.84690   1.06422    0.008
 6478.00    0.86403   1.07520    0.008
 6479.00    0.92665   1.08048    0.008
 6480.00    0.97670   1.07999    0.008
 6481.00    0.98292   1.07189    0.008
 6482.00    0.97376   1.05729    0.008
 6483.00    0.91945   1.03874    0.008
 6484.00    0.87791   1.01225    0.008
 6485.00    0.86831   0.97158    0.008
 6486.00    0.86714   0.92622    0.008
 6487.00    0.88415   0.89985    0.008
 6488.00    0.90852   0.90437    0.008
 6489.00    0.94667   0.92989    0.008
 6490.00    0.97187   0.95930    0.008
 6491.00    0.97591   0.98416    0.008
 6492.00    0.97344   1.00668    0.008
 6493.00    0.96164   1.02850    0.008
 6494.00    0.95661   1.04619    0.008
 6495.00    0.96011   1.05800    0.008
 6496.00    0.96007   1.06598    0.008
 6497.00    0.95611   1.07188    0.008
 6498.00    0.95746   1.07440    0.008
 6499.00    0.96401   1.07143    0.008
 6500.00    0.96794   1.06568    0.008
 6501.00    0.96963   1.06389    0.008
 6502.00    0.96334   1.06817    0.008
 6503.00    0.95098   1.07347    0.008
 6504.00    0.96814   1.07522    0.008
 6505.00    1.00505   1.07235    0.008
 6506.00    1.01210   1.06385    0.008
 6507.00    1.00166   1.05073    0.008
 6508.00    0.95029   1.03870    0.008
 6509.00    0.87801   1.03222    0.008
 6510.00    0.85888   1.03207    0.008
 6511.00    0.86325   1.03980    0.008
 6512.00    0.88794   1.05411    0.008
 6513.00    0.92035   1.06726    0.008
 6514.00    0.93658   1.07356    0.008
 6515.00    0.94760   1.07521    0.008
 6516.00    0.94298   1.07491    0.008
 6517.00    0.93414   1.06979    0.008
 6518.00    0.93245   1.05899    0.008
 6519.00    0.93234   1.05061    0.008
 6520.00    0.93963   1.05235    0.008
 6521.00    0.94823   1.06054    0.008
 6522.00    0.94607   1.06475    0.008
 6523.00    0.94246   1.05978    0.008
 6524.00    0.93891   1.05053    0.008
 6525.00    0.93537   1.04660    0.008
 6526.00    0.93567   1.05246    0.008
 6527.00    0.93621   1.06236    0.008
 6528.00    0.93654   1.06719    0.000
 6529.00    0.93687   1.06638    0.000
 6530.00    0.93684   1.06727    0.000
 6531.00    0.93609   1.07241    0.000
 6532.00    0.91693   1.07541    0.000
 6533.00    0.89789   1.07067    0.000
 6534.00    0.88050   1.06021    0.000
 6535.00    0.86594   1.04855    0.000
 6536.00    0.87652   1.03549    0.000
 6537.00    0.88857   1.01970    0.000
 6538.00    0.91026   1.00825    0.000
 6539.00    0.92915   1.01054    0.000
 6540.00    0.93370   1.02345    0.000
 6541.00    0.94644   1.03380    0.000
 6542.00    0.99293   1.03374    0.000
 6543.00    1.03799   1.02606    0.000
 6544.00    1.07819   1.01575    0.000
 6545.00    1.10064   1.00299    0.000
 6546.00    1.07203   0.98754    0.000
 6547.00    1.03915   0.97460    0.000
 6548.00    0.99578   0.96991    0.000
 6549.00    0.95432   0.97063    0.000
 6550.00    0.91689   0.96655    0.000
 6551.00    0.88752   0.94671    0.000
 6552.00    0.87297   0.89873    0.000
 6553.00    0.89390   0.81696    0.000
 6554.00    0.97196   0.73343    0.000
 6555.00    1.09833   0.71146    0.000
 6556.00    1.29294   0.77264    0.000
 6557.00    1.49869   0.86841    0.000
 6558.00    1.71830   0.94207    0.000
 6559.00    1.88040   0.97745    0.000
 6560.00    1.97950   0.98566    0.000
 6561.00    1.94683   0.98379    0.000
 6562.00    1.78687   0.98416    0.000
 6563.00    1.57791   0.98640    0.000
 6564.00    1.32719   0.98382    0.000
 6565.00    1.14614   0.97692    0.000
 6566.00    1.01736   0.97446    0.000
 6567.00    0.94576   0.98462    0.000
 6568.00    0.91185   1.00612    0.000
 6569.00    0.90065   1.02787    0.000
 6570.00    0.90256   1.03877    0.000
 6571.00    0.89444   1.03629    0.000
 6572.00    0.88128   1.02697    0.000
 6573.00    0.87931   1.02123    0.000
 6574.00    0.88221   1.02420    0.000
 6575.00    0.89110   1.03132    0.000
 6576.00    0.90223   1.03494    0.000
 6577.00    0.98740   1.03331    0.000
 6578.00    1.09602   1.03202    0.000
 6579.00    1.20428   1.03660    0.000
 6580.00    1.31245   1.04512    0.000
 6581.00    1.34187   1.05015    0.000
 6582.00    1.35426   1.04368    0.000
 6583.00    1.27573   1.02066    0.000
 6584.00    1.18159   0.98799    0.000
 6585.00    1.09253   0.96766    0.000
 6586.00    1.00412   0.97496    0.000
 6587.00    0.95142   0.99898    0.000
 6588.00    0.90198   1.01731    0.000
 6589.00    0.88065   1.02201    0.000
 6590.00    0.86087   1.02206    0.000
 6591.00    0.86352   1.02811    0.000
 6592.00    0.86691   1.04048    0.000
 6593.00    0.89572   1.05063    0.000
 6594.00    0.92353   1.05145    0.000
 6595.00    0.92870   1.04321    0.000
 6596.00    0.93398   1.03121    0.000
 6597.00    0.94055   1.02093    0.000
 6598.00    0.94472   1.01375    0.000
 6599.00    0.92825   1.00681    0.000
 6600.00    0.91420   1.00006    0.000
 6601.00    0.91549   1.00092    0.000
 6602.00    0.91356   1.01420    0.000
 6603.00    0.89559   1.03110    0.000
 6604.00    0.87828   1.03898    0.000
 6605.00    0.86357   1.03853    0.000
 6606.00    0.84922   1.04007    0.000
 6607.00    0.83607   1.04627    0.000
 6608.00    0.83229   1.05046    0.000
 6609.00    0.85500   1.05003    0.008
 6610.00    0.87514   1.04987    0.008
 6611.00    0.88906   1.05297    0.008
 6612.00    0.88691   1.05630    0.008
 6613.00    0.85123   1.05524    0.008
 6614.00    0.82784   1.04714    0.008
 6615.00    0.82675   1.03311    0.008
 6616.00    0.83195   1.02009    0.008
 6617.00    0.84715   1.01662    0.008
 6618.00    0.86507   1.02268    0.008
 6619.00    0.88677   1.02993    0.008
 6620.00    0.90623   1.03235    0.008
 6621.00    0.92295   1.03005    0.008
 6622.00    0.96094   1.02416    0.008
 6623.00    1.02190   1.01393    0.008
 6624.00    1.05183   0.99950    0.008
 6625.00    1.05220   0.98700    0.008
 6626.00    1.03394   0.98649    0.008
 6627.00    1.00003   1.00018    0.008
 6628.00    0.95276   1.01822    0.008
 6629.00    0.89562   1.02923    0.008
 6630.00    0.84493   1.03046    0.008
 6631.00    0.79845   1.02759    0.008
 6632.00    0.79707   1.02676    0.008
 6633.00    0.82133   1.02574    0.008
 6634.00    0.85549   1.01811    0.008
 6635.00    0.89455   1.00767    0.008
 6636.00    0.90681   1.00596    0.008
 6637.00    0.90761   1.01408    0.008
 6638.00    0.88636   1.02204    0.008
 6639.00    0.85703   1.02511    0.008
 6640.00    0.84422   1.02688    0.008
 6641.00    0.83654   1.02906    0.008
 6642.00    0.84844   1.02909    0.008
 6643.00    0.86540   1.02633    0.008
 6644.00    0.86674   1.02357    0.008
 6645.00    0.86479   1.02284    0.008
 6646.00    0.86129   1.02362    0.008
 6647.00    0.85754   1.02421    0.008
 6648.00    0.84689   1.02384    0.008
 6649.00    0.83537   1.02341    0.008
 6650.00    0.82711   1.02279    0.008
 6651.00    0.81913   1.01991    0.008
 6652.00    0.81143   1.01329    0.008
 6653.00    0.80374   1.00248    0.008
 6654.00    0.80734   0.98902    0.008
 6655.00    0.81129   0.97975    0.008
 6656.00    0.82564   0.98128    0.008
 6657.00    0.83905   0.98959    0.008
 6658.00    0.83281   0.99595    0.008
 6659.00    0.82743   0.99953    0.008
 6660.00    0.83239   1.00530    0.008
 6661.00    0.83787   1.01463    0.008
 6662.00    0.84774   1.02339    0.008
 6663.00    0.85300   1.02773    0.008
 6664.00    0.82989   1.02848    0.008
 6665.00    0.81469   1.02858    0.008
 6666.00    0.83799   1.02768    0.008
 6667.00    0.85849   1.01997    0.008
 6668.00    0.86795   0.99993    0.008
 6669.00    0.88123   0.97443    0.008
 6670.00    0.90701   0.96246    0.008
 6671.00    0.92495   0.97277    0.008
 6672.00    0.92112   0.99238    0.008
 6673.00    0.91123   1.00631    0.008
 6674.00    0.88696   1.01347    0.008
 6675.00    0.86762   1.01833    0.008
 6676.00    0.85842   1.02187    0.008
 6677.00    0.85192   1.02306    0.008
 6678.00    0.85024   1.02179    0.008
 6679.00    0.85583   1.01949    0.008
 6680.00    0.87277   1.01848    0.008
 6681.00    0.88432   1.01987    0.008
 6682.00    0.88847   1.02201    0.008
 6683.00    0.89550   1.02290    0.008
 6684.00    0.90598   1.02218    0.008
 6685.00    0.90592   1.01898    0.008
 6686.00    0.89462   1.01091    0.008
 6687.00    0.88447   0.99835    0.008
 6688.00    0.87538   0.98764    0.008
 6689.00    0.86874   0.98578    0.008
 6690.00    0.86412   0.99314    0.008
 6691.00    0.87269   1.00467    0.008
 6692.00    0.89088   1.01414    0.008
 6693.00    0.89322   1.01632    0.008
 6694.00    0.88540   1.01049    0.008
 6695.00    0.87321   1.00147    0.008
 6696.00    0.85857   0.99642    0.000
 6697.00    0.86708   0.99868    0.000
 6698.00    0.88686   1.00470    0.000
 6699.00    0.87976   1.00881    0.000
 6700.00    0.86135   1.00912    0.000
 6701.00    0.83451   1.00684    0.000
 6702.00    0.80464   1.00378    0.000
 6703.00    0.81019   1.00091    0.000
 6704.00    0.82653   0.99663    0.000
 6705.00    0.86051   0.98916    0.000
 6706.00    0.89896   0.97865    0.000
 6707.00    0.94854   0.96563    0.000
 6708.00    1.00040   0.95302    0.000
 6709.00    1.04022   0.94882    0.000
 6710.00    1.07808   0.95893    0.000
 6711.00    1.12934   0.97691    0.000
 6712.00    1.18221   0.98967    0.000
 6713.00    1.18033   0.99410    0.000
 6714.00    1.17391   0.99692    0.000
 6715.00    1.13203   1.00089    0.000
 6716.00    1.08846   1.00127    0.000
 6717.00    1.06171   0.99636    0.000
 6718.00    1.03483   0.99210    0.000
 6719.00    0.98812   0.99361    0.000
 6720.00    0.94137   0.99922    0.000
 6721.00    0.89400   1.00496    0.000
 6722.00    0.85206   1.00838    0.000
 6723.00    0.87256   1.00802    0.000
 6724.00    0.89623   1.00460    0.000
 6725.00    0.94525   1.00159    0.000
 6726.00    0.99790   1.00178    0.000
 6727.00    1.07234   1.00336    0.000
 6728.00    1.12679   1.00156    0.000
 6729.00    1.08657   0.99451    0.000
 6730.00    1.03657   0.98678    0.000
 6731.00    0.94879   0.98436    0.000
 6732.00    0.87454   0.98666    0.000
 6733.00    0.84385   0.98744    0.000
 6734.00    0.82446   0.98428    0.000
 6735.00    0.83590   0.98199    0.000
 6736.00    0.84720   0.98366    0.000
 6737.00    0.85815   0.98566    0.000
 6738.00    0.87006   0.98411    0.000
 6739.00    0.88389   0.97948    0.000
 6740.00    0.89553   0.97420    0.000
 6741.00    0.90331   0.97100    0.000
 6742.00    0.90876   0.97154    0.000
 6743.00    0.91061   0.97417    0.000
 6744.00    0.89967   0.97599    0.000
 6745.00    0.87145   0.97844    0.000
 6746.00    0.84314   0.98378    0.000
 6747.00    0.81473   0.99019    0.000
 6748.00    0.81885   0.99637    0.000
 6749.00    0.85715   1.00286    0.000
 6750.00    0.87319   1.00898    0.000
 6751.00    0.86862   1.01277    0.000
 6752.00    0.86308   1.01303    0.000
 6753.00    0.85674   1.01078    0.009
 6754.00    0.84652   1.00855    0.009
 6755.00    0.83351   1.00716    0.009
 6756.00    0.83665   1.00373    0.009
 6757.00    0.84999   0.99536    0.009
 6758.00    0.82896   0.98412    0.009
 6759.00    0.78901   0.97691    0.009
 6760.00    0.81756   0.97774    0.009
 6761.00    0.87894   0.98181    0.010
 6762.00    0.96992   0.98298    0.010
 6763.00    1.07314   0.98343    0.010
 6764.00    1.06781   0.98909    0.010
 6765.00    1.02409   0.99981    0.010
 6766.00    1.01940   1.01011    0.010
 6767.00    1.02637   1.01583    0.010
 6768.00    1.00710   1.01712    0.009
 6769.00    0.98134   1.01713    0.009
 6770.00    0.97742   1.01842    0.009
 6771.00    0.97788   1.01900    0.009
 6772.00    0.96477   1.01423    0.009
 6773.00    0.94954   1.00224    0.009
 6774.00    0.93422   0.98565    0.009
 6775.00    0.91888   0.97043    0.009
 6776.00    0.90179   0.96276    0.009
 6777.00    0.88455   0.96463    0.009
 6778.00    0.93186   0.97347    0.009
 6779.00    0.98200   0.98435    0.009
 6780.00    0.94820   0.99215    0.009
 6781.00    0.91412   0.99523    0.009
 6782.00    0.90748   0.99582    0.009
 6783.00    0.90056   0.99457    0.009
 6784.00    0.88851   0.98984    0.009
 6785.00    0.87870   0.98344    0.009
 6786.00    0.89331   0.97992    0.009
 6787.00    0.90737   0.98064    0.009
 6788.00    0.91721   0.98374    0.009
 6789.00    0.91999   0.98730    0.009
 6790.00    0.88160   0.99038    0.009
 6791.00    0.85059   0.99336    0.009
 6792.00    0.85371   0.99668    0.009
 6793.00    0.86348   0.99896    0.009
 6794.00    0.89846   0.99812    0.009
 6795.00    0.92134   0.99489    0.009
 6796.00    0.90603   0.99247    0.009
 6797.00    0.90895   0.99168    0.009
 6798.00    0.96066   0.99109    0.009
 6799.00    0.99722   0.99048    0.009
 6800.00    0.99897   0.98942    0.009
 6801.00    1.00147   0.98746    0.009
 6802.00    1.00546   0.98691    0.009
 6803.00    0.98198   0.98879    0.009
 6804.00    0.91090   0.98945    0.009
 6805.00    0.83854   0.98618    0.009
 6806.00    0.76426   0.98237    0.009
 6807.00    0.73308   0.98405    0.008
 6808.00    0.75935   0.99118    0.008
 6809.00    0.80549   0.99655    0.008
 6810.00    0.87495   0.99502    0.009
 6811.00    0.91865   0.98985    0.009
 6812.00    0.93568   0.98840    0.009
 6813.00    0.93151   0.99370    0.009
 6814.00    0.90799   1.00195    0.009
 6815.00    0.89288   1.00778    0.009
 6816.00    0.88454   1.00901    0.009
 6817.00    0.87776   1.00562    0.009
 6818.00    0.87209   0.99752    0.009
 6819.00    0.89023   0.98718    0.009
 6820.00    0.92316   0.98149    0.009
 6821.00    0.93679   0.98472    0.009
 6822.00    0.93995   0.99245    0.009
 6823.00    0.94160   0.99736    0.009
 6824.00    0.94253   0.99829    0.008
 6825.00    0.93198   0.99919    0.009
 6826.00    0.91677   1.00139    0.009
 6827.00    0.89080   1.00130    0.009
 6828.00    0.86109   0.99586    0.009
 6829.00    0.86039   0.98571    0.009
 6830.00    0.86817   0.97280    0.009
 6831.00    0.88918   0.95891    0.009
 6832.00    0.91339   0.94663    0.009
 6833.00    0.95389   0.94043    0.009
 6834.00    0.99758   0.94454    0.009
 6835.00    0.99206   0.95823    0.009
 6836.00    0.97903   0.97487    0.009
 6837.00    0.95681   0.98730    0.009
 6838.00    0.93356   0.99325    0.009
 6839.00    0.88841   0.99472    0.009
 6840.00    0.84162   0.99404    0.009
 6841.00    0.81265   0.99274    0.009
 6842.00    0.78438   0.99210    0.009
 6843.00    0.75768   0.99208    0.009
 6844.00    0.73411   0.98962    0.009
 6845.00    0.83436   0.98045    0.009
 6846.00    0.92802   0.96654    0.008
 6847.00    0.91061   0.95717    0.008
 6848.00    0.89381   0.95742    0.008
 6849.00    0.88341   0.96301    0.008
 6850.00    0.87095   0.96743    0.009
 6851.00    0.84325   0.96637    0.008
 6852.00    0.81913   0.96048    0.008
 6853.00    0.81528   0.95786    0.008
 6854.00    0.80821   0.96564    0.008
 6855.00    0.78663   0.97958    0.008
 6856.00    0.78028   0.98839    0.008
 6857.00    0.83029   0.98576    0.009
 6858.00    0.87382   0.97443    0.009
 6859.00    0.89730   0.96320    0.009
 6860.00    0.91135   0.96073    0.009
 6861.00    0.90059   0.96649    0.009
 6862.00    0.88821   0.97134    0.009
 6863.00    0.87221   0.97033    0.009
 6864.00    0.84670   0.96770    0.009
 6865.00    0.80254   0.96766    0.009
 6866.00    0.77256   0.96948    0.009
 6867.00    0.76676   0.97268    0.009
 6868.00    0.78594   0.97847    0.009
 6869.00    0.84245   0.98518    0.009
 6870.00    0.86218   0.98820    0.009
 6871.00    0.83361   0.98493    0.009
 6872.00    0.81754   0.97651    0.009
 6873.00    0.81594   0.96699    0.008
 6874.00    0.83567   0.96249    0.008
 6875.00    0.87717   0.96609    0.008
 6876.00    0.89425   0.97308    0.008
 6877.00    0.88934   0.97771    0.008
 6878.00    0.85981   0.98168    0.008
 6879.00    0.81077   0.98831    0.008
 6880.00    0.78412   0.99575    0.009
 6881.00    0.77309   1.00131    0.009
 6882.00    0.77644   1.00402    0.009
 6883.00    0.78860   1.00297    0.009
 6884.00    0.80624   0.99896    0.009
 6885.00    0.82683   0.99439    0.009
 6886.00    0.83436   0.99033    0.009
 6887.00    0.83584   0.98784    0.008
 6888.00    0.83531   0.98894    0.008
 6889.00    0.83397   0.99246    0.008
 6890.00    0.84696   0.99388    0.008
 6891.00    0.86485   0.99208    0.008
 6892.00    0.87136   0.99153    0.008
 6893.00    0.87462   0.99477    0.009
 6894.00    0.89790   0.99837    0.009
 6895.00    0.92592   0.99864    0.009
 6896.00    0.87486   0.99694    0.009
 6897.00    0.80872   0.99720    0.009
 6898.00    0.85059   1.00066    0.009
 6899.00    0.90842   1.00462    0.009
 6900.00    0.89627   1.00634    0.009
 6901.00    0.87658   1.00490    0.009
 6902.00    0.84240   1.00040    0.009
 6903.00    0.80719   0.99353    0.009
 6904.00    0.80013   0.98507    0.009
 6905.00    0.79408   0.97718    0.008
 6906.00    0.80585   0.97346    0.009
 6907.00    0.81799   0.97437    0.009
 6908.00    0.84059   0.97723    0.009
 6909.00    0.86064   0.98155    0.009
 6910.00    0.84031   0.98835    0.009
 6911.00    0.82476   0.99652    0.008
 6912.00    0.85715   1.00293    0.009
 6913.00    0.88316   1.00392    0.009
 6914.00    0.86337   0.99674    0.009
 6915.00    0.84262   0.98277    0.008
 6916.00    0.81666   0.96950    0.008
 6917.00    0.80099   0.96543    0.009
 6918.00    0.83064   0.97202    0.009
 6919.00    0.85371   0.98258    0.009
 6920.00    0.85290   0.98999    0.009
 6921.00    0.84476   0.99241    0.009
 6922.00    0.81430   0.99085    0.009
 6923.00    0.79897   0.98619    0.009
 6924.00    0.82272   0.98121    0.009
 6925.00    0.82425   0.98064    0.009
 6926.00    0.77639   0.98513    0.009
 6927.00    0.74334   0.98975    0.009
 6928.00    0.73886   0.99118    0.009
 6929.00    0.74285   0.99162    0.009
 6930.00    0.76108   0.99455    0.009
 6931.00    0.78149   0.99963    0.009
 6932.00    0.80513   1.00254    0.009
 6933.00    0.81956   0.99907    0.009
 6934.00    0.82209   0.98865    0.009
 6935.00    0.84714   0.97484    0.009
 6936.00    0.89787   0.96461    0.009
 6937.00    0.91736   0.96479    0.009
 6938.00    0.90541   0.97502    0.009
 6939.00    0.91289   0.98747    0.009
 6940.00    0.93759   0.99446    0.009
 6941.00    0.90654   0.99287    0.009
 6942.00    0.83191   0.98469    0.009
 6943.00    0.80477   0.97591    0.009
 6944.00    0.81030   0.97136    0.009
 6945.00    0.82237   0.97169    0.009
 6946.00    0.83838   0.97608    0.009
 6947.00    0.84506   0.98329    0.009
 6948.00    0.84684   0.99030    0.009
 6949.00    0.84196   0.99419    0.009
 6950.00    0.83404   0.99504    0.009
 6951.00    0.83213   0.99524    0.009
 6952.00    0.83259   0.99671    0.009
 6953.00    0.84620   0.99922    0.009
 6954.00    0.86420   1.00101    0.009
 6955.00    0.85454   1.00008    0.009
 6956.00    0.83710   0.99609    0.009
 6957.00    0.80272   0.99272    0.009
 6958.00    0.76442   0.99484    0.009
 6959.00    0.76253   1.00141    0.009
 6960.00    0.76739   1.00573    0.009
 6961.00    0.80658   1.00375    0.009
 6962.00    0.85067   0.99906    0.009
 6963.00    0.88261   0.99772    0.009
 6964.00    0.91329   0.99938    0.009
 6965.00    0.89026   0.99736    0.009
 6966.00    0.86364   0.98754    0.009
 6967.00    0.85881   0.97117    0.009
 6968.00    0.85467   0.95050    0.009
 6969.00    0.84682   0.93043    0.009
 6970.00    0.83792   0.92201    0.009
 6971.00    0.79710   0.93301    0.009
 6972.00    0.75549   0.95723    0.009
 6973.00    0.70210   0.98117    0.009
 6974.00    0.66117   0.99698    0.009
 6975.00    0.73976   1.00437    0.009
 6976.00    0.81043   1.00584    0.009
 6977.00    0.82592   1.00425    0.009
 6978.00    0.83557   1.00111    0.009
 6979.00    0.81379   0.99617    0.009
 6980.00    0.80504   0.99067    0.009
 6981.00    0.85235   0.98880    0.009
 6982.00    0.87758   0.99291    0.009
 6983.00    0.82437   0.99943    0.009
 6984.00    0.78370   1.00264    0.009
 6985.00    0.78041   1.00135    0.009
 6986.00    0.79736   0.99926    0.009
 6987.00    0.86570   0.99890    0.009
 6988.00    0.91251   0.99760    0.009
 6989.00    0.91223   0.99078    0.009
 6990.00    0.90396   0.97915    0.009
 6991.00    0.88054   0.97056    0.009
 6992.00    0.86974   0.97166    0.009
 6993.00    0.87984   0.97863    0.009
 6994.00    0.88875   0.98124    0.009
 6995.00    0.89591   0.97572    0.009
 6996.00    0.89245   0.96830    0.009
 6997.00    0.87541   0.96637    0.009
 6998.00    0.84252   0.97134    0.009
 6999.00    0.79178   0.97983    0.009
 7000.00    0.77718   0.98716    0.009
 7001.00    0.79841   0.98980    0.009
 7002.00    0.81647   0.98826    0.009
 7003.00    0.83177   0.98655    0.009
 7004.00    0.86198   0.98570    0.009
 7005.00    0.90369   0.97988    0.009
 7006.00    0.90817   0.96389    0.009
 7007.00    0.88743   0.94490    0.009
 7008.00    0.86130   0.93946    0.009
 7009.00    0.83198   0.95451    0.009
 7010.00    0.81087   0.97863    0.009
 7011.00    0.79401   0.99591    0.009
 7012.00    0.78847   0.99953    0.009
 7013.00    0.78802   0.99034    0.009
 7014.00    0.81538   0.97380    0.009
 7015.00    0.85347   0.96001    0.009
 7016.00    0.85877   0.95763    0.009
 7017.00    0.85332   0.96581    0.009
 7018.00    0.87022   0.97684    0.009
 7019.00    0.89326   0.98527    0.009
 7020.00    0.87654   0.99083    0.010
 7021.00    0.85083   0.99417    0.010
 7022.00    0.83295   0.99468    0.010
 7023.00    0.81648   0.99243    0.009
 7024.00    0.80306   0.98948    0.009
 7025.00    0.79006   0.98836    0.009
 7026.00    0.79399   0.98972    0.009
 7027.00    0.79959   0.99012    0.009
 7028.00    0.83573   0.98399    0.009
 7029.00    0.87379   0.97349    0.010
 7030.00    0.85527   0.97173    0.009
 7031.00    0.83517   0.98700    0.009
 7032.00    0.82431   1.01061    0.009
 7033.00    0.81299   1.02727    0.009
 7034.00    0.78946   1.02988    0.009
 7035.00    0.76752   1.02156    0.009
 7036.00    0.76796   1.01155    0.009
 7037.00    0.76973   1.00911    0.010
 7038.00    0.78378   1.01620    0.010
 7039.00    0.79550   1.02652    0.010
 7040.00    0.79144   1.03217    0.010
 7041.00    0.79208   1.02873    0.010
 7042.00    0.81728   1.01497    0.010
 7043.00    0.84271   0.99253    0.010
 7044.00    0.86916   0.96802    0.010
 7045.00    0.89861   0.95111    0.010
 7046.00    0.93851   0.94735    0.010
 7047.00    0.98182   0.95405    0.010
 7048.00    1.03513   0.96264    0.010
 7049.00    1.05393   0.96404    0.010
 7050.00    0.98661   0.95551   -2.000
 7051.00    0.92351   0.94375   -2.000
 7052.00    0.86949   0.93851   -2.000
 7053.00    0.84452   0.94267   -2.000
 7054.00    0.87377   0.95155   -2.000
 7055.00    0.89251   0.95900   -2.000
 7056.00    0.89411   0.95975   -2.000
 7057.00    0.90384   0.95070   -2.000
 7058.00    0.92519   0.93509   -2.000
 7059.00    0.90428   0.92271   -2.000
 7060.00    0.83020   0.92283   -2.000
 7061.00    0.84754   0.93589   -2.000
 7062.00    0.96626   0.95251   -2.000
 7063.00    0.99141   0.96329   -2.000
 7064.00    0.92503   0.96692   -2.000
 7065.00    0.91201   0.96685   -2.000
 7066.00    0.94500   0.96552   -2.000
 7067.00    0.93484   0.96450   -2.000
 7068.00    0.89190   0.96535   -2.000
 7069.00    0.88881   0.96822   -2.000
 7070.00    0.91233   0.97194   -2.000
 7071.00    0.94423   0.97496   -2.000
 7072.00    0.98104   0.97402   -2.000
 7073.00    0.97353   0.96418   -2.000
 7074.00    0.94343   0.94445   -2.000
 7075.00    0.91206   0.92242   -2.000
 7076.00    0.88012   0.90908   -2.000
 7077.00    0.93672   0.90754   -2.000
 7078.00    1.02689   0.91033   -2.000
 7079.00    1.04532   0.90973   -2.000
 7080.00    1.04065   0.90562   -2.000
 7081.00    0.98321   0.90185   -2.000
 7082.00    0.91156   0.90095   -2.000
 7083.00    0.85479   0.90270   -2.000
 7084.00    0.80131   0.90495   -2.000
 7085.00    0.84677   0.90657   -2.000
 7086.00    0.90961   0.90797   -2.000
 7087.00    0.92538   0.90964   -2.000
 7088.00    0.93484   0.91271   -2.000
 7089.00    0.95360   0.91829   -2.000
 7090.00    0.97324   0.92508   -2.000
 7091.00    0.92698   0.92930   -2.000
 7092.00    0.87686   0.92840   -2.000
 7093.00    0.89821   0.92468   -2.000
 7094.00    0.92073   0.92332   -2.000
 7095.00    0.86410   0.92669   -2.000
 7096.00    0.81020   0.93098   -2.000
 7097.00    0.82437   0.93072   -2.000
 7098.00    0.83719   0.92607   -2.000
 7099.00    0.83202   0.92166   -2.000
 7100.00    0.82612   0.91856   -2.000
 7101.00    0.81373   0.91341   -2.000
 7102.00    0.80236   0.90630   -2.000
 7103.00    0.79758   0.90307   -2.000
 7104.00    0.79308   0.90713   -2.000
 7105.00    0.79000   0.91482   -2.000
 7106.00    0.79004   0.92095   -2.000
 7107.00    0.80298   0.92399   -2.000
 7108.00    0.80644   0.92461   -2.000
 7109.00    0.77762   0.92347   -2.000
 7110.00    0.77563   0.92122   -2.000
 7111.00    0.85073   0.91800   -2.000
 7112.00    0.89899   0.91394   -2.000
 7113.00    0.88138   0.91106   -2.000
 7114.00    0.87218   0.91198   -2.000
 7115.00    0.88077   0.91464   -2.000
 7116.00    0.91406   0.91341   -2.000
 7117.00    0.99274   0.90793   -2.000
 7118.00    1.01611   0.90335   -2.000
 7119.00    0.95060   0.90081   -2.000
 7120.00    0.87850   0.89545   -2.000
 7121.00    0.79711   0.88567   -2.000
 7122.00    0.78871   0.87875   -2.000
 7123.00    0.87085   0.88235   -2.000
 7124.00    0.93141   0.89464   -2.000
 7125.00    0.96839   0.90784   -2.000
 7126.00    0.96617   0.91697   -2.000
 7127.00    0.92614   0.92200   -2.000
 7128.00    0.87253   0.92388   -2.000
 7129.00    0.80737   0.92177   -2.000
 7130.00    0.87844   0.91683   -2.000
 7131.00    1.05152   0.91448   -2.000
 7132.00    1.08894   0.91710   -2.000
 7133.00    1.03710   0.92032   -2.000
 7134.00    1.00834   0.92051   -2.000
 7135.00    0.99288   0.91865   -2.000
 7136.00    0.91843   0.91567   -2.000
 7137.00    0.81439   0.90939   -2.000
 7138.00    0.80592   0.89784   -2.000
 7139.00    0.83895   0.88574   -2.000
 7140.00    0.76486   0.88314   -2.000
 7141.00    0.65086   0.89294   -2.000
 7142.00    0.72743   0.90815   -2.000
 7143.00    0.86419   0.92186   -2.000
 7144.00    0.81669   0.93033   -2.000
 7145.00    0.72058   0.93146   -2.000
 7146.00    0.79779   0.92834   -2.000
 7147.00    0.91236   0.92820   -2.000
 7148.00    0.90528   0.93244   -2.000
 7149.00    0.87742   0.93426   -2.000
 7150.00    0.82765   0.92988   -2.000
 7151.00    0.77505   0.92401   -2.000
 7152.00    0.76605   0.92160   -2.000
 7153.00    0.76101   0.91951   -2.000
 7154.00    0.86259   0.90979   -2.000
 7155.00    0.97001   0.89253   -2.000
 7156.00    0.87548   0.88098   -2.000
 7157.00    0.77763   0.88730   -2.000
 7158.00    0.76419   0.90725   -2.000
 7159.00    0.76326   0.92588   -2.000
 7160.00    1.04643   0.93445   -2.000
 7161.00    1.30555   0.93629   -2.000
 7162.00    1.26158   0.93877   -2.000
 7163.00    1.21733   0.94388   -2.000
 7164.00    1.17063   0.94718   -2.000
 7165.00    1.10510   0.94401   -2.000
 7166.00    0.92030   0.93510   -2.000
 7167.00    0.77669   0.92710   -2.000
 7168.00    0.83761   0.92619   -2.000
 7169.00    0.88603   0.92903   -2.000
 7170.00    0.88413   0.92501   -2.000
 7171.00    0.90407   0.91149   -2.000
 7172.00    0.99698   0.89990   -2.000
 7173.00    1.02960   0.90270   -2.000
 7174.00    0.89220   0.91785   -2.000
 7175.00    0.82173   0.93076   -2.000
 7176.00    0.91273   0.92994   -2.000
 7177.00    0.95970   0.91552   -2.000
 7178.00    0.91499   0.89641   -2.000
 7179.00    0.89797   0.88438   -2.000
 7180.00    0.93106   0.88532   -2.000
 7181.00    0.88626   0.89511   -2.000
 7182.00    0.71816   0.90469   -2.000
 7183.00    0.61950   0.90791   -2.000
 7184.00    0.61735   0.90702   -2.000
 7185.00    0.61566   0.90860   -2.000
 7186.00    0.61454   0.91362   -2.000
 7187.00    0.65872   0.91661   -2.000
 7188.00    0.75172   0.91619   -2.000
 7189.00    0.78057   0.91738   -2.000
 7190.00    0.74844   0.92112   -2.000
 7191.00    0.79622   0.92220   -2.000
 7192.00    0.91100   0.91853   -2.000
 7193.00    0.89370   0.91576   -2.000
 7194.00    0.77891   0.92005   -2.000
 7195.00    0.77221   0.92732   -2.000
 7196.00    0.83558   0.92533   -2.000
 7197.00    0.74176   0.90840   -2.000
 7198.00    0.55877   0.88690   -2.000
 7199.00    0.63479   0.87824   -2.000
 7200.00    0.83871   0.88839   -2.000
 7201.00    0.92211   0.90837   -2.000
 7202.00    0.95405   0.92467   -2.000
 7203.00    0.92791   0.92873   -2.000
 7204.00    0.88052   0.92233   -2.000
 7205.00    0.80616   0.91402   -2.000
 7206.00    0.72344   0.91103   -2.000
 7207.00    0.67630   0.91554   -2.000
 7208.00    0.63834   0.92472   -2.000
 7209.00    0.65651   0.93200   -2.000
 7210.00    0.68648   0.93239   -2.000
 7211.00    0.73486   0.92701   -2.000
 7212.00    0.78630   0.92002   -2.000
 7213.00    0.81342   0.91458   -2.000
 7214.00    0.83751   0.91325   -2.000
 7215.00    0.86164   0.91848   -2.000
 7216.00    0.88578   0.92914   -2.000
 7217.00    0.88237   0.93931   -2.000
 7218.00    0.87756   0.94333   -2.000
