###################################################################
## OUTPUT of StarlightChains_v04.for    [Cid@UFSC - 01/Apr/2007] ##
###################################################################

## Some input info
KUG0210-078._31_24.txt                   [arq_obs]
Base.CB07.vall.4m                        [arq_base]
Masks.EmLines.NEW.gm                     [arq_masks]
StCv04.C11.config                        [arq_config]
   66                                    [N_base]
    0                                    [N_YAV_components = # of components with extra extinction!]
    0                                    [i_FitPowerLaw (1/0 = Yes/No)]
-9.99                                    [alpha_PowerLaw]
CCM                                      [red_law_option]
 1.458241                                [q_norm = A(l_norm)/A(V)]

## (Re)Sampling Parameters
 3741.00                                 [l_ini (A)]
 7218.00                                 [l_fin (A)]
    1.00                                 [dl    (A)]     (OBS: dl_cushion =    50.00 A)

## Normalization info
 4020.00                                 [l_norm (A) - for base]
 4010.00                                 [llow_norm (A) - window for f_obs]
 4060.00                                 [lupp_norm (A) - window for f_obs]
1.647171E-17                             [fobs_norm (in input units)]

## S/N
 3691.00                                 [llow_SN (A) - window for S/N]
 7268.00                                 [lupp_SN (A) - window for S/N]
   3.761                                 [S/N in S/N window]
   5.650                                 [S/N in norm. window]
   0.017                                 [S/N_err in S/N window]
   0.025                                 [S/N_err in norm. window]
  1.0000                                 [fscale_chi2]

## etc...
    -2007449                             [idum_orig]
  2413                                   [NOl_eff]
  1974                                   [Nl_eff]
   439    NSIGMA                         [Ntot_cliped & clip_method]
 10853640                                [Nglobal_steps]
   7                                     [N_chains]
  37                                     [NEX0s_base = N_base in EX0s-fits]
 0   0   1      439   2.0   1.546E+04    [Clip-Bug, RC-Crash & Burn-In warning-flags, n_censored_weights, wei_nsig_threshold & wei_limit]
    89     88.197     87.265      0.932  [idt_all, wdt_TotTime, wdt_UsrTime & wdt_SysTime (sec)]

## Synthesis Results - Best model ##

 6.11788E-06                             [chi2/Nl_eff]
    11.44846                             [adev (%)]

    96.31216                             [sum-of-x (%)]
 1.26726E-17                             [Flux_tot (units of input spectrum!)]
 1.73659E-13                             [Mini_tot (???)]
 9.25147E-14                             [Mcor_tot (???)]

  70.13                                  [v0_min  (km/s)]
   0.01                                  [vd_min  (km/s)]
-0.1672                                  [AV_min  (mag)]
 0.0000                                  [YAV_min (mag)]

# j     x_j(%)      Mini_j(%)     Mcor_j(%)     age_j(yr)     Z_j      (L/M)_j    YAV?  Mstars   component_j        a/Fe...       SSP_chi2r SSP_adev(%)   SSP_AV   SSP_x(%)
  1      1.8420     1.2757E-02    2.3946E-02    1.000000E+06  0.00400  1.094E-02    0   1.0000   age020_m42            0.0000     8.9906E-06    15.1116   2.0340    88.4548
  2      0.0078     1.4793E-05    2.7764E-05    3.160000E+06  0.00400  4.007E-02    0   0.9999   age045_m42            0.0000     8.0864E-06    14.1240   1.3977    91.3220
  3      0.0009     2.6596E-06    4.7367E-06    5.010000E+06  0.00400  2.539E-02    0   0.9488   age055_m42            0.0000     8.4645E-06    14.4967   1.6749    90.6244
  4      0.0000     0.0000E+00    0.0000E+00    6.610000E+06  0.00400  2.620E-02    0   0.9220   age061_m42            0.0000     7.9324E-06    13.9022   1.3260    91.5699
  5      1.6682     9.5608E-03    1.5904E-02    1.000000E+07  0.00400  1.322E-02    0   0.8862   age070_m42            0.0000     7.1063E-06    12.6933   1.0445    94.3486
  6      0.0000     0.0000E+00    0.0000E+00    1.445000E+07  0.00400  7.883E-03    0   0.8571   age078_m42            0.0000     7.5004E-06    13.1134   1.3466    92.7374
  7     21.5558     3.1104E-01    4.7723E-01    2.512000E+07  0.00400  5.251E-03    0   0.8174   age090_m42            0.0000     6.8824E-06    12.3745   0.9254    94.6587
  8      0.0000     0.0000E+00    0.0000E+00    4.000000E+07  0.00400  3.649E-03    0   0.7851   age104_m42            0.0000     6.7365E-06    12.2856   0.7170    94.6525
  9      3.7544     9.1823E-02    1.3149E-01    5.500000E+07  0.00400  3.098E-03    0   0.7629   age110_m42            0.0000     6.9558E-06    12.6617   0.8852    93.7219
 10      0.0000     0.0000E+00    0.0000E+00    1.015200E+08  0.00400  2.228E-03    0   0.7207   age116_m42            0.0000     7.1081E-06    12.8767   0.9144    93.3584
 11      1.2909     8.9488E-02    1.1167E-01    2.861200E+08  0.00400  1.093E-03    0   0.6648   age125_m42            0.0000     6.5796E-06    12.1501   0.3663    95.5247
 12      0.0015     1.7409E-04    2.0799E-04    5.088000E+08  0.00400  6.597E-04    0   0.6365   age130_m42            0.0000     6.7524E-06    12.4389   0.3715    95.4220
 13      0.0000     0.0000E+00    0.0000E+00    1.434000E+09  0.00400  2.132E-04    0   0.5798   age139_m42            0.0000     6.4975E-06    12.0341  -0.5477    95.1965
 14      0.0000     0.0000E+00    0.0000E+00    4.250000E+09  0.00400  5.895E-05    0   0.5377   age158_m42            0.0000     7.1270E-06    12.8679  -0.9818    90.6918
 15      0.0000     0.0000E+00    0.0000E+00    7.500000E+09  0.00400  3.510E-05    0   0.5212   age171_m42            0.0000     7.5862E-06    12.1751  -1.0000    85.6071
 16      0.0000     0.0000E+00    0.0000E+00    1.300000E+10  0.00400  2.005E-05    0   0.5034   age193_m42            0.0000     8.5839E-06    12.0775  -1.0000    80.9161
 17      0.0000     0.0000E+00    0.0000E+00    1.800000E+10  0.00400  1.525E-05    0   0.4967   age213_m42            0.0000     8.6959E-06    12.0548  -1.0000    80.0718
 18      0.0000     0.0000E+00    0.0000E+00    1.000000E+06  0.00800  1.238E-02    0   1.0000   age020_m52            0.0000     9.0346E-06    15.1302   2.0281    88.7006
 19      0.0003     6.2263E-07    1.1648E-06    3.160000E+06  0.00800  3.074E-02    0   0.9966   age045_m52            0.0000     9.0522E-06    15.1071   1.9549    89.3707
 20      0.0000     0.0000E+00    0.0000E+00    5.010000E+06  0.00800  2.668E-02    0   0.9443   age055_m52            0.0000     8.5908E-06    14.5501   1.7435    90.3523
 21      0.2388     8.4710E-04    1.4592E-03    6.610000E+06  0.00800  2.136E-02    0   0.9177   age061_m52            0.0000     6.9682E-06    12.6727   0.5485    95.1690
 22      0.0000     0.0000E+00    0.0000E+00    1.000000E+07  0.00800  1.215E-02    0   0.8827   age070_m52            0.0000     7.1577E-06    12.5033   1.2045    95.0687
 23      0.0000     0.0000E+00    0.0000E+00    1.445000E+07  0.00800  8.717E-03    0   0.8552   age078_m52            0.0000     7.4638E-06    12.9460   1.3169    93.9316
 24      0.1206     1.6336E-03    2.5028E-03    2.512000E+07  0.00800  5.592E-03    0   0.8162   age090_m52            0.0000     6.7988E-06    12.1490   0.9979    95.4849
 25      0.0000     0.0000E+00    0.0000E+00    4.000000E+07  0.00800  3.896E-03    0   0.7841   age104_m52            0.0000     6.7176E-06    12.1492   0.9344    95.0774
 26      0.0000     0.0000E+00    0.0000E+00    1.015200E+08  0.00800  2.148E-03    0   0.7226   age116_m52            0.0000     6.8711E-06    12.5016   0.8901    93.9272
 27      0.0000     0.0000E+00    0.0000E+00    2.861200E+08  0.00800  9.925E-04    0   0.6683   age125_m52            0.0000     6.5489E-06    12.2223   0.4508    95.7474
 28      5.7718     1.3923E+00    1.6041E+00    9.047900E+08  0.00800  3.141E-04    0   0.6138   age135_m52            0.0000     6.3154E-06    11.9512  -0.2513    95.3774
 29      0.0000     0.0000E+00    0.0000E+00    1.434000E+09  0.00800  1.719E-04    0   0.5853   age139_m52            0.0000     6.5406E-06    12.0996  -0.8398    93.6067
 30      0.0000     0.0000E+00    0.0000E+00    2.500000E+09  0.00800  7.872E-05    0   0.5600   age150_m52            0.0000     7.1932E-06    12.2233  -1.0000    87.8392
 31      0.0000     0.0000E+00    0.0000E+00    4.250000E+09  0.00800  4.336E-05    0   0.5426   age158_m52            0.0000     7.3210E-06    12.2260  -1.0000    86.6269
 32      0.0000     0.0000E+00    0.0000E+00    6.250000E+09  0.00800  3.159E-05    0   0.5319   age166_m52            0.0000     8.3343E-06    12.0066  -1.0000    81.3158
 33      0.0000     0.0000E+00    0.0000E+00    1.300000E+10  0.00800  1.361E-05    0   0.5073   age193_m52            0.0000     1.2647E-05    14.5434  -1.0000    69.1613
 34      0.0000     0.0000E+00    0.0000E+00    1.800000E+10  0.00800  9.886E-06    0   0.4990   age213_m52            0.0000     1.4086E-05    15.3137  -1.0000    66.0438
 35      5.9276     2.9088E-02    5.4601E-02    1.000000E+06  0.02000  1.544E-02    0   1.0000   age020_m62            0.0000     9.1310E-06    15.1947   2.0162    89.1888
 36      0.8651     1.7423E-03    3.2239E-03    3.160000E+06  0.02000  3.762E-02    0   0.9858   age045_m62            0.0000     9.3058E-06    15.2979   1.9431    90.4122
 37      0.0083     1.9023E-05    3.3358E-05    5.010000E+06  0.02000  3.296E-02    0   0.9342   age055_m62            0.0000     8.4859E-06    14.4923   1.6407    91.4793
 38      0.0000     0.0000E+00    0.0000E+00    8.710000E+06  0.02000  1.154E-02    0   0.8861   age067_m62            0.0000     6.4077E-06    10.9616   0.6052   101.6246
 39      0.2725     2.6946E-03    4.2852E-03    1.445000E+07  0.02000  7.663E-03    0   0.8472   age078_m62            0.0000     6.6294E-06    11.7463   0.8559    97.5204
 40      0.0000     0.0000E+00    0.0000E+00    2.512000E+07  0.02000  4.532E-03    0   0.8099   age090_m62            0.0000     6.5549E-06    11.6167   0.8536    97.1071
 41      7.1761     1.9895E-01    2.8363E-01    5.500000E+07  0.02000  2.733E-03    0   0.7595   age110_m62            0.0000     6.8026E-06    12.2044   0.9048    94.8729
 42      0.0000     0.0000E+00    0.0000E+00    1.609000E+08  0.02000  1.369E-03    0   0.6985   age120_m62            0.0000     6.7176E-06    12.3377   0.7879    95.3493
 43      0.0000     0.0000E+00    0.0000E+00    2.861200E+08  0.02000  9.013E-04    0   0.6714   age125_m62            0.0000     6.4984E-06    12.1835   0.5778    96.3608
 44     23.8427     3.5929E+00    4.3494E+00    5.088000E+08  0.02000  5.028E-04    0   0.6449   age130_m62            0.0000     6.4207E-06    12.3118   0.2653    95.7660
 45      0.0000     0.0000E+00    0.0000E+00    9.047900E+08  0.02000  2.428E-04    0   0.6179   age135_m62            0.0000     6.4384E-06    12.2688  -0.2782    93.2108
 46      0.0000     0.0000E+00    0.0000E+00    1.434000E+09  0.02000  1.263E-04    0   0.5908   age139_m62            0.0000     6.7817E-06    12.5073  -0.7233    91.7245
 47      0.0000     0.0000E+00    0.0000E+00    2.500000E+09  0.02000  5.985E-05    0   0.5673   age150_m62            0.0000     7.3541E-06    12.5995  -1.0000    87.6627
 48      0.0000     0.0000E+00    0.0000E+00    4.250000E+09  0.02000  3.271E-05    0   0.5468   age158_m62            0.0000     9.0184E-06    12.3678  -1.0000    79.0186
 49      0.0000     0.0000E+00    0.0000E+00    1.000000E+10  0.02000  1.360E-05    0   0.5167   age181_m62            0.0000     1.2024E-05    13.8953  -1.0000    69.8207
 50      0.0000     0.0000E+00    0.0000E+00    1.800000E+10  0.02000  7.124E-06    0   0.5013   age213_m62            0.0000     1.4529E-05    15.3799  -1.0000    64.1263
 51      0.1086     3.1752E-04    5.9589E-04    1.000000E+06  0.05000  2.592E-02    0   0.9998   age020_m72            0.0000     9.2129E-06    15.2306   2.0015    89.4632
 52      0.0000     0.0000E+00    0.0000E+00    3.160000E+06  0.05000  4.845E-02    0   0.9577   age045_m72            0.0000     9.1932E-06    15.1504   1.8499    90.6964
 53      0.3606     8.8941E-04    1.5271E-03    5.010000E+06  0.05000  3.072E-02    0   0.9147   age055_m72            0.0000     7.7775E-06    13.0852   1.3954    94.7747
 54      0.0000     0.0000E+00    0.0000E+00    6.610000E+06  0.05000  1.455E-02    0   0.8877   age061_m72            0.0000     6.7698E-06    12.0429   0.6071   104.5436
 55      0.0218     1.8206E-04    2.9130E-04    1.000000E+07  0.05000  9.074E-03    0   0.8524   age070_m72            0.0000     8.1471E-06    13.7936   1.5571    94.9113
 56      0.0000     0.0000E+00    0.0000E+00    2.512000E+07  0.05000  4.250E-03    0   0.7902   age090_m72            0.0000     7.3323E-06    12.7373   1.3246    94.4812
 57      3.5063     8.6060E-02    1.2306E-01    4.000000E+07  0.05000  3.087E-03    0   0.7618   age104_m72            0.0000     6.9746E-06    12.3415   1.1190    95.4028
 58      0.0000     0.0000E+00    0.0000E+00    1.015200E+08  0.05000  1.700E-03    0   0.7096   age116_m72            0.0000     6.7290E-06    12.1702   0.9144    95.7825
 59      0.0000     0.0000E+00    0.0000E+00    2.861200E+08  0.05000  7.384E-04    0   0.6633   age125_m72            0.0000     6.4512E-06    12.1250   0.4900    95.6545
 60      0.0000     0.0000E+00    0.0000E+00    5.088000E+08  0.05000  3.819E-04    0   0.6372   age130_m72            0.0000     6.3934E-06    12.2593   0.0627    94.1769
 61      0.0514     2.3220E-02    2.6631E-02    9.047900E+08  0.05000  1.676E-04    0   0.6110   age135_m72            0.0000     6.8935E-06    12.9163  -0.5879    90.1835
 62      0.0000     0.0000E+00    0.0000E+00    1.434000E+09  0.05000  8.837E-05    0   0.5874   age139_m72            0.0000     7.1444E-06    12.6441  -1.0000    88.4412
 63      0.1303     2.3318E-01    2.4502E-01    2.500000E+09  0.05000  4.233E-05    0   0.5598   age150_m72            0.0000     8.8897E-06    12.3869  -1.0000    79.3332
 64     17.7880     9.3921E+01    9.2539E+01    6.250000E+09  0.05000  1.435E-05    0   0.5249   age166_m72            0.0000     1.3202E-05    14.6286  -1.0000    67.1746
 65      0.0000     0.0000E+00    0.0000E+00    1.300000E+10  0.05000  6.513E-06    0   0.5036   age193_m72            0.0000     1.6830E-05    16.7948  -1.0000    61.0272
 66      0.0000     0.0000E+00    0.0000E+00    1.800000E+10  0.05000  4.527E-06    0   0.4945   age213_m72            0.0000     1.9531E-05    18.1868  -1.0000    57.2115


## Synthesis Results - Average & Chains ##

# j      x_j: min, <> & last-chain-values for 1 ...  7 chains
  1      1.8420      0.1784      0.3771      0.4733      0.3536      0.2773      0.5725      0.9067      0.2871
  2      0.0078      0.0975      0.2538      0.0500      0.0000      0.0000      0.4566      0.4454      0.0298
  3      0.0009      0.1233      0.0648      0.0000      0.1126      0.0950      1.3278      0.6962      0.4484
  4      0.0000      0.2129      0.5061      1.4453      0.6333      0.8881      0.0711      0.1008      0.0028
  5      1.6682      0.1606      0.4366      0.1862      0.5892      0.1342      0.4739      0.0000      0.2442
  6      0.0000      0.1568      0.3754      0.3606      0.1259      0.4469      0.1893      0.6791      0.2329
  7     21.5558      0.1960      0.3283      0.0859      0.2674      0.7183      0.9307      0.2315      0.0648
  8      0.0000      0.2113      0.3172      1.2382      0.0000      0.0000      0.1761      0.0595      0.4254
  9      3.7544      0.2559      0.7795      0.3325      0.5000      0.0061      2.0154      0.2978      0.0000
 10      0.0000      0.1430      0.1011      0.2345      0.0027      0.3776      0.0000      0.2633      0.4403
 11      1.2909      0.1956      0.3539      0.2775      0.3279      0.0000      0.6916      0.0343      0.8611
 12      0.0015      0.1773      0.0000      0.3346      0.2437      0.2378      0.8578      0.7406      0.1311
 13      0.0000      0.1444      0.0000      0.0000      0.0203      0.2345      0.1741      0.4725      0.3960
 14      0.0000      0.1873      0.2728      1.1298      0.0000      0.4123      1.2158      0.1872      0.0998
 15      0.0000      0.1736      0.5479      0.3404      0.1619      0.0739      0.0000      0.1645      0.0276
 16      0.0000      6.0661      5.6826      5.6514      6.7168      5.3394      5.4637      5.9671      5.4243
 17      0.0000     29.6553     28.1685     25.5819     25.0221     24.1803     27.6505     27.1978     24.3157
 18      0.0000      0.1996      0.7049      0.3369      0.0000      0.4792      0.0516      0.4694      0.8071
 19      0.0003      0.1658      0.1710      0.0000      0.0101      0.3398      0.2398      0.0000      0.3367
 20      0.0000      0.2005      0.1741      0.8660      0.0000      0.8541      0.6589      0.0000      1.1141
 21      0.2388      0.1543      0.0000      0.0000      0.0998      0.8744      1.0357      0.5133      0.0000
 22      0.0000      0.1843      0.1626      0.4431      0.1997      0.0000      0.0219      1.0961      0.0355
 23      0.0000      0.1761      0.2955      0.0000      0.6047      0.0699      0.3004      0.0000      0.0000
 24      0.1206      0.2375      0.1468      0.0000      0.4553      0.0000      0.2367      0.4332      1.3959
 25      0.0000      0.1585      0.0000      0.6070      0.3372      0.8312      0.1047      0.0000      0.0000
 26      0.0000      0.1452      0.0000      0.7056      0.7600      0.9185      0.0000      0.0000      0.1753
 27      0.0000      0.1689      0.0192      0.2493      0.0000      0.1641      0.0000      0.1128      1.1723
 28      5.7718      0.1383      0.0000      0.0443      0.0672      0.2801      0.2325      0.4099      0.1588
 29      0.0000      0.1580      0.0000      0.1262      1.3931      0.2625      0.0410      0.2285      0.0000
 30      0.0000      0.2109      0.7212      0.4258      0.4280      0.2270      0.0023      0.2651      0.5592
 31      0.0000      0.2359      0.2253      0.1565      0.4132      1.8563      0.0435      0.5835      0.2931
 32      0.0000      0.1824      0.3244      0.0000      0.0000      0.0000      0.2161      0.0666      0.0389
 33      0.0000      0.1780      0.0000      1.1204      0.0000      0.4976      0.4098      0.7974      0.2494
 34      0.0000      0.1903      0.0000      0.3782      0.5440      0.4096      0.0000      0.0070      0.4607
 35      5.9276      0.2441      1.0047      0.1575      0.2111      0.2744      0.7428      0.2935      0.2122
 36      0.8651      7.4474      6.9688      7.0094      6.6879      6.6964      6.4153      6.4757      6.3405
 37      0.0083      0.1468      0.1873      0.2020      0.5748      0.3119      0.9466      0.5611      0.0000
 38      0.0000      0.1323      0.3202      0.5299      0.0000      0.1594      0.0989      0.1941      0.0809
 39      0.2725      0.1573      0.1291      0.4820      0.6283      0.4148      0.2404      0.0000      0.3152
 40      0.0000      0.2060      0.1678      0.9863      0.6608      0.6947      0.2018      0.1200      0.4491
 41      7.1761      0.1547      0.0702      0.3553      0.0000      0.2088      0.7887      0.0000      0.1410
 42      0.0000      0.1209      0.3008      0.3760      0.0000      0.0000      0.0000      0.2956      0.0437
 43      0.0000      0.1894      0.4132      0.6659      0.1778      1.1050      1.2553      0.0491      0.0178
 44     23.8427      0.1558      0.3959      0.0000      0.0000      0.9786      0.3120      0.0000      0.4380
 45      0.0000      0.1198      0.0007      0.3983      0.1628      0.2353      0.1149      0.0708      0.1822
 46      0.0000      0.1367      0.2287      0.2239      0.1887      0.0000      0.0000      0.2356      0.5869
 47      0.0000      0.2070      0.2358      0.1730      1.0141      0.0000      0.2572      0.0000      0.9468
 48      0.0000      0.1691      0.4223      0.0000      0.1676      0.7792      0.3618      0.4739      0.0000
 49      0.0000      0.1831      0.0000      0.6040      0.4723      1.1914      0.0000      0.6006      0.9813
 50      0.0000      0.2256      0.7107      0.4624      0.0107      0.7435      0.0000      0.4553      0.6816
 51      0.1086      3.0723      3.1648      2.8930      3.5546      1.4186      3.4959      2.7788      2.0103
 52      0.0000      0.3501      0.4991      0.3412      0.3867      0.4985      0.0000      0.3550      1.0030
 53      0.3606      2.6844      2.2796      1.5903      2.7326      2.7357      1.9918      2.2740      2.6972
 54      0.0000      1.1794      1.2055      0.6061      1.2135      1.4695      0.0266      1.3044      1.4243
 55      0.0218      0.2752      0.3450      0.2992      0.2287      0.9100      0.4278      0.4412      0.0000
 56      0.0000      0.1769      0.9508      0.0695      0.0000      0.7468      0.1453      0.5585      0.6260
 57      3.5063      0.1403      0.1384      0.0000      0.2867      0.0000      0.8628      0.2480      0.0000
 58      0.0000      0.1300      0.0000      0.0000      0.0000      0.0000      0.0000      0.2093      1.2803
 59      0.0000      0.1604      0.0000      0.3259      0.0566      0.0000      0.0000      0.3473      0.1465
 60      0.0000      0.1630      0.1291      0.2121      0.8733      0.5398      0.2201      0.3461      0.0000
 61      0.0514     12.7155     12.2736     12.2259     12.9543     12.7417     13.1681     12.7346     12.5822
 62      0.0000     22.1103     20.3651     19.9378     19.2953     19.0598     17.1683     19.0197     20.1071
 63      0.1303      2.5732      2.5097      2.5786      2.4472      2.1296      1.5678      2.9229      2.5874
 64     17.7880      0.2308      0.3019      0.1352      1.2711      0.0000      0.2195      0.1560      0.2941
 65      0.0000      0.2023      0.1320      0.6418      0.3924      0.2808      0.2115      0.6812      0.9080
 66      0.0000      0.1087      0.1225      0.0000      0.3166      0.0122      0.1913      0.0000      0.2341

# j      m_j: min, <> & last-chain-values for 1 ...  7 chains
  1  2.3946E-02  1.1310E-03  2.4701E-03  3.1223E-03  2.3390E-03  1.9012E-03  3.9905E-03  5.8355E-03  1.8832E-03
  2  2.7764E-05  1.6870E-04  4.5385E-04  9.0097E-05  0.0000E+00  0.0000E+00  8.6882E-04  7.8246E-04  5.3425E-05
  3  4.7367E-06  3.1962E-04  1.7343E-04  0.0000E+00  3.0453E-04  2.6627E-04  3.7840E-03  1.8317E-03  1.2024E-03
  4  0.0000E+00  5.1956E-04  1.2763E-03  3.6707E-03  1.6126E-03  2.3438E-03  1.9069E-04  2.4988E-04  7.0625E-06
  5  1.5904E-02  7.4689E-04  2.0974E-03  9.0079E-04  2.8583E-03  6.7445E-04  2.4226E-03  0.0000E+00  1.1746E-03
  6  0.0000E+00  1.1829E-03  2.9249E-03  2.8299E-03  9.9057E-04  3.6439E-03  1.5695E-03  5.1984E-03  1.8173E-03
  7  4.7723E-01  2.1159E-03  3.6624E-03  9.6522E-04  3.0124E-03  8.3853E-03  1.1048E-02  2.5369E-03  7.2378E-04
  8  0.0000E+00  3.1538E-03  4.8912E-03  1.9227E-02  0.0000E+00  0.0000E+00  2.8888E-03  9.0134E-04  6.5672E-03
  9  1.3149E-01  4.3704E-03  1.3757E-02  5.9088E-03  8.9107E-03  1.1315E-04  3.7849E-02  5.1634E-03  0.0000E+00
 10  0.0000E+00  3.2088E-03  2.3442E-03  5.4735E-03  6.2515E-05  9.1605E-03  0.0000E+00  5.9961E-03  1.0220E-02
 11  1.1167E-01  8.2508E-03  1.5424E-02  1.2182E-02  1.4432E-02  0.0000E+00  3.2079E-02  1.4698E-03  3.7585E-02
 12  2.0799E-04  1.1869E-02  0.0000E+00  2.3302E-02  1.7018E-02  1.7204E-02  6.3112E-02  5.0311E-02  9.0785E-03
 13  0.0000E+00  2.7245E-02  0.0000E+00  0.0000E+00  3.9921E-03  4.7827E-02  3.6098E-02  9.0467E-02  7.7283E-02
 14  0.0000E+00  1.1851E-01  1.7836E-01  7.4375E-01  0.0000E+00  2.8205E-01  8.4573E-01  1.2021E-01  6.5308E-02
 15  0.0000E+00  1.7881E-01  5.8309E-01  3.6476E-01  1.7398E-01  8.2354E-02  0.0000E+00  1.7194E-01  2.9367E-02
 16  0.0000E+00  1.0564E+01  1.0225E+01  1.0240E+01  1.2204E+01  1.0054E+01  1.0461E+01  1.0548E+01  9.7729E+00
 17  0.0000E+00  6.6995E+01  6.5751E+01  6.0133E+01  5.8975E+01  5.9066E+01  6.8680E+01  6.2371E+01  5.6831E+01
 18  0.0000E+00  1.1180E-03  4.0808E-03  1.9641E-03  0.0000E+00  2.9032E-03  3.1768E-04  2.6698E-03  4.6784E-03
 19  1.1648E-06  3.7282E-04  3.9731E-04  0.0000E+00  2.3615E-05  8.2630E-04  5.9298E-04  0.0000E+00  7.8324E-04
 20  0.0000E+00  4.9221E-04  4.4161E-04  2.2120E-03  0.0000E+00  2.2673E-03  1.7786E-03  0.0000E+00  2.8297E-03
 21  1.4592E-03  4.5980E-04  0.0000E+00  0.0000E+00  3.1036E-04  2.8175E-03  3.3935E-03  1.5526E-03  0.0000E+00
 22  0.0000E+00  9.2891E-04  8.4660E-04  2.3232E-03  1.0499E-03  0.0000E+00  1.2126E-04  5.6066E-03  1.8502E-04
 23  0.0000E+00  1.1982E-03  2.0774E-03  0.0000E+00  4.2933E-03  5.1413E-04  2.2474E-03  0.0000E+00  0.0000E+00
 24  2.5028E-03  2.4048E-03  1.5355E-03  0.0000E+00  4.8086E-03  0.0000E+00  2.6347E-03  4.4514E-03  1.4621E-02
 25  0.0000E+00  2.2128E-03  0.0000E+00  8.8164E-03  4.9111E-03  1.2546E-02  1.6067E-03  0.0000E+00  0.0000E+00
 26  0.0000E+00  3.3888E-03  0.0000E+00  1.7131E-02  1.8501E-02  2.3174E-02  0.0000E+00  0.0000E+00  4.2312E-03
 27  0.0000E+00  7.8889E-03  9.2416E-04  1.2114E-02  0.0000E+00  8.2877E-03  0.0000E+00  5.3475E-03  5.6644E-02
 28  1.6041E+00  1.8750E-02  0.0000E+00  6.2458E-03  9.4970E-03  4.1044E-02  3.4645E-02  5.6394E-02  2.2275E-02
 29  0.0000E+00  3.7306E-02  0.0000E+00  3.1019E-02  3.4324E-01  6.7030E-02  1.0637E-02  5.4772E-02  0.0000E+00
 30  0.0000E+00  1.0407E-01  3.6767E-01  2.1858E-01  2.2031E-01  1.2112E-01  1.2652E-03  1.3280E-01  2.8547E-01
 31  0.0000E+00  2.0476E-01  2.0209E-01  1.4130E-01  3.7420E-01  1.7422E+00  4.1475E-02  5.1408E-01  2.6324E-01
 32  0.0000E+00  2.1308E-01  3.9148E-01  0.0000E+00  0.0000E+00  0.0000E+00  2.7745E-01  7.8942E-02  4.6991E-02
 33  0.0000E+00  4.6031E-01  0.0000E+00  3.0140E+00  0.0000E+00  1.3911E+00  1.1649E+00  2.0927E+00  6.6719E-01
 34  0.0000E+00  6.6630E-01  0.0000E+00  1.3778E+00  1.9869E+00  1.5504E+00  0.0000E+00  2.4844E-02  1.6685E+00
 35  5.4601E-02  1.0965E-03  4.6635E-03  7.3604E-04  9.8948E-04  1.3330E-03  3.6688E-03  1.3385E-03  9.8630E-04
 36  3.2239E-03  1.3536E-02  1.3087E-02  1.3256E-02  1.2682E-02  1.3160E-02  1.2820E-02  1.1947E-02  1.1923E-02
 37  3.3358E-05  2.8851E-04  3.8043E-04  4.1325E-04  1.1789E-03  6.6300E-04  2.0461E-03  1.1198E-03  0.0000E+00
 38  0.0000E+00  7.0472E-04  1.7621E-03  2.9365E-03  0.0000E+00  9.1777E-04  5.7941E-04  1.0496E-03  4.4563E-04
 39  4.2852E-03  1.2066E-03  1.0228E-03  3.8461E-03  5.0263E-03  3.4392E-03  2.0266E-03  0.0000E+00  2.5007E-03
 40  0.0000E+00  2.5537E-03  2.1484E-03  1.2720E-02  8.5450E-03  9.3109E-03  2.7504E-03  1.5099E-03  5.7591E-03
 41  2.8363E-01  2.9816E-03  1.3976E-03  7.1263E-03  0.0000E+00  4.3509E-03  1.6714E-02  0.0000E+00  2.8108E-03
 42  0.0000E+00  4.2779E-03  1.1000E-02  1.3844E-02  0.0000E+00  0.0000E+00  0.0000E+00  1.0620E-02  1.6010E-03
 43  0.0000E+00  9.7838E-03  2.2059E-02  3.5800E-02  9.5829E-03  6.1731E-02  7.1309E-02  2.5771E-03  9.5118E-04
 44  4.3494E+00  1.3864E-02  3.6387E-02  0.0000E+00  0.0000E+00  9.4133E-02  3.0515E-02  0.0000E+00  4.0312E-02
 45  0.0000E+00  2.1151E-02  1.2175E-04  7.3152E-02  2.9988E-02  4.4915E-02  2.2299E-02  1.2685E-02  3.3265E-02
 46  0.0000E+00  4.4338E-02  7.6667E-02  7.5581E-02  6.3879E-02  0.0000E+00  0.0000E+00  7.7596E-02  1.9700E-01
 47  0.0000E+00  1.3607E-01  1.6015E-01  1.1832E-01  6.9557E-01  0.0000E+00  1.8592E-01  0.0000E+00  6.4397E-01
 48  0.0000E+00  1.9612E-01  5.0589E-01  0.0000E+00  2.0278E-01  9.7693E-01  4.6127E-01  5.5783E-01  0.0000E+00
 49  0.0000E+00  4.8242E-01  0.0000E+00  1.6561E+00  1.2984E+00  3.3947E+00  0.0000E+00  1.6065E+00  2.6753E+00
 50  0.0000E+00  1.1011E+00  3.5842E+00  2.3481E+00  5.4738E-02  3.9238E+00  0.0000E+00  2.2556E+00  3.4417E+00
 51  5.9589E-04  8.2197E-03  8.7487E-03  8.0534E-03  9.9218E-03  4.1039E-03  1.0283E-02  7.5468E-03  5.5643E-03
 52  0.0000E+00  4.8003E-04  7.0707E-04  4.8676E-04  5.5311E-04  7.3903E-04  0.0000E+00  4.9401E-04  1.4227E-03
 53  1.5271E-03  5.5441E-03  4.8644E-03  3.4174E-03  5.8879E-03  6.1092E-03  4.5227E-03  4.7673E-03  5.7631E-03
 54  0.0000E+00  4.9908E-03  5.2711E-03  2.6687E-03  5.3577E-03  6.7240E-03  1.2357E-04  5.6031E-03  6.2358E-03
 55  2.9130E-04  1.7931E-03  2.3229E-03  2.0282E-03  1.5546E-03  6.4113E-03  3.0650E-03  2.9184E-03  0.0000E+00
 56  0.0000E+00  2.2816E-03  1.2669E-02  9.3315E-04  0.0000E+00  1.0413E-02  2.0608E-03  7.3109E-03  8.3525E-03
 57  1.2306E-01  2.4020E-03  2.4480E-03  0.0000E+00  5.1203E-03  0.0000E+00  1.6237E-02  4.3097E-03  0.0000E+00
 58  0.0000E+00  3.7650E-03  0.0000E+00  0.0000E+00  0.0000E+00  0.0000E+00  0.0000E+00  6.1499E-03  3.8348E-02
 59  0.0000E+00  9.9934E-03  0.0000E+00  2.1130E-02  3.6824E-03  0.0000E+00  0.0000E+00  2.1963E-02  9.4442E-03
 60  0.0000E+00  1.8862E-02  1.5436E-02  2.5543E-02  1.0544E-01  6.7545E-02  2.8006E-02  4.0664E-02  0.0000E+00
 61  2.6631E-02  3.2153E+00  3.2067E+00  3.2166E+00  3.4174E+00  3.4837E+00  3.6609E+00  3.2687E+00  3.2916E+00
 62  0.0000E+00  1.0194E+01  9.7013E+00  9.5645E+00  9.2812E+00  9.5016E+00  8.7028E+00  8.9013E+00  9.5908E+00
 63  2.4502E-01  2.3603E+00  2.3786E+00  2.4611E+00  2.3419E+00  2.1122E+00  1.5812E+00  2.7216E+00  2.4554E+00
 64  9.2539E+01  5.8547E-01  7.9138E-01  3.5686E-01  3.3645E+00  0.0000E+00  6.1241E-01  4.0168E-01  7.7189E-01
 65  0.0000E+00  1.0850E+00  7.3173E-01  3.5817E+00  2.1953E+00  1.6286E+00  1.2474E+00  3.7087E+00  5.0379E+00
 66  0.0000E+00  8.2395E-01  9.5883E-01  0.0000E+00  2.5026E+00  1.0033E-01  1.5935E+00  0.0000E+00  1.8346E+00

# AV, chi2 & Mass for <> & i_chain = 1 ...  7 solutions
AV      -0.1672     -0.9947     -0.9535     -0.9550     -0.9638     -0.9269     -0.8590     -0.9717     -0.9507
chi2 6.1179E-06  7.0841E-06  6.9562E-06  6.9489E-06  6.9532E-06  6.9153E-06  6.8251E-06  6.9778E-06  6.9264E-06
Mass 9.2515E-14  6.2433E-14  6.3862E-14  6.3290E-14  6.2381E-14  6.3248E-14  6.8136E-14  6.3436E-14  6.4025E-14
  70.13                                  [v0_min (km/s) before EX0s...]
   0.01                                  [vd_min (km/s) before EX0s...]


## Synthetic spectrum (Best Model) ##l_obs f_obs f_syn wei
 3478    [Nl_obs]
 3741.00    0.48459   0.71278    0.000
 3742.00    0.84534   0.72560    0.000
 3743.00    1.02654   0.71001    0.000
 3744.00    1.05600   0.68362    0.000
 3745.00    0.99703   0.65990   -1.000
 3746.00    0.99066   0.62906   -1.000
 3747.00    1.01100   0.59416   -1.000
 3748.00    0.40242   0.55815   -1.000
 3749.00   -0.48271   0.50243    0.000
 3750.00   -0.39707   0.45061    0.000
 3751.00    0.05508   0.44966   -1.000
 3752.00    0.70653   0.50294   -1.000
 3753.00    1.42185   0.56937   -1.000
 3754.00    1.09828   0.62669   -1.000
 3755.00    0.49631   0.68130   -1.000
 3756.00    0.56849   0.72183   -1.000
 3757.00    0.78864   0.72936   -1.000
 3758.00    0.63375   0.70467   -1.000
 3759.00    0.41338   0.68213   -1.000
 3760.00    0.18929   0.68964   -1.000
 3761.00   -0.03529   0.71365    0.000
 3762.00   -0.38804   0.72970    0.000
 3763.00   -0.75283   0.73113    0.000
 3764.00    0.02377   0.71833   -1.000
 3765.00    0.86622   0.70263   -1.000
 3766.00    0.79735   0.68828   -1.000
 3767.00    0.70324   0.65247   -1.000
 3768.00    0.17058   0.60674   -1.000
 3769.00   -0.33220   0.57341    0.000
 3770.00   -0.10929   0.53862    0.000
 3771.00    0.11106   0.50145   -1.000
 3772.00    0.29787   0.50603   -1.000
 3773.00    0.48886   0.55902   -1.000
 3774.00    0.71656   0.61783   -1.000
 3775.00    0.89322   0.65800   -1.000
 3776.00    0.73895   0.68884   -1.000
 3777.00    0.45456   0.72143   -1.000
 3778.00   -0.48835   0.75288    0.000
 3779.00   -1.20514   0.77607    0.000
 3780.00   -0.99639   0.80151    0.000
 3781.00   -0.58670   0.82712    0.000
 3782.00    0.50455   0.83868   -1.000
 3783.00    1.42057   0.84136   -1.000
 3784.00    1.83548   0.84735   -1.000
 3785.00    1.82126   0.85094   -1.000
 3786.00    0.75858   0.83061   -1.000
 3787.00    0.16718   0.79369   -1.000
 3788.00    0.56908   0.76824   -1.000
 3789.00    0.95418   0.75373   -1.000
 3790.00    1.30853   0.73980   -1.000
 3791.00    1.39178   0.72977   -1.000
 3792.00    1.04110   0.72366   -1.000
 3793.00    0.69588   0.70346   -1.000
 3794.00    0.35831   0.66104   -1.000
 3795.00    0.32014   0.60756   -1.000
 3796.00    0.65201   0.55779   -1.000
 3797.00    0.79573   0.51080   -1.000
 3798.00    0.73446   0.46017   -1.000
 3799.00    0.76640   0.43584   -1.000
 3800.00    0.88791   0.46973   -1.000
 3801.00    0.65364   0.54157   -1.000
 3802.00    0.11791   0.60986   -1.000
 3803.00   -0.25754   0.66397    0.000
 3804.00   -0.51338   0.71094    0.000
 3805.00   -0.13206   0.74227    0.000
 3806.00    0.66694   0.75287   -1.000
 3807.00    0.87121   0.75151   -1.000
 3808.00    0.73421   0.76022   -1.000
 3809.00    0.32139   0.78934   -1.000
 3810.00   -0.22930   0.82285    0.000
 3811.00   -0.11526   0.84664    0.000
 3812.00    0.28623   0.85186   -1.000
 3813.00    0.61318   0.83487   -1.000
 3814.00    0.91248   0.80697   -1.000
 3815.00    0.94226   0.78786   -1.000
 3816.00    0.88733   0.78081   -1.000
 3817.00    0.77452   0.78541   -1.000
 3818.00    0.64654   0.79659   -1.000
 3819.00    0.51667   0.78210   -1.000
 3820.00    0.38638   0.73286   -1.000
 3821.00    0.74092   0.70389   -1.000
 3822.00    1.17774   0.73041   -1.000
 3823.00    0.98983   0.76921   -1.000
 3824.00    0.72175   0.77335   -1.000
 3825.00    0.91014   0.74403   -1.000
 3826.00    1.13950   0.71452   -1.000
 3827.00    0.81167   0.69988   -1.000
 3828.00    0.45389   0.68880   -1.000
 3829.00    0.33930   0.67260   -1.000
 3830.00    0.23518   0.65401   -1.000
 3831.00    0.60254   0.63235   -1.000
 3832.00    0.95365   0.59465   -1.000
 3833.00    0.94363   0.53726   -1.000
 3834.00    0.91507   0.47934   -1.000
 3835.00    0.65617   0.43135   -1.000
 3836.00    0.39548   0.40844   -1.000
 3837.00    0.11966   0.42711   -1.000
 3838.00   -0.10171   0.46820    0.000
 3839.00    0.01954   0.50996   -1.000
 3840.00    0.20367   0.55128   -1.000
 3841.00    0.69805   0.58957   -1.000
 3842.00    1.08351   0.63333   -1.000
 3843.00    1.03294   0.68549   -1.000
 3844.00    1.00079   0.72687   -1.000
 3845.00    1.02986   0.75005   -1.000
 3846.00    1.05328   0.76262   -1.000
 3847.00    1.06082   0.77455    0.000
 3848.00    0.92710   0.79195    0.000
 3849.00    0.45412   0.80283    0.000
 3850.00    0.27598   0.79584    0.000
 3851.00    0.70933   0.79242    0.000
 3852.00    0.89907   0.81260    0.000
 3853.00    0.64942   0.83242    0.000
 3854.00    0.56977   0.83373    0.000
 3855.00    0.75822   0.82585    0.000
 3856.00    0.99042   0.81522    0.000
 3857.00    1.28317   0.80769    0.000
 3858.00    1.26146   0.81466    0.000
 3859.00    0.85657   0.81472    0.000
 3860.00    0.86304   0.79970    0.000
 3861.00    1.31137   0.79836    0.000
 3862.00    1.29933   0.82121    0.000
 3863.00    0.85109   0.84448    0.000
 3864.00    0.64909   0.85449    0.000
 3865.00    0.65282   0.85367    0.000
 3866.00    0.53725   0.84375    0.000
 3867.00    0.33394   0.83207    0.000
 3868.00    0.31215   0.82480    0.000
 3869.00    0.40762   0.82642    0.000
 3870.00    0.43334   0.82898    0.000
 3871.00    0.41964   0.81477    0.000
 3872.00    0.40652   0.78632    0.000
 3873.00    0.39367   0.76754    0.000
 3874.00    0.22375   0.77811    0.000
 3875.00   -0.01297   0.80418    0.000
 3876.00    0.36455   0.81780    0.000
 3877.00    0.96580   0.80542    0.000
 3878.00    1.07267   0.76973    0.000
 3879.00    1.02713   0.73201    0.000
 3880.00    0.59957   0.72308    0.000
 3881.00    0.07394   0.72844   -1.000
 3882.00    0.27375   0.71127   -1.000
 3883.00    0.62523   0.67997   -1.000
 3884.00    0.75201   0.66483   -1.000
 3885.00    0.84175   0.65190   -1.000
 3886.00    0.47059   0.60364   -1.000
 3887.00    0.04235   0.53583   -1.000
 3888.00    0.29358   0.48172   -1.000
 3889.00    0.60296   0.43958   -1.000
 3890.00    0.97193   0.42500   -1.000
 3891.00    1.34386   0.46698   -1.000
 3892.00    0.96028   0.54062   -1.000
 3893.00    0.56471   0.60458   -1.000
 3894.00    0.19431   0.64613   -1.000
 3895.00   -0.13291   0.67175    0.000
 3896.00    0.42320   0.69026   -1.000
 3897.00    0.95322   0.71733   -1.000
 3898.00    1.17472   0.74964   -1.000
 3899.00    1.34251   0.76188   -1.000
 3900.00    1.07274   0.76207   -1.000
 3901.00    0.73850   0.77598   -1.000
 3902.00    0.01058   0.80454   -1.000
 3903.00   -0.49497   0.81701    0.000
 3904.00    0.06955   0.81319   -1.000
 3905.00    0.52177   0.81481   -1.000
 3906.00    0.53415   0.80880   -1.000
 3907.00    0.51765   0.80749   -1.000
 3908.00    0.40700   0.83435   -1.000
 3909.00    0.36622   0.86883   -1.000
 3910.00    0.51809   0.88826   -1.000
 3911.00    0.63047   0.89489   -1.000
 3912.00    0.64961   0.90014   -1.000
 3913.00    0.62791   0.90089   -1.000
 3914.00    0.52286   0.89127   -1.000
 3915.00    0.37902   0.88635   -1.000
 3916.00    0.16631   0.89099   -1.000
 3917.00    0.16468   0.88569   -1.000
 3918.00    0.49102   0.87666   -1.000
 3919.00    0.74622   0.86587   -1.000
 3920.00    0.90435   0.84691   -1.000
 3921.00    0.93032   0.82894   -1.000
 3922.00    0.79752   0.82672   -1.000
 3923.00    0.60867   0.83869   -1.000
 3924.00    0.36045   0.84788   -1.000
 3925.00    0.23498   0.85225   -1.000
 3926.00    0.22419   0.84102   -1.000
 3927.00    0.45937   0.81366   -1.000
 3928.00    0.89711   0.79395   -1.000
 3929.00    0.93337   0.78104   -1.000
 3930.00    0.67859   0.76298   -1.000
 3931.00    0.38367   0.74116   -1.000
 3932.00    0.06319   0.71036   -1.000
 3933.00    0.16893   0.66292   -1.000
 3934.00    0.51187   0.61543   -1.000
 3935.00    0.58376   0.60817   -1.000
 3936.00    0.52442   0.64862   -1.000
 3937.00    0.43162   0.70541   -1.000
 3938.00    0.32482   0.75056   -1.000
 3939.00    0.31585   0.78085   -1.000
 3940.00    0.34188   0.80415   -1.000
 3941.00    0.47257   0.82182   -1.000
 3942.00    0.63491   0.82759   -1.000
 3943.00    0.71371   0.82335   -1.000
 3944.00    0.77153   0.81178   -1.000
 3945.00    0.58988   0.80595   -1.000
 3946.00    0.35941   0.82590   -1.000
 3947.00    0.48569   0.85231   -1.000
 3948.00    0.66911   0.85266   -1.000
 3949.00    0.64195   0.84053   -1.000
 3950.00    0.58966   0.84258   -1.000
 3951.00    0.48881   0.85589   -1.000
 3952.00    0.38401   0.85702   -1.000
 3953.00    0.65637   0.84138   -1.000
 3954.00    0.94607   0.83443   -1.000
 3955.00    1.24725   0.84557   -1.000
 3956.00    1.53392   0.83919   -1.000
 3957.00    1.05519   0.80891   -1.000
 3958.00    0.60907   0.78997   -1.000
 3959.00    0.78060   0.79232   -1.000
 3960.00    0.93123   0.79132    0.000
 3961.00    0.84644   0.76054    0.000
 3962.00    0.78083   0.70479    0.000
 3963.00    0.86605   0.66266    0.000
 3964.00    0.97569   0.63966    0.000
 3965.00    1.23025   0.60846    0.000
 3966.00    1.37465   0.56503    0.000
 3967.00    1.00183   0.51395    0.000
 3968.00    0.64440   0.45381    0.000
 3969.00    0.34590   0.39296    0.000
 3970.00    0.14999   0.34885    0.000
 3971.00    0.28196   0.34428    0.000
 3972.00    0.52509   0.38757    0.000
 3973.00    1.06930   0.45297    0.000
 3974.00    1.37884   0.51443    0.000
 3975.00    1.14349   0.57034    0.000
 3976.00    0.87458   0.62288    0.000
 3977.00    0.53826   0.66426    0.000
 3978.00    0.56060   0.69952    0.000
 3979.00    1.21030   0.73656    0.000
 3980.00    1.55066   0.77166    0.000
 3981.00    1.41741   0.79832   -1.000
 3982.00    1.22497   0.80672   -1.000
 3983.00    0.95290   0.80415   -1.000
 3984.00    0.86021   0.80957   -1.000
 3985.00    0.97996   0.82445   -1.000
 3986.00    0.93487   0.84288   -1.000
 3987.00    0.71766   0.85457   -1.000
 3988.00    0.67750   0.86631   -1.000
 3989.00    0.80040   0.88551   -1.000
 3990.00    0.83296   0.88916   -1.000
 3991.00    0.79218   0.88298   -1.000
 3992.00    1.05031   0.89110   -1.000
 3993.00    1.52201   0.90696   -1.000
 3994.00    1.47007   0.91598   -1.000
 3995.00    1.08979   0.91110   -1.000
 3996.00    1.13566   0.90069   -1.000
 3997.00    1.41506   0.88990   -1.000
 3998.00    1.27832   0.87807   -1.000
 3999.00    0.94335   0.88161   -1.000
 4000.00    0.87224   0.91082   -1.000
 4001.00    0.90958   0.93654   -1.000
 4002.00    0.95981   0.93909   -1.000
 4003.00    1.01456   0.93836   -1.000
 4004.00    0.93238   0.93863   -1.000
 4005.00    0.80963   0.91423   -1.000
 4006.00    0.68274   0.87144   -1.000
 4007.00    0.55484   0.86132   -1.000
 4008.00    0.64224   0.88840   -1.000
 4009.00    0.77245   0.90797   -1.000
 4010.00    0.78364   0.90796   -1.000
 4011.00    0.77634   0.91174   -1.000
 4012.00    1.01198   0.92347   -1.000
 4013.00    1.27556   0.92993   -1.000
 4014.00    0.99518   0.93394   -1.000
 4015.00    0.67274   0.93930   -1.000
 4016.00    0.59006   0.94826   -1.000
 4017.00    0.51747   0.95019   -1.000
 4018.00    0.94941   0.93935   -1.000
 4019.00    1.37434   0.94030   -1.000
 4020.00    1.29063   0.95813   -1.000
 4021.00    1.21317   0.96225   -1.000
 4022.00    1.24598   0.94782   -1.000
 4023.00    1.25371   0.93558   -1.000
 4024.00    0.99154   0.92373   -1.000
 4025.00    0.77864   0.89562   -1.000
 4026.00    0.93975   0.86606   -1.000
 4027.00    1.08647   0.86633   -1.000
 4028.00    1.15014   0.89955   -1.000
 4029.00    1.18993   0.93359   -1.000
 4030.00    1.12026   0.93279   -1.000
 4031.00    1.06176   0.89641   -1.000
 4032.00    1.04511   0.86687   -1.000
 4033.00    0.96356   0.86285   -1.000
 4034.00    0.67853   0.86585   -1.000
 4035.00    0.47374   0.87685   -1.000
 4036.00    0.48245   0.90063   -1.000
 4037.00    0.57508   0.93521   -1.000
 4038.00    0.85930   0.96765   -1.000
 4039.00    1.04850   0.97861   -1.000
 4040.00    1.04984   0.96784   -1.000
 4041.00    1.00000   0.94942   -1.000
 4042.00    0.86200   0.94182   -1.000
 4043.00    0.73903   0.95090   -1.000
 4044.00    0.63875   0.94350   -1.000
 4045.00    0.71013   0.89418   -1.000
 4046.00    1.00907   0.83538   -1.000
 4047.00    1.37535   0.82651   -1.000
 4048.00    1.82024   0.87736   -1.000
 4049.00    1.86120   0.92629   -1.000
 4050.00    1.48628   0.94312   -1.000
 4051.00    1.27132   0.95120   -1.000
 4052.00    1.20160   0.95248   -1.000
 4053.00    1.08971   0.93958   -1.000
 4054.00    0.94405   0.92253   -1.000
 4055.00    0.98329   0.90775   -1.000
 4056.00    1.15272   0.90009   -1.000
 4057.00    1.05310   0.90115   -1.000
 4058.00    0.78728   0.89191   -1.000
 4059.00    0.70989   0.88273   -1.000
 4060.00    0.73417   0.89726   -1.000
 4061.00    0.81752   0.92180   -1.000
 4062.00    0.92856   0.92480   -1.000
 4063.00    0.94274   0.88870   -1.000
 4064.00    0.91779   0.83853   -1.000
 4065.00    0.80686   0.83081   -1.000
 4066.00    0.66627   0.86922   -1.000
 4067.00    0.91697   0.88803   -1.000
 4068.00    1.28130   0.87891   -1.000
 4069.00    1.15156   0.89102   -1.000
 4070.00    0.90314   0.91656   -1.000
 4071.00    1.00346   0.90483   -1.000
 4072.00    1.17135   0.85915   -1.000
 4073.00    0.98927   0.84398   -1.000
 4074.00    0.75445   0.87946   -1.000
 4075.00    0.75923   0.90367   -1.000
 4076.00    0.79051   0.88455   -1.000
 4077.00    0.90230   0.84256   -1.000
 4078.00    1.01999   0.80886   -1.000
 4079.00    0.85065   0.81271   -1.000
 4080.00    0.67032   0.84808   -1.000
 4081.00    0.66538   0.88661   -1.000
 4082.00    0.65946   0.90933   -1.000
 4083.00    0.57937   0.90299   -1.000
 4084.00    0.51029   0.87735   -1.000
 4085.00    0.62268   0.85656   -1.000
 4086.00    0.73412   0.84766   -1.000
 4087.00    0.83563   0.85291   -1.000
 4088.00    0.91418   0.87083   -1.000
 4089.00    0.82413   0.88304   -1.000
 4090.00    0.77942   0.87634   -1.000
 4091.00    0.98906   0.85828   -1.000
 4092.00    1.13453   0.83874    0.000
 4093.00    0.99284   0.81698    0.000
 4094.00    0.80724   0.80418    0.000
 4095.00    0.46036   0.79152    0.000
 4096.00    0.35203   0.75244    0.000
 4097.00    0.97736   0.70474    0.000
 4098.00    1.37134   0.67175    0.000
 4099.00    1.16064   0.64427    0.000
 4100.00    0.98353   0.60559    0.000
 4101.00    0.88186   0.54257    0.000
 4102.00    0.86298   0.47345    0.000
 4103.00    1.00519   0.45909    0.000
 4104.00    1.09193   0.51208    0.000
 4105.00    1.08457   0.57985    0.000
 4106.00    1.08032   0.63760    0.000
 4107.00    1.08068   0.68723    0.000
 4108.00    1.11087   0.71909    0.000
 4109.00    1.18002   0.73631    0.000
 4110.00    1.23716   0.74648    0.000
 4111.00    1.28047   0.75356    0.000
 4112.00    1.15447   0.76562    0.000
 4113.00    0.85661   0.78517   -1.000
 4114.00    0.76292   0.81020   -1.000
 4115.00    0.85202   0.83044   -1.000
 4116.00    0.97216   0.84327   -1.000
 4117.00    1.11680   0.85489   -1.000
 4118.00    0.92948   0.85670   -1.000
 4119.00    0.51181   0.83894   -1.000
 4120.00    0.55723   0.82270   -1.000
 4121.00    0.88444   0.82655   -1.000
 4122.00    1.02018   0.83587   -1.000
 4123.00    1.05419   0.84241   -1.000
 4124.00    1.08752   0.85111   -1.000
 4125.00    1.12052   0.86866   -1.000
 4126.00    1.08187   0.88455   -1.000
 4127.00    1.01476   0.88025   -1.000
 4128.00    0.85338   0.85973   -1.000
 4129.00    0.66010   0.84430   -1.000
 4130.00    0.63003   0.84712   -1.000
 4131.00    0.64640   0.84663   -1.000
 4132.00    0.69479   0.83109   -1.000
 4133.00    0.75070   0.81431   -1.000
 4134.00    0.77516   0.81752   -1.000
 4135.00    0.79369   0.83546   -1.000
 4136.00    0.81901   0.86479   -1.000
 4137.00    0.84532   0.89147   -1.000
 4138.00    0.84000   0.89458   -1.000
 4139.00    0.83132   0.89660   -1.000
 4140.00    0.95020   0.90581   -1.000
 4141.00    1.07789   0.90803   -1.000
 4142.00    0.86912   0.89323   -1.000
 4143.00    0.64875   0.84464   -1.000
 4144.00    0.71174   0.78018   -1.000
 4145.00    0.77334   0.76877   -1.000
 4146.00    0.77047   0.82030   -1.000
 4147.00    0.76578   0.86638   -1.000
 4148.00    0.73310   0.88159   -1.000
 4149.00    0.71471   0.88130   -1.000
 4150.00    0.83714   0.86902   -1.000
 4151.00    0.93375   0.85929   -1.000
 4152.00    0.84712   0.86374   -1.000
 4153.00    0.75977   0.86543   -1.000
 4154.00    0.66857   0.85894   -1.000
 4155.00    0.60281   0.84851   -1.000
 4156.00    0.64825   0.84602   -1.000
 4157.00    0.73228   0.84729   -1.000
 4158.00    0.95511   0.85049   -1.000
 4159.00    1.11490   0.86700   -1.000
 4160.00    1.08445   0.88490   -1.000
 4161.00    1.03022   0.89006   -1.000
 4162.00    0.91496   0.88764   -1.000
 4163.00    0.75801   0.89514   -1.000
 4164.00    0.50901   0.90233   -1.000
 4165.00    0.46010   0.89598   -1.000
 4166.00    0.79448   0.88914   -1.000
 4167.00    1.08613   0.88058   -1.000
 4168.00    1.30635   0.86365   -1.000
 4169.00    1.23673   0.85966   -1.000
 4170.00    0.74253   0.87650   -1.000
 4171.00    0.53784   0.88397   -1.000
 4172.00    0.70606   0.86069   -1.000
 4173.00    0.69801   0.81934   -1.000
 4174.00    0.48994   0.80046   -1.000
 4175.00    0.52701   0.81605   -1.000
 4176.00    0.80944   0.83903   -1.000
 4177.00    1.01311   0.84694   -1.000
 4178.00    1.14726   0.83686   -1.000
 4179.00    1.01056   0.82726   -1.000
 4180.00    0.66319   0.83871   -1.000
 4181.00    0.65739   0.85711   -1.000
 4182.00    0.88520   0.85681   -1.000
 4183.00    0.88034   0.84665   -1.000
 4184.00    0.73602   0.85088   -1.000
 4185.00    0.62595   0.86725   -1.000
 4186.00    0.53377   0.88252   -1.000
 4187.00    0.61330   0.87111   -1.000
 4188.00    0.77070   0.83711   -1.000
 4189.00    1.00902   0.83135   -1.000
 4190.00    1.27891   0.85724   -1.000
 4191.00    1.53112   0.87184   -1.000
 4192.00    1.77745   0.86602   -1.000
 4193.00    1.47953   0.87260   -1.000
 4194.00    1.02992   0.89571   -1.000
 4195.00    1.11212   0.89572   -1.000
 4196.00    1.31634   0.86569   -1.000
 4197.00    1.09636   0.83882   -1.000
 4198.00    0.79843   0.82480   -1.000
 4199.00    0.71733   0.80908   -1.000
 4200.00    0.66690   0.80645   -1.000
 4201.00    0.93015   0.82256   -1.000
 4202.00    1.22538   0.82395   -1.000
 4203.00    1.09476   0.81672   -1.000
 4204.00    0.93640   0.83055   -1.000
 4205.00    1.09594   0.84846   -1.000
 4206.00    1.26444   0.85816   -1.000
 4207.00    0.90594   0.87141   -1.000
 4208.00    0.55729   0.88424   -1.000
 4209.00    0.49762   0.88983   -1.000
 4210.00    0.46239   0.88183   -1.000
 4211.00    0.78297   0.86946   -1.000
 4212.00    1.06843   0.87492   -1.000
 4213.00    1.02174   0.88892   -1.000
 4214.00    0.95658   0.88723   -1.000
 4215.00    0.76450   0.86200   -1.000
 4216.00    0.62788   0.82299   -1.000
 4217.00    0.78607   0.81641   -1.000
 4218.00    0.93014   0.85741   -1.000
 4219.00    1.01391   0.89410   -1.000
 4220.00    1.08011   0.90388   -1.000
 4221.00    1.08440   0.90592   -1.000
 4222.00    1.04776   0.90778   -1.000
 4223.00    0.88987   0.89198   -1.000
 4224.00    0.76343   0.86285   -1.000
 4225.00    0.71633   0.82867   -1.000
 4226.00    0.75083   0.78233   -1.000
 4227.00    0.96263   0.73002   -1.000
 4228.00    1.10273   0.71837   -1.000
 4229.00    1.10762   0.77655   -1.000
 4230.00    1.08287   0.84650   -1.000
 4231.00    1.00932   0.88271   -1.000
 4232.00    0.94209   0.89598   -1.000
 4233.00    0.88400   0.87669   -1.000
 4234.00    0.86478   0.83928   -1.000
 4235.00    0.89491   0.83299   -1.000
 4236.00    0.82844   0.83882   -1.000
 4237.00    0.65390   0.82904   -1.000
 4238.00    0.57241   0.83398   -1.000
 4239.00    0.58273   0.84518   -1.000
 4240.00    0.74069   0.84523   -1.000
 4241.00    1.02712   0.85394   -1.000
 4242.00    0.95810   0.87362   -1.000
 4243.00    0.61658   0.87962   -1.000
 4244.00    0.52825   0.88225   -1.000
 4245.00    0.61054   0.90371   -1.000
 4246.00    0.78419   0.91228   -1.000
 4247.00    1.01176   0.88628   -1.000
 4248.00    1.05458   0.85329   -1.000
 4249.00    1.00228   0.84069   -1.000
 4250.00    0.82868   0.83366   -1.000
 4251.00    0.60094   0.81324   -1.000
 4252.00    0.62500   0.81423   -1.000
 4253.00    0.74560   0.84386   -1.000
 4254.00    0.98417   0.84969   -1.000
 4255.00    1.26118   0.82452   -1.000
 4256.00    1.24907   0.81857   -1.000
 4257.00    1.15804   0.85052   -1.000
 4258.00    1.01274   0.87984   -1.000
 4259.00    0.85527   0.86670   -1.000
 4260.00    0.70933   0.82896   -1.000
 4261.00    0.56545   0.79684   -1.000
 4262.00    0.67532   0.79530   -1.000
 4263.00    0.81992   0.83580   -1.000
 4264.00    0.85114   0.88136   -1.000
 4265.00    0.87129   0.89989   -1.000
 4266.00    0.67929   0.90381   -1.000
 4267.00    0.47431   0.89808   -1.000
 4268.00    0.67210   0.87309   -1.000
 4269.00    0.87992   0.85231   -1.000
 4270.00    0.92569   0.84294   -1.000
 4271.00    0.96491   0.81522   -1.000
 4272.00    0.83125   0.76718   -1.000
 4273.00    0.70540   0.74825   -1.000
 4274.00    0.68697   0.77296   -1.000
 4275.00    0.66506   0.78519   -1.000
 4276.00    0.61156   0.78874   -1.000
 4277.00    0.59466   0.82135   -1.000
 4278.00    0.82166   0.86162   -1.000
 4279.00    0.98300   0.88074    0.411
 4280.00    0.80442   0.87206    0.057
 4281.00    0.68877   0.84604    0.034
 4282.00    0.83584   0.83370   -2.000
 4283.00    0.98879   0.83387   -2.000
 4284.00    1.16208   0.83740   -2.000
 4285.00    1.27942   0.84236   -2.000
 4286.00    1.23414   0.83226   -2.000
 4287.00    1.08748   0.82343   -2.000
 4288.00    0.68939   0.82657   -2.000
 4289.00    0.40220   0.81547   -2.000
 4290.00    0.35210   0.77521   -2.000
 4291.00    0.30000   0.74578   -2.000
 4292.00    0.24421   0.76663   -2.000
 4293.00    0.37180   0.81198   -2.000
 4294.00    0.79678   0.83377   -2.000
 4295.00    0.97402   0.81825   -2.000
 4296.00    0.79878   0.80794   -2.000
 4297.00    0.65545   0.81104   -2.000
 4298.00    0.55207   0.80194    0.033
 4299.00    0.63072   0.77467    0.032
 4300.00    0.91014   0.73004    0.032
 4301.00    0.97736   0.70525    0.032
 4302.00    0.83811   0.71859    0.032
 4303.00    0.69491   0.72805    0.032
 4304.00    0.54834   0.73001    0.032
 4305.00    0.58497   0.74519    0.032
 4306.00    0.76005   0.75137    0.032
 4307.00    0.79625   0.74069    0.032
 4308.00    0.74022   0.71697    0.032
 4309.00    0.64078   0.69209    0.032
 4310.00    0.51608   0.69536    0.032
 4311.00    0.57764   0.72279    0.031
 4312.00    0.73359   0.75079    0.030
 4313.00    0.82109   0.76815    0.030
 4314.00    0.87856   0.77455    0.030
 4315.00    0.79047   0.77540    0.030
 4316.00    0.64755   0.79992    0.030
 4317.00    0.69251   0.85582    0.030
 4318.00    0.79755   0.89056    0.031
 4319.00    0.90379   0.88586    0.031
 4320.00    1.01035   0.86971    0.031
 4321.00    0.99503   0.85124    0.031
 4322.00    0.95303   0.83376    0.031
 4323.00    0.91344   0.82525    0.031
 4324.00    0.87428   0.79757    0.031
 4325.00    0.67689   0.74216    0.031
 4326.00    0.45858   0.68668    0.032
 4327.00    0.42024   0.67423    0.031
 4328.00    0.39871   0.72627    0.031
 4329.00    0.61275   0.79132    0.031
 4330.00    0.84027   0.81323    0.000
 4331.00    0.77669   0.79237    0.000
 4332.00    0.70820   0.77050    0.000
 4333.00    0.85235   0.76686    0.000
 4334.00    0.99259   0.76156    0.000
 4335.00    1.03886   0.75327    0.000
 4336.00    1.08031   0.74589    0.000
 4337.00    1.05910   0.71011    0.000
 4338.00    1.03109   0.63028    0.000
 4339.00    0.94368   0.55344    0.000
 4340.00    0.85459   0.49754    0.000
 4341.00    0.75467   0.45039    0.000
 4342.00    0.68002   0.45958    0.000
 4343.00    0.73282   0.53390    0.000
 4344.00    0.80088   0.59763    0.000
 4345.00    0.93121   0.63049    0.000
 4346.00    1.01238   0.67102    0.000
 4347.00    0.92719   0.70566    0.000
 4348.00    0.88057   0.72176    0.000
 4349.00    0.94398   0.74889    0.000
 4350.00    0.94100   0.78473    0.000
 4351.00    0.77613   0.78023    0.032
 4352.00    0.69128   0.72607    0.032
 4353.00    0.77470   0.69247    0.033
 4354.00    0.79081   0.72342    0.033
 4355.00    0.68382   0.76907    0.033
 4356.00    0.60710   0.79131    0.033
 4357.00    0.57875   0.81230    0.033
 4358.00    0.63320   0.83169    0.033
 4359.00    0.80373   0.82296    0.033
 4360.00    0.85742   0.80128    0.033
 4361.00    0.76693   0.80860    0.033
 4362.00    0.74544   0.83900    0.033
 4363.00    0.79901   0.85681    0.033
 4364.00    0.84118   0.85779    0.033
 4365.00    0.87242   0.86987    0.032
 4366.00    0.90158   0.88824    0.032
 4367.00    0.92898   0.87819    0.033
 4368.00    0.94661   0.84306    0.033
 4369.00    0.95696   0.82114    0.033
 4370.00    0.90477   0.82671    0.033
 4371.00    0.81167   0.83635    0.033
 4372.00    0.86241   0.84323    0.033
 4373.00    0.99552   0.84750    0.033
 4374.00    0.98633   0.83205    0.034
 4375.00    0.90614   0.79460    0.034
 4376.00    0.83767   0.77145    0.033
 4377.00    0.77424   0.79250    0.032
 4378.00    0.77030   0.83887    0.032
 4379.00    0.78836   0.86736    0.033
 4380.00    0.78033   0.86501    0.032
 4381.00    0.76411   0.85077    0.032
 4382.00    0.71686   0.83598    0.032
 4383.00    0.66149   0.79466    0.032
 4384.00    0.61726   0.71845    0.031
 4385.00    0.57542   0.67348    0.031
 4386.00    0.57705   0.70404    0.031
 4387.00    0.58603   0.76489    0.031
 4388.00    0.68118   0.78840    0.031
 4389.00    0.78734   0.78259    0.031
 4390.00    0.76436   0.78631    0.031
 4391.00    0.72986   0.79280    0.031
 4392.00    0.84420   0.80200    0.032
 4393.00    0.96646   0.82256    0.032
 4394.00    0.83278   0.83332    0.032
 4395.00    0.69525   0.81837    0.032
 4396.00    0.65168   0.80380    0.032
 4397.00    0.60782   0.82842    0.031
 4398.00    0.55768   0.87013    0.031
 4399.00    0.51389   0.87840    0.031
 4400.00    0.54854   0.85175    0.031
 4401.00    0.58147   0.81491    0.032
 4402.00    0.59991   0.80767    0.031
 4403.00    0.63813   0.83778    0.031
 4404.00    0.80032   0.83694    0.031
 4405.00    0.91488   0.78043    0.032
 4406.00    0.79515   0.74727    0.032
 4407.00    0.70276   0.77624    0.031
 4408.00    0.71949   0.80251    0.031
 4409.00    0.74963   0.79841    0.031
 4410.00    0.82425   0.81120    0.031
 4411.00    0.85728   0.84788    0.031
 4412.00    0.77383   0.87324    0.031
 4413.00    0.72782   0.88585    0.031
 4414.00    0.77157   0.88228    0.031
 4415.00    0.77652   0.83804    0.031
 4416.00    0.70118   0.78398    0.031
 4417.00    0.62440   0.77878    0.031
 4418.00    0.54505   0.80576    0.030
 4419.00    0.57400   0.83545    0.030
 4420.00    0.77342   0.86789    0.031
 4421.00    0.89000   0.88482    0.031
 4422.00    0.89211   0.86875    0.031
 4423.00    0.89693   0.83373    0.030
 4424.00    0.90505   0.82034    0.031
 4425.00    0.88563   0.83595    0.030
 4426.00    0.83667   0.84622    0.030
 4427.00    0.81992   0.84245    0.030
 4428.00    0.83364   0.83991    0.029
 4429.00    0.91248   0.84885    0.029
 4430.00    1.04564   0.85133    0.030
 4431.00    1.00391   0.83120    0.030
 4432.00    0.83378   0.82717    0.030
 4433.00    0.70463   0.84458    0.030
 4434.00    0.60189   0.83862    0.030
 4435.00    0.62910   0.80573    0.030
 4436.00    0.72960   0.77866    0.030
 4437.00    0.73211   0.78752    0.030
 4438.00    0.68650   0.82614    0.031
 4439.00    0.69584   0.86508    0.030
 4440.00    0.72850   0.88738    0.030
 4441.00    0.72441   0.87871    0.030
 4442.00    0.70695   0.84280    0.030
 4443.00    0.72683   0.80576    0.030
 4444.00    0.75819   0.78825    0.030
 4445.00    0.83332   0.80554    0.030
 4446.00    0.91967   0.84920    0.030
 4447.00    0.82983   0.87478    0.030
 4448.00    0.70327   0.86698    0.030
 4449.00    0.54475   0.86534    0.029
 4450.00    0.38099   0.86987    0.029
 4451.00    0.47118   0.85633    0.029
 4452.00    0.59267   0.84977    0.029
 4453.00    0.56879   0.85677    0.029
 4454.00    0.53254   0.84698    0.029
 4455.00    0.53429   0.81084    0.029
 4456.00    0.53791   0.77666    0.029
 4457.00    0.64668   0.77843    0.029
 4458.00    0.75456   0.79742    0.029
 4459.00    0.70117   0.79996    0.029
 4460.00    0.64828   0.79263    0.029
 4461.00    0.60540   0.79034    0.000
 4462.00    0.57414   0.78030    0.000
 4463.00    0.67955   0.77682    0.000
 4464.00    0.77998   0.80763    0.000
 4465.00    0.84011   0.83601    0.000
 4466.00    0.85652   0.83454    0.000
 4467.00    0.60681   0.82650    0.000
 4468.00    0.39819   0.82365    0.000
 4469.00    0.38664   0.81429    0.000
 4470.00    0.43220   0.79510    0.000
 4471.00    0.70078   0.78194    0.000
 4472.00    0.89727   0.78152    0.000
 4473.00    0.85933   0.80163    0.000
 4474.00    0.83730   0.84050    0.000
 4475.00    0.85902   0.86691    0.000
 4476.00    0.85713   0.86735    0.000
 4477.00    0.79962   0.86928    0.000
 4478.00    0.72844   0.88786    0.000
 4479.00    0.62943   0.89524    0.000
 4480.00    0.67049   0.86670    0.000
 4481.00    0.95987   0.81009    0.000
 4482.00    1.09636   0.76329    0.029
 4483.00    0.99571   0.76618    0.029
 4484.00    0.88401   0.81351    0.029
 4485.00    0.75723   0.86035    0.029
 4486.00    0.64515   0.88511    0.029
 4487.00    0.55069   0.89381    0.029
 4488.00    0.49311   0.88432    0.029
 4489.00    0.47455   0.85323    0.029
 4490.00    0.49632   0.81940    0.029
 4491.00    0.55572   0.80943    0.029
 4492.00    0.56011   0.82811    0.029
 4493.00    0.51928   0.85429    0.028
 4494.00    0.53271   0.85737    0.028
 4495.00    0.58539   0.83041    0.029
 4496.00    0.57510   0.80969    0.029
 4497.00    0.52480   0.81413    0.029
 4498.00    0.59202   0.83395    0.029
 4499.00    0.72451   0.85927    0.028
 4500.00    0.78843   0.87517    0.029
 4501.00    0.81924   0.86920    0.029
 4502.00    0.79554   0.84605    0.029
 4503.00    0.74912   0.84737    0.029
 4504.00    0.83710   0.88580    0.029
 4505.00    0.97305   0.91585    0.030
 4506.00    0.90040   0.91673    0.030
 4507.00    0.76484   0.90236    0.029
 4508.00    0.80298   0.88366    0.029
 4509.00    0.88463   0.87210    0.029
 4510.00    1.00727   0.87650    0.029
 4511.00    1.13825   0.89080    0.029
 4512.00    1.04748   0.89507    0.028
 4513.00    0.92133   0.88013    0.028
 4514.00    0.76379   0.86075    0.028
 4515.00    0.60253   0.84586    0.029
 4516.00    0.68416   0.84175    0.029
 4517.00    0.78544   0.85134    0.029
 4518.00    0.88166   0.85371    0.029
 4519.00    0.97765   0.84645    0.028
 4520.00    0.97262   0.85214    0.028
 4521.00    0.96596   0.86735    0.029
 4522.00    0.93912   0.87732    0.029
 4523.00    0.91056   0.86253    0.030
 4524.00    0.84980   0.83913    0.029
 4525.00    0.79068   0.83580    0.029
 4526.00    0.74988   0.82942    0.029
 4527.00    0.71238   0.80950    0.028
 4528.00    0.70075   0.78844    0.028
 4529.00    0.69600   0.77190    0.028
 4530.00    0.73191   0.76797    0.029
 4531.00    0.76383   0.77959    0.029
 4532.00    0.77701   0.79633    0.029
 4533.00    0.79601   0.81390    0.030
 4534.00    0.83725   0.80887    0.029
 4535.00    0.87236   0.78192    0.029
 4536.00    0.88792   0.76907    0.029
 4537.00    0.86340   0.79657    0.029
 4538.00    0.73060   0.85052    0.029
 4539.00    0.65277   0.87641    0.029
 4540.00    0.70234   0.86227    0.029
 4541.00    0.78022   0.83463    0.029
 4542.00    0.91487   0.81800    0.030
 4543.00    0.98724   0.82846    0.029
 4544.00    0.95088   0.84819    0.029
 4545.00    0.92964   0.84386    0.028
 4546.00    0.93148   0.82669    0.028
 4547.00    0.93801   0.82669    0.029
 4548.00    0.95082   0.83454    0.029
 4549.00    0.92607   0.82449    0.029
 4550.00    0.85692   0.79536    0.000
 4551.00    0.75340   0.79127    0.000
 4552.00    0.61405   0.81920    0.000
 4553.00    0.60816   0.82816    0.000
 4554.00    0.72497   0.81519    0.000
 4555.00    0.71628   0.79939    0.000
 4556.00    0.60588   0.79039    0.000
 4557.00    0.67787   0.80555    0.000
 4558.00    0.87995   0.83916    0.000
 4559.00    0.89914   0.85933    0.000
 4560.00    0.80387   0.86297    0.000
 4561.00    0.88348   0.86366    0.000
 4562.00    1.05875   0.86812    0.000
 4563.00    0.96988   0.86891    0.000
 4564.00    0.75545   0.84638    0.000
 4565.00    0.65491   0.81413    0.000
 4566.00    0.60107   0.80325    0.000
 4567.00    0.71003   0.82020    0.000
 4568.00    0.87602   0.85254    0.000
 4569.00    0.87218   0.87203    0.000
 4570.00    0.81814   0.87229    0.000
 4571.00    0.79708   0.85923    0.000
 4572.00    0.78409   0.82729    0.000
 4573.00    0.69546   0.81380    0.000
 4574.00    0.59183   0.84392    0.000
 4575.00    0.78194   0.86575    0.000
 4576.00    1.01753   0.85954    0.000
 4577.00    0.89294   0.85483    0.000
 4578.00    0.72714   0.85645    0.000
 4579.00    0.81269   0.84910    0.000
 4580.00    0.91754   0.82597    0.000
 4581.00    0.80490   0.80177    0.000
 4582.00    0.68320   0.79723    0.000
 4583.00    0.88031   0.80975    0.000
 4584.00    1.07304   0.81352    0.000
 4585.00    0.95844   0.80726    0.000
 4586.00    0.85257   0.80628    0.000
 4587.00    0.89931   0.80886    0.000
 4588.00    0.93950   0.82148    0.000
 4589.00    0.90950   0.84135    0.000
 4590.00    0.88038   0.85452    0.000
 4591.00    0.85786   0.85144    0.000
 4592.00    0.83908   0.83292    0.000
 4593.00    0.84183   0.81535    0.000
 4594.00    0.83123   0.81353    0.000
 4595.00    0.75967   0.81629    0.000
 4596.00    0.69819   0.81100    0.000
 4597.00    0.67445   0.80902    0.000
 4598.00    0.69844   0.81389    0.000
 4599.00    0.87171   0.82101    0.000
 4600.00    0.96666   0.82864    0.000
 4601.00    0.85369   0.82058    0.000
 4602.00    0.76678   0.81121    0.000
 4603.00    0.73927   0.81866    0.000
 4604.00    0.72684   0.82510    0.000
 4605.00    0.74420   0.82361    0.000
 4606.00    0.77781   0.81688    0.000
 4607.00    0.83938   0.81849    0.000
 4608.00    0.82594   0.83604    0.000
 4609.00    0.69955   0.86282    0.000
 4610.00    0.67277   0.88179    0.000
 4611.00    0.77778   0.87692    0.000
 4612.00    0.86766   0.85853    0.000
 4613.00    0.93991   0.84573    0.000
 4614.00    0.96358   0.83823    0.000
 4615.00    0.93735   0.84179    0.000
 4616.00    0.89212   0.85362    0.000
 4617.00    0.82968   0.85364    0.000
 4618.00    0.74317   0.85368    0.000
 4619.00    0.63745   0.85141    0.000
 4620.00    0.70548   0.83544    0.000
 4621.00    0.89562   0.83500    0.000
 4622.00    0.81252   0.85309    0.000
 4623.00    0.56096   0.85765    0.000
 4624.00    0.44916   0.85539    0.000
 4625.00    0.41264   0.85763    0.000
 4626.00    0.56064   0.85104    0.000
 4627.00    0.79495   0.84244    0.000
 4628.00    0.91854   0.84598    0.000
 4629.00    0.99751   0.84640    0.000
 4630.00    0.97282   0.83282    0.000
 4631.00    0.91248   0.83126    0.000
 4632.00    0.85776   0.85060    0.000
 4633.00    0.80466   0.85569    0.000
 4634.00    0.79800   0.83601    0.000
 4635.00    0.80245   0.82139    0.000
 4636.00    0.82806   0.82266    0.000
 4637.00    0.85776   0.82560    0.000
 4638.00    0.87773   0.81704    0.000
 4639.00    0.89624   0.80552    0.000
 4640.00    0.86353   0.79987    0.000
 4641.00    0.82520   0.79872    0.000
 4642.00    0.89002   0.81314    0.000
 4643.00    0.96234   0.83016    0.000
 4644.00    0.93350   0.82785    0.000
 4645.00    0.90083   0.81673    0.000
 4646.00    0.83036   0.80203    0.000
 4647.00    0.76335   0.77538    0.000
 4648.00    0.83137   0.75643    0.000
 4649.00    0.89133   0.76114    0.000
 4650.00    0.81944   0.77974    0.000
 4651.00    0.76143   0.80152    0.000
 4652.00    0.84540   0.81712    0.000
 4653.00    0.90567   0.82693    0.000
 4654.00    0.79279   0.83050    0.000
 4655.00    0.68317   0.81496    0.000
 4656.00    0.59183   0.79481    0.000
 4657.00    0.53878   0.78847    0.000
 4658.00    0.65653   0.79954    0.000
 4659.00    0.76162   0.82916    0.000
 4660.00    0.82031   0.85966    0.000
 4661.00    0.89348   0.86975    0.000
 4662.00    1.01109   0.85544    0.000
 4663.00    1.04604   0.83003    0.000
 4664.00    0.86540   0.80859    0.000
 4665.00    0.72223   0.80306    0.000
 4666.00    0.66304   0.80118    0.000
 4667.00    0.67282   0.77396    0.000
 4668.00    0.81657   0.73373    0.000
 4669.00    0.90355   0.72411    0.000
 4670.00    0.89438   0.75113    0.000
 4671.00    0.81451   0.78628    0.000
 4672.00    0.62975   0.81147    0.000
 4673.00    0.62449   0.81641    0.000
 4674.00    0.85337   0.80699    0.000
 4675.00    0.92755   0.80168    0.000
 4676.00    0.82397   0.80980    0.000
 4677.00    0.72979   0.82723    0.000
 4678.00    0.64514   0.83213    0.000
 4679.00    0.68558   0.81550    0.000
 4680.00    0.83781   0.79626    0.000
 4681.00    0.90558   0.78572    0.000
 4682.00    0.90682   0.78023    0.000
 4683.00    0.88489   0.78406    0.000
 4684.00    0.84692   0.80005    0.000
 4685.00    0.83743   0.81071    0.000
 4686.00    0.84524   0.80840    0.000
 4687.00    0.84345   0.80563    0.000
 4688.00    0.83655   0.80222    0.000
 4689.00    0.86144   0.79877    0.000
 4690.00    0.90095   0.80201    0.000
 4691.00    0.83424   0.80329    0.000
 4692.00    0.72544   0.79633    0.000
 4693.00    0.83918   0.79505    0.000
 4694.00    1.02806   0.80138    0.000
 4695.00    0.98375   0.80879    0.000
 4696.00    0.87325   0.82067    0.000
 4697.00    0.70767   0.83069    0.000
 4698.00    0.52920   0.82169    0.000
 4699.00    0.59386   0.79327    0.000
 4700.00    0.70426   0.77423    0.000
 4701.00    0.64019   0.77801    0.000
 4702.00    0.55074   0.78130    0.000
 4703.00    0.75360   0.77126    0.000
 4704.00    0.98738   0.76130    0.000
 4705.00    0.85245   0.77211    0.000
 4706.00    0.69220   0.79160    0.000
 4707.00    0.57860   0.79404    0.000
 4708.00    0.46659   0.78000    0.000
 4709.00    0.70071   0.76868    0.000
 4710.00    0.92429   0.76673    0.000
 4711.00    0.78808   0.77892    0.000
 4712.00    0.66780   0.80199    0.000
 4713.00    0.79187   0.80566    0.000
 4714.00    0.89717   0.78730    0.000
 4715.00    0.81845   0.76874    0.000
 4716.00    0.74959   0.77186    0.000
 4717.00    0.75044   0.79675    0.000
 4718.00    0.74681   0.81909    0.000
 4719.00    0.71880   0.82702    0.000
 4720.00    0.70208   0.83521    0.000
 4721.00    0.73452   0.84284    0.000
 4722.00    0.76909   0.83973    0.000
 4723.00    0.81129   0.82826    0.000
 4724.00    0.83640   0.82345    0.000
 4725.00    0.81003   0.83392    0.000
 4726.00    0.77454   0.84463    0.000
 4727.00    0.71573   0.83475    0.000
 4728.00    0.71020   0.79923    0.000
 4729.00    0.82216   0.76538    0.000
 4730.00    0.86731   0.75718    0.000
 4731.00    0.78475   0.76259    0.000
 4732.00    0.70798   0.76955    0.000
 4733.00    0.64085   0.78312    0.000
 4734.00    0.64627   0.79629    0.000
 4735.00    0.75777   0.80362    0.000
 4736.00    0.82885   0.80887    0.000
 4737.00    0.84797   0.79663    0.000
 4738.00    0.78330   0.78411    0.000
 4739.00    0.62372   0.80122    0.000
 4740.00    0.57543   0.81950    0.000
 4741.00    0.63833   0.81313    0.000
 4742.00    0.73997   0.80161    0.000
 4743.00    0.87576   0.80458    0.000
 4744.00    0.88975   0.81591    0.000
 4745.00    0.80919   0.81772    0.000
 4746.00    0.75981   0.81109    0.000
 4747.00    0.73171   0.81639    0.000
 4748.00    0.76127   0.82655    0.000
 4749.00    0.82534   0.82519    0.000
 4750.00    0.79221   0.82196    0.000
 4751.00    0.70834   0.82471    0.000
 4752.00    0.68565   0.82295    0.000
 4753.00    0.69065   0.81132    0.000
 4754.00    0.70412   0.80071    0.000
 4755.00    0.72088   0.79301    0.000
 4756.00    0.69294   0.78935    0.000
 4757.00    0.65019   0.78880    0.000
 4758.00    0.72843   0.79133    0.000
 4759.00    0.84031   0.79804    0.000
 4760.00    0.88776   0.80667    0.000
 4761.00    0.92047   0.81228    0.027
 4762.00    0.85452   0.80175    0.026
 4763.00    0.77049   0.77886    0.026
 4764.00    0.77451   0.76692    0.026
 4765.00    0.79093   0.76276    0.026
 4766.00    0.75960   0.75261    0.026
 4767.00    0.72343   0.74642    0.026
 4768.00    0.75539   0.75661    0.027
 4769.00    0.79175   0.77590    0.027
 4770.00    0.80642   0.79635    0.026
 4771.00    0.82039   0.80733    0.026
 4772.00    0.81182   0.79618    0.026
 4773.00    0.80282   0.78168    0.026
 4774.00    0.78140   0.78708    0.026
 4775.00    0.76200   0.80752    0.026
 4776.00    0.77192   0.81877    0.026
 4777.00    0.78483   0.81478    0.026
 4778.00    0.82591   0.81659    0.025
 4779.00    0.85697   0.82053    0.025
 4780.00    0.81937   0.81319    0.025
 4781.00    0.79093   0.80590    0.025
 4782.00    0.81103   0.80485    0.025
 4783.00    0.82646   0.79647    0.025
 4784.00    0.82201   0.78016    0.025
 4785.00    0.82255   0.77870    0.025
 4786.00    0.84057   0.78645    0.025
 4787.00    0.86223   0.77713    0.025
 4788.00    0.89462   0.77077    0.025
 4789.00    0.94730   0.77859    0.025
 4790.00    1.05109   0.77812    0.025
 4791.00    1.08611   0.77606    0.025
 4792.00    0.97199   0.78227    0.025
 4793.00    0.86997   0.79077    0.025
 4794.00    0.79073   0.80602    0.025
 4795.00    0.77134   0.82685    0.025
 4796.00    0.85030   0.83753    0.025
 4797.00    0.86869   0.83131    0.025
 4798.00    0.79979   0.81596    0.025
 4799.00    0.77373   0.79685    0.026
 4800.00    0.80195   0.77908    0.026
 4801.00    0.85274   0.77456    0.026
 4802.00    0.92872   0.78967    0.026
 4803.00    0.93278   0.81159    0.026
 4804.00    0.86602   0.82011    0.026
 4805.00    0.82673   0.80870    0.026
 4806.00    0.81133   0.79000    0.025
 4807.00    0.78420   0.78315    0.025
 4808.00    0.74809   0.77984    0.025
 4809.00    0.70687   0.77369    0.025
 4810.00    0.66221   0.77711    0.025
 4811.00    0.70392   0.78777    0.025
 4812.00    0.79653   0.79261    0.026
 4813.00    0.78679   0.79110    0.025
 4814.00    0.72446   0.78963    0.025
 4815.00    0.72645   0.79130    0.025
 4816.00    0.75708   0.79509    0.026
 4817.00    0.77988   0.80124    0.026
 4818.00    0.79968   0.80841    0.026
 4819.00    0.81547   0.81333    0.026
 4820.00    0.82995   0.81689    0.026
 4821.00    0.74916   0.81608    0.026
 4822.00    0.64243   0.81124    0.026
 4823.00    0.72955   0.79708    0.026
 4824.00    0.85999   0.76601    0.026
 4825.00    0.87359   0.74867    0.026
 4826.00    0.86637   0.76577    0.026
 4827.00    0.79949   0.78802    0.026
 4828.00    0.72447   0.79181    0.026
 4829.00    0.62672   0.78175    0.026
 4830.00    0.52677   0.77414    0.025
 4831.00    0.54343   0.77646    0.026
 4832.00    0.56716   0.77081    0.026
 4833.00    0.58881   0.75604    0.026
 4834.00    0.61080   0.75857    0.026
 4835.00    0.70499   0.77438    0.027
 4836.00    0.79277   0.78075    0.027
 4837.00    0.71319   0.77679    0.027
 4838.00    0.63858   0.77481    0.026
 4839.00    0.63176   0.76957    0.026
 4840.00    0.63161   0.75305    0.026
 4841.00    0.69174   0.73914    0.026
 4842.00    0.74292   0.74141    0.026
 4843.00    0.73478   0.74577    0.026
 4844.00    0.71422   0.73847    0.025
 4845.00    0.62953   0.73850    0.026
 4846.00    0.60270   0.75341    0.026
 4847.00    0.81674   0.76154    0.026
 4848.00    0.94982   0.74896    0.000
 4849.00    0.80416   0.72284    0.000
 4850.00    0.72407   0.70830    0.000
 4851.00    0.83408   0.71655    0.000
 4852.00    0.86414   0.72202    0.000
 4853.00    0.69633   0.71425    0.000
 4854.00    0.56710   0.70331    0.000
 4855.00    0.52018   0.67805    0.000
 4856.00    0.54621   0.63815    0.000
 4857.00    0.70739   0.61844    0.000
 4858.00    0.76933   0.62365    0.000
 4859.00    0.67061   0.61509    0.000
 4860.00    0.61480   0.57375    0.000
 4861.00    0.61994   0.50674    0.000
 4862.00    0.65280   0.44830    0.000
 4863.00    0.72029   0.45454    0.000
 4864.00    0.72894   0.51416    0.000
 4865.00    0.67281   0.56309    0.000
 4866.00    0.64760   0.59538    0.000
 4867.00    0.65241   0.62570    0.000
 4868.00    0.63498   0.64680    0.000
 4869.00    0.59852   0.65879    0.000
 4870.00    0.57803   0.67047    0.000
 4871.00    0.56960   0.66462    0.000
 4872.00    0.65116   0.63579    0.000
 4873.00    0.79238   0.62768    0.000
 4874.00    0.75164   0.65767    0.000
 4875.00    0.60528   0.68751    0.027
 4876.00    0.68485   0.69669    0.027
 4877.00    0.87869   0.70285    0.027
 4878.00    0.87347   0.71432    0.027
 4879.00    0.78107   0.72540    0.027
 4880.00    0.65726   0.74635    0.026
 4881.00    0.52164   0.75798    0.026
 4882.00    0.45997   0.74117    0.026
 4883.00    0.42187   0.72748    0.026
 4884.00    0.50700   0.73436    0.026
 4885.00    0.62496   0.73511    0.027
 4886.00    0.65504   0.71821    0.027
 4887.00    0.66595   0.70420    0.027
 4888.00    0.74006   0.70861    0.027
 4889.00    0.82512   0.72105    0.028
 4890.00    0.70739   0.72309    0.027
 4891.00    0.56296   0.70326    0.027
 4892.00    0.54641   0.67735    0.027
 4893.00    0.54174   0.69307    0.026
 4894.00    0.62503   0.74109    0.026
 4895.00    0.71331   0.77911    0.026
 4896.00    0.77969   0.80019    0.026
 4897.00    0.84458   0.80579    0.026
 4898.00    0.80012   0.80313    0.026
 4899.00    0.76218   0.79857    0.027
 4900.00    0.87878   0.78307    0.026
 4901.00    0.97576   0.76514    0.026
 4902.00    0.81888   0.76657    0.026
 4903.00    0.68233   0.77046    0.026
 4904.00    0.72257   0.75990    0.027
 4905.00    0.77003   0.75583    0.027
 4906.00    0.86400   0.77393    0.027
 4907.00    0.92622   0.79530    0.026
 4908.00    0.82873   0.79630    0.026
 4909.00    0.75746   0.77805    0.026
 4910.00    0.79287   0.75315    0.026
 4911.00    0.79202   0.73130    0.026
 4912.00    0.66878   0.72813    0.026
 4913.00    0.59155   0.74463    0.026
 4914.00    0.64532   0.76140    0.026
 4915.00    0.68838   0.77269    0.026
 4916.00    0.70540   0.78620    0.026
 4917.00    0.69757   0.79162    0.026
 4918.00    0.63760   0.77402    0.026
 4919.00    0.58394   0.73132    0.025
 4920.00    0.54183   0.68272    0.025
 4921.00    0.55958   0.65285    0.025
 4922.00    0.67280   0.65484    0.025
 4923.00    0.73827   0.68558    0.025
 4924.00    0.73693   0.70988    0.025
 4925.00    0.73020   0.71324    0.025
 4926.00    0.71684   0.72041    0.025
 4927.00    0.67767   0.74800    0.025
 4928.00    0.61046   0.77121    0.024
 4929.00    0.63967   0.78222    0.024
 4930.00    0.76119   0.79452    0.024
 4931.00    0.78371   0.79946    0.025
 4932.00    0.72262   0.79690    0.025
 4933.00    0.66662   0.78578    0.025
 4934.00    0.61441   0.75432    0.025
 4935.00    0.63271   0.73264    0.025
 4936.00    0.69706   0.74775    0.025
 4937.00    0.75336   0.76268    0.025
 4938.00    0.80504   0.74538    0.024
 4939.00    0.71786   0.71179    0.024
 4940.00    0.56157   0.69684    0.000
 4941.00    0.53988   0.72092    0.000
 4942.00    0.57617   0.75986    0.000
 4943.00    0.59270   0.77869    0.000
 4944.00    0.60193   0.78656    0.000
 4945.00    0.65800   0.79255    0.000
 4946.00    0.72872   0.78394    0.000
 4947.00    0.80376   0.77166    0.000
 4948.00    0.87994   0.77620    0.000
 4949.00    0.80267   0.78717    0.000
 4950.00    0.69274   0.79108    0.000
 4951.00    0.75536   0.79306    0.000
 4952.00    0.84707   0.79779    0.000
 4953.00    0.83211   0.79362    0.000
 4954.00    0.80359   0.78074    0.000
 4955.00    0.72820   0.77410    0.000
 4956.00    0.64866   0.77052    0.000
 4957.00    0.62551   0.74533    0.000
 4958.00    0.60534   0.69009    0.000
 4959.00    0.55701   0.66830    0.000
 4960.00    0.51050   0.71402    0.000
 4961.00    0.64845   0.76462    0.000
 4962.00    0.78258   0.77865    0.000
 4963.00    0.83373   0.77466    0.000
 4964.00    0.87432   0.77586    0.000
 4965.00    0.78524   0.77210    0.000
 4966.00    0.70377   0.75024    0.000
 4967.00    0.68609   0.73159    0.000
 4968.00    0.66915   0.73043    0.000
 4969.00    0.65679   0.73359    0.000
 4970.00    0.65526   0.73810    0.000
 4971.00    0.70682   0.74325    0.000
 4972.00    0.75783   0.75082    0.000
 4973.00    0.80664   0.76284    0.000
 4974.00    0.87078   0.77095    0.000
 4975.00    0.98564   0.77696    0.000
 4976.00    1.00190   0.77800    0.000
 4977.00    0.74254   0.77172    0.000
 4978.00    0.57733   0.76218    0.000
 4979.00    0.63729   0.74577    0.000
 4980.00    0.66692   0.73309    0.000
 4981.00    0.63389   0.73108    0.000
 4982.00    0.62423   0.71903    0.000
 4983.00    0.65659   0.68665    0.000
 4984.00    0.65722   0.66215    0.000
 4985.00    0.60797   0.66736    0.000
 4986.00    0.61046   0.68689    0.000
 4987.00    0.68432   0.70911    0.000
 4988.00    0.70202   0.73663    0.000
 4989.00    0.65153   0.75250    0.000
 4990.00    0.60206   0.74900    0.000
 4991.00    0.55367   0.73763    0.000
 4992.00    0.54025   0.72849    0.000
 4993.00    0.55985   0.73395    0.000
 4994.00    0.57796   0.73866    0.000
 4995.00    0.59486   0.73415    0.000
 4996.00    0.63628   0.74034    0.000
 4997.00    0.69569   0.74951    0.000
 4998.00    0.74178   0.74934    0.000
 4999.00    0.77928   0.74319    0.000
 5000.00    0.72138   0.72578    0.000
 5001.00    0.60976   0.70538    0.000
 5002.00    0.66806   0.69573    0.000
 5003.00    0.80962   0.69634    0.000
 5004.00    0.81934   0.70348    0.000
 5005.00    0.77324   0.70397    0.000
 5006.00    0.72937   0.68553    0.000
 5007.00    0.68632   0.66382    0.000
 5008.00    0.71022   0.67143    0.000
 5009.00    0.75467   0.70580    0.000
 5010.00    0.68295   0.72977    0.000
 5011.00    0.58157   0.72981    0.000
 5012.00    0.61259   0.71703    0.000
 5013.00    0.67111   0.69327    0.000
 5014.00    0.58337   0.66936    0.000
 5015.00    0.47169   0.65654    0.000
 5016.00    0.54325   0.65962    0.000
 5017.00    0.63729   0.67574    0.000
 5018.00    0.57343   0.67998    0.000
 5019.00    0.49622   0.67188    0.000
 5020.00    0.53412   0.67576    0.000
 5021.00    0.57766   0.69207    0.000
 5022.00    0.57231   0.69777    0.000
 5023.00    0.56743   0.68966    0.000
 5024.00    0.63646   0.69218    0.000
 5025.00    0.70412   0.70989    0.000
 5026.00    0.74440   0.72126    0.000
 5027.00    0.78322   0.71996    0.000
 5028.00    0.80500   0.70448    0.000
 5029.00    0.82526   0.69628    0.024
 5030.00    0.83315   0.71236    0.024
 5031.00    0.83280   0.72734    0.024
 5032.00    0.78250   0.73290    0.024
 5033.00    0.72754   0.74390    0.024
 5034.00    0.65025   0.75893    0.024
 5035.00    0.58574   0.75809    0.024
 5036.00    0.57095   0.72961    0.024
 5037.00    0.57386   0.69894    0.024
 5038.00    0.63415   0.69928    0.024
 5039.00    0.65815   0.70664    0.024
 5040.00    0.58249   0.68993    0.024
 5041.00    0.55740   0.65372    0.024
 5042.00    0.65120   0.62370    0.024
 5043.00    0.70660   0.63886    0.023
 5044.00    0.68395   0.68936    0.024
 5045.00    0.65206   0.72691    0.024
 5046.00    0.60384   0.74873    0.024
 5047.00    0.59159   0.76198    0.024
 5048.00    0.63504   0.75216    0.024
 5049.00    0.65958   0.72047    0.024
 5050.00    0.65843   0.69462    0.024
 5051.00    0.64607   0.69052    0.024
 5052.00    0.62032   0.69287    0.024
 5053.00    0.61291   0.69564    0.024
 5054.00    0.62486   0.70884    0.024
 5055.00    0.68095   0.72796    0.024
 5056.00    0.77814   0.73662    0.024
 5057.00    0.83022   0.73477    0.024
 5058.00    0.84528   0.73534    0.024
 5059.00    0.81687   0.74336    0.024
 5060.00    0.75707   0.74751    0.024
 5061.00    0.73425   0.75020    0.024
 5062.00    0.73487   0.75854    0.024
 5063.00    0.69520   0.76417    0.024
 5064.00    0.63319   0.75334    0.024
 5065.00    0.64395   0.72081    0.024
 5066.00    0.68979   0.69217    0.025
 5067.00    0.71676   0.69538    0.025
 5068.00    0.73586   0.70663    0.025
 5069.00    0.66452   0.70348    0.025
 5070.00    0.56097   0.70433    0.025
 5071.00    0.54263   0.71864    0.025
 5072.00    0.54992   0.72109    0.025
 5073.00    0.68338   0.70477    0.025
 5074.00    0.84835   0.70147    0.026
 5075.00    0.79023   0.71259    0.026
 5076.00    0.68691   0.71314    0.026
 5077.00    0.67082   0.70919    0.026
 5078.00    0.66859   0.71585    0.026
 5079.00    0.76775   0.71209    0.026
 5080.00    0.87891   0.67709    0.026
 5081.00    0.76334   0.64618    0.025
 5082.00    0.62955   0.65298    0.025
 5083.00    0.69905   0.67438    0.025
 5084.00    0.77770   0.68242    0.025
 5085.00    0.76362   0.68814    0.025
 5086.00    0.74610   0.70336    0.025
 5087.00    0.61153   0.71496    0.024
 5088.00    0.49099   0.71457    0.024
 5089.00    0.63118   0.71308    0.024
 5090.00    0.75145   0.71814    0.025
 5091.00    0.64975   0.72213    0.024
 5092.00    0.55460   0.72261    0.024
 5093.00    0.51055   0.72868    0.024
 5094.00    0.48842   0.73941    0.024
 5095.00    0.59542   0.74215    0.025
 5096.00    0.69133   0.73309    0.025
 5097.00    0.73548   0.71761    0.025
 5098.00    0.74902   0.69851    0.024
 5099.00    0.64590   0.67541    0.024
 5100.00    0.58169   0.65804    0.024
 5101.00    0.64127   0.66718    0.024
 5102.00    0.70339   0.69586    0.024
 5103.00    0.77232   0.71526    0.024
 5104.00    0.78249   0.71490    0.024
 5105.00    0.65677   0.70660    0.024
 5106.00    0.56902   0.70295    0.024
 5107.00    0.55723   0.69948    0.024
 5108.00    0.56506   0.68788    0.023
 5109.00    0.60706   0.67991    0.023
 5110.00    0.61113   0.67984    0.023
 5111.00    0.55738   0.67671    0.023
 5112.00    0.53659   0.68366    0.023
 5113.00    0.55998   0.70128    0.024
 5114.00    0.61785   0.71055    0.024
 5115.00    0.71642   0.71461    0.024
 5116.00    0.75324   0.71808    0.025
 5117.00    0.72581   0.72213    0.025
 5118.00    0.70347   0.73179    0.024
 5119.00    0.68582   0.73862    0.024
 5120.00    0.66770   0.73533    0.024
 5121.00    0.64922   0.72379    0.023
 5122.00    0.64079   0.70918    0.023
 5123.00    0.63952   0.69450    0.023
 5124.00    0.58102   0.67462    0.023
 5125.00    0.48676   0.65851    0.023
 5126.00    0.43747   0.65979    0.023
 5127.00    0.41271   0.66855    0.023
 5128.00    0.41654   0.67112    0.023
 5129.00    0.43393   0.66832    0.023
 5130.00    0.46770   0.66664    0.023
 5131.00    0.50819   0.67131    0.023
 5132.00    0.50590   0.68336    0.023
 5133.00    0.48866   0.69244    0.023
 5134.00    0.47908   0.69321    0.023
 5135.00    0.47174   0.69670    0.023
 5136.00    0.56436   0.70987    0.023
 5137.00    0.68140   0.71070    0.023
 5138.00    0.69295   0.69300    0.023
 5139.00    0.68366   0.67474    0.024
 5140.00    0.66794   0.66130    0.024
 5141.00    0.65122   0.66854    0.024
 5142.00    0.59306   0.68432    0.024
 5143.00    0.53017   0.67316    0.023
 5144.00    0.51403   0.66035    0.024
 5145.00    0.50147   0.67233    0.024
 5146.00    0.46004   0.68015    0.024
 5147.00    0.41743   0.67116    0.024
 5148.00    0.48963   0.66193    0.024
 5149.00    0.56096   0.66259    0.024
 5150.00    0.55536   0.67407    0.024
 5151.00    0.55373   0.67938    0.025
 5152.00    0.62076   0.67097    0.025
 5153.00    0.67606   0.66257    0.025
 5154.00    0.60662   0.65957    0.024
 5155.00    0.53649   0.66039    0.024
 5156.00    0.46108   0.67023    0.024
 5157.00    0.41301   0.68704    0.024
 5158.00    0.52143   0.70409    0.025
 5159.00    0.58979   0.71375    0.025
 5160.00    0.47563   0.71286    0.024
 5161.00    0.41261   0.71245    0.024
 5162.00    0.54038   0.71003    0.025
 5163.00    0.62994   0.69589    0.025
 5164.00    0.60032   0.68506    0.025
 5165.00    0.57959   0.67782    0.024
 5166.00    0.58245   0.65183    0.025
 5167.00    0.56180   0.60376    0.024
 5168.00    0.48769   0.55335    0.024
 5169.00    0.47049   0.53372    0.024
 5170.00    0.56536   0.56000    0.025
 5171.00    0.63661   0.60103    0.025
 5172.00    0.66733   0.59997    0.025
 5173.00    0.60165   0.55304    0.025
 5174.00    0.39107   0.53165    0.024
 5175.00    0.32494   0.57629    0.024
 5176.00    0.44961   0.63889    0.024
 5177.00    0.56616   0.66850    0.024
 5178.00    0.67326   0.67564    0.024
 5179.00    0.65564   0.68200    0.024
 5180.00    0.51007   0.68300    0.024
 5181.00    0.41546   0.67437    0.023
 5182.00    0.36695   0.65629    0.022
 5183.00    0.36677   0.61585    0.022
 5184.00    0.40513   0.55487    0.023
 5185.00    0.45361   0.52837    0.023
 5186.00    0.50917   0.57104    0.023
 5187.00    0.53946   0.63583    0.023
 5188.00    0.55420   0.67162    0.023
 5189.00    0.57961   0.67514    0.023
 5190.00    0.61075   0.67854    0.000
 5191.00    0.66275   0.68978    0.000
 5192.00    0.72449   0.67172    0.000
 5193.00    0.72115   0.63236    0.000
 5194.00    0.69165   0.62514    0.000
 5195.00    0.64451   0.64534    0.000
 5196.00    0.59131   0.65291    0.000
 5197.00    0.55821   0.65396    0.000
 5198.00    0.53091   0.66428    0.000
 5199.00    0.48644   0.67678    0.000
 5200.00    0.43786   0.68880    0.000
 5201.00    0.51742   0.69660    0.000
 5202.00    0.62166   0.69530    0.000
 5203.00    0.64848   0.68811    0.000
 5204.00    0.66372   0.68032    0.000
 5205.00    0.67051   0.66008    0.000
 5206.00    0.67638   0.62737    0.000
 5207.00    0.58808   0.61093    0.000
 5208.00    0.49298   0.61451    0.000
 5209.00    0.58203   0.61090    0.000
 5210.00    0.67796   0.61035    0.000
 5211.00    0.62784   0.62971    0.023
 5212.00    0.57848   0.65688    0.024
 5213.00    0.58167   0.68295    0.024
 5214.00    0.58671   0.70071    0.024
 5215.00    0.62184   0.70055    0.024
 5216.00    0.64732   0.68047    0.024
 5217.00    0.57458   0.65997    0.024
 5218.00    0.51529   0.65962    0.024
 5219.00    0.55384   0.67799    0.024
 5220.00    0.58646   0.69842    0.024
 5221.00    0.58601   0.70845    0.024
 5222.00    0.59205   0.71285    0.024
 5223.00    0.62697   0.71155    0.024
 5224.00    0.64478   0.69882    0.025
 5225.00    0.60012   0.67450    0.024
 5226.00    0.56293   0.64240    0.024
 5227.00    0.54862   0.60660    0.025
 5228.00    0.53391   0.58845    0.025
 5229.00    0.51816   0.61629    0.025
 5230.00    0.51256   0.66382    0.025
 5231.00    0.52968   0.69055    0.025
 5232.00    0.53126   0.69929    0.024
 5233.00    0.50272   0.68781    0.024
 5234.00    0.52653   0.66220    0.024
 5235.00    0.63883   0.65123    0.024
 5236.00    0.69551   0.66037    0.024
 5237.00    0.66981   0.68207    0.024
 5238.00    0.68910   0.70409    0.024
 5239.00    0.76697   0.71376    0.024
 5240.00    0.77790   0.71217    0.024
 5241.00    0.71204   0.70926    0.023
 5242.00    0.72312   0.71072    0.023
 5243.00    0.81202   0.70924    0.023
 5244.00    0.82352   0.70511    0.024
 5245.00    0.76597   0.71238    0.024
 5246.00    0.70843   0.72194    0.024
 5247.00    0.65089   0.70539    0.023
 5248.00    0.64706   0.67285    0.023
 5249.00    0.68037   0.66379    0.023
 5250.00    0.64088   0.67078    0.023
 5251.00    0.55725   0.66327    0.023
 5252.00    0.53425   0.65748    0.023
 5253.00    0.54335   0.67004    0.023
 5254.00    0.57432   0.68320    0.023
 5255.00    0.61534   0.67939    0.022
 5256.00    0.58003   0.66718    0.022
 5257.00    0.51455   0.67606    0.023
 5258.00    0.56960   0.70421    0.023
 5259.00    0.66524   0.72499    0.023
 5260.00    0.63759   0.72818    0.023
 5261.00    0.57505   0.71568    0.023
 5262.00    0.54736   0.69199    0.024
 5263.00    0.52781   0.66084    0.024
 5264.00    0.55170   0.62946    0.024
 5265.00    0.58374   0.60565    0.024
 5266.00    0.50364   0.58894    0.024
 5267.00    0.40729   0.58524    0.024
 5268.00    0.47095   0.60864    0.024
 5269.00    0.55143   0.62521    0.024
 5270.00    0.62839   0.59268    0.024
 5271.00    0.70510   0.55988    0.025
 5272.00    0.59017   0.58714    0.025
 5273.00    0.46882   0.63797    0.025
 5274.00    0.47633   0.66065    0.025
 5275.00    0.48738   0.65963    0.025
 5276.00    0.60719   0.64780    0.024
 5277.00    0.71897   0.64813    0.024
 5278.00    0.70847   0.67833    0.024
 5279.00    0.69022   0.71027    0.024
 5280.00    0.59640   0.71664    0.024
 5281.00    0.51350   0.70161    0.024
 5282.00    0.50745   0.68203    0.024
 5283.00    0.52049   0.66747    0.024
 5284.00    0.63707   0.65510    0.024
 5285.00    0.73491   0.65141    0.024
 5286.00    0.75127   0.67566    0.024
 5287.00    0.77089   0.71358    0.025
 5288.00    0.80220   0.73176    0.025
 5289.00    0.81606   0.72733    0.025
 5290.00    0.77750   0.72214    0.025
 5291.00    0.72162   0.72758    0.025
 5292.00    0.62150   0.73320    0.025
 5293.00    0.55461   0.72857    0.025
 5294.00    0.56086   0.71798    0.025
 5295.00    0.56015   0.71319    0.025
 5296.00    0.54615   0.70950    0.024
 5297.00    0.57442   0.68990    0.024
 5298.00    0.67308   0.65405    0.024
 5299.00    0.70739   0.63116    0.024
 5300.00    0.64779   0.64590    0.024
 5301.00    0.62721   0.67287    0.024
 5302.00    0.65672   0.67857    0.024
 5303.00    0.64800   0.67582    0.024
 5304.00    0.59607   0.68819    0.024
 5305.00    0.59754   0.71165    0.023
 5306.00    0.65225   0.72815    0.023
 5307.00    0.69789   0.72715    0.023
 5308.00    0.73554   0.71484    0.023
 5309.00    0.69293   0.71033    0.023
 5310.00    0.58812   0.72010    0.023
 5311.00    0.60925   0.73001    0.023
 5312.00    0.71617   0.73034    0.023
 5313.00    0.74023   0.72446    0.023
 5314.00    0.71481   0.71680    0.023
 5315.00    0.69222   0.71219    0.023
 5316.00    0.67111   0.70733    0.023
 5317.00    0.65659   0.69463    0.022
 5318.00    0.64503   0.68597    0.022
 5319.00    0.66674   0.69270    0.022
 5320.00    0.70137   0.70114    0.023
 5321.00    0.72081   0.70236    0.022
 5322.00    0.73524   0.70140    0.022
 5323.00    0.65513   0.69815    0.022
 5324.00    0.54882   0.68488    0.022
 5325.00    0.53967   0.66418    0.023
 5326.00    0.55270   0.66019    0.023
 5327.00    0.55932   0.66566    0.023
 5328.00    0.56478   0.64072    0.023
 5329.00    0.61339   0.58914    0.023
 5330.00    0.66805   0.57735    0.023
 5331.00    0.60695   0.62219    0.023
 5332.00    0.53417   0.66974    0.023
 5333.00    0.56122   0.68477    0.023
 5334.00    0.59467   0.68298    0.023
 5335.00    0.62833   0.69177    0.023
 5336.00    0.66194   0.70633    0.024
 5337.00    0.67370   0.70885    0.024
 5338.00    0.68426   0.70191    0.024
 5339.00    0.66059   0.69682    0.023
 5340.00    0.63824   0.68351    0.023
 5341.00    0.63469   0.65540    0.023
 5342.00    0.63689   0.64240    0.024
 5343.00    0.69304   0.66293    0.024
 5344.00    0.73107   0.68863    0.024
 5345.00    0.64560   0.69801    0.024
 5346.00    0.57718   0.69080    0.024
 5347.00    0.59877   0.68049    0.024
 5348.00    0.60282   0.68079    0.024
 5349.00    0.53236   0.67805    0.023
 5350.00    0.51346   0.66728    0.023
 5351.00    0.67533   0.67027    0.023
 5352.00    0.78826   0.69112    0.023
 5353.00    0.75694   0.70791    0.024
 5354.00    0.72574   0.71095    0.024
 5355.00    0.69484   0.71604    0.024
 5356.00    0.68423   0.72845    0.024
 5357.00    0.71753   0.73569    0.024
 5358.00    0.74025   0.73604    0.023
 5359.00    0.74307   0.73501    0.024
 5360.00    0.74064   0.73404    0.024
 5361.00    0.72958   0.73033    0.023
 5362.00    0.74501   0.71838    0.023
 5363.00    0.79854   0.70229    0.023
 5364.00    0.79576   0.69421    0.023
 5365.00    0.72173   0.69008    0.023
 5366.00    0.67053   0.68224    0.023
 5367.00    0.64479   0.67930    0.023
 5368.00    0.63418   0.68067   -2.000
 5369.00    0.63845   0.67990   -2.000
 5370.00    0.64346   0.66846   -2.000
 5371.00    0.64911   0.64069   -2.000
 5372.00    0.60168   0.61634   -2.000
 5373.00    0.51370   0.62460   -2.000
 5374.00    0.52233   0.66333   -2.000
 5375.00    0.59581   0.69795   -2.000
 5376.00    0.69585   0.71460   -2.000
 5377.00    0.81149   0.71472   -2.000
 5378.00    0.78722   0.70630   -2.000
 5379.00    0.69119   0.70484   -2.000
 5380.00    0.67426   0.70842   -2.000
 5381.00    0.69247   0.70457   -2.000
 5382.00    0.73694   0.69645   -2.000
 5383.00    0.79145   0.68996    0.023
 5384.00    0.79336   0.68289    0.023
 5385.00    0.77820   0.68486    0.023
 5386.00    0.75091   0.69697    0.023
 5387.00    0.72032   0.70314    0.023
 5388.00    0.68289   0.70063    0.023
 5389.00    0.64394   0.69532    0.023
 5390.00    0.68864   0.68550    0.024
 5391.00    0.74820   0.67323    0.024
 5392.00    0.71525   0.66616    0.024
 5393.00    0.66974   0.66421    0.023
 5394.00    0.67959   0.66329    0.023
 5395.00    0.69479   0.66335    0.024
 5396.00    0.77172   0.66323    0.024
 5397.00    0.85237   0.65022    0.024
 5398.00    0.69283   0.62753    0.024
 5399.00    0.52829   0.63077    0.023
 5400.00    0.57404   0.65741    0.024
 5401.00    0.61919   0.67107    0.024
 5402.00    0.64884   0.67255    0.024
 5403.00    0.67746   0.67780    0.024
 5404.00    0.69216   0.67189    0.024
 5405.00    0.69962   0.64291    0.024
 5406.00    0.64182   0.61041    0.024
 5407.00    0.60230   0.60107    0.023
 5408.00    0.68353   0.62135    0.023
 5409.00    0.75642   0.64516    0.023
 5410.00    0.78642   0.64442    0.023
 5411.00    0.77857   0.63053    0.024
 5412.00    0.61362   0.63689    0.023
 5413.00    0.51455   0.66309    0.023
 5414.00    0.64180   0.68140    0.022
 5415.00    0.71911   0.68075    0.022
 5416.00    0.65195   0.67618    0.022
 5417.00    0.61865   0.68471    0.022
 5418.00    0.66900   0.69948    0.022
 5419.00    0.73839   0.70340    0.022
 5420.00    0.84835   0.69493    0.022
 5421.00    0.87668   0.68235    0.023
 5422.00    0.75405   0.67742    0.022
 5423.00    0.65762   0.68397    0.022
 5424.00    0.60351   0.68144    0.022
 5425.00    0.59820   0.66383    0.022
 5426.00    0.66207   0.66134    0.022
 5427.00    0.69873   0.68280    0.022
 5428.00    0.70145   0.70324    0.022
 5429.00    0.66074   0.69576    0.022
 5430.00    0.57230   0.65732    0.022
 5431.00    0.55779   0.63327    0.022
 5432.00    0.61496   0.64960    0.022
 5433.00    0.61935   0.66430    0.023
 5434.00    0.57861   0.65404    0.023
 5435.00    0.58226   0.63786    0.023
 5436.00    0.61932   0.63215    0.023
 5437.00    0.65437   0.63995    0.023
 5438.00    0.68808   0.65794    0.023
 5439.00    0.69017   0.68219    0.023
 5440.00    0.67393   0.70257    0.023
 5441.00    0.65940   0.71218    0.023
 5442.00    0.64573   0.71347    0.023
 5443.00    0.66538   0.71256    0.023
 5444.00    0.69959   0.71142    0.023
 5445.00    0.69361   0.70185    0.024
 5446.00    0.67256   0.67703    0.024
 5447.00    0.69264   0.64168    0.024
 5448.00    0.72581   0.62034    0.023
 5449.00    0.72309   0.63661    0.024
 5450.00    0.71084   0.66937    0.024
 5451.00    0.66008   0.68866    0.023
 5452.00    0.60095   0.69147    0.023
 5453.00    0.60252   0.68707    0.023
 5454.00    0.61457   0.67859    0.024
 5455.00    0.58282   0.65997    0.023
 5456.00    0.54533   0.63162    0.023
 5457.00    0.53141   0.62162    0.023
 5458.00    0.51966   0.64607    0.023
 5459.00    0.60389   0.67853    0.023
 5460.00    0.69351   0.69290    0.024
 5461.00    0.68183   0.68820    0.023
 5462.00    0.66777   0.67598    0.023
 5463.00    0.64162   0.66029    0.023
 5464.00    0.62044   0.64449    0.023
 5465.00    0.71579   0.64711    0.022
 5466.00    0.79902   0.66427    0.022
 5467.00    0.72674   0.67159    0.022
 5468.00    0.65361   0.67151    0.022
 5469.00    0.57317   0.67648    0.022
 5470.00    0.50999   0.67814    0.022
 5471.00    0.55748   0.67019    0.022
 5472.00    0.59793   0.66527    0.022
 5473.00    0.60311   0.66535    0.022
 5474.00    0.61932   0.65750    0.022
 5475.00    0.68032   0.65001    0.022
 5476.00    0.69912   0.64667    0.023
 5477.00    0.57589   0.62714    0.022
 5478.00    0.51002   0.60787   -2.000
 5479.00    0.60709   0.62340   -2.000
 5480.00    0.69274   0.65480   -2.000
 5481.00    0.75068   0.66173   -2.000
 5482.00    0.71976   0.64359   -2.000
 5483.00    0.50269   0.63361   -2.000
 5484.00    0.36227   0.64432   -2.000
 5485.00    0.36140   0.66410   -2.000
 5486.00    0.39616   0.68159   -2.000
 5487.00    0.48763   0.68225   -2.000
 5488.00    0.59494   0.66397   -2.000
 5489.00    0.72438   0.65041   -2.000
 5490.00    0.83267   0.65498   -2.000
 5491.00    0.91496   0.66230   -2.000
 5492.00    0.89920   0.66767   -2.000
 5493.00    0.77721   0.67217   -2.000
 5494.00    0.68135   0.66708   -2.000
 5495.00    0.61046   0.66100   -2.000
 5496.00    0.62547   0.66595   -2.000
 5497.00    0.71288   0.66842   -2.000
 5498.00    0.72584   0.65740   -2.000
 5499.00    0.68355   0.65465   -2.000
 5500.00    0.62706   0.67080   -2.000
 5501.00    0.56131   0.67854   -2.000
 5502.00    0.57843   0.66389    0.070
 5503.00    0.64282   0.64822    0.027
 5504.00    0.57255   0.64761    0.022
 5505.00    0.43538   0.65488    0.022
 5506.00    0.52121   0.65522    0.022
 5507.00    0.70286   0.64256    0.022
 5508.00    0.68201   0.63716    0.022
 5509.00    0.58657   0.65092    0.022
 5510.00    0.58336   0.66236    0.022
 5511.00    0.60893   0.66124    0.022
 5512.00    0.68061   0.65255    0.022
 5513.00    0.76428   0.63765    0.022
 5514.00    0.76795   0.62790    0.021
 5515.00    0.75464   0.63086    0.021
 5516.00    0.70298   0.64025    0.022
 5517.00    0.64488   0.64928    0.022
 5518.00    0.63534   0.65758    0.022
 5519.00    0.63195   0.67099    0.022
 5520.00    0.63723   0.68254    0.022
 5521.00    0.64327   0.68303    0.022
 5522.00    0.68299   0.67812    0.022
 5523.00    0.72448   0.67552    0.022
 5524.00    0.66438   0.67594    0.021
 5525.00    0.60387   0.67560    0.021
 5526.00    0.65514   0.66995    0.022
 5527.00    0.70580   0.65913    0.022
 5528.00    0.74307   0.64226    0.022
 5529.00    0.76542   0.62459    0.022
 5530.00    0.60572   0.62599    0.022
 5531.00    0.47638   0.64793    0.022
 5532.00    0.60004   0.66556    0.022
 5533.00    0.70695   0.66805    0.022
 5534.00    0.70960   0.66350    0.022
 5535.00    0.70739   0.65705    0.022
 5536.00    0.68143   0.64966    0.022
 5537.00    0.65583   0.65076    0.023
 5538.00    0.63162   0.65783    0.023
 5539.00    0.61725   0.66038    0.023
 5540.00    0.63533   0.66427    0.022
 5541.00    0.67697   0.67384    0.022
 5542.00    0.78429   0.68123    0.023
 5543.00    0.85402   0.67783    0.023
 5544.00    0.83401   0.66595    0.023
 5545.00    0.80126   0.65933    0.023
 5546.00    0.74224   0.66066    0.023
 5547.00    0.68279   0.66055    0.022
 5548.00    0.62260   0.66314    0.022
 5549.00    0.62065   0.67409    0.022
 5550.00    0.71004   0.68367    0.022
 5551.00    0.72462   0.68649    0.022
 5552.00    0.63621   0.68608    0.022
 5553.00    0.60448   0.68197    0.022
 5554.00    0.64145   0.67289    0.021
 5555.00    0.65946   0.66291    0.021
 5556.00    0.65722   0.66072    0.021
 5557.00    0.63906   0.66594    0.021
 5558.00    0.60591   0.66790    0.021
 5559.00    0.61528   0.66558    0.021
 5560.00    0.65997   0.66597    0.021
 5561.00    0.62591   0.66685    0.021
 5562.00    0.53425   0.66428    0.020
 5563.00    0.54220   0.65732    0.020
 5564.00    0.61414   0.65022    0.020
 5565.00    0.65678   0.64973    0.021
 5566.00    0.68296   0.64969    0.021
 5567.00    0.66421   0.64450    0.021
 5568.00    0.62351   0.64283    0.021
 5569.00    0.59517   0.64555    0.021
 5570.00    0.57207   0.64327    0.021
 5571.00    0.54621   0.64300    0.021
 5572.00    0.51936   0.65168    0.021
 5573.00    0.52708   0.64926    0.021
 5574.00    0.54538   0.63763    0.021
 5575.00    0.55605   0.64353    0.021
 5576.00    0.56478   0.65643    0.021
 5577.00    0.63882   0.65760    0.021
 5578.00    0.72639   0.65820    0.021
 5579.00    0.67344   0.66093    0.021
 5580.00    0.59758   0.66134    0.022
 5581.00    0.62715   0.66406    0.022
 5582.00    0.66960   0.66436    0.022
 5583.00    0.63134   0.65873    0.022
 5584.00    0.58631   0.65665    0.023
 5585.00    0.55426   0.65662    0.023
 5586.00    0.52284   0.64822    0.022
 5587.00    0.55565   0.62848    0.022
 5588.00    0.58940   0.60516    0.022
 5589.00    0.62140   0.59222    0.022
 5590.00    0.65005   0.59399    0.022
 5591.00    0.61211   0.60715    0.022
 5592.00    0.57946   0.62382    0.022
 5593.00    0.60814   0.63282    0.022
 5594.00    0.62873   0.63195    0.022
 5595.00    0.58441   0.62691    0.022
 5596.00    0.54400   0.63288    0.021
 5597.00    0.52721   0.65269    0.021
 5598.00    0.51473   0.66014    0.021
 5599.00    0.52281   0.64429    0.021
 5600.00    0.53970   0.62974    0.021
 5601.00    0.59088   0.62641    0.021
 5602.00    0.63948   0.62098    0.021
 5603.00    0.67974   0.61262    0.021
 5604.00    0.70879   0.61260    0.021
 5605.00    0.70712   0.63023    0.021
 5606.00    0.71576   0.65518    0.021
 5607.00    0.74859   0.67180    0.021
 5608.00    0.75253   0.67715    0.020
 5609.00    0.69787   0.67559    0.021
 5610.00    0.64848   0.67196    0.021
 5611.00    0.60842   0.67009    0.020
 5612.00    0.58584   0.67244    0.020
 5613.00    0.59027   0.67777    0.020
 5614.00    0.56999   0.67739    0.020
 5615.00    0.51618   0.65627    0.020
 5616.00    0.51061   0.61705    0.020
 5617.00    0.56265   0.59803    0.021
 5618.00    0.61853   0.61528    0.021
 5619.00    0.67845   0.63625    0.021
 5620.00    0.69002   0.64018    0.021
 5621.00    0.65665   0.63886    0.021
 5622.00    0.64834   0.64529    0.021
 5623.00    0.66053   0.65438    0.021
 5624.00    0.63978   0.65062    0.021
 5625.00    0.59528   0.62880    0.021
 5626.00    0.56502   0.61140    0.021
 5627.00    0.54377   0.61804    0.021
 5628.00    0.62487   0.63387    0.021
 5629.00    0.76260   0.64376    0.021
 5630.00    0.79126   0.65298    0.021
 5631.00    0.76745   0.66240    0.021
 5632.00    0.71677   0.66686    0.021
 5633.00    0.65493   0.66603    0.021
 5634.00    0.60462   0.66121    0.020
 5635.00    0.55840   0.65454    0.020
 5636.00    0.59256   0.64837    0.020
 5637.00    0.65083   0.64093    0.020
 5638.00    0.61265   0.63223    0.020
 5639.00    0.55045   0.62966    0.020
 5640.00    0.51588   0.63565    0.020
 5641.00    0.48690   0.63909    0.020
 5642.00    0.50188   0.63279    0.020
 5643.00    0.52383   0.62880    0.020
 5644.00    0.57736   0.63293    0.020
 5645.00    0.63461   0.63765    0.020
 5646.00    0.62634   0.64120    0.020
 5647.00    0.61284   0.64474    0.020
 5648.00    0.65403   0.64848    0.020
 5649.00    0.69767   0.64961    0.020
 5650.00    0.68212   0.64568    0.019
 5651.00    0.66527   0.64189    0.019
 5652.00    0.61753   0.64552    0.019
 5653.00    0.57188   0.65398    0.020
 5654.00    0.56477   0.65669    0.020
 5655.00    0.56318   0.64707    0.020
 5656.00    0.62282   0.63544    0.020
 5657.00    0.67248   0.63677    0.020
 5658.00    0.64478   0.63444    0.020
 5659.00    0.61902   0.61021    0.020
 5660.00    0.60464   0.59415    0.020
 5661.00    0.58894   0.60963    0.020
 5662.00    0.56705   0.62611    0.020
 5663.00    0.55382   0.62205    0.020
 5664.00    0.57349   0.61724    0.020
 5665.00    0.57855   0.62839    0.020
 5666.00    0.53723   0.64375    0.020
 5667.00    0.51504   0.64771    0.020
 5668.00    0.54427   0.63976    0.020
 5669.00    0.57030   0.63216    0.020
 5670.00    0.58892   0.63213    0.020
 5671.00    0.60163   0.63554    0.020
 5672.00    0.60257   0.63933    0.020
 5673.00    0.60955   0.64759    0.020
 5674.00    0.62704   0.65998    0.021
 5675.00    0.63261   0.66526    0.021
 5676.00    0.62003   0.65975    0.021
 5677.00    0.62783   0.65669    0.021
 5678.00    0.66289   0.66087    0.021
 5679.00    0.66169   0.66066    0.021
 5680.00    0.61778   0.65409    0.020
 5681.00    0.59030   0.65044    0.020
 5682.00    0.57987   0.64810    0.020
 5683.00    0.59058   0.63731    0.019
 5684.00    0.62067   0.62659    0.019
 5685.00    0.63112   0.62963    0.019
 5686.00    0.62571   0.63875    0.019
 5687.00    0.60444   0.63823    0.019
 5688.00    0.57190   0.62802    0.019
 5689.00    0.55980   0.62137    0.019
 5690.00    0.56044   0.62562    0.019
 5691.00    0.61644   0.63693    0.019
 5692.00    0.70261   0.64643    0.019
 5693.00    0.72139   0.65401    0.019
 5694.00    0.70827   0.65857    0.020
 5695.00    0.66680   0.65669    0.020
 5696.00    0.61375   0.65221    0.020
 5697.00    0.57620   0.65152    0.020
 5698.00    0.54406   0.65059    0.021
 5699.00    0.58828   0.64209    0.021
 5700.00    0.65495   0.63415    0.021
 5701.00    0.61973   0.63087    0.021
 5702.00    0.55969   0.62346    0.021
 5703.00    0.58181   0.61661    0.021
 5704.00    0.62011   0.62045    0.020
 5705.00    0.61570   0.63066    0.020
 5706.00    0.60473   0.63336    0.020
 5707.00    0.68733   0.62363    0.020
 5708.00    0.78053   0.61171    0.020
 5709.00    0.73137   0.60203    0.020
 5710.00    0.67142   0.59334    0.020
 5711.00    0.64287   0.59345    0.020
 5712.00    0.61559   0.59808    0.019
 5713.00    0.58429   0.60113    0.019
 5714.00    0.55474   0.61389    0.019
 5715.00    0.59871   0.63179    0.019
 5716.00    0.64127   0.64163    0.019
 5717.00    0.65974   0.64632    0.019
 5718.00    0.67796   0.64806    0.019
 5719.00    0.69362   0.64681    0.019
 5720.00    0.70475   0.64891    0.019
 5721.00    0.68197   0.65333    0.019
 5722.00    0.66072   0.65685    0.019
 5723.00    0.64821   0.66158    0.019
 5724.00    0.63480   0.66549    0.019
 5725.00    0.61728   0.66492    0.019
 5726.00    0.60724   0.66184    0.019
 5727.00    0.62499   0.65459    0.019
 5728.00    0.63950   0.64262    0.019
 5729.00    0.64392   0.63940    0.019
 5730.00    0.64199   0.64905    0.019
 5731.00    0.62331   0.65442    0.019
 5732.00    0.61013   0.64562    0.020
 5733.00    0.60941   0.63697    0.020
 5734.00    0.62924   0.64259    0.020
 5735.00    0.68945   0.65397    0.020
 5736.00    0.72142   0.65922    0.020
 5737.00    0.70499   0.65759    0.020
 5738.00    0.67333   0.65250    0.020
 5739.00    0.61884   0.64899    0.020
 5740.00    0.57442   0.64882    0.000
 5741.00    0.54327   0.64969    0.000
 5742.00    0.52508   0.64960    0.000
 5743.00    0.52195   0.64727    0.000
 5744.00    0.50917   0.64408    0.000
 5745.00    0.48650   0.64633    0.000
 5746.00    0.51441   0.65476    0.000
 5747.00    0.58799   0.66010    0.000
 5748.00    0.63260   0.65258    0.000
 5749.00    0.65415   0.63770    0.000
 5750.00    0.64182   0.63464    0.000
 5751.00    0.60576   0.64610    0.000
 5752.00    0.57173   0.65379    0.000
 5753.00    0.53895   0.64541    0.000
 5754.00    0.56004   0.62621    0.000
 5755.00    0.61004   0.61223    0.000
 5756.00    0.65046   0.61779    0.000
 5757.00    0.68642   0.63756    0.000
 5758.00    0.70543   0.65376    0.000
 5759.00    0.71762   0.65933    0.000
 5760.00    0.69681   0.65516    0.000
 5761.00    0.66469   0.64394    0.000
 5762.00    0.60919   0.63004    0.000
 5763.00    0.54695   0.61714    0.000
 5764.00    0.58501   0.61302    0.000
 5765.00    0.64695   0.62685    0.000
 5766.00    0.65991   0.64709    0.000
 5767.00    0.66346   0.65722    0.000
 5768.00    0.63152   0.65898    0.000
 5769.00    0.59430   0.65846    0.000
 5770.00    0.56829   0.65585    0.000
 5771.00    0.54350   0.65263    0.000
 5772.00    0.61869   0.64963    0.000
 5773.00    0.70105   0.64507    0.000
 5774.00    0.67830   0.64247    0.000
 5775.00    0.65168   0.64119    0.000
 5776.00    0.67244   0.63961    0.000
 5777.00    0.69345   0.64243    0.000
 5778.00    0.71601   0.64793    0.000
 5779.00    0.73274   0.64935    0.000
 5780.00    0.65567   0.64349    0.000
 5781.00    0.58225   0.62735    0.000
 5782.00    0.54584   0.60500    0.000
 5783.00    0.52043   0.59315    0.000
 5784.00    0.57477   0.59683    0.000
 5785.00    0.62544   0.60028    0.000
 5786.00    0.65567   0.59543    0.000
 5787.00    0.67203   0.59724    0.000
 5788.00    0.62685   0.61297    0.000
 5789.00    0.59181   0.62849    0.000
 5790.00    0.59372   0.63620    0.000
 5791.00    0.60547   0.63453   -2.000
 5792.00    0.64727   0.62645   -2.000
 5793.00    0.69324   0.62566   -2.000
 5794.00    0.75000   0.63348   -2.000
 5795.00    0.76194   0.64177   -2.000
 5796.00    0.67382   0.64923   -2.000
 5797.00    0.63137   0.65068   -2.000
 5798.00    0.67729   0.64005   -2.000
 5799.00    0.69517   0.62801   -2.000
 5800.00    0.66577   0.63218   -2.000
 5801.00    0.65103   0.64795   -2.000
 5802.00    0.65794   0.65894   -2.000
 5803.00    0.64439   0.66238   -2.000
 5804.00    0.60422   0.65868   -2.000
 5805.00    0.60762   0.64607   -2.000
 5806.00    0.66090   0.63425   -2.000
 5807.00    0.70150   0.63159   -2.000
 5808.00    0.72930   0.63539   -2.000
 5809.00    0.71145   0.63991   -2.000
 5810.00    0.65295   0.64199   -2.000
 5811.00    0.61582   0.64467    0.000
 5812.00    0.59546   0.64884    0.000
 5813.00    0.58201   0.65018    0.000
 5814.00    0.57333   0.64874    0.000
 5815.00    0.57592   0.64518    0.000
 5816.00    0.58534   0.63694    0.000
 5817.00    0.59177   0.62721    0.000
 5818.00    0.59662   0.62700    0.000
 5819.00    0.61045   0.63895    0.000
 5820.00    0.62839   0.65133    0.000
 5821.00    0.63977   0.65657    0.000
 5822.00    0.64856   0.65713    0.000
 5823.00    0.68105   0.65491    0.000
 5824.00    0.72150   0.65100    0.000
 5825.00    0.74817   0.64902    0.000
 5826.00    0.77094   0.65073    0.000
 5827.00    0.75494   0.65239    0.000
 5828.00    0.72992   0.65180    0.000
 5829.00    0.69322   0.65124    0.000
 5830.00    0.65434   0.65314    0.000
 5831.00    0.66379   0.65498    0.000
 5832.00    0.68022   0.65361    0.000
 5833.00    0.67749   0.65172    0.000
 5834.00    0.67275   0.65047    0.000
 5835.00    0.66161   0.64614    0.000
 5836.00    0.65003   0.64084    0.000
 5837.00    0.63461   0.64239    0.000
 5838.00    0.61906   0.64636    0.000
 5839.00    0.62504   0.64370    0.000
 5840.00    0.63087   0.64087    0.000
 5841.00    0.63157   0.64572    0.000
 5842.00    0.63527   0.65318    0.000
 5843.00    0.68434   0.65683    0.000
 5844.00    0.72846   0.65687    0.000
 5845.00    0.72458   0.65438    0.000
 5846.00    0.71808   0.64964    0.000
 5847.00    0.69319   0.64292    0.000
 5848.00    0.67058   0.63546    0.000
 5849.00    0.66031   0.63144    0.000
 5850.00    0.65203   0.63306    0.000
 5851.00    0.65233   0.63673    0.000
 5852.00    0.65431   0.63689    0.000
 5853.00    0.66229   0.62965    0.000
 5854.00    0.66591   0.61736    0.000
 5855.00    0.65641   0.61194    0.000
 5856.00    0.63485   0.61749    0.000
 5857.00    0.58248   0.61872    0.000
 5858.00    0.54078   0.60526    0.000
 5859.00    0.52250   0.59251    0.000
 5860.00    0.52214   0.59701    0.000
 5861.00    0.55592   0.61138    0.000
 5862.00    0.60073   0.62255    0.000
 5863.00    0.66387   0.62408    0.000
 5864.00    0.69535   0.62157    0.000
 5865.00    0.68071   0.62436    0.000
 5866.00    0.65106   0.62870    0.000
 5867.00    0.60219   0.62514    0.000
 5868.00    0.56830   0.61858    0.000
 5869.00    0.55132   0.62125    0.000
 5870.00    0.56300   0.63126    0.000
 5871.00    0.60322   0.63888    0.000
 5872.00    0.63869   0.64005    0.000
 5873.00    0.66998   0.63597    0.000
 5874.00    0.68312   0.63042    0.000
 5875.00    0.68223   0.62668    0.000
 5876.00    0.65275   0.62467    0.000
 5877.00    0.60383   0.62182    0.000
 5878.00    0.56997   0.62026    0.000
 5879.00    0.54509   0.62226    0.000
 5880.00    0.55994   0.62037    0.000
 5881.00    0.59546   0.61294    0.000
 5882.00    0.61300   0.60969    0.000
 5883.00    0.62243   0.61463    0.000
 5884.00    0.59911   0.61701    0.000
 5885.00    0.56310   0.61235    0.000
 5886.00    0.56343   0.61040    0.000
 5887.00    0.57575   0.61288    0.000
 5888.00    0.58173   0.60824    0.000
 5889.00    0.58595   0.58061    0.000
 5890.00    0.61878   0.52118    0.000
 5891.00    0.65812   0.46237    0.000
 5892.00    0.61740   0.45969    0.000
 5893.00    0.56212   0.50519    0.000
 5894.00    0.53398   0.54517    0.000
 5895.00    0.50962   0.55514    0.000
 5896.00    0.51912   0.52846    0.000
 5897.00    0.53202   0.48921    0.000
 5898.00    0.52837   0.49290    0.000
 5899.00    0.52366   0.53702    0.000
 5900.00    0.52323   0.57257    0.000
 5901.00    0.52299   0.58918    0.017
 5902.00    0.54173   0.60136    0.017
 5903.00    0.56015   0.60943    0.017
 5904.00    0.56923   0.61282    0.018
 5905.00    0.57921   0.61455    0.018
 5906.00    0.60200   0.61275    0.018
 5907.00    0.62513   0.60913    0.018
 5908.00    0.65149   0.61054    0.018
 5909.00    0.66859   0.61609    0.018
 5910.00    0.62286   0.61932    0.018
 5911.00    0.58823   0.61954    0.018
 5912.00    0.61199   0.62174    0.018
 5913.00    0.62881   0.62385    0.019
 5914.00    0.61625   0.61752    0.018
 5915.00    0.59987   0.60363    0.018
 5916.00    0.57011   0.59500    0.018
 5917.00    0.54800   0.59561    0.018
 5918.00    0.54842   0.60186    0.018
 5919.00    0.55811   0.60965    0.018
 5920.00    0.59104   0.61483    0.018
 5921.00    0.62457   0.61860    0.018
 5922.00    0.65939   0.61958    0.018
 5923.00    0.67389   0.61568    0.018
 5924.00    0.65028   0.61311    0.018
 5925.00    0.63330   0.61564    0.018
 5926.00    0.62716   0.61952    0.018
 5927.00    0.62307   0.62283    0.017
 5928.00    0.62191   0.62309    0.017
 5929.00    0.60285   0.61773    0.017
 5930.00    0.56115   0.60880    0.017
 5931.00    0.51839   0.60126    0.017
 5932.00    0.47443   0.60421    0.017
 5933.00    0.49277   0.61573    0.017
 5934.00    0.57226   0.62112    0.017
 5935.00    0.62068   0.61362    0.017
 5936.00    0.64220   0.60485    0.017
 5937.00    0.64807   0.60758    0.017
 5938.00    0.64202   0.61619    0.017
 5939.00    0.64001   0.62218    0.018
 5940.00    0.64071   0.62542    0.018
 5941.00    0.62082   0.62267    0.018
 5942.00    0.58883   0.61227    0.017
 5943.00    0.55255   0.60472    0.018
 5944.00    0.51408   0.60664    0.018
 5945.00    0.51040   0.61346    0.018
 5946.00    0.52214   0.62034    0.018
 5947.00    0.55299   0.62482    0.018
 5948.00    0.59110   0.62287    0.018
 5949.00    0.59279   0.61279    0.018
 5950.00    0.58269   0.60230    0.018
 5951.00    0.55544   0.60337    0.018
 5952.00    0.52355   0.61214    0.018
 5953.00    0.55561   0.61154    0.018
 5954.00    0.60188   0.60254    0.018
 5955.00    0.63652   0.60263    0.018
 5956.00    0.66910   0.61059    0.018
 5957.00    0.64145   0.61008    0.018
 5958.00    0.60566   0.60203    0.018
 5959.00    0.60108   0.59933    0.017
 5960.00    0.59949   0.60507    0.017
 5961.00    0.59964   0.61416    0.017
 5962.00    0.59989   0.62179    0.017
 5963.00    0.63767   0.62582    0.017
 5964.00    0.67613   0.62652    0.017
 5965.00    0.67202   0.62502    0.017
 5966.00    0.66777   0.62032    0.017
 5967.00    0.66006   0.61435    0.017
 5968.00    0.65468   0.61506    0.017
 5969.00    0.68066   0.62092    0.017
 5970.00    0.70514   0.62479    0.017
 5971.00    0.71621   0.62707    0.017
 5972.00    0.72475   0.62921    0.017
 5973.00    0.71665   0.62977    0.017
 5974.00    0.70244   0.62914    0.018
 5975.00    0.65693   0.62660    0.018
 5976.00    0.62172   0.61931    0.018
 5977.00    0.62915   0.60812    0.018
 5978.00    0.63558   0.59978    0.018
 5979.00    0.63856   0.59835    0.018
 5980.00    0.63873   0.60304    0.018
 5981.00    0.63077   0.61231    0.018
 5982.00    0.62309   0.61967    0.018
 5983.00    0.61611   0.61849    0.018
 5984.00    0.61051   0.60804    0.018
 5985.00    0.60784   0.59303    0.017
 5986.00    0.60234   0.58677    0.017
 5987.00    0.59161   0.59450    0.017
 5988.00    0.59089   0.60379    0.017
 5989.00    0.60632   0.60830    0.017
 5990.00    0.62484   0.61258    0.017
 5991.00    0.64775   0.61583    0.016
 5992.00    0.65511   0.61298    0.016
 5993.00    0.64311   0.60886    0.017
 5994.00    0.61810   0.61304    0.017
 5995.00    0.57880   0.62144    0.016
 5996.00    0.56461   0.62423    0.016
 5997.00    0.57474   0.61918    0.017
 5998.00    0.59676   0.60920    0.017
 5999.00    0.62894   0.60119    0.017
 6000.00    0.64345   0.60137    0.017
 6001.00    0.64468   0.60717    0.017
 6002.00    0.61726   0.61162    0.017
 6003.00    0.57090   0.60896    0.017
 6004.00    0.56313   0.60230    0.017
 6005.00    0.57766   0.60282    0.017
 6006.00    0.60514   0.60806    0.017
 6007.00    0.63914   0.60634    0.017
 6008.00    0.64006   0.59593    0.017
 6009.00    0.62656   0.58340    0.017
 6010.00    0.61832   0.58331    0.017
 6011.00    0.61204   0.59943    0.018
 6012.00    0.59863   0.61306    0.018
 6013.00    0.58294   0.61024    0.017
 6014.00    0.59094   0.59825    0.018
 6015.00    0.60521   0.59349    0.018
 6016.00    0.59759   0.59847    0.018
 6017.00    0.58521   0.59971    0.017
 6018.00    0.59097   0.59572    0.017
 6019.00    0.59985   0.59651    0.017
 6020.00    0.58684   0.59819    0.017
 6021.00    0.57096   0.59307    0.017
 6022.00    0.51266   0.58829    0.017
 6023.00    0.45047   0.59033    0.016
 6024.00    0.48797   0.59470    0.017
 6025.00    0.53103   0.59653    0.017
 6026.00    0.57818   0.60064    0.017
 6027.00    0.62503   0.60688    0.017
 6028.00    0.63309   0.60781    0.017
 6029.00    0.63963   0.60857    0.017
 6030.00    0.61119   0.61387    0.017
 6031.00    0.58589   0.61719    0.017
 6032.00    0.60049   0.61620    0.017
 6033.00    0.61860   0.61655    0.017
 6034.00    0.66692   0.61987    0.017
 6035.00    0.70682   0.62167    0.017
 6036.00    0.69298   0.62113    0.017
 6037.00    0.67427   0.62095    0.017
 6038.00    0.63125   0.62147    0.017
 6039.00    0.60293   0.62136    0.017
 6040.00    0.63411   0.61906    0.017
 6041.00    0.65888   0.61518    0.018
 6042.00    0.66220   0.61263    0.018
 6043.00    0.65929   0.61186    0.018
 6044.00    0.63873   0.61442    0.017
 6045.00    0.63414   0.62025    0.017
 6046.00    0.66822   0.62370    0.017
 6047.00    0.69418   0.62367    0.017
 6048.00    0.70314   0.62380    0.017
 6049.00    0.70641   0.62392    0.017
 6050.00    0.69933   0.62247    0.017
 6051.00    0.67878   0.62255    0.017
 6052.00    0.63682   0.62432    0.017
 6053.00    0.61028   0.62286    0.017
 6054.00    0.60523   0.61704    0.017
 6055.00    0.60714   0.61163    0.016
 6056.00    0.61760   0.60855    0.016
 6057.00    0.61604   0.60505    0.017
 6058.00    0.60149   0.60301    0.017
 6059.00    0.61209   0.60583    0.017
 6060.00    0.64668   0.61164    0.017
 6061.00    0.68122   0.61648    0.017
 6062.00    0.71572   0.61775    0.017
 6063.00    0.71289   0.61471    0.017
 6064.00    0.68240   0.60886    0.017
 6065.00    0.66961   0.60102    0.017
 6066.00    0.66832   0.59003    0.017
 6067.00    0.65891   0.58613    0.017
 6068.00    0.64486   0.59915    0.017
 6069.00    0.65951   0.61675    0.017
 6070.00    0.68840   0.62508    0.018
 6071.00    0.69417   0.62554    0.017
 6072.00    0.69003   0.62487    0.017
 6073.00    0.68758   0.62598    0.017
 6074.00    0.68574   0.62730    0.018
 6075.00    0.67067   0.62743    0.018
 6076.00    0.65147   0.62615    0.017
 6077.00    0.66388   0.62286    0.017
 6078.00    0.68450   0.61686    0.017
 6079.00    0.67401   0.60696    0.017
 6080.00    0.65695   0.59860    0.016
 6081.00    0.64417   0.59959    0.016
 6082.00    0.63210   0.60190    0.016
 6083.00    0.61513   0.59649    0.016
 6084.00    0.59753   0.59321    0.016
 6085.00    0.59437   0.59732    0.016
 6086.00    0.59248   0.59930    0.016
 6087.00    0.62759   0.59777    0.016
 6088.00    0.66462   0.59993    0.016
 6089.00    0.65351   0.60534    0.016
 6090.00    0.64156   0.60521    0.016
 6091.00    0.63294   0.59713    0.016
 6092.00    0.62502   0.59078    0.016
 6093.00    0.63194   0.59109    0.017
 6094.00    0.63870   0.59335    0.017
 6095.00    0.64341   0.59729    0.017
 6096.00    0.64795   0.60540    0.017
 6097.00    0.65111   0.61044    0.017
 6098.00    0.65428   0.60762    0.017
 6099.00    0.65749   0.60487    0.018
 6100.00    0.65829   0.60822    0.018
 6101.00    0.64733   0.61295    0.017
 6102.00    0.64401   0.60786    0.017
 6103.00    0.67092   0.58417    0.017
 6104.00    0.68559   0.55885    0.017
 6105.00    0.65996   0.56313    0.017
 6106.00    0.64462   0.58821    0.017
 6107.00    0.65791   0.60440    0.017
 6108.00    0.65996   0.60547    0.017
 6109.00    0.63522   0.60087    0.017
 6110.00    0.61935   0.60227    0.017
 6111.00    0.62175   0.60847    0.016
 6112.00    0.61542   0.60752    0.016
 6113.00    0.59348   0.60224    0.016
 6114.00    0.57364   0.60426    0.016
 6115.00    0.55706   0.61169    0.016
 6116.00    0.55189   0.61445    0.016
 6117.00    0.56237   0.60821    0.016
 6118.00    0.57921   0.60199    0.016
 6119.00    0.60372   0.60387    0.016
 6120.00    0.61425   0.60447    0.016
 6121.00    0.60986   0.59554    0.016
 6122.00    0.60684   0.58051    0.016
 6123.00    0.60511   0.56509    0.016
 6124.00    0.59234   0.56439    0.017
 6125.00    0.57041   0.58316    0.017
 6126.00    0.56850   0.59880    0.017
 6127.00    0.58119   0.59931    0.017
 6128.00    0.60685   0.59397    0.017
 6129.00    0.64081   0.58906    0.017
 6130.00    0.64576   0.58770    0.017
 6131.00    0.63445   0.59314    0.017
 6132.00    0.63565   0.60155    0.017
 6133.00    0.64297   0.60682    0.017
 6134.00    0.64372   0.60870    0.017
 6135.00    0.64172   0.60582    0.017
 6136.00    0.62366   0.59203    0.017
 6137.00    0.59982   0.56436    0.017
 6138.00    0.56484   0.53426    0.017
 6139.00    0.52647   0.52989    0.017
 6140.00    0.52730   0.55960    0.017
 6141.00    0.53809   0.59103    0.017
 6142.00    0.57205   0.59435    0.017
 6143.00    0.61079   0.58112    0.017
 6144.00    0.60156   0.58141    0.016
 6145.00    0.58453   0.59679    0.016
 6146.00    0.59359   0.60780    0.016
 6147.00    0.60582   0.60859    0.016
 6148.00    0.63181   0.60439    0.016
 6149.00    0.65894   0.59718    0.016
 6150.00    0.61318   0.58878    0.016
 6151.00    0.56393   0.58334    0.017
 6152.00    0.53693   0.58385    0.016
 6153.00    0.51133   0.58978    0.016
 6154.00    0.54792   0.59601    0.016
 6155.00    0.58262   0.59457    0.017
 6156.00    0.58005   0.58670    0.017
 6157.00    0.57565   0.58354    0.017
 6158.00    0.55021   0.58599    0.017
 6159.00    0.52899   0.58689    0.017
 6160.00    0.54147   0.58520    0.017
 6161.00    0.55443   0.57587    0.017
 6162.00    0.57032   0.55019    0.017
 6163.00    0.58484   0.51988    0.017
 6164.00    0.59283   0.51028    0.017
 6165.00    0.59908   0.52576    0.017
 6166.00    0.59853   0.54822    0.017
 6167.00    0.59462   0.56242    0.017
 6168.00    0.57982   0.57038    0.017
 6169.00    0.57211   0.57159    0.016
 6170.00    0.58376   0.55663    0.016
 6171.00    0.58048   0.53851    0.016
 6172.00    0.54226   0.54314    0.016
 6173.00    0.51719   0.56403    0.016
 6174.00    0.51873   0.57501    0.016
 6175.00    0.53428   0.57510    0.016
 6176.00    0.57455   0.57579    0.016
 6177.00    0.60251   0.57553    0.016
 6178.00    0.61150   0.57288    0.016
 6179.00    0.61193   0.57526    0.016
 6180.00    0.60077   0.58131    0.016
 6181.00    0.60811   0.58202    0.016
 6182.00    0.63751   0.58160    0.017
 6183.00    0.66870   0.58595    0.017
 6184.00    0.70177   0.58914    0.017
 6185.00    0.70369   0.58879    0.017
 6186.00    0.67672   0.58728    0.017
 6187.00    0.64831   0.58167    0.017
 6188.00    0.61870   0.57259    0.017
 6189.00    0.59823   0.56671    0.017
 6190.00    0.58434   0.56612    0.017
 6191.00    0.56262   0.56295    0.017
 6192.00    0.53597   0.54816    0.017
 6193.00    0.54870   0.53634    0.017
 6194.00    0.58319   0.54770    0.017
 6195.00    0.61846   0.56860    0.017
 6196.00    0.65411   0.57945   -2.000
 6197.00    0.64534   0.58348   -2.000
 6198.00    0.61816   0.58735   -2.000
 6199.00    0.63461   0.58686   -2.000
 6200.00    0.66652   0.57616   -2.000
 6201.00    0.56388   0.56255   -2.000
 6202.00    0.42097   0.56147   -2.000
 6203.00    0.37334   0.57339   -2.000
 6204.00    0.34936   0.58430   -2.000
 6205.00    0.40118   0.58736   -2.000
 6206.00    0.46826   0.58607   -2.000
 6207.00    0.49301   0.58542   -2.000
 6208.00    0.51108   0.58623    0.017
 6209.00    0.53062   0.58661    0.017
 6210.00    0.55034   0.58609    0.017
 6211.00    0.55080   0.58395    0.017
 6212.00    0.54973   0.57995    0.017
 6213.00    0.56216   0.57451    0.017
 6214.00    0.57519   0.56341    0.017
 6215.00    0.56652   0.54794    0.017
 6216.00    0.55777   0.53839    0.017
 6217.00    0.55636   0.53942    0.017
 6218.00    0.55545   0.54883    0.017
 6219.00    0.56363   0.55841    0.017
 6220.00    0.57031   0.55682    0.016
 6221.00    0.56041   0.54802    0.016
 6222.00    0.55308   0.54582    0.016
 6223.00    0.56564   0.55283    0.016
 6224.00    0.57719   0.56099    0.016
 6225.00    0.58273   0.56272    0.016
 6226.00    0.58530   0.56141    0.016
 6227.00    0.57406   0.56319    0.016
 6228.00    0.56307   0.56565    0.016
 6229.00    0.55300   0.56573    0.016
 6230.00    0.54321   0.55943    0.016
 6231.00    0.53430   0.54224    0.016
 6232.00    0.53005   0.52535    0.016
 6233.00    0.53825   0.52540    0.016
 6234.00    0.54577   0.53781    0.016
 6235.00    0.55170   0.55371    0.016
 6236.00    0.56122   0.57004    0.016
 6237.00    0.57789   0.57809    0.016
 6238.00    0.57685   0.57430    0.016
 6239.00    0.54506   0.56478    0.016
 6240.00    0.51600   0.55477    0.016
 6241.00    0.49107   0.54554    0.016
 6242.00    0.48802   0.54302    0.016
 6243.00    0.51418   0.54608    0.016
 6244.00    0.54038   0.54185    0.017
 6245.00    0.56663   0.53483    0.017
 6246.00    0.56456   0.53525    0.016
 6247.00    0.53312   0.53735    0.016
 6248.00    0.51232   0.54160    0.016
 6249.00    0.50126   0.55334    0.016
 6250.00    0.51693   0.56443    0.016
 6251.00    0.55413   0.56750    0.015
 6252.00    0.58258   0.56248    0.015
 6253.00    0.60481   0.54867    0.016
 6254.00    0.58753   0.53432    0.016
 6255.00    0.54565   0.53003    0.016
 6256.00    0.50806   0.53289    0.016
 6257.00    0.47280   0.53360    0.016
 6258.00    0.48567   0.52799    0.016
 6259.00    0.52128   0.51980    0.017
 6260.00    0.55110   0.51877    0.018
 6261.00    0.57856   0.53069    0.019
 6262.00    0.57229   0.54504    0.020
 6263.00    0.55429   0.55449    0.021
 6264.00    0.49879   0.56410    0.021
 6265.00    0.43229   0.56873    0.020
 6266.00    0.46212   0.56068    0.019
 6267.00    0.51535   0.55259    0.018
 6268.00    0.54695   0.55677    0.018
 6269.00    0.57431   0.56314    0.017
 6270.00    0.57205   0.56149    0.017
 6271.00    0.56525   0.55709    0.017
 6272.00    0.57323   0.55689    0.016
 6273.00    0.58286   0.56112    0.016
 6274.00    0.58089   0.56623    0.016
 6275.00    0.57805   0.56801    0.016
 6276.00    0.56690   0.56709    0.016
 6277.00    0.55542   0.56725    0.016
 6278.00    0.57984   0.56723    0.016
 6279.00    0.60429   0.56557    0.016
 6280.00    0.61870   0.56206    0.000
 6281.00    0.63154   0.55415    0.000
 6282.00    0.61769   0.54732    0.000
 6283.00    0.60548   0.54908    0.000
 6284.00    0.61060   0.55650    0.000
 6285.00    0.61531   0.56409    0.000
 6286.00    0.61705   0.56711    0.000
 6287.00    0.61237   0.56685    0.000
 6288.00    0.57123   0.56999    0.000
 6289.00    0.53602   0.57611    0.000
 6290.00    0.52771   0.58018    0.000
 6291.00    0.53635   0.57790    0.000
 6292.00    0.60790   0.57029    0.000
 6293.00    0.66789   0.56387    0.000
 6294.00    0.69196   0.56082    0.000
 6295.00    0.69917   0.56212    0.000
 6296.00    0.66188   0.56573    0.000
 6297.00    0.62715   0.56207    0.000
 6298.00    0.59821   0.55121    0.000
 6299.00    0.57635   0.54541    0.000
 6300.00    0.56839   0.54948    0.000
 6301.00    0.56443   0.55411    0.000
 6302.00    0.56729   0.54946    0.000
 6303.00    0.58647   0.54055    0.000
 6304.00    0.63007   0.54108    0.000
 6305.00    0.63483   0.55128    0.000
 6306.00    0.58847   0.55848    0.000
 6307.00    0.55453   0.56011    0.000
 6308.00    0.53499   0.56544    0.000
 6309.00    0.53239   0.57450    0.000
 6310.00    0.54713   0.57773    0.000
 6311.00    0.57952   0.57213    0.000
 6312.00    0.62784   0.56319    0.000
 6313.00    0.65045   0.55774    0.000
 6314.00    0.65264   0.55834    0.000
 6315.00    0.63348   0.55760    0.000
 6316.00    0.59939   0.54961    0.000
 6317.00    0.58807   0.54457    0.000
 6318.00    0.59073   0.54560    0.000
 6319.00    0.58098   0.54053    0.000
 6320.00    0.56459   0.53484    0.000
 6321.00    0.55518   0.54180    0.016
 6322.00    0.54901   0.55320    0.016
 6323.00    0.54274   0.55688    0.016
 6324.00    0.53644   0.55716    0.016
 6325.00    0.55283   0.56249    0.016
 6326.00    0.57698   0.56947    0.016
 6327.00    0.57357   0.57187    0.016
 6328.00    0.56225   0.56981    0.016
 6329.00    0.59634   0.56790    0.016
 6330.00    0.64122   0.56944    0.016
 6331.00    0.67389   0.56884    0.016
 6332.00    0.70423   0.56536    0.016
 6333.00    0.71298   0.56710    0.016
 6334.00    0.71853   0.57290    0.016
 6335.00    0.72631   0.57208    0.015
 6336.00    0.73433   0.55801    0.015
 6337.00    0.70562   0.54038    0.015
 6338.00    0.67429   0.53614    0.015
 6339.00    0.66715   0.54527    0.015
 6340.00    0.66089   0.55371    0.016
 6341.00    0.67758   0.55926    0.016
 6342.00    0.69399   0.56650    0.016
 6343.00    0.69783   0.56875    0.016
 6344.00    0.69980   0.56030    0.016
 6345.00    0.67207   0.54827    0.016
 6346.00    0.64247   0.54489    0.016
 6347.00    0.59397   0.55016    0.016
 6348.00    0.55080   0.55468    0.016
 6349.00    0.54610   0.55832    0.016
 6350.00    0.54931   0.56440    0.016
 6351.00    0.59629   0.56897    0.016
 6352.00    0.63734   0.57050    0.016
 6353.00    0.65220   0.57165    0.016
 6354.00    0.65549   0.57024    0.016
 6355.00    0.61679   0.56225    0.016
 6356.00    0.58244   0.55175    0.015
 6357.00    0.56135   0.54936    0.016
 6358.00    0.55356   0.55290    0.016
 6359.00    0.58020   0.54850    0.015
 6360.00    0.60096   0.53731    0.015
 6361.00    0.60861   0.53227    0.016
 6362.00    0.61424   0.53196    0.016
 6363.00    0.61595   0.52814    0.016
 6364.00    0.61822   0.52502    0.016
 6365.00    0.62144   0.52949    0.016
 6366.00    0.61950   0.53860    0.016
 6367.00    0.60994   0.54663    0.016
 6368.00    0.60515   0.55353    0.016
 6369.00    0.60655   0.56104    0.016
 6370.00    0.60325   0.56547    0.016
 6371.00    0.59457   0.56237    0.016
 6372.00    0.60679   0.55768    0.016
 6373.00    0.64007   0.56091    0.016
 6374.00    0.65261   0.56979    0.016
 6375.00    0.64670   0.57458    0.017
 6376.00    0.63686   0.57318    0.017
 6377.00    0.62393   0.57165    0.017
 6378.00    0.62621   0.57143    0.016
 6379.00    0.63895   0.56794    0.016
 6380.00    0.63750   0.56188    0.016
 6381.00    0.62747   0.55826    0.016
 6382.00    0.63034   0.55798    0.015
 6383.00    0.64001   0.56088    0.015
 6384.00    0.65438   0.56453    0.015
 6385.00    0.67089   0.56368    0.015
 6386.00    0.65784   0.56081    0.015
 6387.00    0.63315   0.56273    0.015
 6388.00    0.63638   0.56800    0.015
 6389.00    0.64898   0.57041    0.015
 6390.00    0.68634   0.56997    0.015
 6391.00    0.73067   0.57039    0.016
 6392.00    0.71217   0.57024    0.016
 6393.00    0.67909   0.56251    0.016
 6394.00    0.60934   0.54543    0.016
 6395.00    0.53276   0.53393    0.016
 6396.00    0.54637   0.54205    0.016
 6397.00    0.57294   0.55962    0.017
 6398.00    0.61464   0.57066    0.017
 6399.00    0.65791   0.57142    0.017
 6400.00    0.68064   0.55849    0.017
 6401.00    0.70199   0.53581    0.017
 6402.00    0.70294   0.52843    0.017
 6403.00    0.70322   0.54671    0.017
 6404.00    0.67634   0.56709    0.017
 6405.00    0.65007   0.57449    0.016
 6406.00    0.64301   0.57405    0.016
 6407.00    0.63624   0.56954    0.016
 6408.00    0.63382   0.56023    0.015
 6409.00    0.63251   0.54979    0.015
 6410.00    0.64192   0.54943    0.015
 6411.00    0.65153   0.55740    0.015
 6412.00    0.66251   0.55650    0.015
 6413.00    0.67313   0.54886    0.015
 6414.00    0.68186   0.54968    0.016
 6415.00    0.68246   0.55522    0.016
 6416.00    0.64798   0.55789    0.016
 6417.00    0.61446   0.56066    0.015
 6418.00    0.58435   0.56341    0.016
 6419.00    0.56618   0.56266    0.016
 6420.00    0.58374   0.55663    0.016
 6421.00    0.60322   0.54499    0.016
 6422.00    0.62762   0.53480    0.016
 6423.00    0.64551   0.53820    0.016
 6424.00    0.64914   0.55496    0.016
 6425.00    0.64375   0.56877    0.016
 6426.00    0.62121   0.57075    0.016
 6427.00    0.58222   0.56926    0.017
 6428.00    0.51592   0.57194    0.018
 6429.00    0.47520   0.57533    0.019
 6430.00    0.47166   0.57187    0.019
 6431.00    0.46996   0.55751    0.019
 6432.00    0.47063   0.53982    0.019
 6433.00    0.48437   0.53553    0.018
 6434.00    0.51285   0.54656    0.017
 6435.00    0.54741   0.55957    0.017
 6436.00    0.58801   0.56700    0.016
 6437.00    0.60613   0.56961    0.015
 6438.00    0.60455   0.56737    0.015
 6439.00    0.60738   0.55580    0.015
 6440.00    0.61363   0.53942    0.015
 6441.00    0.60701   0.53779    0.015
 6442.00    0.59165   0.55505    0.016
 6443.00    0.57548   0.57134    0.016
 6444.00    0.55884   0.57631    0.016
 6445.00    0.56631   0.57542    0.016
 6446.00    0.58630   0.57480    0.016
 6447.00    0.58069   0.57684    0.016
 6448.00    0.56358   0.57871    0.017
 6449.00    0.55852   0.57198    0.017
 6450.00    0.55811   0.54915    0.017
 6451.00    0.57168   0.52174    0.017
 6452.00    0.58985   0.51677    0.017
 6453.00    0.57986   0.53607    0.016
 6454.00    0.56210   0.55639    0.016
 6455.00    0.57062   0.56438    0.015
 6456.00    0.58509   0.55851    0.015
 6457.00    0.58575   0.54668    0.015
 6458.00    0.58392   0.54466    0.015
 6459.00    0.60726   0.55627    0.015
 6460.00    0.63411   0.56982    0.016
 6461.00    0.62680   0.57586    0.015
 6462.00    0.61607   0.57040    0.015
 6463.00    0.60556   0.55080    0.015
 6464.00    0.59507   0.53065    0.015
 6465.00    0.60582   0.53181    0.015
 6466.00    0.61722   0.54844    0.015
 6467.00    0.63646   0.56116    0.015
 6468.00    0.65530   0.56708    0.016
 6469.00    0.66300   0.56917    0.016
 6470.00    0.66622   0.56633    0.016
 6471.00    0.60595   0.56017    0.016
 6472.00    0.55098   0.55396    0.016
 6473.00    0.54523   0.55091    0.016
 6474.00    0.54586   0.55554    0.016
 6475.00    0.58972   0.56163    0.017
 6476.00    0.62424   0.55937    0.017
 6477.00    0.60980   0.55519    0.016
 6478.00    0.59900   0.55851    0.016
 6479.00    0.60363   0.56348    0.016
 6480.00    0.60754   0.56384    0.016
 6481.00    0.60897   0.56206    0.016
 6482.00    0.60567   0.55531    0.015
 6483.00    0.58851   0.54160    0.015
 6484.00    0.57692   0.53229    0.015
 6485.00    0.57928   0.53664    0.015
 6486.00    0.58541   0.54780    0.015
 6487.00    0.59969   0.55565    0.015
 6488.00    0.61092   0.55879    0.015
 6489.00    0.61642   0.56023    0.015
 6490.00    0.60854   0.55991    0.015
 6491.00    0.57881   0.55530    0.015
 6492.00    0.54909   0.54815    0.015
 6493.00    0.51937   0.54174    0.015
 6494.00    0.51369   0.53065    0.016
 6495.00    0.53830   0.50720    0.016
 6496.00    0.56216   0.48259    0.016
 6497.00    0.58517   0.47504    0.016
 6498.00    0.58312   0.48363    0.016
 6499.00    0.55652   0.49762    0.016
 6500.00    0.55310   0.50831    0.016
 6501.00    0.56973   0.51633    0.016
 6502.00    0.57182   0.52789    0.016
 6503.00    0.56283   0.53885    0.016
 6504.00    0.58028   0.54477    0.016
 6505.00    0.61541   0.54823    0.015
 6506.00    0.65135   0.55146    0.015
 6507.00    0.68777   0.55493    0.016
 6508.00    0.68150   0.55632    0.015
 6509.00    0.65341   0.55312    0.015
 6510.00    0.64839   0.54860    0.015
 6511.00    0.65356   0.54872    0.015
 6512.00    0.65105   0.55281    0.015
 6513.00    0.64562   0.55508    0.015
 6514.00    0.61481   0.55483    0.015
 6515.00    0.57581   0.55389    0.015
 6516.00    0.59503   0.54974    0.015
 6517.00    0.62999   0.54272    0.016
 6518.00    0.65610   0.53769    0.016
 6519.00    0.68027   0.53445    0.016
 6520.00    0.65225   0.53247    0.016
 6521.00    0.61504   0.53725    0.016
 6522.00    0.59074   0.54711    0.016
 6523.00    0.56818   0.55315    0.016
 6524.00    0.57483   0.55354    0.016
 6525.00    0.58427   0.55318    0.016
 6526.00    0.61169   0.55401    0.016
 6527.00    0.64017   0.55109    0.016
 6528.00    0.67811   0.54314    0.000
 6529.00    0.71600   0.53859    0.000
 6530.00    0.71070   0.54238    0.000
 6531.00    0.70428   0.54841    0.000
 6532.00    0.66941   0.54950    0.000
 6533.00    0.63567   0.54421    0.000
 6534.00    0.61710   0.53730    0.000
 6535.00    0.59954   0.53612    0.000
 6536.00    0.59104   0.54250    0.000
 6537.00    0.58403   0.54942    0.000
 6538.00    0.58678   0.54934    0.000
 6539.00    0.59008   0.54556    0.000
 6540.00    0.59619   0.54687    0.000
 6541.00    0.60515   0.55226    0.000
 6542.00    0.62588   0.55331    0.000
 6543.00    0.64352   0.54808    0.000
 6544.00    0.65058   0.54155    0.000
 6545.00    0.65624   0.53681    0.000
 6546.00    0.65785   0.53096    0.000
 6547.00    0.66326   0.52051    0.000
 6548.00    0.67801   0.51300    0.000
 6549.00    0.69671   0.51711    0.000
 6550.00    0.72376   0.52589    0.000
 6551.00    0.73499   0.52899    0.000
 6552.00    0.71711   0.52499    0.000
 6553.00    0.69058   0.51856    0.000
 6554.00    0.65016   0.51332    0.000
 6555.00    0.61394   0.50683    0.000
 6556.00    0.58368   0.49716    0.000
 6557.00    0.57954   0.48928    0.000
 6558.00    0.60785   0.48828    0.000
 6559.00    0.62891   0.49041    0.000
 6560.00    0.64202   0.48821    0.000
 6561.00    0.66015   0.47910    0.000
 6562.00    0.68313   0.45604    0.000
 6563.00    0.72209   0.40662    0.000
 6564.00    0.77467   0.35278    0.000
 6565.00    0.80010   0.35049    0.000
 6566.00    0.80517   0.40378    0.000
 6567.00    0.79172   0.45773    0.000
 6568.00    0.76606   0.48579    0.000
 6569.00    0.74485   0.49689    0.000
 6570.00    0.72622   0.49723    0.000
 6571.00    0.69566   0.49462    0.000
 6572.00    0.65909   0.49786    0.000
 6573.00    0.61535   0.50180    0.000
 6574.00    0.56847   0.49909    0.000
 6575.00    0.54494   0.49334    0.000
 6576.00    0.53012   0.49190    0.000
 6577.00    0.55586   0.49978    0.000
 6578.00    0.59445   0.51454    0.000
 6579.00    0.61187   0.52664    0.000
 6580.00    0.62369   0.53078    0.000
 6581.00    0.69172   0.52778    0.000
 6582.00    0.77191   0.52125    0.000
 6583.00    0.79819   0.51877    0.000
 6584.00    0.81523   0.52376    0.000
 6585.00    0.80998   0.52970    0.000
 6586.00    0.80184   0.53134    0.000
 6587.00    0.77883   0.52944    0.000
 6588.00    0.75447   0.52850    0.000
 6589.00    0.73992   0.53273    0.000
 6590.00    0.72592   0.53877    0.000
 6591.00    0.70225   0.54158    0.000
 6592.00    0.67856   0.53889    0.000
 6593.00    0.67390   0.52597    0.000
 6594.00    0.66962   0.50514    0.000
 6595.00    0.67408   0.49462    0.000
 6596.00    0.67679   0.50549    0.000
 6597.00    0.65719   0.52261    0.000
 6598.00    0.63624   0.52934    0.000
 6599.00    0.60366   0.52698    0.000
 6600.00    0.57962   0.52420    0.000
 6601.00    0.60986   0.52789    0.000
 6602.00    0.63040   0.53682    0.000
 6603.00    0.60261   0.54308    0.000
 6604.00    0.58098   0.54279    0.000
 6605.00    0.58421   0.53798    0.000
 6606.00    0.59145   0.53178    0.000
 6607.00    0.61213   0.52736    0.000
 6608.00    0.62681   0.52507    0.000
 6609.00    0.62453   0.52097    0.015
 6610.00    0.61392   0.51438    0.015
 6611.00    0.58317   0.51374    0.015
 6612.00    0.57511   0.52463    0.016
 6613.00    0.61441   0.53672    0.016
 6614.00    0.64265   0.53859    0.016
 6615.00    0.65085   0.53410    0.016
 6616.00    0.65934   0.53456    0.016
 6617.00    0.66829   0.54024    0.016
 6618.00    0.69721   0.54210    0.016
 6619.00    0.75392   0.53961    0.016
 6620.00    0.75433   0.53890    0.016
 6621.00    0.68578   0.54135    0.016
 6622.00    0.62847   0.54385    0.016
 6623.00    0.58330   0.54399    0.016
 6624.00    0.57805   0.54034    0.015
 6625.00    0.61084   0.53156    0.016
 6626.00    0.62697   0.52226    0.016
 6627.00    0.62911   0.52142    0.015
 6628.00    0.63406   0.52787    0.015
 6629.00    0.64110   0.53225    0.015
 6630.00    0.64743   0.53243    0.015
 6631.00    0.65332   0.53072    0.015
 6632.00    0.64285   0.52832    0.015
 6633.00    0.62308   0.52456    0.015
 6634.00    0.62792   0.51684    0.015
 6635.00    0.64494   0.50831    0.016
 6636.00    0.62331   0.50858    0.016
 6637.00    0.58515   0.51857    0.015
 6638.00    0.57430   0.52867    0.016
 6639.00    0.57347   0.53289    0.016
 6640.00    0.58150   0.53130    0.016
 6641.00    0.59229   0.52752    0.016
 6642.00    0.59156   0.52807    0.016
 6643.00    0.58785   0.53115    0.016
 6644.00    0.57788   0.52607    0.016
 6645.00    0.56659   0.51680    0.016
 6646.00    0.55494   0.51743    0.016
 6647.00    0.54324   0.52525    0.016
 6648.00    0.51689   0.52881    0.016
 6649.00    0.48871   0.52775    0.015
 6650.00    0.51645   0.52813    0.015
 6651.00    0.54906   0.53047    0.015
 6652.00    0.55717   0.53063    0.015
 6653.00    0.56403   0.52825    0.015
 6654.00    0.53531   0.52658    0.015
 6655.00    0.50629   0.52674    0.015
 6656.00    0.50089   0.52780    0.015
 6657.00    0.49902   0.52855    0.015
 6658.00    0.57154   0.52785    0.016
 6659.00    0.63877   0.52738    0.016
 6660.00    0.64229   0.52773    0.016
 6661.00    0.64519   0.52630    0.015
 6662.00    0.64288   0.52301    0.016
 6663.00    0.63650   0.51846    0.016
 6664.00    0.60503   0.51059    0.016
 6665.00    0.57260   0.50403    0.016
 6666.00    0.53552   0.50672    0.016
 6667.00    0.50227   0.51309    0.016
 6668.00    0.48406   0.51498    0.016
 6669.00    0.48216   0.51499    0.016
 6670.00    0.53375   0.51789    0.016
 6671.00    0.58351   0.52373    0.015
 6672.00    0.62816   0.52881    0.016
 6673.00    0.66436   0.53058    0.016
 6674.00    0.68044   0.53009    0.016
 6675.00    0.69581   0.52972    0.016
 6676.00    0.70973   0.53010    0.016
 6677.00    0.70544   0.52809    0.016
 6678.00    0.66862   0.51651    0.016
 6679.00    0.62308   0.49746    0.015
 6680.00    0.56390   0.48951    0.015
 6681.00    0.52795   0.50104    0.015
 6682.00    0.52389   0.51485    0.016
 6683.00    0.52343   0.51937    0.016
 6684.00    0.52733   0.52091    0.016
 6685.00    0.52237   0.52344    0.016
 6686.00    0.50797   0.52543    0.016
 6687.00    0.52602   0.52577    0.016
 6688.00    0.57455   0.52477    0.016
 6689.00    0.60772   0.52318    0.016
 6690.00    0.62819   0.52242    0.016
 6691.00    0.64211   0.52384    0.016
 6692.00    0.65126   0.52541    0.016
 6693.00    0.63433   0.52556    0.016
 6694.00    0.60071   0.52533    0.016
 6695.00    0.57193   0.52491    0.016
 6696.00    0.54586   0.52140    0.000
 6697.00    0.54681   0.51350    0.000
 6698.00    0.56092   0.50664    0.000
 6699.00    0.57574   0.50659    0.000
 6700.00    0.59086   0.51145    0.000
 6701.00    0.57515   0.51820    0.000
 6702.00    0.54835   0.52371    0.000
 6703.00    0.55247   0.52437    0.000
 6704.00    0.56601   0.52010    0.000
 6705.00    0.59080   0.51361    0.000
 6706.00    0.61844   0.51015    0.000
 6707.00    0.61403   0.51234    0.000
 6708.00    0.60303   0.51590    0.000
 6709.00    0.56851   0.51710    0.000
 6710.00    0.53018   0.51763    0.000
 6711.00    0.54071   0.51682    0.000
 6712.00    0.55716   0.51439    0.000
 6713.00    0.55379   0.51367    0.000
 6714.00    0.54879   0.51289    0.000
 6715.00    0.56223   0.50961    0.000
 6716.00    0.57654   0.50527    0.000
 6717.00    0.62525   0.49918    0.000
 6718.00    0.67335   0.49124    0.000
 6719.00    0.66026   0.48723    0.000
 6720.00    0.64469   0.49409    0.000
 6721.00    0.58070   0.50661    0.000
 6722.00    0.52264   0.51258    0.000
 6723.00    0.53251   0.51148    0.000
 6724.00    0.54250   0.51188    0.000
 6725.00    0.55339   0.51591    0.000
 6726.00    0.56243   0.51684    0.000
 6727.00    0.56030   0.51227    0.000
 6728.00    0.56183   0.50871    0.000
 6729.00    0.58063   0.51064    0.000
 6730.00    0.59931   0.51431    0.000
 6731.00    0.61757   0.51689    0.000
 6732.00    0.63289   0.51876    0.000
 6733.00    0.63878   0.51881    0.000
 6734.00    0.63876   0.51634    0.000
 6735.00    0.62259   0.51344    0.000
 6736.00    0.61331   0.51301    0.000
 6737.00    0.62013   0.51520    0.000
 6738.00    0.61653   0.51590    0.000
 6739.00    0.59186   0.51151    0.000
 6740.00    0.56944   0.50538    0.000
 6741.00    0.55097   0.50385    0.000
 6742.00    0.53056   0.50749    0.000
 6743.00    0.50715   0.50975    0.000
 6744.00    0.49013   0.50665    0.000
 6745.00    0.48177   0.50413    0.000
 6746.00    0.51269   0.50676    0.000
 6747.00    0.59036   0.50921    0.000
 6748.00    0.64487   0.50801    0.000
 6749.00    0.67506   0.50550    0.000
 6750.00    0.64611   0.50277    0.000
 6751.00    0.56240   0.50006    0.000
 6752.00    0.52624   0.50009    0.000
 6753.00    0.52888   0.50284    0.018
 6754.00    0.52512   0.50277    0.019
 6755.00    0.51676   0.50210    0.019
 6756.00    0.49664   0.50536    0.019
 6757.00    0.46912   0.50871    0.019
 6758.00    0.45150   0.51139    0.019
 6759.00    0.43933   0.51530    0.019
 6760.00    0.48904   0.51864    0.019
 6761.00    0.56841   0.52020    0.019
 6762.00    0.63932   0.52013    0.020
 6763.00    0.70674   0.51803    0.020
 6764.00    0.72947   0.51632    0.020
 6765.00    0.73640   0.51716    0.019
 6766.00    0.73134   0.51768    0.019
 6767.00    0.72269   0.51413    0.019
 6768.00    0.64747   0.50644    0.019
 6769.00    0.55576   0.50010    0.018
 6770.00    0.58288   0.50116    0.018
 6771.00    0.63386   0.50573    0.018
 6772.00    0.67281   0.50553    0.018
 6773.00    0.70988   0.50314    0.018
 6774.00    0.63554   0.50580    0.018
 6775.00    0.54820   0.51218    0.018
 6776.00    0.61648   0.51739    0.018
 6777.00    0.69703   0.52017    0.019
 6778.00    0.69847   0.52065    0.019
 6779.00    0.69646   0.51955    0.019
 6780.00    0.64574   0.51998    0.019
 6781.00    0.59567   0.52166    0.019
 6782.00    0.60014   0.52047    0.019
 6783.00    0.60647   0.51517    0.019
 6784.00    0.64655   0.50659    0.019
 6785.00    0.68019   0.49779    0.019
 6786.00    0.64339   0.49346    0.018
 6787.00    0.61185   0.49460    0.018
 6788.00    0.62078   0.49895    0.018
 6789.00    0.62604   0.50576    0.018
 6790.00    0.60990   0.51105    0.018
 6791.00    0.58505   0.51125    0.018
 6792.00    0.51990   0.51062    0.018
 6793.00    0.48388   0.51145    0.018
 6794.00    0.55803   0.50971    0.018
 6795.00    0.60860   0.50487    0.018
 6796.00    0.58474   0.50232    0.018
 6797.00    0.55779   0.50295    0.018
 6798.00    0.52258   0.50453    0.018
 6799.00    0.52522   0.50681    0.018
 6800.00    0.61481   0.50857    0.019
 6801.00    0.65163   0.50990    0.019
 6802.00    0.58349   0.51162    0.019
 6803.00    0.55416   0.51290    0.019
 6804.00    0.59206   0.51227    0.019
 6805.00    0.61413   0.50934    0.019
 6806.00    0.61219   0.50769    0.018
 6807.00    0.58538   0.50848    0.018
 6808.00    0.52544   0.50760    0.018
 6809.00    0.48706   0.50655    0.018
 6810.00    0.47401   0.50752    0.017
 6811.00    0.51497   0.50649    0.018
 6812.00    0.61183   0.50521    0.018
 6813.00    0.61905   0.50765    0.019
 6814.00    0.54442   0.50972    0.019
 6815.00    0.51318   0.50750    0.019
 6816.00    0.51684   0.50287    0.018
 6817.00    0.54789   0.50205    0.018
 6818.00    0.59832   0.50782    0.018
 6819.00    0.62181   0.51314    0.018
 6820.00    0.62858   0.51226    0.018
 6821.00    0.65019   0.50768    0.018
 6822.00    0.67986   0.50495    0.019
 6823.00    0.66229   0.50769    0.019
 6824.00    0.62245   0.51316    0.019
 6825.00    0.61092   0.51637    0.019
 6826.00    0.61090   0.51666    0.019
 6827.00    0.58371   0.51567    0.019
 6828.00    0.54708   0.51251    0.019
 6829.00    0.52477   0.50607    0.019
 6830.00    0.50663   0.50067    0.019
 6831.00    0.52038   0.50242    0.018
 6832.00    0.54184   0.50864    0.018
 6833.00    0.58162   0.51186    0.018
 6834.00    0.62498   0.51080    0.018
 6835.00    0.67104   0.51010    0.018
 6836.00    0.71751   0.51279    0.018
 6837.00    0.68369   0.51479    0.019
 6838.00    0.64085   0.51249    0.019
 6839.00    0.60340   0.50758    0.019
 6840.00    0.56636   0.50138    0.019
 6841.00    0.54763   0.49437    0.019
 6842.00    0.52962   0.48788    0.020
 6843.00    0.47975   0.48290    0.019
 6844.00    0.43324   0.48339    0.018
 6845.00    0.52927   0.49091    0.019
 6846.00    0.61511   0.50080    0.019
 6847.00    0.52866   0.50709    0.019
 6848.00    0.45365   0.50850    0.019
 6849.00    0.49820   0.50859    0.019
 6850.00    0.53037   0.50900    0.019
 6851.00    0.47059   0.50852    0.018
 6852.00    0.43102   0.50750    0.018
 6853.00    0.50598   0.50738    0.018
 6854.00    0.56037   0.50813    0.018
 6855.00    0.52195   0.50580    0.018
 6856.00    0.49162   0.49700    0.018
 6857.00    0.49122   0.48908    0.018
 6858.00    0.49013   0.49004    0.018
 6859.00    0.48692   0.49450    0.018
 6860.00    0.48481   0.49724    0.018
 6861.00    0.48561   0.49826    0.018
 6862.00    0.49520   0.49411    0.019
 6863.00    0.52463   0.48802    0.019
 6864.00    0.52029   0.49076    0.019
 6865.00    0.44986   0.50178    0.020
 6866.00    0.43435   0.50907    0.020
 6867.00    0.51258   0.50744    0.020
 6868.00    0.54674   0.50080    0.020
 6869.00    0.51505   0.49289    0.020
 6870.00    0.49809   0.48922    0.020
 6871.00    0.50050   0.49408    0.019
 6872.00    0.49323   0.50024    0.019
 6873.00    0.47475   0.49858    0.019
 6874.00    0.48374   0.49393    0.018
 6875.00    0.52077   0.49446    0.018
 6876.00    0.54665   0.49693    0.018
 6877.00    0.56250   0.49737    0.018
 6878.00    0.56598   0.49886    0.018
 6879.00    0.55964   0.50298    0.018
 6880.00    0.54588   0.50598    0.018
 6881.00    0.52696   0.50512    0.018
 6882.00    0.57479   0.50096    0.019
 6883.00    0.66346   0.49453    0.019
 6884.00    0.67685   0.48945    0.019
 6885.00    0.65001   0.49114    0.019
 6886.00    0.64438   0.49782    0.019
 6887.00    0.64858   0.50120    0.020
 6888.00    0.59628   0.50100    0.020
 6889.00    0.52140   0.50374    0.020
 6890.00    0.49047   0.50834    0.020
 6891.00    0.47451   0.51015    0.020
 6892.00    0.50634   0.51167    0.020
 6893.00    0.55186   0.51321    0.020
 6894.00    0.56430   0.51136    0.020
 6895.00    0.56891   0.50856    0.019
 6896.00    0.57612   0.50743    0.019
 6897.00    0.58384   0.50577    0.019
 6898.00    0.57898   0.50443    0.019
 6899.00    0.57226   0.50653    0.019
 6900.00    0.62660   0.50958    0.019
 6901.00    0.68753   0.50828    0.019
 6902.00    0.64194   0.50522    0.019
 6903.00    0.58882   0.50685    0.019
 6904.00    0.52886   0.51098    0.019
 6905.00    0.46866   0.51175    0.019
 6906.00    0.54230   0.50905    0.019
 6907.00    0.61411   0.50775    0.019
 6908.00    0.60723   0.51043    0.020
 6909.00    0.60313   0.51372    0.021
 6910.00    0.64324   0.51414    0.021
 6911.00    0.67557   0.51332    0.021
 6912.00    0.63007   0.51200    0.020
 6913.00    0.59057   0.50927    0.020
 6914.00    0.59425   0.50507    0.020
 6915.00    0.61075   0.49950    0.020
 6916.00    0.69793   0.49521    0.020
 6917.00    0.75455   0.49639    0.020
 6918.00    0.67637   0.49907    0.020
 6919.00    0.60038   0.50017    0.020
 6920.00    0.53238   0.50322    0.019
 6921.00    0.49996   0.50741    0.019
 6922.00    0.57569   0.51111    0.019
 6923.00    0.62627   0.51315    0.019
 6924.00    0.61185   0.51150    0.019
 6925.00    0.60854   0.50442    0.019
 6926.00    0.62991   0.49471    0.019
 6927.00    0.62551   0.48983    0.019
 6928.00    0.57142   0.49301    0.020
 6929.00    0.55082   0.50007    0.020
 6930.00    0.58649   0.50497    0.020
 6931.00    0.60272   0.50643    0.021
 6932.00    0.59032   0.50635    0.021
 6933.00    0.58599   0.50458    0.021
 6934.00    0.59209   0.49985    0.021
 6935.00    0.56900   0.49632    0.021
 6936.00    0.51261   0.49957    0.021
 6937.00    0.52173   0.50523    0.021
 6938.00    0.59677   0.50637    0.021
 6939.00    0.60180   0.50481    0.020
 6940.00    0.54472   0.50505    0.020
 6941.00    0.52151   0.50807    0.020
 6942.00    0.52480   0.51123    0.020
 6943.00    0.52883   0.51121    0.020
 6944.00    0.53337   0.50679    0.019
 6945.00    0.52823   0.49942    0.019
 6946.00    0.51726   0.49110    0.019
 6947.00    0.54780   0.48775    0.019
 6948.00    0.60019   0.49391    0.019
 6949.00    0.57409   0.50257    0.020
 6950.00    0.51219   0.50706    0.020
 6951.00    0.50646   0.50773    0.020
 6952.00    0.52280   0.50398    0.021
 6953.00    0.55760   0.49805    0.021
 6954.00    0.59857   0.49518    0.021
 6955.00    0.62513   0.49487    0.021
 6956.00    0.64765   0.49537    0.021
 6957.00    0.66316   0.49872    0.021
 6958.00    0.67706   0.50358    0.021
 6959.00    0.66717   0.50605    0.021
 6960.00    0.65287   0.50608    0.021
 6961.00    0.61219   0.50611    0.021
 6962.00    0.56773   0.50675    0.020
 6963.00    0.56712   0.50790    0.020
 6964.00    0.57105   0.50895    0.020
 6965.00    0.59493   0.50988    0.020
 6966.00    0.62015   0.50930    0.020
 6967.00    0.56584   0.50586    0.020
 6968.00    0.50898   0.50442    0.019
 6969.00    0.46836   0.50893    0.019
 6970.00    0.43108   0.51428    0.019
 6971.00    0.49557   0.51403    0.020
 6972.00    0.55592   0.50864    0.020
 6973.00    0.55437   0.50426    0.020
 6974.00    0.55546   0.50710    0.020
 6975.00    0.58186   0.51151    0.021
 6976.00    0.59951   0.50849    0.021
 6977.00    0.55633   0.50064    0.021
 6978.00    0.52473   0.49233    0.021
 6979.00    0.55534   0.48078    0.021
 6980.00    0.56918   0.46888    0.021
 6981.00    0.51077   0.46980    0.021
 6982.00    0.46084   0.48509    0.020
 6983.00    0.44102   0.50009    0.020
 6984.00    0.43554   0.50809    0.020
 6985.00    0.47283   0.51215    0.020
 6986.00    0.52036   0.51310    0.020
 6987.00    0.59388   0.51214    0.020
 6988.00    0.62652   0.51117    0.019
 6989.00    0.56978   0.50928    0.019
 6990.00    0.53773   0.50488    0.020
 6991.00    0.55253   0.50035    0.020
 6992.00    0.54771   0.50104    0.021
 6993.00    0.51039   0.50660    0.020
 6994.00    0.50093   0.51114    0.020
 6995.00    0.53189   0.51084    0.021
 6996.00    0.55819   0.50767    0.021
 6997.00    0.57856   0.50711    0.021
 6998.00    0.59813   0.50974    0.021
 6999.00    0.61681   0.51022    0.021
 7000.00    0.60757   0.50438    0.021
 7001.00    0.57063   0.49481    0.021
 7002.00    0.54256   0.49085    0.021
 7003.00    0.52224   0.49654    0.020
 7004.00    0.50942   0.50313    0.020
 7005.00    0.50239   0.50171    0.020
 7006.00    0.48556   0.49519    0.020
 7007.00    0.46210   0.49191    0.020
 7008.00    0.47241   0.49351    0.020
 7009.00    0.50277   0.49718    0.020
 7010.00    0.53278   0.50172    0.020
 7011.00    0.56261   0.50510    0.020
 7012.00    0.54311   0.50403    0.020
 7013.00    0.50147   0.50084    0.020
 7014.00    0.49062   0.50136    0.020
 7015.00    0.49165   0.50353    0.020
 7016.00    0.50671   0.49910    0.021
 7017.00    0.52637   0.48496    0.021
 7018.00    0.52529   0.47265    0.021
 7019.00    0.51851   0.47781    0.021
 7020.00    0.51077   0.49532    0.021
 7021.00    0.50282   0.50765    0.021
 7022.00    0.53005   0.51112    0.022
 7023.00    0.56364   0.50925    0.022
 7024.00    0.56073   0.50130    0.021
 7025.00    0.55277   0.49012    0.021
 7026.00    0.52937   0.48478    0.021
 7027.00    0.50444   0.48917    0.020
 7028.00    0.48442   0.49669    0.020
 7029.00    0.46470   0.50028    0.020
 7030.00    0.53073   0.50124    0.020
 7031.00    0.59864   0.50300    0.020
 7032.00    0.52171   0.50526    0.020
 7033.00    0.45017   0.50544    0.021
 7034.00    0.52664   0.50327    0.021
 7035.00    0.59566   0.50138    0.021
 7036.00    0.55999   0.50131    0.021
 7037.00    0.52814   0.50370    0.021
 7038.00    0.53150   0.50521    0.021
 7039.00    0.52905   0.49763    0.021
 7040.00    0.48743   0.48704    0.021
 7041.00    0.45173   0.49087    0.021
 7042.00    0.44697   0.50736    0.021
 7043.00    0.45068   0.52060    0.021
 7044.00    0.49000   0.52515    0.021
 7045.00    0.52989   0.52253    0.021
 7046.00    0.57171   0.51466    0.021
 7047.00    0.58525   0.50857    0.021
 7048.00    0.51600   0.51076    0.021
 7049.00    0.45731   0.51799    0.021
 7050.00    0.42498   0.52343   -2.000
 7051.00    0.43874   0.52435   -2.000
 7052.00    0.55162   0.52106   -2.000
 7053.00    0.60117   0.51279   -2.000
 7054.00    0.53244   0.49825   -2.000
 7055.00    0.52334   0.48455   -2.000
 7056.00    0.61148   0.47894   -2.000
 7057.00    0.61738   0.48064   -2.000
 7058.00    0.50562   0.48669   -2.000
 7059.00    0.46727   0.49172   -2.000
 7060.00    0.52128   0.48982   -2.000
 7061.00    0.55415   0.48142   -2.000
 7062.00    0.56359   0.47460   -2.000
 7063.00    0.62543   0.47515   -2.000
 7064.00    0.73851   0.47954   -2.000
 7065.00    0.71650   0.48373   -2.000
 7066.00    0.57797   0.48771   -2.000
 7067.00    0.50851   0.48740   -2.000
 7068.00    0.49154   0.47997   -2.000
 7069.00    0.48083   0.47004   -2.000
 7070.00    0.47431   0.46448   -2.000
 7071.00    0.51688   0.46927   -2.000
 7072.00    0.58816   0.48124   -2.000
 7073.00    0.62114   0.48978   -2.000
 7074.00    0.63461   0.49141   -2.000
 7075.00    0.58438   0.49111   -2.000
 7076.00    0.50602   0.49120   -2.000
 7077.00    0.45342   0.49022   -2.000
 7078.00    0.41057   0.48891   -2.000
 7079.00    0.39922   0.48974   -2.000
 7080.00    0.39799   0.49198   -2.000
 7081.00    0.51305   0.49361   -2.000
 7082.00    0.65942   0.49555   -2.000
 7083.00    0.68873   0.49533   -2.000
 7084.00    0.69219   0.48798   -2.000
 7085.00    0.60136   0.47429   -2.000
 7086.00    0.49396   0.46116   -2.000
 7087.00    0.49040   0.45800   -2.000
 7088.00    0.50075   0.46304   -2.000
 7089.00    0.56284   0.46472   -2.000
 7090.00    0.62984   0.46207   -2.000
 7091.00    0.65184   0.45918   -2.000
 7092.00    0.67119   0.45673   -2.000
 7093.00    0.61759   0.45740   -2.000
 7094.00    0.56232   0.45935   -2.000
 7095.00    0.52538   0.45927   -2.000
 7096.00    0.48752   0.45956   -2.000
 7097.00    0.42686   0.45998   -2.000
 7098.00    0.36952   0.46054   -2.000
 7099.00    0.35621   0.46242   -2.000
 7100.00    0.34263   0.46645   -2.000
 7101.00    0.32674   0.47165   -2.000
 7102.00    0.31733   0.47300   -2.000
 7103.00    0.35023   0.47034   -2.000
 7104.00    0.38249   0.46659   -2.000
 7105.00    0.41147   0.46652   -2.000
 7106.00    0.42152   0.47125   -2.000
 7107.00    0.35362   0.47460   -2.000
 7108.00    0.32821   0.47174   -2.000
 7109.00    0.44763   0.46740   -2.000
 7110.00    0.55121   0.46712   -2.000
 7111.00    0.60926   0.46768   -2.000
 7112.00    0.65051   0.46327   -2.000
 7113.00    0.65055   0.45774   -2.000
 7114.00    0.63634   0.45854   -2.000
 7115.00    0.59197   0.46424   -2.000
 7116.00    0.54734   0.46875   -2.000
 7117.00    0.50222   0.47062   -2.000
 7118.00    0.46127   0.47159   -2.000
 7119.00    0.42704   0.47149   -2.000
 7120.00    0.47202   0.47041   -2.000
 7121.00    0.62866   0.46935   -2.000
 7122.00    0.68577   0.46796   -2.000
 7123.00    0.61940   0.46521   -2.000
 7124.00    0.54427   0.46315   -2.000
 7125.00    0.45958   0.46593   -2.000
 7126.00    0.50120   0.46853   -2.000
 7127.00    0.66461   0.46420   -2.000
 7128.00    0.64688   0.45782   -2.000
 7129.00    0.47511   0.45685   -2.000
 7130.00    0.41021   0.45917   -2.000
 7131.00    0.42535   0.45596   -2.000
 7132.00    0.38152   0.44746   -2.000
 7133.00    0.29889   0.44424   -2.000
 7134.00    0.35057   0.45019   -2.000
 7135.00    0.47960   0.45855   -2.000
 7136.00    0.54163   0.46493   -2.000
 7137.00    0.57003   0.46749   -2.000
 7138.00    0.55913   0.46828   -2.000
 7139.00    0.53116   0.46977   -2.000
 7140.00    0.44455   0.46729   -2.000
 7141.00    0.33610   0.46222   -2.000
 7142.00    0.33807   0.46254   -2.000
 7143.00    0.37491   0.46737   -2.000
 7144.00    0.42641   0.46931   -2.000
 7145.00    0.48179   0.46788   -2.000
 7146.00    0.46568   0.46637   -2.000
 7147.00    0.43416   0.46542   -2.000
 7148.00    0.43043   0.46308   -2.000
 7149.00    0.43145   0.45503   -2.000
 7150.00    0.42288   0.44684   -2.000
 7151.00    0.41307   0.44937   -2.000
 7152.00    0.39152   0.45692   -2.000
 7153.00    0.36891   0.46273   -2.000
 7154.00    0.31697   0.46927   -2.000
 7155.00    0.26342   0.47414   -2.000
 7156.00    0.46225   0.47242   -2.000
 7157.00    0.66517   0.46798   -2.000
 7158.00    0.75924   0.46950   -2.000
 7159.00    0.83431   0.47550   -2.000
 7160.00    0.47824   0.47532   -2.000
 7161.00    0.14125   0.46900   -2.000
 7162.00    0.04460   0.46512   -2.000
 7163.00   -0.03680   0.46701   -2.000
 7164.00    0.01200   0.46956   -2.000
 7165.00    0.13769   0.46321   -2.000
 7166.00    0.75077   0.44975   -2.000
 7167.00    1.17341   0.44368   -2.000
 7168.00    0.65054   0.45225   -2.000
 7169.00    0.25091   0.46564   -2.000
 7170.00    0.34734   0.47287   -2.000
 7171.00    0.41154   0.47277   -2.000
 7172.00    0.36803   0.47085   -2.000
 7173.00    0.35981   0.47269   -2.000
 7174.00    0.45114   0.47726   -2.000
 7175.00    0.53623   0.47863   -2.000
 7176.00    0.60625   0.47553   -2.000
 7177.00    0.64360   0.46933   -2.000
 7178.00    0.61291   0.46430   -2.000
 7179.00    0.56271   0.46758   -2.000
 7180.00    0.47717   0.47331   -2.000
 7181.00    0.40345   0.46906   -2.000
 7182.00    0.34841   0.45624   -2.000
 7183.00    0.37436   0.44871   -2.000
 7184.00    0.51282   0.45538   -2.000
 7185.00    0.57149   0.46899   -2.000
 7186.00    0.53259   0.47541   -2.000
 7187.00    0.52744   0.47248   -2.000
 7188.00    0.55866   0.46327   -2.000
 7189.00    0.50546   0.45126   -2.000
 7190.00    0.37199   0.44550   -2.000
 7191.00    0.38982   0.44865   -2.000
 7192.00    0.53450   0.45633   -2.000
 7193.00    0.58999   0.46222   -2.000
 7194.00    0.57966   0.46095   -2.000
 7195.00    0.53314   0.45762   -2.000
 7196.00    0.46317   0.46016   -2.000
 7197.00    0.47801   0.46561   -2.000
 7198.00    0.54098   0.46491   -2.000
 7199.00    0.44470   0.46074   -2.000
 7200.00    0.26977   0.46213   -2.000
 7201.00    0.08847   0.46688   -2.000
 7202.00   -0.09554   0.46739   -2.000
 7203.00    0.02378   0.46336   -2.000
 7204.00    0.25409   0.46187   -2.000
 7205.00    0.40981   0.46754   -2.000
 7206.00    0.54242   0.47461   -2.000
 7207.00    0.58821   0.47320   -2.000
 7208.00    0.61158   0.45967   -2.000
 7209.00    0.60590   0.44424   -2.000
 7210.00    0.59410   0.44208   -2.000
 7211.00    0.53857   0.45180   -2.000
 7212.00    0.47578   0.46465   -2.000
 7213.00    0.34801   0.47382   -2.000
 7214.00    0.21211   0.47360   -2.000
 7215.00    0.30186   0.46733   -2.000
 7216.00    0.41114   0.46223   -2.000
 7217.00    0.46169   0.46119   -2.000
 7218.00    0.50926   0.46442   -2.000
