###################################################################
## OUTPUT of StarlightChains_v04.for    [Cid@UFSC - 01/Apr/2007] ##
###################################################################

## Some input info
KUG0210-078._50_37.txt                   [arq_obs]
Base.CB07.vall.4m                        [arq_base]
Masks.EmLines.NEW.gm                     [arq_masks]
StCv04.C11.config                        [arq_config]
   66                                    [N_base]
    0                                    [N_YAV_components = # of components with extra extinction!]
    0                                    [i_FitPowerLaw (1/0 = Yes/No)]
-9.99                                    [alpha_PowerLaw]
CCM                                      [red_law_option]
 1.458241                                [q_norm = A(l_norm)/A(V)]

## (Re)Sampling Parameters
 3741.00                                 [l_ini (A)]
 7218.00                                 [l_fin (A)]
    1.00                                 [dl    (A)]     (OBS: dl_cushion =    50.00 A)

## Normalization info
 4020.00                                 [l_norm (A) - for base]
 4010.00                                 [llow_norm (A) - window for f_obs]
 4060.00                                 [lupp_norm (A) - window for f_obs]
2.891255E-18                             [fobs_norm (in input units)]

## S/N
 3691.00                                 [llow_SN (A) - window for S/N]
 7268.00                                 [lupp_SN (A) - window for S/N]
   2.777                                 [S/N in S/N window]
   1.372                                 [S/N in norm. window]
   0.007                                 [S/N_err in S/N window]
   0.004                                 [S/N_err in norm. window]
  1.0000                                 [fscale_chi2]

## etc...
    -2007955                             [idum_orig]
  2319                                   [NOl_eff]
  2206                                   [Nl_eff]
   113    NSIGMA                         [Ntot_cliped & clip_method]
 15575350                                [Nglobal_steps]
   7                                     [N_chains]
   7                                     [NEX0s_base = N_base in EX0s-fits]
 0   0   0      113   2.0   1.364E+03    [Clip-Bug, RC-Crash & Burn-In warning-flags, n_censored_weights, wei_nsig_threshold & wei_limit]
   184    184.039    183.482      0.557  [idt_all, wdt_TotTime, wdt_UsrTime & wdt_SysTime (sec)]

## Synthesis Results - Best model ##

 2.20888E-05                             [chi2/Nl_eff]
    56.82441                             [adev (%)]

   130.00002                             [sum-of-x (%)]
 9.88163E-17                             [Flux_tot (units of input spectrum!)]
 2.33789E-12                             [Mini_tot (???)]
 1.16315E-12                             [Mcor_tot (???)]

 293.80                                  [v0_min  (km/s)]
   1.93                                  [vd_min  (km/s)]
 2.4341                                  [AV_min  (mag)]
 0.0000                                  [YAV_min (mag)]

# j     x_j(%)      Mini_j(%)     Mcor_j(%)     age_j(yr)     Z_j      (L/M)_j    YAV?  Mstars   component_j        a/Fe...       SSP_chi2r SSP_adev(%)   SSP_AV   SSP_x(%)
  1      0.0000     0.0000E+00    0.0000E+00    1.000000E+06  0.00400  1.094E-02    0   1.0000   age020_m42            0.0000     8.8695E-06    50.1060   2.3177   253.7813
  2      0.0000     0.0000E+00    0.0000E+00    3.160000E+06  0.00400  4.007E-02    0   0.9999   age045_m42            0.0000     9.1106E-06    50.4744   1.6777   262.1004
  3      0.0000     0.0000E+00    0.0000E+00    5.010000E+06  0.00400  2.539E-02    0   0.9488   age055_m42            0.0000     8.9638E-06    50.5118   1.9623   259.4073
  4      0.0000     0.0000E+00    0.0000E+00    6.610000E+06  0.00400  2.620E-02    0   0.9220   age061_m42            0.0000     9.0931E-06    50.6545   1.6083   262.2841
  5      0.0000     0.0000E+00    0.0000E+00    1.000000E+07  0.00400  1.322E-02    0   0.8862   age070_m42            0.0000     9.2846E-06    52.0064   1.3547   266.4223
  6      0.0000     0.0000E+00    0.0000E+00    1.445000E+07  0.00400  7.883E-03    0   0.8571   age078_m42            0.0000     9.1370E-06    51.4981   1.6503   262.7464
  7      0.0000     0.0000E+00    0.0000E+00    2.512000E+07  0.00400  5.251E-03    0   0.8174   age090_m42            0.0000     9.3228E-06    52.2257   1.2328   267.2931
  8      0.0000     0.0000E+00    0.0000E+00    4.000000E+07  0.00400  3.649E-03    0   0.7851   age104_m42            0.0000     9.3103E-06    52.0631   1.0171   268.2273
  9      0.0000     0.0000E+00    0.0000E+00    5.500000E+07  0.00400  3.098E-03    0   0.7629   age110_m42            0.0000     9.3066E-06    51.5058   1.1729   267.3506
 10      0.0000     0.0000E+00    0.0000E+00    1.015200E+08  0.00400  2.228E-03    0   0.7207   age116_m42            0.0000     9.3199E-06    51.3093   1.1981   266.9150
 11      0.0000     0.0000E+00    0.0000E+00    2.861200E+08  0.00400  1.093E-03    0   0.6648   age125_m42            0.0000     9.4720E-06    52.4232   0.6662   270.9662
 12      0.0000     0.0000E+00    0.0000E+00    5.088000E+08  0.00400  6.597E-04    0   0.6365   age130_m42            0.0000     9.3962E-06    51.8528   0.6594   272.2722
 13      0.0000     0.0000E+00    0.0000E+00    1.434000E+09  0.00400  2.132E-04    0   0.5798   age139_m42            0.0000     8.8914E-06    50.9647  -0.2933   275.8582
 14      0.0000     0.0000E+00    0.0000E+00    4.250000E+09  0.00400  5.895E-05    0   0.5377   age158_m42            0.0000     8.2330E-06    49.4204  -0.7771   269.0880
 15      0.0000     0.0000E+00    0.0000E+00    7.500000E+09  0.00400  3.510E-05    0   0.5212   age171_m42            0.0000     8.0752E-06    48.9861  -0.9725   267.6034
 16      0.0000     0.0000E+00    0.0000E+00    1.300000E+10  0.00400  2.005E-05    0   0.5034   age193_m42            0.0000     8.0678E-06    49.5243  -1.0000   257.5850
 17      0.0000     0.0000E+00    0.0000E+00    1.800000E+10  0.00400  1.525E-05    0   0.4967   age213_m42            0.0000     8.0805E-06    49.7268  -1.0000   255.2240
 18      0.0000     0.0000E+00    0.0000E+00    1.000000E+06  0.00800  1.238E-02    0   1.0000   age020_m52            0.0000     8.8613E-06    50.1432   2.3149   254.2230
 19      0.0000     0.0000E+00    0.0000E+00    3.160000E+06  0.00800  3.074E-02    0   0.9966   age045_m52            0.0000     8.8145E-06    50.0871   2.2418   256.0903
 20      0.0000     0.0000E+00    0.0000E+00    5.010000E+06  0.00800  2.668E-02    0   0.9443   age055_m52            0.0000     8.8634E-06    50.2714   2.0295   258.6478
 21      0.0000     0.0000E+00    0.0000E+00    6.610000E+06  0.00800  2.136E-02    0   0.9177   age061_m52            0.0000     9.0057E-06    51.7763   0.8500   270.0302
 22      0.0000     0.0000E+00    0.0000E+00    1.000000E+07  0.00800  1.215E-02    0   0.8827   age070_m52            0.0000     9.2577E-06    52.2238   1.5233   267.2089
 23      0.0000     0.0000E+00    0.0000E+00    1.445000E+07  0.00800  8.717E-03    0   0.8552   age078_m52            0.0000     9.1567E-06    51.6397   1.6275   265.3489
 24      0.0000     0.0000E+00    0.0000E+00    2.512000E+07  0.00800  5.592E-03    0   0.8162   age090_m52            0.0000     9.3146E-06    52.2756   1.3031   269.9250
 25      0.0000     0.0000E+00    0.0000E+00    4.000000E+07  0.00800  3.896E-03    0   0.7841   age104_m52            0.0000     9.2825E-06    51.9900   1.2232   270.6877
 26      0.0000     0.0000E+00    0.0000E+00    1.015200E+08  0.00800  2.148E-03    0   0.7226   age116_m52            0.0000     9.2047E-06    51.4726   1.1679   268.9842
 27      0.0000     0.0000E+00    0.0000E+00    2.861200E+08  0.00800  9.925E-04    0   0.6683   age125_m52            0.0000     9.3792E-06    51.6204   0.7244   274.9207
 28      0.0000     0.0000E+00    0.0000E+00    9.047900E+08  0.00800  3.141E-04    0   0.6138   age135_m52            0.0000     8.8832E-06    50.6079  -0.0570   283.5504
 29      0.0000     0.0000E+00    0.0000E+00    1.434000E+09  0.00800  1.719E-04    0   0.5853   age139_m52            0.0000     8.4485E-06    50.3520  -0.6575   280.0017
 30      0.0000     0.0000E+00    0.0000E+00    2.500000E+09  0.00800  7.872E-05    0   0.5600   age150_m52            0.0000     8.0689E-06    49.0704  -0.9517   274.6939
 31      0.0000     0.0000E+00    0.0000E+00    4.250000E+09  0.00800  4.336E-05    0   0.5426   age158_m52            0.0000     7.9874E-06    48.8625  -0.9756   272.8426
 32      0.0000     0.0000E+00    0.0000E+00    6.250000E+09  0.00800  3.159E-05    0   0.5319   age166_m52            0.0000     7.9624E-06    49.1975  -1.0000   261.2622
 33      0.0004     1.0243E-03    1.0445E-03    1.300000E+10  0.00800  1.361E-05    0   0.5073   age193_m52            0.0000     9.1204E-06    52.8139  -1.0000   228.0796
 34     15.3572     5.0507E+01    5.0657E+01    1.800000E+10  0.00800  9.886E-06    0   0.4990   age213_m52            0.0000     9.5572E-06    53.2902  -1.0000   219.3595
 35      0.0000     0.0000E+00    0.0000E+00    1.000000E+06  0.02000  1.544E-02    0   1.0000   age020_m62            0.0000     8.8572E-06    50.1772   2.3090   255.0212
 36      0.0000     0.0000E+00    0.0000E+00    3.160000E+06  0.02000  3.762E-02    0   0.9858   age045_m62            0.0000     8.8158E-06    50.1632   2.2469   257.3511
 37      0.0000     0.0000E+00    0.0000E+00    5.010000E+06  0.02000  3.296E-02    0   0.9342   age055_m62            0.0000     8.9765E-06    50.3395   1.9298   261.5899
 38      0.0000     9.9860E-08    1.7785E-07    8.710000E+06  0.02000  1.154E-02    0   0.8861   age067_m62            0.0000     9.7190E-06    55.2969   0.9934   275.7099
 39      0.0000     0.0000E+00    0.0000E+00    1.445000E+07  0.02000  7.663E-03    0   0.8472   age078_m62            0.0000     9.3554E-06    53.1733   1.1853   272.4821
 40      0.0000     0.0000E+00    0.0000E+00    2.512000E+07  0.02000  4.532E-03    0   0.8099   age090_m62            0.0000     9.3860E-06    53.3608   1.1839   271.0972
 41      0.0000     0.0000E+00    0.0000E+00    5.500000E+07  0.02000  2.733E-03    0   0.7595   age110_m62            0.0000     9.2049E-06    52.0779   1.2017   269.3849
 42      0.0000     0.0000E+00    0.0000E+00    1.609000E+08  0.02000  1.369E-03    0   0.6985   age120_m62            0.0000     9.3710E-06    51.7740   1.0665   272.9715
 43      0.0000     0.0000E+00    0.0000E+00    2.861200E+08  0.02000  9.013E-04    0   0.6714   age125_m62            0.0000     9.4962E-06    51.4989   0.8401   277.8795
 44      0.0000     0.0000E+00    0.0000E+00    5.088000E+08  0.02000  5.028E-04    0   0.6449   age130_m62            0.0000     9.2872E-06    50.4510   0.4698   283.4160
 45      0.0000     0.0000E+00    0.0000E+00    9.047900E+08  0.02000  2.428E-04    0   0.6179   age135_m62            0.0000     8.5473E-06    49.6001  -0.1334   283.2704
 46      0.0000     0.0000E+00    0.0000E+00    1.434000E+09  0.02000  1.263E-04    0   0.5908   age139_m62            0.0000     8.1414E-06    49.1058  -0.5956   280.9524
 47      0.0000     0.0000E+00    0.0000E+00    2.500000E+09  0.02000  5.985E-05    0   0.5673   age150_m62            0.0000     7.8833E-06    48.4778  -0.9830   278.7349
 48      0.0000     0.0000E+00    0.0000E+00    4.250000E+09  0.02000  3.271E-05    0   0.5468   age158_m62            0.0000     7.9844E-06    49.3739  -1.0000   257.4877
 49      0.0000     0.0000E+00    0.0000E+00    1.000000E+10  0.02000  1.360E-05    0   0.5167   age181_m62            0.0000     8.9222E-06    51.5599  -1.0000   232.3209
 50      0.2094     9.5589E-01    9.6315E-01    1.800000E+10  0.02000  7.124E-06    0   0.5013   age213_m62            0.0000     9.9524E-06    53.0005  -1.0000   215.7057
 51    107.6934     1.3509E-01    2.7147E-01    1.000000E+06  0.05000  2.592E-02    0   0.9998   age020_m72            0.0000     8.8201E-06    50.2262   2.2948   255.7069
 52      0.0000     0.0000E+00    0.0000E+00    3.160000E+06  0.05000  4.845E-02    0   0.9577   age045_m72            0.0000     8.8118E-06    50.0964   2.1500   258.5443
 53      0.0000     0.0000E+00    0.0000E+00    5.010000E+06  0.05000  3.072E-02    0   0.9147   age055_m72            0.0000     9.0793E-06    52.0192   1.7206   266.0475
 54      0.0000     0.0000E+00    0.0000E+00    6.610000E+06  0.05000  1.455E-02    0   0.8877   age061_m72            0.0000     1.0203E-05    57.1053   1.0355   278.2158
 55      0.0000     0.0000E+00    0.0000E+00    1.000000E+07  0.05000  9.074E-03    0   0.8524   age070_m72            0.0000     9.1717E-06    52.2933   1.8942   265.4240
 56      0.0000     0.0000E+00    0.0000E+00    2.512000E+07  0.05000  4.250E-03    0   0.7902   age090_m72            0.0000     9.2430E-06    52.3268   1.6385   266.3808
 57      0.0000     0.0000E+00    0.0000E+00    4.000000E+07  0.05000  3.087E-03    0   0.7618   age104_m72            0.0000     9.3820E-06    52.8132   1.4347   268.5992
 58      0.0000     0.0000E+00    0.0000E+00    1.015200E+08  0.05000  1.700E-03    0   0.7096   age116_m72            0.0000     9.4409E-06    52.1506   1.2091   272.0971
 59      0.0000     0.0000E+00    0.0000E+00    2.861200E+08  0.05000  7.384E-04    0   0.6633   age125_m72            0.0000     9.3304E-06    50.9694   0.7066   281.3134
 60      0.0000     0.0000E+00    0.0000E+00    5.088000E+08  0.05000  3.819E-04    0   0.6372   age130_m72            0.0000     8.7652E-06    50.0053   0.2044   286.4106
 61      0.0000     0.0000E+00    0.0000E+00    9.047900E+08  0.05000  1.676E-04    0   0.6110   age135_m72            0.0000     7.9839E-06    48.4257  -0.5301   284.4965
 62      0.0000     0.0000E+00    0.0000E+00    1.434000E+09  0.05000  8.837E-05    0   0.5874   age139_m72            0.0000     7.7881E-06    48.2279  -0.9876   282.9957
 63      0.0000     0.0000E+00    0.0000E+00    2.500000E+09  0.05000  4.233E-05    0   0.5598   age150_m72            0.0000     7.9446E-06    49.1119  -1.0000   259.7522
 64      0.0000     0.0000E+00    0.0000E+00    6.250000E+09  0.05000  1.435E-05    0   0.5249   age166_m72            0.0000     9.3831E-06    52.4196  -1.0000   224.6850
 65      0.0014     6.9637E-03    7.0488E-03    1.300000E+10  0.05000  6.513E-06    0   0.5036   age193_m72            0.0000     1.1075E-05    54.4514  -1.0000   206.5942
 66      6.7381     4.8394E+01    4.8100E+01    1.800000E+10  0.05000  4.527E-06    0   0.4945   age213_m72            0.0000     1.2276E-05    55.3950  -1.0000   194.6114


## Synthesis Results - Average & Chains ##

# j      x_j: min, <> & last-chain-values for 1 ...  7 chains
  1      0.0000      0.0001      0.0000      0.0000      0.0004      0.0000      0.0000      0.0000      0.0000
  2      0.0000      0.0000      0.0000      0.0000      0.0000      0.0000      0.0000      0.0000      0.0000
  3      0.0000      0.0000      0.0000      0.0000      0.0000      0.0000      0.0000      0.0000      0.0000
  4      0.0000      0.0000      0.0000      0.0000      0.0000      0.0000      0.0000      0.0000      0.0000
  5      0.0000      0.0000      0.0000      0.0000      0.0000      0.0000      0.0000      0.0000      0.0000
  6      0.0000      0.0000      0.0000      0.0000      0.0000      0.0000      0.0000      0.0000      0.0000
  7      0.0000      0.0000      0.0000      0.0000      0.0000      0.0000      0.0000      0.0000      0.0000
  8      0.0000      0.0000      0.0000      0.0000      0.0000      0.0000      0.0000      0.0000      0.0000
  9      0.0000      0.0000      0.0000      0.0000      0.0000      0.0000      0.0000      0.0000      0.0000
 10      0.0000      0.0000      0.0000      0.0000      0.0000      0.0000      0.0000      0.0000      0.0000
 11      0.0000      0.0000      0.0000      0.0000      0.0000      0.0000      0.0000      0.0000      0.0000
 12      0.0000      0.0000      0.0000      0.0000      0.0000      0.0000      0.0000      0.0000      0.0000
 13      0.0000      0.0000      0.0000      0.0000      0.0000      0.0000      0.0000      0.0000      0.0000
 14      0.0000      0.0000      0.0000      0.0000      0.0000      0.0000      0.0000      0.0000      0.0000
 15      0.0000      0.0000      0.0000      0.0000      0.0000      0.0000      0.0000      0.0000      0.0000
 16      0.0000      0.0000      0.0000      0.0001      0.0000      0.0000      0.0000      0.0000      0.0000
 17      0.0000      0.0000      0.0000      0.0000      0.0000      0.0000      0.0000      0.0000      0.0000
 18      0.0000      0.0000      0.0000      0.0000      0.0000      0.0001      0.0000      0.0000      0.0000
 19      0.0000      0.0001      0.0005      0.0000      0.0000      0.0000      0.0001      0.0000      0.0000
 20      0.0000      0.0000      0.0000      0.0000      0.0000      0.0000      0.0000      0.0000      0.0000
 21      0.0000      0.0000      0.0000      0.0001      0.0000      0.0002      0.0000      0.0000      0.0000
 22      0.0000      0.0000      0.0000      0.0000      0.0000      0.0000      0.0000      0.0000      0.0000
 23      0.0000      0.0000      0.0000      0.0000      0.0000      0.0000      0.0000      0.0000      0.0000
 24      0.0000      0.0000      0.0000      0.0000      0.0000      0.0000      0.0000      0.0000      0.0000
 25      0.0000      0.0000      0.0000      0.0000      0.0000      0.0000      0.0000      0.0000      0.0000
 26      0.0000      0.0000      0.0000      0.0000      0.0000      0.0000      0.0000      0.0000      0.0000
 27      0.0000      0.0000      0.0000      0.0000      0.0000      0.0000      0.0000      0.0000      0.0000
 28      0.0000      0.0000      0.0000      0.0000      0.0000      0.0000      0.0000      0.0000      0.0000
 29      0.0000      0.0000      0.0000      0.0000      0.0000      0.0000      0.0000      0.0000      0.0000
 30      0.0000      0.0000      0.0000      0.0000      0.0000      0.0000      0.0000      0.0000      0.0000
 31      0.0000      0.0000      0.0000      0.0000      0.0000      0.0000      0.0000      0.0000      0.0000
 32      0.0000      0.0000      0.0000      0.0000      0.0000      0.0000      0.0000      0.0000      0.0000
 33      0.0004      0.0001      0.0000      0.0000      0.0002      0.0000      0.0000      0.0000      0.0004
 34     15.3572     17.4127     16.3617     16.3485     23.8029     16.3395     17.4457     16.2335     15.3572
 35      0.0000      0.0002      0.0000      0.0000      0.0004      0.0000      0.0000      0.0009      0.0000
 36      0.0000      0.0001      0.0000      0.0000      0.0000      0.0000      0.0001      0.0007      0.0000
 37      0.0000      0.0000      0.0000      0.0000      0.0000      0.0000      0.0000      0.0000      0.0000
 38      0.0000      0.0000      0.0000      0.0000      0.0000      0.0002      0.0000      0.0000      0.0000
 39      0.0000      0.0000      0.0000      0.0000      0.0000      0.0000      0.0000      0.0000      0.0000
 40      0.0000      0.0000      0.0000      0.0000      0.0000      0.0000      0.0000      0.0000      0.0000
 41      0.0000      0.0000      0.0000      0.0000      0.0000      0.0000      0.0000      0.0000      0.0000
 42      0.0000      0.0000      0.0000      0.0000      0.0000      0.0000      0.0000      0.0000      0.0000
 43      0.0000      0.0000      0.0000      0.0000      0.0000      0.0000      0.0000      0.0000      0.0000
 44      0.0000      0.0000      0.0000      0.0000      0.0000      0.0000      0.0000      0.0000      0.0000
 45      0.0000      0.0000      0.0000      0.0000      0.0000      0.0000      0.0000      0.0000      0.0000
 46      0.0000      0.0000      0.0000      0.0000      0.0000      0.0000      0.0000      0.0000      0.0000
 47      0.0000      0.0000      0.0000      0.0000      0.0000      0.0000      0.0000      0.0000      0.0000
 48      0.0000      0.0000      0.0000      0.0001      0.0000      0.0000      0.0000      0.0000      0.0000
 49      0.0000      0.0000      0.0000      0.0000      0.0000      0.0000      0.0000      0.0000      0.0000
 50      0.2094      0.0732      0.0018      0.0572      0.0000      0.0017      0.0016      0.2404      0.2094
 51    107.6934    107.2346    107.4219    107.3303    106.1926    107.4385    107.1764    107.3890    107.6933
 52      0.0000      0.0000      0.0000      0.0000      0.0000      0.0001      0.0001      0.0000      0.0000
 53      0.0000      0.0000      0.0000      0.0000      0.0000      0.0000      0.0000      0.0000      0.0000
 54      0.0000      0.0001      0.0000      0.0000      0.0000      0.0005      0.0000      0.0000      0.0000
 55      0.0000      0.0000      0.0000      0.0000      0.0000      0.0000      0.0000      0.0000      0.0000
 56      0.0000      0.0000      0.0000      0.0000      0.0000      0.0000      0.0000      0.0000      0.0000
 57      0.0000      0.0000      0.0000      0.0000      0.0000      0.0000      0.0000      0.0000      0.0000
 58      0.0000      0.0000      0.0000      0.0000      0.0000      0.0000      0.0000      0.0000      0.0000
 59      0.0000      0.0000      0.0000      0.0000      0.0000      0.0000      0.0000      0.0000      0.0000
 60      0.0000      0.0000      0.0000      0.0000      0.0000      0.0000      0.0000      0.0000      0.0000
 61      0.0000      0.0000      0.0000      0.0000      0.0000      0.0000      0.0000      0.0000      0.0000
 62      0.0000      0.0000      0.0000      0.0000      0.0000      0.0000      0.0000      0.0000      0.0000
 63      0.0000      0.0000      0.0000      0.0000      0.0000      0.0000      0.0000      0.0000      0.0000
 64      0.0000      0.0001      0.0000      0.0006      0.0001      0.0000      0.0000      0.0003      0.0000
 65      0.0014      0.0006      0.0000      0.0015      0.0002      0.0001      0.0008      0.0003      0.0014
 66      6.7381      5.2779      6.2140      6.2612      0.0030      6.2191      5.3752      6.1348      6.7381

# j      m_j: min, <> & last-chain-values for 1 ...  7 chains
  1  0.0000E+00  4.1512E-07  0.0000E+00  2.4391E-07  3.2227E-06  0.0000E+00  0.0000E+00  0.0000E+00  0.0000E+00
  2  0.0000E+00  3.7711E-09  0.0000E+00  0.0000E+00  0.0000E+00  0.0000E+00  0.0000E+00  0.0000E+00  2.5269E-08
  3  0.0000E+00  0.0000E+00  0.0000E+00  0.0000E+00  0.0000E+00  0.0000E+00  0.0000E+00  0.0000E+00  0.0000E+00
  4  0.0000E+00  4.8248E-09  0.0000E+00  0.0000E+00  0.0000E+00  0.0000E+00  3.3607E-08  0.0000E+00  0.0000E+00
  5  0.0000E+00  0.0000E+00  0.0000E+00  0.0000E+00  0.0000E+00  0.0000E+00  0.0000E+00  0.0000E+00  0.0000E+00
  6  0.0000E+00  4.8367E-08  0.0000E+00  3.2682E-07  0.0000E+00  0.0000E+00  0.0000E+00  0.0000E+00  0.0000E+00
  7  0.0000E+00  5.3850E-08  0.0000E+00  3.6387E-07  0.0000E+00  0.0000E+00  0.0000E+00  0.0000E+00  0.0000E+00
  8  0.0000E+00  7.1960E-08  0.0000E+00  4.8624E-07  0.0000E+00  0.0000E+00  0.0000E+00  0.0000E+00  0.0000E+00
  9  0.0000E+00  0.0000E+00  0.0000E+00  0.0000E+00  0.0000E+00  0.0000E+00  0.0000E+00  0.0000E+00  0.0000E+00
 10  0.0000E+00  0.0000E+00  0.0000E+00  0.0000E+00  0.0000E+00  0.0000E+00  0.0000E+00  0.0000E+00  0.0000E+00
 11  0.0000E+00  0.0000E+00  0.0000E+00  0.0000E+00  0.0000E+00  0.0000E+00  0.0000E+00  0.0000E+00  0.0000E+00
 12  0.0000E+00  5.9694E-08  0.0000E+00  4.0336E-07  0.0000E+00  0.0000E+00  0.0000E+00  0.0000E+00  0.0000E+00
 13  0.0000E+00  0.0000E+00  0.0000E+00  0.0000E+00  0.0000E+00  0.0000E+00  0.0000E+00  0.0000E+00  0.0000E+00
 14  0.0000E+00  7.7531E-06  0.0000E+00  2.5656E-05  0.0000E+00  0.0000E+00  2.7557E-05  0.0000E+00  0.0000E+00
 15  0.0000E+00  5.5746E-06  0.0000E+00  0.0000E+00  0.0000E+00  3.7895E-05  0.0000E+00  0.0000E+00  0.0000E+00
 16  0.0000E+00  1.8201E-05  0.0000E+00  1.2299E-04  0.0000E+00  0.0000E+00  0.0000E+00  0.0000E+00  0.0000E+00
 17  0.0000E+00  1.3938E-05  0.0000E+00  9.4182E-05  0.0000E+00  0.0000E+00  0.0000E+00  0.0000E+00  0.0000E+00
 18  0.0000E+00  9.4224E-08  0.0000E+00  2.1823E-07  0.0000E+00  4.2097E-07  0.0000E+00  0.0000E+00  0.0000E+00
 19  0.0000E+00  2.2928E-07  1.1707E-06  8.0252E-08  0.0000E+00  0.0000E+00  3.1426E-07  0.0000E+00  0.0000E+00
 20  0.0000E+00  0.0000E+00  0.0000E+00  0.0000E+00  0.0000E+00  0.0000E+00  0.0000E+00  0.0000E+00  0.0000E+00
 21  0.0000E+00  1.0918E-07  0.0000E+00  1.4889E-07  0.0000E+00  5.0267E-07  0.0000E+00  8.9592E-08  0.0000E+00
 22  0.0000E+00  0.0000E+00  0.0000E+00  0.0000E+00  0.0000E+00  0.0000E+00  0.0000E+00  0.0000E+00  0.0000E+00
 23  0.0000E+00  0.0000E+00  0.0000E+00  0.0000E+00  0.0000E+00  0.0000E+00  0.0000E+00  0.0000E+00  0.0000E+00
 24  0.0000E+00  0.0000E+00  0.0000E+00  0.0000E+00  0.0000E+00  0.0000E+00  0.0000E+00  0.0000E+00  0.0000E+00
 25  0.0000E+00  9.6381E-08  0.0000E+00  0.0000E+00  8.1949E-07  0.0000E+00  0.0000E+00  0.0000E+00  0.0000E+00
 26  0.0000E+00  0.0000E+00  0.0000E+00  0.0000E+00  0.0000E+00  0.0000E+00  0.0000E+00  0.0000E+00  0.0000E+00
 27  0.0000E+00  0.0000E+00  0.0000E+00  0.0000E+00  0.0000E+00  0.0000E+00  0.0000E+00  0.0000E+00  0.0000E+00
 28  0.0000E+00  0.0000E+00  0.0000E+00  0.0000E+00  0.0000E+00  0.0000E+00  0.0000E+00  0.0000E+00  0.0000E+00
 29  0.0000E+00  0.0000E+00  0.0000E+00  0.0000E+00  0.0000E+00  0.0000E+00  0.0000E+00  0.0000E+00  0.0000E+00
 30  0.0000E+00  7.3193E-07  0.0000E+00  0.0000E+00  0.0000E+00  4.9725E-06  3.1196E-09  0.0000E+00  0.0000E+00
 31  0.0000E+00  0.0000E+00  0.0000E+00  0.0000E+00  0.0000E+00  0.0000E+00  0.0000E+00  0.0000E+00  0.0000E+00
 32  0.0000E+00  3.0918E-06  0.0000E+00  2.0892E-05  0.0000E+00  0.0000E+00  0.0000E+00  0.0000E+00  0.0000E+00
 33  1.0445E-03  2.3243E-04  0.0000E+00  0.0000E+00  6.5094E-04  0.0000E+00  0.0000E+00  0.0000E+00  1.0445E-03
 34  5.0657E+01  6.0003E+01  5.4732E+01  5.4381E+01  9.9631E+01  5.4679E+01  5.9821E+01  5.4242E+01  5.0657E+01
 35  0.0000E+00  8.4119E-07  0.0000E+00  1.3592E-07  1.9395E-06  0.0000E+00  0.0000E+00  4.0248E-06  0.0000E+00
 36  0.0000E+00  2.0727E-07  0.0000E+00  0.0000E+00  0.0000E+00  0.0000E+00  1.8565E-07  1.2064E-06  1.9273E-08
 37  0.0000E+00  5.4386E-09  0.0000E+00  3.6749E-08  0.0000E+00  0.0000E+00  0.0000E+00  0.0000E+00  0.0000E+00
 38  1.7785E-07  1.4789E-07  0.0000E+00  0.0000E+00  0.0000E+00  8.2490E-07  0.0000E+00  0.0000E+00  1.7785E-07
 39  0.0000E+00  5.2018E-08  0.0000E+00  5.7646E-08  3.6975E-07  0.0000E+00  0.0000E+00  0.0000E+00  0.0000E+00
 40  0.0000E+00  1.9603E-08  0.0000E+00  1.3246E-07  0.0000E+00  0.0000E+00  0.0000E+00  0.0000E+00  0.0000E+00
 41  0.0000E+00  0.0000E+00  0.0000E+00  0.0000E+00  0.0000E+00  0.0000E+00  0.0000E+00  0.0000E+00  0.0000E+00
 42  0.0000E+00  0.0000E+00  0.0000E+00  0.0000E+00  0.0000E+00  0.0000E+00  0.0000E+00  0.0000E+00  0.0000E+00
 43  0.0000E+00  0.0000E+00  0.0000E+00  0.0000E+00  0.0000E+00  0.0000E+00  0.0000E+00  0.0000E+00  0.0000E+00
 44  0.0000E+00  1.9776E-08  0.0000E+00  1.3363E-07  0.0000E+00  0.0000E+00  0.0000E+00  0.0000E+00  0.0000E+00
 45  0.0000E+00  0.0000E+00  0.0000E+00  0.0000E+00  0.0000E+00  0.0000E+00  0.0000E+00  0.0000E+00  0.0000E+00
 46  0.0000E+00  4.0538E-07  0.0000E+00  0.0000E+00  0.0000E+00  2.7557E-06  0.0000E+00  0.0000E+00  0.0000E+00
 47  0.0000E+00  0.0000E+00  0.0000E+00  0.0000E+00  0.0000E+00  0.0000E+00  0.0000E+00  0.0000E+00  0.0000E+00
 48  0.0000E+00  8.3787E-06  0.0000E+00  5.6616E-05  0.0000E+00  0.0000E+00  0.0000E+00  0.0000E+00  0.0000E+00
 49  0.0000E+00  0.0000E+00  0.0000E+00  0.0000E+00  0.0000E+00  0.0000E+00  0.0000E+00  0.0000E+00  0.0000E+00
 50  9.6315E-01  3.5142E-01  8.3815E-03  2.6505E-01  0.0000E+00  7.9592E-03  7.4105E-03  1.1199E+00  9.6315E-01
 51  2.7147E-01  2.8238E-01  2.7460E-01  2.7283E-01  3.3967E-01  2.7475E-01  2.8084E-01  2.7421E-01  2.7147E-01
 52  0.0000E+00  3.1078E-08  0.0000E+00  1.9398E-08  0.0000E+00  9.4642E-08  9.9499E-08  0.0000E+00  0.0000E+00
 53  0.0000E+00  0.0000E+00  0.0000E+00  0.0000E+00  0.0000E+00  0.0000E+00  0.0000E+00  0.0000E+00  0.0000E+00
 54  0.0000E+00  3.2214E-07  0.0000E+00  1.5757E-07  0.0000E+00  2.0313E-06  0.0000E+00  0.0000E+00  0.0000E+00
 55  0.0000E+00  0.0000E+00  0.0000E+00  0.0000E+00  0.0000E+00  0.0000E+00  0.0000E+00  0.0000E+00  0.0000E+00
 56  0.0000E+00  3.1669E-08  0.0000E+00  2.1399E-07  0.0000E+00  0.0000E+00  0.0000E+00  0.0000E+00  0.0000E+00
 57  0.0000E+00  9.5622E-09  0.0000E+00  6.4613E-08  0.0000E+00  0.0000E+00  0.0000E+00  0.0000E+00  0.0000E+00
 58  0.0000E+00  1.4599E-07  0.0000E+00  0.0000E+00  0.0000E+00  9.9238E-07  0.0000E+00  0.0000E+00  0.0000E+00
 59  0.0000E+00  0.0000E+00  0.0000E+00  0.0000E+00  0.0000E+00  0.0000E+00  0.0000E+00  0.0000E+00  0.0000E+00
 60  0.0000E+00  6.2840E-08  0.0000E+00  4.2461E-07  0.0000E+00  0.0000E+00  0.0000E+00  0.0000E+00  0.0000E+00
 61  0.0000E+00  0.0000E+00  0.0000E+00  0.0000E+00  0.0000E+00  0.0000E+00  0.0000E+00  0.0000E+00  0.0000E+00
 62  0.0000E+00  0.0000E+00  0.0000E+00  0.0000E+00  0.0000E+00  0.0000E+00  0.0000E+00  0.0000E+00  0.0000E+00
 63  0.0000E+00  9.0653E-06  0.0000E+00  2.1971E-05  3.2515E-05  0.0000E+00  1.3859E-05  0.0000E+00  0.0000E+00
 64  0.0000E+00  3.6623E-04  0.0000E+00  1.4224E-03  3.0637E-04  0.0000E+00  0.0000E+00  8.1247E-04  0.0000E+00
 65  7.0488E-03  3.2766E-03  0.0000E+00  7.7909E-03  1.3277E-03  6.3756E-04  3.9649E-03  1.7140E-03  7.0488E-03
 66  4.8100E+01  3.9359E+01  4.4985E+01  4.5072E+01  2.7250E-02  4.5038E+01  3.9887E+01  4.4361E+01  4.8100E+01

# AV, chi2 & Mass for <> & i_chain = 1 ...  7 solutions
AV       2.4341      3.2826      2.9367      2.9349      3.8000      3.8000      2.9374      2.9349      2.9341
chi2 2.2089E-05  3.9699E-05  2.8572E-05  2.8637E-05  7.4055E-05  7.5055E-05  2.8625E-05  2.8549E-05  2.8376E-05
Mass 1.1631E-12  3.4799E-12  2.2529E-12  2.2599E-12  5.7402E-12  7.1798E-12  2.1997E-12  2.2498E-12  2.2766E-12
 293.80                                  [v0_min (km/s) before EX0s...]
   1.93                                  [vd_min (km/s) before EX0s...]


## Synthetic spectrum (Best Model) ##l_obs f_obs f_syn wei
 3478    [Nl_obs]
 3741.00    2.69823   1.08467    0.000
 3742.00    1.42549   1.13171    0.000
 3743.00   -1.11232   1.16850    0.000
 3744.00   -2.25808   1.18952    0.000
 3745.00   -2.59276   1.19498    0.000
 3746.00   -1.59864   1.18613    0.000
 3747.00    0.07023   1.16959   -1.000
 3748.00   -0.14621   1.14948    0.000
 3749.00   -1.19168   1.12564    0.000
 3750.00   -0.71120   1.10113    0.000
 3751.00    0.34537   1.06877   -1.000
 3752.00    1.38769   1.01580   -1.000
 3753.00    2.42544   0.96481   -1.000
 3754.00    1.91783   0.96224   -1.000
 3755.00    0.99609   1.01547   -1.000
 3756.00    0.99074   1.07728   -1.000
 3757.00    1.18653   1.10551   -1.000
 3758.00    1.47903   1.11018   -1.000
 3759.00    1.78841   1.12634   -1.000
 3760.00   -0.09245   1.13518    0.000
 3761.00   -2.26425   1.11623    0.000
 3762.00   -1.15668   1.09956    0.000
 3763.00    0.25908   1.08696   -1.000
 3764.00   -0.05278   1.10082    0.000
 3765.00   -0.46430   1.14408    0.000
 3766.00   -1.19480   1.16395    0.000
 3767.00   -1.92597   1.16586    0.000
 3768.00   -1.82043   1.17022    0.000
 3769.00   -1.72394   1.16307    0.000
 3770.00   -1.84747   1.13645    0.000
 3771.00   -1.99530   1.10388    0.000
 3772.00   -2.46144   1.06778    0.000
 3773.00   -2.60237   1.01239    0.000
 3774.00    0.11173   0.96193   -1.000
 3775.00    2.65978   0.97146   -1.000
 3776.00    4.13119   1.03074   -1.000
 3777.00    5.14356   1.07905   -1.000
 3778.00    3.83263   1.11443   -1.000
 3779.00    2.49134   1.15710   -1.000
 3780.00    1.02575   1.18858   -1.000
 3781.00   -0.35020   1.20214    0.000
 3782.00   -1.42212   1.21245    0.000
 3783.00   -1.73615   1.22624    0.000
 3784.00    0.11743   1.23787   -1.000
 3785.00    1.12240   1.24154   -1.000
 3786.00    0.05398   1.24218   -1.000
 3787.00   -1.41388   1.24613    0.000
 3788.00   -3.72364   1.24663    0.000
 3789.00   -4.36549   1.23353    0.000
 3790.00   -1.95224   1.21442    0.000
 3791.00   -0.82837   1.20287    0.000
 3792.00   -1.76849   1.19579    0.000
 3793.00   -2.30755   1.18332    0.000
 3794.00   -2.28326   1.16088    0.000
 3795.00   -1.52272   1.14238    0.000
 3796.00    0.14786   1.14111   -1.000
 3797.00    1.02605   1.13343   -1.000
 3798.00    1.04094   1.10036   -1.000
 3799.00   -0.85255   1.04851    0.000
 3800.00   -4.57998   0.97715    0.000
 3801.00   -6.78223   0.90394    0.000
 3802.00   -7.69206   0.88673    0.000
 3803.00   -7.05434   0.95128    0.000
 3804.00   -5.26180   1.04403    0.000
 3805.00   -3.99071   1.11373    0.000
 3806.00   -3.06146   1.15784    0.000
 3807.00   -0.70044   1.18771    0.000
 3808.00    2.48219   1.20365   -1.000
 3809.00    2.12883   1.20451   -1.000
 3810.00    0.00811   1.19773   -1.000
 3811.00   -0.90201   1.19831    0.000
 3812.00   -1.28862   1.21217    0.000
 3813.00   -2.29314   1.22516    0.000
 3814.00   -3.52681   1.22777    0.000
 3815.00   -2.81013   1.22303    0.000
 3816.00   -1.48033   1.21271    0.000
 3817.00   -0.39851   1.19869    0.000
 3818.00    0.61827   1.18846   -1.000
 3819.00    0.76142   1.18257   -1.000
 3820.00    0.71740   1.18058   -1.000
 3821.00   -0.83326   1.17828    0.000
 3822.00   -2.63960   1.15109    0.000
 3823.00   -2.99675   1.10408    0.000
 3824.00   -3.16794   1.09644    0.000
 3825.00   -1.89953   1.13875    0.000
 3826.00   -0.50189   1.17676    0.000
 3827.00   -1.07412   1.18475    0.000
 3828.00   -1.75224   1.17268    0.000
 3829.00   -2.53168   1.15976    0.000
 3830.00   -3.29225   1.15484    0.000
 3831.00   -2.28828   1.15264    0.000
 3832.00   -1.32021   1.14714    0.000
 3833.00   -1.14974   1.13739    0.000
 3834.00   -1.00245   1.12108    0.000
 3835.00   -1.14360   1.08925    0.000
 3836.00   -1.21840   1.03707    0.000
 3837.00   -0.73239   0.96653    0.000
 3838.00   -0.43775   0.88520    0.000
 3839.00   -1.34707   0.83836    0.000
 3840.00   -2.09217   0.87166    0.000
 3841.00   -2.02707   0.95055    0.000
 3842.00   -1.71937   1.01785    0.000
 3843.00   -0.44054   1.06625    0.000
 3844.00    0.43927   1.10184   -1.000
 3845.00   -0.00746   1.13330    0.000
 3846.00   -0.69778   1.16318    0.000
 3847.00   -2.07210   1.18278    0.000
 3848.00   -2.60721   1.19153    0.000
 3849.00   -1.12665   1.19480    0.000
 3850.00   -0.72999   1.19818    0.000
 3851.00   -2.58124   1.20281    0.000
 3852.00   -3.10790   1.20154    0.000
 3853.00   -1.24549   1.19231    0.000
 3854.00    0.44376   1.18684    0.000
 3855.00    1.85992   1.19484    0.000
 3856.00    2.01570   1.20417    0.000
 3857.00    0.42665   1.20191    0.000
 3858.00   -0.31739   1.19400    0.000
 3859.00   -0.03178   1.18411    0.000
 3860.00   -0.35005   1.17346    0.000
 3861.00   -1.31699   1.16767    0.000
 3862.00   -2.27498   1.16243    0.000
 3863.00   -3.22448   1.15705    0.000
 3864.00   -2.60448   1.16074    0.000
 3865.00   -0.67330   1.17657    0.000
 3866.00    0.81086   1.19421    0.000
 3867.00    1.96623   1.20092    0.000
 3868.00    1.62586   1.19662    0.000
 3869.00    0.31935   1.19155    0.000
 3870.00   -0.61536   1.18886    0.000
 3871.00   -1.33996   1.18490    0.000
 3872.00   -1.09944   1.18541    0.000
 3873.00   -0.38418   1.18832    0.000
 3874.00    0.37448   1.18038    0.000
 3875.00    1.15160   1.16414    0.000
 3876.00    1.29784   1.15659    0.000
 3877.00    1.21429   1.16820    0.000
 3878.00    1.21729   1.18654    0.000
 3879.00    1.24697   1.19028    0.000
 3880.00    2.39183   1.18302    0.000
 3881.00    3.82297   1.17390   -1.000
 3882.00    3.56215   1.16560   -1.000
 3883.00    2.94761   1.16485   -1.000
 3884.00    1.36245   1.16574   -1.000
 3885.00   -0.38276   1.15312    0.000
 3886.00    0.24355   1.13407   -1.000
 3887.00    1.16355   1.12521   -1.000
 3888.00    2.23828   1.11484   -1.000
 3889.00    3.32626   1.07341   -1.000
 3890.00    2.24666   1.00650   -1.000
 3891.00    1.05902   0.93276   -1.000
 3892.00    2.13383   0.85360   -1.000
 3893.00    3.20161   0.82536   -1.000
 3894.00    1.42255   0.89767   -1.000
 3895.00   -0.22838   1.00888    0.000
 3896.00    0.74143   1.08844   -1.000
 3897.00    1.61010   1.13370   -1.000
 3898.00    1.28277   1.15729   -1.000
 3899.00    0.86442   1.16927   -1.000
 3900.00   -0.29542   1.18479    0.000
 3901.00   -1.29686   1.19990    0.000
 3902.00   -1.33088   1.19965    0.000
 3903.00   -1.16662   1.19495    0.000
 3904.00   -0.04815   1.20188    0.000
 3905.00    0.83473   1.21507   -1.000
 3906.00    0.79506   1.21580   -1.000
 3907.00    0.55982   1.21018   -1.000
 3908.00   -0.31284   1.21054    0.000
 3909.00   -0.80183   1.20594    0.000
 3910.00   -0.23284   1.20327    0.000
 3911.00    0.49221   1.21558   -1.000
 3912.00    1.58578   1.23261   -1.000
 3913.00    2.32390   1.24195   -1.000
 3914.00    2.33657   1.24269   -1.000
 3915.00    2.06923   1.24114   -1.000
 3916.00    1.30459   1.24218   -1.000
 3917.00    0.84627   1.24351   -1.000
 3918.00    0.86393   1.24325   -1.000
 3919.00    0.74384   1.24081   -1.000
 3920.00    0.43581   1.23470   -1.000
 3921.00    0.31300   1.22708   -1.000
 3922.00    0.41268   1.21363   -1.000
 3923.00    1.05242   1.19045   -1.000
 3924.00    2.26414   1.16906   -1.000
 3925.00    1.89825   1.15860   -1.000
 3926.00    0.05858   1.15204   -1.000
 3927.00    0.20490   1.14477   -1.000
 3928.00    1.98682   1.14991   -1.000
 3929.00    1.82597   1.16067   -1.000
 3930.00    0.25676   1.16163   -1.000
 3931.00    0.36663   1.15683   -1.000
 3932.00    1.54507   1.15088   -1.000
 3933.00    2.72527   1.14548   -1.000
 3934.00    3.90646   1.14019   -1.000
 3935.00    3.17989   1.13177   -1.000
 3936.00    1.52980   1.12126   -1.000
 3937.00    0.31376   1.10600   -1.000
 3938.00   -0.72081   1.09075    0.000
 3939.00   -0.64499   1.09866    0.000
 3940.00   -0.17198   1.12666    0.000
 3941.00    0.02974   1.14992   -1.000
 3942.00    0.14946   1.16361   -1.000
 3943.00   -0.12297   1.17690    0.000
 3944.00   -0.49391   1.18772    0.000
 3945.00    0.39435   1.18988   -1.000
 3946.00    1.53939   1.18740   -1.000
 3947.00    1.09055   1.18073   -1.000
 3948.00    0.38649   1.17394   -1.000
 3949.00    0.38114   1.18502   -1.000
 3950.00    0.45921   1.20781   -1.000
 3951.00    1.28767   1.21109   -1.000
 3952.00    2.17723   1.20404   -1.000
 3953.00    2.41929   1.21489   -1.000
 3954.00    2.63158   1.23396   -1.000
 3955.00    1.95247   1.23896   -1.000
 3956.00    1.26956   1.22810   -1.000
 3957.00    0.98156   1.22208   -1.000
 3958.00    0.74109   1.22849   -1.000
 3959.00    1.40086   1.22942   -1.000
 3960.00    1.90536   1.21875    0.000
 3961.00    0.66002   1.21219    0.000
 3962.00   -0.44307   1.21469    0.000
 3963.00   -0.42796   1.21223    0.000
 3964.00   -0.38402   1.18130    0.000
 3965.00   -0.16899   1.12523    0.000
 3966.00   -0.19849   1.09681    0.000
 3967.00   -1.37613   1.10139    0.000
 3968.00   -1.86950   1.08737    0.000
 3969.00    0.25944   1.05534    0.000
 3970.00    1.37709   1.01869    0.000
 3971.00   -0.73770   0.95993    0.000
 3972.00   -1.99241   0.87292    0.000
 3973.00   -0.91776   0.77838    0.000
 3974.00   -0.45607   0.74327    0.000
 3975.00   -1.41766   0.81285    0.000
 3976.00   -1.31298   0.92765    0.000
 3977.00    0.93335   1.01659    0.000
 3978.00    2.16528   1.07849    0.000
 3979.00    1.62287   1.12583    0.000
 3980.00    0.74816   1.15684    0.000
 3981.00   -0.63530   1.17949    0.000
 3982.00   -1.27000   1.20222    0.000
 3983.00   -0.89772   1.22248    0.000
 3984.00   -0.47083   1.23620    0.000
 3985.00    0.02074   1.23673    0.007
 3986.00   -0.23541   1.22830    0.000
 3987.00   -1.27233   1.22666    0.000
 3988.00   -1.20000   1.23698    0.000
 3989.00   -0.10598   1.25007    0.000
 3990.00    1.71082   1.25717    0.007
 3991.00    4.11443   1.26319    0.007
 3992.00    3.75317   1.27220    0.007
 3993.00    1.41646   1.27044    0.007
 3994.00    0.05709   1.26340    0.007
 3995.00   -0.68948   1.26764    0.000
 3996.00   -0.13648   1.27690    0.000
 3997.00    1.12870   1.27925    0.007
 3998.00    1.98038   1.27014    0.007
 3999.00    2.63509   1.26023    0.007
 4000.00    2.93960   1.25668    0.007
 4001.00    3.10016   1.25019    0.007
 4002.00    0.52932   1.24705    0.007
 4003.00   -3.00085   1.26461    0.000
 4004.00   -2.39710   1.28594    0.000
 4005.00   -0.56851   1.29029    0.000
 4006.00   -0.31876   1.28819    0.000
 4007.00   -0.45685   1.28094    0.000
 4008.00   -0.23973   1.26000    0.000
 4009.00    0.04803   1.23583    0.007
 4010.00    0.14678   1.23518    0.007
 4011.00    0.21616   1.25594    0.007
 4012.00    1.12798   1.26903    0.007
 4013.00    2.13666   1.26841    0.007
 4014.00    1.33003   1.27216    0.007
 4015.00    0.38305   1.28134    0.007
 4016.00    0.00807   1.28732    0.007
 4017.00   -0.34282   1.29155    0.000
 4018.00    1.83792   1.29442    0.007
 4019.00    3.95919   1.29993    0.007
 4020.00    2.46189   1.30094    0.007
 4021.00    1.00000   1.29130    0.007
 4022.00    0.16248   1.28952    0.007
 4023.00   -0.39145   1.29983    0.000
 4024.00    2.10590   1.29928    0.007
 4025.00    4.15318   1.28734    0.007
 4026.00    2.78375   1.27523    0.007
 4027.00    1.43105   1.25473    0.007
 4028.00    0.17491   1.20557    0.007
 4029.00   -0.69648   1.13763    0.000
 4030.00    0.19540   1.11291    0.007
 4031.00    0.95183   1.17258    0.006
 4032.00    1.20015   1.25132    0.006
 4033.00    1.42031   1.27870    0.006
 4034.00    1.55221   1.26102    0.006
 4035.00    1.45632   1.24041    0.006
 4036.00    0.75442   1.23542    0.006
 4037.00    0.40894   1.23338    0.006
 4038.00    0.87732   1.23870    0.006
 4039.00    1.07123   1.25759    0.006
 4040.00    0.72253   1.28811    0.006
 4041.00    0.07244   1.31532    0.007
 4042.00   -1.09689   1.32458    0.000
 4043.00   -1.10066   1.31744    0.000
 4044.00    0.65385   1.30166    0.007
 4045.00    1.97902   1.29354    0.007
 4046.00    2.73508   1.30033    0.007
 4047.00    2.59891   1.29377    0.007
 4048.00    1.42106   1.25665    0.007
 4049.00    0.86009   1.21486    0.007
 4050.00    0.93421   1.21106    0.007
 4051.00    0.28465   1.24906    0.007
 4052.00   -1.02207   1.28639    0.000
 4053.00   -0.82456   1.30236    0.000
 4054.00    0.57690   1.31196    0.007
 4055.00    1.59544   1.31601    0.007
 4056.00    2.34434   1.30801    0.007
 4057.00    2.41869   1.29676    0.007
 4058.00    2.07638   1.28357    0.007
 4059.00    1.73670   1.27027    0.007
 4060.00    1.39843   1.26639    0.007
 4061.00    1.50380   1.26493    0.007
 4062.00    1.81710   1.26229    0.007
 4063.00    1.86579   1.27282    0.007
 4064.00    1.80758   1.28822    0.007
 4065.00    1.89483   1.29134    0.007
 4066.00    2.03223   1.26864    0.007
 4067.00    1.65641   1.23310    0.007
 4068.00    1.13156   1.22855    0.006
 4069.00   -0.25024   1.25824    0.000
 4070.00   -1.83788   1.26944    0.000
 4071.00   -1.17404   1.23429    0.000
 4072.00   -0.07395   1.19287    0.000
 4073.00    0.90649   1.18052    0.006
 4074.00    1.86889   1.18354    0.006
 4075.00    2.00587   1.19146    0.006
 4076.00    2.05155   1.21484    0.006
 4077.00    2.37687   1.25600    0.006
 4078.00    2.72266   1.27964    0.006
 4079.00    2.59467   1.25940    0.006
 4080.00    2.44854   1.22791    0.006
 4081.00    2.45015   1.22001    0.006
 4082.00    2.45458   1.23422    0.006
 4083.00    2.53465   1.26059    0.006
 4084.00    2.61620   1.28816    0.006
 4085.00    2.72216   1.30680    0.006
 4086.00    2.73819   1.30923    0.006
 4087.00    1.82887   1.29455    0.006
 4088.00    1.07862   1.27891    0.006
 4089.00    1.49558   1.27680    0.006
 4090.00    2.02009   1.28671    0.006
 4091.00    3.14802   1.29421    0.006
 4092.00    3.90082   1.26523    0.000
 4093.00    2.97495   1.23809    0.000
 4094.00    1.95043   1.26598    0.000
 4095.00    0.56355   1.29588    0.000
 4096.00   -0.16114   1.29234    0.000
 4097.00    1.15069   1.28865    0.000
 4098.00    2.17425   1.28414    0.000
 4099.00    2.44437   1.24973    0.000
 4100.00    2.52981   1.18650    0.000
 4101.00    2.20054   1.12165    0.000
 4102.00    1.71759   1.09751    0.000
 4103.00    0.93562   1.07484    0.000
 4104.00    1.02104   0.98845    0.000
 4105.00    2.57823   0.87482    0.000
 4106.00    3.18509   0.84267    0.000
 4107.00    2.37927   0.92472    0.000
 4108.00    2.34036   1.04667    0.000
 4109.00    3.30352   1.14787    0.000
 4110.00    2.88858   1.21441    0.000
 4111.00    0.88741   1.24754    0.000
 4112.00    0.50852   1.25935    0.000
 4113.00    1.77640   1.26095    0.006
 4114.00    2.06839   1.25768    0.006
 4115.00    1.48663   1.25880    0.006
 4116.00    1.77863   1.26841    0.009
 4117.00    2.76002   1.28580    0.031
 4118.00    2.85527   1.29452   -1.000
 4119.00    2.33559   1.27004   -1.000
 4120.00    1.63306   1.24431   -1.000
 4121.00    0.81927   1.26064   -1.000
 4122.00    1.18265   1.27371   -1.000
 4123.00    2.17142   1.25992   -1.000
 4124.00    2.61545   1.25209   -1.000
 4125.00    2.80830   1.25256   -1.000
 4126.00    2.88126   1.26374   -1.000
 4127.00    2.90663   1.28374   -1.000
 4128.00    2.46963   1.30419    0.016
 4129.00    1.87614   1.31803    0.007
 4130.00    1.50329   1.31512    0.006
 4131.00    1.19321   1.29957    0.006
 4132.00    1.74743   1.28624    0.006
 4133.00    2.50456   1.28507    0.006
 4134.00    2.14646   1.28372    0.006
 4135.00    1.57786   1.27117    0.006
 4136.00    1.77596   1.25387    0.006
 4137.00    2.08601   1.25129    0.006
 4138.00    1.92675   1.26392    0.006
 4139.00    1.71761   1.28844    0.006
 4140.00    2.25774   1.31216    0.006
 4141.00    2.84971   1.31671    0.006
 4142.00    2.84061   1.31699    0.006
 4143.00    2.81077   1.32137    0.006
 4144.00    2.23908   1.32150    0.006
 4145.00    1.68977   1.30919    0.006
 4146.00    1.91559   1.26998    0.006
 4147.00    2.15865   1.21767    0.006
 4148.00    2.66841   1.20522    0.006
 4149.00    3.15725   1.24465    0.006
 4150.00    3.43973   1.28516    0.006
 4151.00    3.60085   1.30188    0.006
 4152.00    2.90034   1.30422    0.006
 4153.00    2.26190   1.29291    0.006
 4154.00    1.96226   1.28136    0.006
 4155.00    1.85616   1.28115    0.006
 4156.00    2.59608   1.27845    0.006
 4157.00    3.44690   1.27227    0.006
 4158.00    4.69665   1.27298    0.006
 4159.00    5.29380   1.27652    0.006
 4160.00    3.92163   1.27276    0.006
 4161.00    2.82911   1.27587    0.006
 4162.00    2.45475   1.29608    0.006
 4163.00    2.42083   1.31553    0.006
 4164.00    3.13893   1.32014    0.006
 4165.00    3.40781   1.31639    0.006
 4166.00    2.81617   1.31641    0.006
 4167.00    2.26504   1.31686    0.006
 4168.00    1.78165   1.31290    0.006
 4169.00    1.55016   1.31048    0.006
 4170.00    1.68766   1.30710    0.006
 4171.00    1.92853   1.29527    0.006
 4172.00    2.30254   1.28973    0.006
 4173.00    2.68914   1.30045    0.006
 4174.00    3.09004   1.31020    0.006
 4175.00    2.54445   1.30000    0.006
 4176.00    1.05155   1.27068    0.006
 4177.00    0.72044   1.25503    0.006
 4178.00    1.41487   1.26428    0.006
 4179.00    1.92334   1.27930    0.006
 4180.00    2.28718   1.28579    0.006
 4181.00    2.66933   1.28324    0.006
 4182.00    3.06401   1.28183    0.006
 4183.00    2.67208   1.29190    0.006
 4184.00    1.80863   1.30187    0.006
 4185.00    1.57406   1.29845    0.006
 4186.00    1.66841   1.29119    0.006
 4187.00    1.67556   1.29498    0.006
 4188.00    1.64315   1.30593    0.006
 4189.00    1.63789   1.31188    0.006
 4190.00    1.64321   1.29014    0.006
 4191.00    2.11442   1.25769    0.006
 4192.00    2.74037   1.26318    0.006
 4193.00    3.26556   1.28899    0.006
 4194.00    3.76267   1.29904    0.006
 4195.00    4.02661   1.29879    0.006
 4196.00    4.23705   1.30802    0.006
 4197.00    4.08227   1.32682    0.006
 4198.00    3.86037   1.32657    0.006
 4199.00    3.55323   1.29796    0.006
 4200.00    3.23402   1.26739    0.006
 4201.00    3.22327   1.24690    0.005
 4202.00    3.24396   1.21447    0.005
 4203.00    2.93724   1.17262    0.005
 4204.00    2.60918   1.16160    0.005
 4205.00    3.10440   1.18736    0.005
 4206.00    3.62437   1.22390    0.005
 4207.00    3.79497   1.26060    0.005
 4208.00    3.93799   1.28834    0.006
 4209.00    3.27055   1.30268    0.006
 4210.00    2.65935   1.31712    0.006
 4211.00    2.86706   1.33136    0.005
 4212.00    3.07140   1.34065    0.005
 4213.00    3.24401   1.33684    0.005
 4214.00    3.39289   1.32517    0.005
 4215.00    3.37864   1.31770    0.006
 4216.00    3.30802   1.31249    0.006
 4217.00    2.93779   1.31152    0.006
 4218.00    2.66699   1.30673    0.005
 4219.00    2.82084   1.28555    0.005
 4220.00    2.83315   1.28099    0.005
 4221.00    2.34679   1.31402    0.005
 4222.00    2.00124   1.34817    0.005
 4223.00    2.07268   1.36259    0.005
 4224.00    2.06160   1.36967    0.006
 4225.00    1.84225   1.37002    0.005
 4226.00    1.94155   1.35223    0.005
 4227.00    2.73325   1.32336    0.005
 4228.00    3.00863   1.29348    0.005
 4229.00    2.31029   1.25605    0.005
 4230.00    1.88176   1.21084    0.005
 4231.00    1.89744   1.19546    0.005
 4232.00    1.81334   1.23806    0.005
 4233.00    1.58521   1.29772    0.005
 4234.00    1.77622   1.33418    0.005
 4235.00    2.49938   1.35251    0.005
 4236.00    2.82941   1.34754    0.005
 4237.00    2.71960   1.32615    0.005
 4238.00    2.38124   1.31877    0.005
 4239.00    1.81733   1.31566    0.005
 4240.00    1.79619   1.30146    0.005
 4241.00    2.24739   1.30068    0.005
 4242.00    2.34354   1.31334    0.005
 4243.00    2.16748   1.31962    0.005
 4244.00    2.72563   1.32654    0.005
 4245.00    3.77855   1.34063    0.005
 4246.00    3.93508   1.34730    0.005
 4247.00    3.56237   1.35155    0.005
 4248.00    3.20560   1.37223    0.005
 4249.00    2.85704   1.38671    0.005
 4250.00    2.08563   1.37297    0.005
 4251.00    1.12557   1.34479    0.005
 4252.00    1.22943   1.32538    0.005
 4253.00    1.74123   1.31421    0.005
 4254.00    1.94791   1.29978    0.005
 4255.00    2.05517   1.30100    0.005
 4256.00    2.43940   1.32347    0.005
 4257.00    2.89923   1.32791    0.005
 4258.00    3.04001   1.30739    0.005
 4259.00    3.10928   1.29862    0.005
 4260.00    3.41020   1.32262    0.005
 4261.00    3.75255   1.35387    0.005
 4262.00    3.28453   1.35155    0.005
 4263.00    2.70563   1.32099    0.005
 4264.00    2.05842   1.29132    0.005
 4265.00    1.40454   1.28715    0.005
 4266.00    1.27530   1.31903    0.005
 4267.00    1.17815   1.35958    0.005
 4268.00    1.89109   1.38053    0.005
 4269.00    2.61778   1.38672    0.005
 4270.00    1.76011   1.38019    0.005
 4271.00    0.93455   1.35491    0.005
 4272.00    0.95803   1.33641    0.005
 4273.00    1.06842   1.33233    0.005
 4274.00    2.37343   1.31327    0.005
 4275.00    3.51823   1.27367    0.005
 4276.00    3.20763   1.25310    0.005
 4277.00    2.82490   1.26594    0.005
 4278.00    1.96169   1.27498    0.005
 4279.00    1.28560   1.27515    0.005
 4280.00    1.57820   1.29834    0.005
 4281.00    1.89017   1.33707    0.005
 4282.00    2.28298   1.36680   -2.000
 4283.00    2.85331   1.36877   -2.000
 4284.00    4.03646   1.34435   -2.000
 4285.00    4.85495   1.33007   -2.000
 4286.00    4.61354   1.33341   -2.000
 4287.00    4.21704   1.34084   -2.000
 4288.00    3.43585   1.34404   -2.000
 4289.00    2.94523   1.33215   -2.000
 4290.00    3.07581   1.32198   -2.000
 4291.00    2.87665   1.32785   -2.000
 4292.00    2.06527   1.32546   -2.000
 4293.00    1.58227   1.29575   -2.000
 4294.00    1.63186   1.26852   -2.000
 4295.00    1.65257   1.27735   -2.000
 4296.00    1.63218   1.31374   -2.000
 4297.00    1.39493   1.34283   -2.000
 4298.00    0.88625   1.33799    0.005
 4299.00    1.02977   1.32661    0.005
 4300.00    1.89271   1.32760    0.005
 4301.00    2.41597   1.32236    0.005
 4302.00    2.60875   1.30068    0.005
 4303.00    2.41972   1.26457    0.005
 4304.00    1.90311   1.24042    0.005
 4305.00    1.30170   1.24729    0.005
 4306.00    0.63620   1.25821    0.005
 4307.00    0.57679   1.25708    0.005
 4308.00    0.91987   1.26079    0.005
 4309.00    1.92428   1.26616    0.005
 4310.00    3.31327   1.26185    0.005
 4311.00    3.18178   1.24465    0.005
 4312.00    2.27971   1.22355    0.005
 4313.00    1.71739   1.22023    0.005
 4314.00    1.30415   1.23914    0.005
 4315.00    2.25774   1.26463    0.005
 4316.00    3.72620   1.28654    0.005
 4317.00    2.96130   1.30184    0.005
 4318.00    1.48235   1.31465    0.005
 4319.00    1.24464   1.34561    0.005
 4320.00    1.33866   1.40018    0.005
 4321.00    1.29715   1.43892    0.005
 4322.00    1.22599   1.44334    0.005
 4323.00    2.67119   1.43309    0.005
 4324.00    4.38018   1.42082    0.005
 4325.00    4.47283   1.40938    0.005
 4326.00    4.35169   1.39915    0.005
 4327.00    3.33714   1.37006    0.005
 4328.00    2.23910   1.31714    0.005
 4329.00    2.86022   1.26517    0.005
 4330.00    3.57966   1.25181    0.000
 4331.00    3.13762   1.29548    0.000
 4332.00    2.67425   1.36111    0.000
 4333.00    2.86638   1.40196    0.000
 4334.00    3.07267   1.40355    0.000
 4335.00    3.61870   1.39049    0.000
 4336.00    4.07586   1.38699    0.000
 4337.00    3.37622   1.38652    0.000
 4338.00    2.77281   1.38561    0.000
 4339.00    3.01009   1.38426    0.000
 4340.00    3.20866   1.35200    0.000
 4341.00    3.15710   1.26021    0.000
 4342.00    3.06752   1.14006    0.000
 4343.00    2.78616   1.02468    0.000
 4344.00    2.69133   0.92985    0.000
 4345.00    3.35784   0.92843    0.000
 4346.00    3.77251   1.04671    0.000
 4347.00    3.33514   1.17936    0.000
 4348.00    3.07460   1.25554    0.000
 4349.00    3.31866   1.30558    0.000
 4350.00    3.62684   1.34229    0.000
 4351.00    4.09135   1.35923    0.005
 4352.00    4.23180   1.37898    0.006
 4353.00    3.69065   1.40841    0.016
 4354.00    3.42970   1.40738   -1.000
 4355.00    3.68100   1.35792   -1.000
 4356.00    3.71580   1.31539   -1.000
 4357.00    3.40468   1.32876   -1.000
 4358.00    3.20619   1.36706   -1.000
 4359.00    3.16558   1.39100   -1.000
 4360.00    3.36397   1.40759   -1.000
 4361.00    3.85724   1.42536   -1.000
 4362.00    3.83605   1.42361    0.020
 4363.00    3.25536   1.40245    0.007
 4364.00    3.27949   1.39903    0.005
 4365.00    3.88380   1.42356    0.005
 4366.00    3.75070   1.44456    0.005
 4367.00    2.99383   1.44769    0.005
 4368.00    2.41853   1.45504    0.005
 4369.00    1.97848   1.47118    0.005
 4370.00    2.20555   1.46437    0.005
 4371.00    2.86913   1.42958    0.005
 4372.00    3.10890   1.40493    0.005
 4373.00    3.10594   1.40935    0.005
 4374.00    3.40626   1.41962    0.005
 4375.00    3.85786   1.42281    0.005
 4376.00    3.65296   1.42301    0.005
 4377.00    3.16476   1.41134    0.005
 4378.00    3.40864   1.38194    0.005
 4379.00    3.92340   1.35679    0.005
 4380.00    3.80263   1.36465    0.005
 4381.00    3.48257   1.40413    0.005
 4382.00    3.17768   1.43511    0.005
 4383.00    2.87675   1.43253    0.005
 4384.00    3.12732   1.41900    0.005
 4385.00    3.49569   1.41037    0.005
 4386.00    3.38388   1.37651    0.005
 4387.00    3.19087   1.30607    0.005
 4388.00    2.92327   1.25457    0.005
 4389.00    2.64615   1.27262    0.005
 4390.00    2.99734   1.33276    0.005
 4391.00    3.40460   1.36602    0.005
 4392.00    3.45135   1.36201    0.005
 4393.00    3.47890   1.35887    0.005
 4394.00    3.65056   1.36778    0.005
 4395.00    3.82240   1.38530    0.005
 4396.00    3.78022   1.41129    0.005
 4397.00    3.74036   1.42673    0.005
 4398.00    3.75157   1.41603    0.005
 4399.00    3.76304   1.40013    0.005
 4400.00    3.77782   1.41426    0.005
 4401.00    3.72897   1.45300    0.005
 4402.00    3.14493   1.47298    0.005
 4403.00    2.69522   1.45641    0.005
 4404.00    3.08739   1.42206    0.005
 4405.00    3.46851   1.40821    0.005
 4406.00    3.79527   1.43016    0.005
 4407.00    4.06488   1.43374    0.005
 4408.00    4.10637   1.38149    0.005
 4409.00    3.90221   1.33577    0.005
 4410.00    2.88335   1.34991    0.005
 4411.00    2.14617   1.38166    0.005
 4412.00    2.19814   1.39079    0.005
 4413.00    2.30770   1.40433    0.005
 4414.00    2.55528   1.44056    0.005
 4415.00    2.80363   1.47172    0.005
 4416.00    3.05356   1.49002    0.005
 4417.00    3.09902   1.49274    0.005
 4418.00    2.77641   1.45363    0.005
 4419.00    2.68211   1.39354    0.005
 4420.00    2.94722   1.37453    0.005
 4421.00    3.33475   1.40107    0.005
 4422.00    3.89144   1.43972    0.005
 4423.00    4.15661   1.47552    0.005
 4424.00    4.06722   1.49535    0.005
 4425.00    4.00733   1.48559    0.005
 4426.00    3.97907   1.45491    0.005
 4427.00    3.76627   1.43639    0.005
 4428.00    3.37895   1.44539    0.005
 4429.00    3.08710   1.45733    0.005
 4430.00    2.87486   1.45582    0.005
 4431.00    3.18712   1.45252    0.005
 4432.00    3.88445   1.46219    0.005
 4433.00    3.96546   1.46988    0.005
 4434.00    3.64913   1.45396    0.005
 4435.00    3.72898   1.44423    0.005
 4436.00    4.03231   1.45923    0.005
 4437.00    3.84060   1.46241    0.005
 4438.00    3.40587   1.43480    0.005
 4439.00    3.00139   1.40189    0.005
 4440.00    2.60975   1.40020    0.005
 4441.00    2.62115   1.43552    0.005
 4442.00    2.77903   1.48203    0.005
 4443.00    3.41895   1.51203    0.005
 4444.00    4.20710   1.50520    0.005
 4445.00    4.09652   1.46519    0.005
 4446.00    3.75585   1.42530    0.005
 4447.00    4.10185   1.41391    0.005
 4448.00    4.59097   1.43554    0.005
 4449.00    4.15803   1.47891    0.005
 4450.00    3.57360   1.50953    0.005
 4451.00    3.47303   1.50698    0.005
 4452.00    3.43211   1.50109    0.005
 4453.00    3.35000   1.50601    0.005
 4454.00    3.26439   1.50126    0.005
 4455.00    3.12108   1.49324    0.005
 4456.00    2.97492   1.49361    0.005
 4457.00    3.01023   1.48630    0.005
 4458.00    3.05749   1.45879    0.005
 4459.00    3.67299   1.42579    0.005
 4460.00    4.23669   1.41805    0.005
 4461.00    3.75128   1.43435    0.000
 4462.00    3.31583   1.44310    0.000
 4463.00    3.46768   1.43679    0.000
 4464.00    3.60501   1.42993    0.000
 4465.00    3.62451   1.41968    0.000
 4466.00    3.59768   1.41285    0.000
 4467.00    3.28890   1.43739    0.000
 4468.00    3.07720   1.47561    0.000
 4469.00    3.33130   1.48819    0.000
 4470.00    3.55879   1.48132    0.000
 4471.00    3.68234   1.47658    0.000
 4472.00    3.76854   1.47126    0.000
 4473.00    3.73325   1.45368    0.000
 4474.00    3.65250   1.41818    0.000
 4475.00    3.44666   1.36946    0.000
 4476.00    3.20174   1.36128    0.000
 4477.00    2.86472   1.42841    0.000
 4478.00    2.88825   1.50431    0.000
 4479.00    3.64615   1.53117    0.000
 4480.00    4.13772   1.53673    0.000
 4481.00    4.15717   1.55514    0.000
 4482.00    4.02607   1.57015    0.005
 4483.00    3.66149   1.55042    0.005
 4484.00    3.46759   1.49659    0.005
 4485.00    3.50614   1.44640    0.005
 4486.00    3.64941   1.43680    0.005
 4487.00    3.91823   1.47315    0.005
 4488.00    3.70492   1.52355    0.005
 4489.00    2.98191   1.55886    0.005
 4490.00    2.89944   1.57614    0.005
 4491.00    3.41429   1.57375    0.005
 4492.00    3.82616   1.54720    0.005
 4493.00    4.15335   1.50890    0.005
 4494.00    4.03685   1.48792    0.005
 4495.00    3.59927   1.50137    0.005
 4496.00    3.65013   1.53158    0.005
 4497.00    4.01124   1.54291    0.005
 4498.00    3.72838   1.51935    0.005
 4499.00    3.08783   1.48753    0.005
 4500.00    2.85603   1.47995    0.005
 4501.00    2.82171   1.49870    0.005
 4502.00    3.19707   1.53086    0.005
 4503.00    3.74334   1.55849    0.005
 4504.00    3.49877   1.56387    0.005
 4505.00    2.97196   1.54593    0.005
 4506.00    3.16735   1.53699    0.005
 4507.00    3.58049   1.56703    0.005
 4508.00    3.77705   1.60840    0.005
 4509.00    3.91937   1.62192    0.005
 4510.00    3.63850   1.60913    0.005
 4511.00    3.27160   1.59052    0.005
 4512.00    3.52655   1.58008    0.005
 4513.00    3.88070   1.58131    0.005
 4514.00    3.90136   1.58299    0.005
 4515.00    3.88238   1.57536    0.005
 4516.00    3.26865   1.56266    0.005
 4517.00    2.60679   1.54884    0.005
 4518.00    2.86607   1.52713    0.005
 4519.00    3.16724   1.51093    0.005
 4520.00    3.20476   1.52187    0.005
 4521.00    3.21911   1.53717    0.004
 4522.00    2.21702   1.53490    0.005
 4523.00    1.32403   1.54174    0.005
 4524.00    2.47879   1.56923    0.005
 4525.00    3.52798   1.59382    0.004
 4526.00    3.39436   1.58796    0.005
 4527.00    3.27141   1.55634    0.005
 4528.00    3.23199   1.53631    0.005
 4529.00    3.24737   1.53172    0.004
 4530.00    3.58679   1.51725    0.005
 4531.00    3.78880   1.49154    0.005
 4532.00    3.34751   1.46676    0.005
 4533.00    3.01805   1.45400    0.005
 4534.00    3.11596   1.46131    0.005
 4535.00    3.21610   1.48187    0.005
 4536.00    3.32339   1.50785    0.005
 4537.00    3.28736   1.51794    0.005
 4538.00    2.86402   1.49538    0.005
 4539.00    2.68916   1.46714    0.005
 4540.00    3.09005   1.47627    0.005
 4541.00    3.35748   1.52953    0.005
 4542.00    3.35739   1.57406    0.005
 4543.00    3.12376   1.56362    0.005
 4544.00    2.48242   1.50370    0.005
 4545.00    2.23905   1.43089    0.005
 4546.00    2.60383   1.40700    0.005
 4547.00    2.86042   1.45403    0.005
 4548.00    2.97178   1.50601    0.005
 4549.00    2.79946   1.52019    0.005
 4550.00    2.29182   1.52863    0.000
 4551.00    2.31967   1.54682    0.000
 4552.00    2.90570   1.55247    0.000
 4553.00    3.12380   1.53669    0.000
 4554.00    3.00362   1.52748    0.000
 4555.00    3.21592   1.54329    0.000
 4556.00    3.69768   1.55126    0.000
 4557.00    3.72356   1.53622    0.000
 4558.00    3.42432   1.52080    0.000
 4559.00    3.25272   1.51767    0.000
 4560.00    3.16100   1.53487    0.000
 4561.00    3.07612   1.57092    0.000
 4562.00    2.99499   1.60278    0.000
 4563.00    3.02125   1.61554    0.000
 4564.00    3.09856   1.61490    0.000
 4565.00    2.78996   1.61354    0.000
 4566.00    2.32308   1.61502    0.000
 4567.00    2.32401   1.60272    0.000
 4568.00    2.48888   1.57201    0.000
 4569.00    2.89865   1.54818    0.000
 4570.00    3.38081   1.55325    0.000
 4571.00    3.39850   1.58314    0.000
 4572.00    3.30242   1.60762    0.000
 4573.00    2.97948   1.60878    0.000
 4574.00    2.61157   1.59877    0.000
 4575.00    2.91495   1.57939    0.000
 4576.00    3.32223   1.56404    0.000
 4577.00    2.96289   1.58555    0.000
 4578.00    2.51583   1.61822    0.000
 4579.00    2.75648   1.62086    0.000
 4580.00    3.04995   1.61399    0.000
 4581.00    3.35166   1.61691    0.000
 4582.00    3.65370   1.61327    0.000
 4583.00    2.96468   1.59074    0.000
 4584.00    2.29598   1.55952    0.000
 4585.00    2.86961   1.54510    0.000
 4586.00    3.42844   1.55868    0.000
 4587.00    3.72874   1.57805    0.000
 4588.00    3.96017   1.58149    0.000
 4589.00    3.45486   1.57429    0.000
 4590.00    3.03969   1.56755    0.000
 4591.00    3.30588   1.57314    0.000
 4592.00    3.43847   1.59793    0.000
 4593.00    2.80320   1.62530    0.000
 4594.00    2.31937   1.62995    0.000
 4595.00    2.52750   1.60662    0.000
 4596.00    2.74350   1.57895    0.000
 4597.00    2.98889   1.57113    0.000
 4598.00    3.15950   1.57607    0.000
 4599.00    3.09625   1.57367    0.000
 4600.00    3.23064   1.56810    0.000
 4601.00    3.88964   1.57136    0.000
 4602.00    4.24188   1.58264    0.000
 4603.00    3.89508   1.59636    0.000
 4604.00    3.65557   1.59615    0.000
 4605.00    3.62775   1.58160    0.000
 4606.00    3.35734   1.57918    0.000
 4607.00    2.66983   1.59040    0.000
 4608.00    2.53051   1.59714    0.000
 4609.00    3.21663   1.59442    0.000
 4610.00    3.55205   1.59032    0.000
 4611.00    3.42345   1.60209    0.000
 4612.00    3.40602   1.63439    0.000
 4613.00    3.51817   1.66523    0.000
 4614.00    3.31094   1.66510    0.000
 4615.00    2.77546   1.64205    0.000
 4616.00    2.68649   1.62881    0.000
 4617.00    3.00227   1.62643    0.000
 4618.00    3.03401   1.62900    0.000
 4619.00    2.83884   1.64393    0.000
 4620.00    2.75581   1.65611    0.000
 4621.00    2.75160   1.65840    0.000
 4622.00    2.73278   1.65851    0.000
 4623.00    2.70495   1.64539    0.000
 4624.00    2.51360   1.63385    0.000
 4625.00    2.23419   1.64807    0.000
 4626.00    2.34603   1.66432    0.000
 4627.00    2.64086   1.66420    0.000
 4628.00    3.00089   1.66409    0.000
 4629.00    3.38721   1.66245    0.000
 4630.00    2.98003   1.65285    0.000
 4631.00    2.29989   1.65096    0.000
 4632.00    2.82652   1.65650    0.000
 4633.00    3.70269   1.64892    0.000
 4634.00    3.45671   1.63141    0.000
 4635.00    2.94195   1.62759    0.000
 4636.00    2.78125   1.63651    0.000
 4637.00    2.68893   1.63543    0.000
 4638.00    2.65972   1.62592    0.000
 4639.00    2.63998   1.62596    0.000
 4640.00    2.58905   1.63255    0.000
 4641.00    2.53469   1.62846    0.000
 4642.00    2.27849   1.61130    0.000
 4643.00    2.00762   1.59523    0.000
 4644.00    1.83638   1.58716    0.000
 4645.00    1.66892   1.59494    0.000
 4646.00    2.23224   1.61847    0.000
 4647.00    2.77996   1.63488    0.000
 4648.00    2.61193   1.63335    0.000
 4649.00    2.47083   1.61589    0.000
 4650.00    2.76979   1.56649    0.000
 4651.00    3.06367   1.49761    0.000
 4652.00    3.30558   1.47313    0.000
 4653.00    3.48182   1.50481    0.000
 4654.00    3.17816   1.53361    0.000
 4655.00    2.94404   1.54320    0.000
 4656.00    3.09871   1.56911    0.000
 4657.00    3.27270   1.60455    0.000
 4658.00    3.53287   1.60293    0.000
 4659.00    3.63334   1.57566    0.000
 4660.00    3.14886   1.57525    0.000
 4661.00    2.75825   1.60266    0.000
 4662.00    2.65562   1.64024    0.000
 4663.00    2.68294   1.68266    0.000
 4664.00    3.04917   1.70991    0.000
 4665.00    3.18150   1.70596    0.000
 4666.00    2.78964   1.67510    0.000
 4667.00    2.38333   1.63861    0.000
 4668.00    1.94895   1.61622    0.000
 4669.00    1.87880   1.60521    0.000
 4670.00    2.42551   1.58257    0.000
 4671.00    3.02673   1.54053    0.000
 4672.00    3.70883   1.51277    0.000
 4673.00    4.05075   1.53207    0.000
 4674.00    3.94900   1.58622    0.000
 4675.00    3.78168   1.63953    0.000
 4676.00    3.53902   1.66255    0.000
 4677.00    3.27299   1.64737    0.000
 4678.00    2.98328   1.62245    0.000
 4679.00    2.52061   1.62185    0.000
 4680.00    1.90337   1.64611    0.000
 4681.00    1.81937   1.66936    0.000
 4682.00    2.15532   1.66649    0.000
 4683.00    2.49281   1.64385    0.000
 4684.00    2.83137   1.62251    0.000
 4685.00    2.83712   1.60846    0.000
 4686.00    2.64073   1.60194    0.000
 4687.00    2.68064   1.60770    0.000
 4688.00    2.84584   1.60234    0.000
 4689.00    2.99730   1.54543    0.000
 4690.00    3.14244   1.48015    0.000
 4691.00    3.28555   1.49058    0.000
 4692.00    3.42785   1.55871    0.000
 4693.00    3.10865   1.61406    0.000
 4694.00    2.63363   1.63808    0.000
 4695.00    2.13845   1.64010    0.000
 4696.00    1.63755   1.63707    0.000
 4697.00    2.03882   1.64653    0.000
 4698.00    2.65130   1.66135    0.000
 4699.00    2.93075   1.67705    0.000
 4700.00    3.14756   1.69410    0.000
 4701.00    3.57567   1.69542    0.000
 4702.00    4.03452   1.66555    0.000
 4703.00    3.65842   1.62392    0.000
 4704.00    3.19404   1.61198    0.000
 4705.00    3.04958   1.62597    0.000
 4706.00    2.92708   1.62843    0.000
 4707.00    2.68121   1.61463    0.000
 4708.00    2.43114   1.61291    0.000
 4709.00    2.31862   1.63172    0.000
 4710.00    2.21666   1.64581    0.000
 4711.00    2.45143   1.64019    0.000
 4712.00    2.69064   1.62622    0.000
 4713.00    2.99806   1.61720    0.000
 4714.00    3.28169   1.62218    0.000
 4715.00    3.33198   1.64891    0.000
 4716.00    3.36704   1.66934    0.000
 4717.00    3.29431   1.64687    0.000
 4718.00    3.19837   1.61096    0.000
 4719.00    2.97613   1.60746    0.000
 4720.00    2.76137   1.64042    0.000
 4721.00    2.57918   1.68150    0.000
 4722.00    2.46383   1.70772    0.000
 4723.00    2.58827   1.72157    0.000
 4724.00    2.65159   1.73500    0.000
 4725.00    2.53087   1.73983    0.000
 4726.00    2.45201   1.72980    0.000
 4727.00    2.48039   1.71593    0.000
 4728.00    2.36049   1.71930    0.000
 4729.00    1.91371   1.73858    0.000
 4730.00    1.75739   1.74358    0.000
 4731.00    2.15638   1.71063    0.000
 4732.00    2.37341   1.65603    0.000
 4733.00    2.28687   1.62463    0.000
 4734.00    2.29713   1.62743    0.000
 4735.00    2.44890   1.64126    0.000
 4736.00    2.52876   1.65804    0.000
 4737.00    2.51616   1.67736    0.000
 4738.00    2.52916   1.69061    0.000
 4739.00    2.57114   1.69860    0.000
 4740.00    2.66292   1.69728    0.000
 4741.00    2.80445   1.68036    0.000
 4742.00    2.89578   1.68201    0.000
 4743.00    2.94288   1.71212    0.000
 4744.00    2.95045   1.72339    0.000
 4745.00    2.92734   1.70695    0.000
 4746.00    3.04428   1.69835    0.000
 4747.00    3.25681   1.71099    0.000
 4748.00    3.14918   1.72553    0.000
 4749.00    2.85001   1.72408    0.000
 4750.00    2.82089   1.72170    0.000
 4751.00    2.93272   1.73633    0.000
 4752.00    3.05043   1.74823    0.000
 4753.00    3.17079   1.74448    0.000
 4754.00    2.99130   1.74286    0.000
 4755.00    2.69506   1.74482    0.000
 4756.00    3.15310   1.73667    0.000
 4757.00    3.86108   1.72056    0.000
 4758.00    3.52735   1.70830    0.000
 4759.00    2.90403   1.70252    0.000
 4760.00    3.03752   1.70256    0.000
 4761.00    3.34413   1.70489    0.004
 4762.00    3.40063   1.70948    0.004
 4763.00    3.41132   1.71691    0.004
 4764.00    3.47364   1.72850    0.004
 4765.00    3.54322   1.73025    0.004
 4766.00    3.90277   1.70577    0.004
 4767.00    4.29173   1.67613    0.004
 4768.00    3.28693   1.66513    0.004
 4769.00    2.19203   1.65941    0.004
 4770.00    2.38457   1.64726    0.004
 4771.00    2.61632   1.64685    0.004
 4772.00    2.98104   1.66998    0.004
 4773.00    3.33113   1.70120    0.004
 4774.00    3.25760   1.72806    0.004
 4775.00    3.14723   1.73400    0.004
 4776.00    2.50439   1.71417    0.004
 4777.00    1.98372   1.70229    0.004
 4778.00    2.61249   1.72127    0.004
 4779.00    3.10076   1.75031    0.004
 4780.00    2.62708   1.75907    0.004
 4781.00    2.30982   1.75388    0.004
 4782.00    2.82112   1.75791    0.004
 4783.00    3.17566   1.75808    0.004
 4784.00    2.86254   1.74611    0.004
 4785.00    2.65053   1.73891    0.004
 4786.00    2.79384   1.73472    0.004
 4787.00    2.84411   1.71633    0.004
 4788.00    2.61952   1.69912    0.004
 4789.00    2.67765   1.70569    0.004
 4790.00    3.44769   1.70710    0.004
 4791.00    3.63950   1.69047    0.004
 4792.00    2.57738   1.69332    0.004
 4793.00    2.01075   1.70710    0.004
 4794.00    2.37672   1.70534    0.004
 4795.00    2.69317   1.70917    0.004
 4796.00    2.92826   1.72309    0.004
 4797.00    2.85618   1.74054    0.004
 4798.00    2.34149   1.76930    0.005
 4799.00    2.39372   1.79854    0.005
 4800.00    3.16442   1.80562    0.005
 4801.00    3.26710   1.78903    0.005
 4802.00    2.62371   1.76272    0.005
 4803.00    2.56168   1.73389    0.005
 4804.00    3.07233   1.71561    0.005
 4805.00    3.22091   1.72461    0.005
 4806.00    3.05497   1.75716    0.004
 4807.00    3.01286   1.78604    0.004
 4808.00    3.06552   1.78832    0.004
 4809.00    3.05959   1.76562    0.004
 4810.00    3.01425   1.74227    0.004
 4811.00    2.87196   1.73497    0.004
 4812.00    2.67255   1.72786    0.004
 4813.00    2.72354   1.72285    0.004
 4814.00    2.90320   1.73530    0.004
 4815.00    2.63074   1.75132    0.004
 4816.00    2.15698   1.75708    0.004
 4817.00    2.55047   1.75519    0.004
 4818.00    3.27573   1.75471    0.004
 4819.00    3.27289   1.75936    0.004
 4820.00    3.03331   1.76856    0.004
 4821.00    3.31457   1.78158    0.004
 4822.00    3.73763   1.79394    0.004
 4823.00    3.53371   1.80077    0.004
 4824.00    3.18969   1.80314    0.004
 4825.00    3.20452   1.79987    0.004
 4826.00    3.28332   1.79087    0.004
 4827.00    2.85608   1.76313    0.004
 4828.00    2.35989   1.72282    0.004
 4829.00    2.43106   1.71868    0.004
 4830.00    2.55735   1.75390    0.004
 4831.00    2.62016   1.77878    0.004
 4832.00    2.67911   1.77226    0.004
 4833.00    2.36532   1.75348    0.004
 4834.00    2.04458   1.75100    0.004
 4835.00    2.25183   1.75765    0.004
 4836.00    2.45632   1.74363    0.004
 4837.00    2.58853   1.72799    0.004
 4838.00    2.70400   1.74675    0.004
 4839.00    2.59084   1.77481    0.004
 4840.00    2.46469   1.77982    0.004
 4841.00    2.22120   1.77571    0.004
 4842.00    1.98894   1.77620    0.004
 4843.00    1.83126   1.76373    0.004
 4844.00    1.74512   1.73769    0.004
 4845.00    2.02815   1.72778    0.004
 4846.00    2.28116   1.74075    0.004
 4847.00    2.40915   1.74604    0.004
 4848.00    2.50334   1.73722    0.000
 4849.00    2.48116   1.75058    0.000
 4850.00    2.53684   1.78108    0.000
 4851.00    2.81827   1.78971    0.000
 4852.00    3.03981   1.76589    0.000
 4853.00    3.11309   1.73143    0.000
 4854.00    2.99470   1.72759    0.000
 4855.00    2.46737   1.75006    0.000
 4856.00    2.10310   1.75574    0.000
 4857.00    2.04098   1.74625    0.000
 4858.00    2.20368   1.73057    0.000
 4859.00    2.73031   1.68369    0.000
 4860.00    2.78037   1.62603    0.000
 4861.00    2.15368   1.60819    0.000
 4862.00    1.86987   1.59912    0.000
 4863.00    2.01443   1.52643    0.000
 4864.00    2.12975   1.38793    0.000
 4865.00    2.21286   1.23364    0.000
 4866.00    2.03014   1.15512    0.000
 4867.00    1.58922   1.23558    0.000
 4868.00    1.49219   1.40503    0.000
 4869.00    1.68968   1.52728    0.000
 4870.00    1.93966   1.59808    0.000
 4871.00    2.22925   1.63757    0.000
 4872.00    2.46955   1.65861    0.000
 4873.00    2.67718   1.68184    0.000
 4874.00    2.97851   1.70385    0.000
 4875.00    3.33422   1.67633    0.004
 4876.00    3.43353   1.62556    0.004
 4877.00    3.40315   1.62934    0.004
 4878.00    2.97624   1.68214    0.004
 4879.00    2.37568   1.71699    0.004
 4880.00    2.31444   1.72362    0.004
 4881.00    2.45591   1.73707    0.004
 4882.00    2.27303   1.75470    0.004
 4883.00    1.98671   1.77306    0.004
 4884.00    2.19124   1.80267    0.004
 4885.00    2.52660   1.80119    0.004
 4886.00    2.73448   1.76087    0.004
 4887.00    2.91456   1.74814    0.004
 4888.00    2.94025   1.76484    0.004
 4889.00    2.93918   1.75675    0.004
 4890.00    2.50400   1.72309    0.004
 4891.00    2.01165   1.70821    0.004
 4892.00    2.62078   1.72332    0.004
 4893.00    3.33225   1.73926    0.004
 4894.00    2.89864   1.72775    0.004
 4895.00    2.40011   1.68568    0.004
 4896.00    1.93339   1.65999    0.004
 4897.00    1.47643   1.71303    0.004
 4898.00    2.00763   1.79684    0.004
 4899.00    2.53193   1.84999    0.004
 4900.00    2.89246   1.87613    0.004
 4901.00    3.18630   1.88030    0.004
 4902.00    2.61778   1.87455    0.004
 4903.00    2.07099   1.85981    0.004
 4904.00    1.71321   1.82395    0.004
 4905.00    1.54794   1.80009    0.004
 4906.00    2.62134   1.81227    0.004
 4907.00    3.43197   1.81458    0.004
 4908.00    2.92113   1.79327    0.004
 4909.00    2.52489   1.79692    0.004
 4910.00    2.59512   1.83603    0.004
 4911.00    2.57588   1.86442    0.004
 4912.00    2.25466   1.85193    0.004
 4913.00    2.22124   1.81625    0.004
 4914.00    3.00718   1.77732    0.004
 4915.00    3.30636   1.75136    0.004
 4916.00    2.42140   1.76150    0.004
 4917.00    1.95586   1.79314    0.004
 4918.00    2.37077   1.81671    0.004
 4919.00    2.58258   1.83465    0.004
 4920.00    2.42385   1.85781    0.004
 4921.00    2.17286   1.85927    0.004
 4922.00    1.77475   1.81570    0.004
 4923.00    1.83781   1.73476    0.004
 4924.00    2.54629   1.65476    0.004
 4925.00    2.68732   1.61835    0.004
 4926.00    2.12950   1.64440    0.004
 4927.00    2.12761   1.70832    0.004
 4928.00    2.72927   1.74456    0.004
 4929.00    2.79298   1.74044    0.004
 4930.00    2.34157   1.75316    0.004
 4931.00    2.46556   1.80446    0.004
 4932.00    3.07542   1.84438    0.004
 4933.00    3.11007   1.86384    0.004
 4934.00    2.71704   1.88388    0.004
 4935.00    2.64259   1.88960    0.004
 4936.00    2.77623   1.88371    0.004
 4937.00    2.64308   1.85506    0.004
 4938.00    2.35742   1.79681    0.004
 4939.00    1.95914   1.77585    0.004
 4940.00    1.50479   1.81371    0.000
 4941.00    1.94817   1.82893    0.000
 4942.00    2.77812   1.78432    0.000
 4943.00    2.98356   1.72796    0.000
 4944.00    2.95844   1.72149    0.000
 4945.00    2.51818   1.77892    0.000
 4946.00    1.94805   1.84012    0.000
 4947.00    2.12414   1.85912    0.000
 4948.00    2.49494   1.87304    0.000
 4949.00    2.47019   1.88389    0.000
 4950.00    2.36121   1.86782    0.000
 4951.00    2.13555   1.85339    0.000
 4952.00    1.89023   1.87161    0.000
 4953.00    1.80322   1.89223    0.000
 4954.00    1.73635   1.89674    0.000
 4955.00    2.49345   1.90052    0.000
 4956.00    3.32365   1.90757    0.000
 4957.00    3.16119   1.89822    0.000
 4958.00    2.94634   1.87631    0.000
 4959.00    2.49200   1.86292    0.000
 4960.00    2.04038   1.84525    0.000
 4961.00    2.16096   1.78273    0.000
 4962.00    2.27242   1.68900    0.000
 4963.00    2.18552   1.68487    0.000
 4964.00    2.13638   1.78375    0.000
 4965.00    2.55078   1.86009    0.000
 4966.00    2.94394   1.86912    0.000
 4967.00    3.15931   1.86083    0.000
 4968.00    3.34063   1.86453    0.000
 4969.00    3.30938   1.85109    0.000
 4970.00    3.28683   1.80910    0.000
 4971.00    3.30692   1.78604    0.000
 4972.00    3.18903   1.79268    0.000
 4973.00    2.52184   1.80102    0.000
 4974.00    1.93460   1.81098    0.000
 4975.00    1.61184   1.82151    0.000
 4976.00    1.67650   1.83814    0.000
 4977.00    2.82410   1.86153    0.000
 4978.00    3.51842   1.87625    0.000
 4979.00    3.12867   1.88555    0.000
 4980.00    2.72355   1.88318    0.000
 4981.00    2.28668   1.86940    0.000
 4982.00    2.14932   1.85051    0.000
 4983.00    2.55007   1.81982    0.000
 4984.00    2.70609   1.80290    0.000
 4985.00    2.47759   1.80094    0.000
 4986.00    2.34819   1.76937    0.000
 4987.00    2.35547   1.70828    0.000
 4988.00    2.39213   1.68251    0.000
 4989.00    2.46445   1.71263    0.000
 4990.00    2.46789   1.75181    0.000
 4991.00    2.39759   1.78927    0.000
 4992.00    2.27145   1.83344    0.000
 4993.00    2.09258   1.85103    0.000
 4994.00    2.29133   1.83748    0.000
 4995.00    2.80442   1.81680    0.000
 4996.00    2.79239   1.80801    0.000
 4997.00    2.39554   1.82924    0.000
 4998.00    2.45102   1.83490    0.000
 4999.00    2.79759   1.82417    0.000
 5000.00    2.77010   1.84012    0.000
 5001.00    2.53203   1.85538    0.000
 5002.00    2.38881   1.85170    0.000
 5003.00    2.29208   1.83501    0.000
 5004.00    2.33944   1.79547    0.000
 5005.00    2.44782   1.76022    0.000
 5006.00    2.42256   1.75613    0.000
 5007.00    2.34885   1.76703    0.000
 5008.00    2.28173   1.78125    0.000
 5009.00    2.21664   1.77549    0.000
 5010.00    2.46730   1.73767    0.000
 5011.00    2.79859   1.70565    0.000
 5012.00    2.72710   1.73460    0.000
 5013.00    2.57194   1.80226    0.000
 5014.00    2.27056   1.83451    0.000
 5015.00    1.94525   1.82423    0.000
 5016.00    2.21173   1.79502    0.000
 5017.00    2.55083   1.74817    0.000
 5018.00    1.55696   1.70657    0.000
 5019.00    0.45041   1.68106    0.000
 5020.00    1.16353   1.68105    0.000
 5021.00    1.96556   1.71414    0.000
 5022.00    2.39200   1.73576    0.000
 5023.00    2.79574   1.74170    0.000
 5024.00    2.16919   1.76402    0.000
 5025.00    1.59152   1.79207    0.000
 5026.00    1.99421   1.78764    0.000
 5027.00    2.33659   1.76438    0.000
 5028.00    1.97426   1.77687    0.000
 5029.00    1.65909   1.81421    0.004
 5030.00    1.72461   1.82689    0.004
 5031.00    1.79681   1.81680    0.004
 5032.00    1.90942   1.78781    0.004
 5033.00    2.02380   1.78561    0.004
 5034.00    2.14663   1.82699    0.004
 5035.00    2.30396   1.85292    0.004
 5036.00    2.59566   1.86350    0.004
 5037.00    2.83511   1.88763    0.004
 5038.00    2.90508   1.91254    0.004
 5039.00    2.85688   1.90016    0.004
 5040.00    2.48432   1.83559    0.004
 5041.00    2.25665   1.78344    0.004
 5042.00    2.36970   1.79959    0.004
 5043.00    2.54877   1.81191    0.004
 5044.00    2.86205   1.76711    0.004
 5045.00    2.81873   1.69193    0.004
 5046.00    2.14448   1.64768    0.004
 5047.00    1.72932   1.70492    0.004
 5048.00    1.71523   1.80839    0.004
 5049.00    1.66823   1.86669    0.004
 5050.00    1.57649   1.90463    0.004
 5051.00    1.58607   1.92833    0.004
 5052.00    1.71694   1.90157    0.004
 5053.00    2.04040   1.83247    0.004
 5054.00    2.56711   1.78615    0.004
 5055.00    2.75981   1.78702    0.004
 5056.00    2.64160   1.79862    0.004
 5057.00    2.39709   1.81240    0.004
 5058.00    2.04896   1.84616    0.004
 5059.00    1.86542   1.88277    0.004
 5060.00    1.80078   1.89491    0.004
 5061.00    2.08118   1.89028    0.004
 5062.00    2.58035   1.89299    0.004
 5063.00    2.79343   1.90727    0.004
 5064.00    2.84791   1.90965    0.004
 5065.00    2.60568   1.91513    0.004
 5066.00    2.22040   1.93408    0.004
 5067.00    2.11313   1.94061    0.004
 5068.00    2.12160   1.90902    0.004
 5069.00    2.02539   1.83748    0.004
 5070.00    1.89191   1.79068    0.004
 5071.00    1.92286   1.81657    0.004
 5072.00    2.00326   1.84036    0.004
 5073.00    2.07514   1.82794    0.004
 5074.00    2.14489   1.83506    0.004
 5075.00    2.22739   1.87051    0.004
 5076.00    2.31248   1.86692    0.004
 5077.00    1.98031   1.83010    0.004
 5078.00    1.58184   1.83413    0.004
 5079.00    1.91006   1.86412    0.004
 5080.00    2.32424   1.85922    0.004
 5081.00    2.23723   1.84765    0.004
 5082.00    2.10993   1.86298    0.004
 5083.00    2.03926   1.85117    0.004
 5084.00    1.97114   1.76945    0.004
 5085.00    2.44659   1.71837    0.004
 5086.00    2.91916   1.74954    0.004
 5087.00    2.92780   1.79233    0.004
 5088.00    2.93538   1.79905    0.004
 5089.00    2.92306   1.81450    0.004
 5090.00    2.88210   1.85008    0.004
 5091.00    2.52215   1.86837    0.004
 5092.00    2.17520   1.86403    0.004
 5093.00    1.92952   1.86400    0.004
 5094.00    1.76190   1.87882    0.004
 5095.00    2.05421   1.88577    0.004
 5096.00    2.35053   1.88642    0.004
 5097.00    2.66559   1.90275    0.004
 5098.00    2.83172   1.92772    0.004
 5099.00    2.43016   1.92787    0.004
 5100.00    2.12429   1.90095    0.004
 5101.00    2.12279   1.86974    0.004
 5102.00    2.07025   1.83889    0.004
 5103.00    1.88011   1.79673    0.004
 5104.00    1.85361   1.76449    0.004
 5105.00    2.20546   1.79629    0.004
 5106.00    2.38098   1.86009    0.004
 5107.00    2.20370   1.88832    0.004
 5108.00    1.94051   1.87778    0.004
 5109.00    1.52763   1.85800    0.004
 5110.00    1.45633   1.85041    0.004
 5111.00    1.90605   1.84224    0.004
 5112.00    2.35691   1.81623    0.004
 5113.00    2.80928   1.80781    0.004
 5114.00    2.84062   1.81566    0.004
 5115.00    2.37513   1.80790    0.004
 5116.00    2.30289   1.82593    0.004
 5117.00    2.63985   1.86340    0.004
 5118.00    2.44582   1.87408    0.004
 5119.00    1.76445   1.88399    0.004
 5120.00    1.50406   1.89619    0.004
 5121.00    1.58423   1.90706    0.004
 5122.00    1.85771   1.92948    0.004
 5123.00    2.26880   1.94093    0.004
 5124.00    2.38286   1.92835    0.004
 5125.00    2.31136   1.90314    0.004
 5126.00    2.31450   1.87564    0.004
 5127.00    2.35838   1.84598    0.004
 5128.00    2.46697   1.79988    0.004
 5129.00    2.60627   1.77151    0.004
 5130.00    2.49296   1.78899    0.004
 5131.00    2.27626   1.80895    0.004
 5132.00    1.76776   1.80676    0.004
 5133.00    1.15724   1.79971    0.004
 5134.00    1.06443   1.79778    0.004
 5135.00    1.12426   1.81010    0.004
 5136.00    1.70532   1.84187    0.004
 5137.00    2.41372   1.86564    0.004
 5138.00    2.70675   1.86835    0.004
 5139.00    2.91773   1.87883    0.004
 5140.00    2.65213   1.90864    0.004
 5141.00    2.31304   1.90273    0.004
 5142.00    2.28521   1.86202    0.004
 5143.00    2.29282   1.82817    0.004
 5144.00    2.07525   1.80302    0.004
 5145.00    1.84051   1.82847    0.004
 5146.00    1.89621   1.86296    0.004
 5147.00    1.96387   1.82362    0.004
 5148.00    2.24377   1.79943    0.004
 5149.00    2.51434   1.83494    0.004
 5150.00    2.31902   1.84571    0.004
 5151.00    2.12548   1.82180    0.004
 5152.00    1.96270   1.80900    0.004
 5153.00    1.85944   1.81920    0.004
 5154.00    2.38947   1.84658    0.004
 5155.00    2.82354   1.84541    0.004
 5156.00    2.53536   1.81825    0.004
 5157.00    2.19927   1.80359    0.004
 5158.00    1.58867   1.80187    0.004
 5159.00    1.17023   1.80840    0.004
 5160.00    1.62710   1.83688    0.004
 5161.00    1.98800   1.87904    0.004
 5162.00    1.99080   1.91710    0.004
 5163.00    1.94676   1.93846    0.004
 5164.00    1.75663   1.93105    0.004
 5165.00    1.73352   1.93065    0.004
 5166.00    2.15280   1.92889    0.004
 5167.00    2.35435   1.89689    0.004
 5168.00    2.06079   1.87314    0.004
 5169.00    1.84983   1.85632    0.004
 5170.00    1.80152   1.79008    0.004
 5171.00    1.85522   1.68013    0.004
 5172.00    2.08402   1.57818    0.004
 5173.00    2.09811   1.55927    0.004
 5174.00    1.78952   1.63760    0.004
 5175.00    1.78577   1.72200    0.004
 5176.00    2.18466   1.69169    0.004
 5177.00    2.23641   1.57185    0.004
 5178.00    1.88431   1.53791    0.004
 5179.00    1.87063   1.65599    0.004
 5180.00    2.20412   1.79151    0.004
 5181.00    2.09192   1.84462    0.004
 5182.00    1.57643   1.85669    0.004
 5183.00    1.53347   1.86981    0.004
 5184.00    1.86737   1.86669    0.004
 5185.00    1.99635   1.84449    0.004
 5186.00    1.98157   1.80225    0.004
 5187.00    1.92135   1.70771    0.004
 5188.00    1.83317   1.57552    0.004
 5189.00    1.90341   1.54152    0.004
 5190.00    2.05880   1.66230    0.000
 5191.00    2.37631   1.80783    0.000
 5192.00    2.76949   1.87622    0.000
 5193.00    2.68527   1.87990    0.000
 5194.00    2.40900   1.89199    0.000
 5195.00    2.43708   1.91654    0.000
 5196.00    2.56962   1.86363    0.000
 5197.00    2.57267   1.77260    0.000
 5198.00    2.53831   1.76818    0.000
 5199.00    2.36106   1.81984    0.000
 5200.00    2.14967   1.83471    0.000
 5201.00    2.46663   1.84417    0.000
 5202.00    2.88529   1.87531    0.000
 5203.00    2.42441   1.90264    0.000
 5204.00    1.83203   1.92316    0.000
 5205.00    1.81770   1.93026    0.000
 5206.00    1.86667   1.92217    0.000
 5207.00    2.15012   1.90694    0.000
 5208.00    2.45050   1.88999    0.000
 5209.00    2.58194   1.83517    0.000
 5210.00    2.70708   1.75991    0.000
 5211.00    3.00236   1.73605    0.004
 5212.00    3.28942   1.75180    0.004
 5213.00    3.24798   1.73921    0.004
 5214.00    3.17339   1.73902    0.004
 5215.00    2.56126   1.78675    0.004
 5216.00    2.00136   1.85212    0.004
 5217.00    1.97308   1.91636    0.004
 5218.00    1.96725   1.96087    0.004
 5219.00    2.12477   1.96059    0.004
 5220.00    2.28531   1.91435    0.004
 5221.00    2.46267   1.87369    0.004
 5222.00    2.57699   1.88160    0.004
 5223.00    2.41089   1.92505    0.004
 5224.00    2.27321   1.96554    0.004
 5225.00    2.23938   1.98209    0.004
 5226.00    2.19455   1.99311    0.004
 5227.00    2.11610   1.99030    0.004
 5228.00    2.03748   1.95801    0.004
 5229.00    1.95844   1.89976    0.004
 5230.00    1.99955   1.82959    0.004
 5231.00    2.30936   1.75890    0.004
 5232.00    2.44721   1.73444    0.004
 5233.00    2.25171   1.81186    0.004
 5234.00    2.17931   1.91714    0.004
 5235.00    2.31495   1.96584    0.004
 5236.00    2.25596   1.98041    0.004
 5237.00    1.90873   1.95084    0.004
 5238.00    1.96001   1.89262    0.004
 5239.00    2.53013   1.87701    0.004
 5240.00    2.73488   1.90611    0.004
 5241.00    2.52058   1.95739    0.004
 5242.00    2.39789   2.00282    0.004
 5243.00    2.36787   2.01745    0.004
 5244.00    2.23006   2.00689    0.004
 5245.00    1.99609   1.99898    0.004
 5246.00    2.05439   2.00396    0.004
 5247.00    2.34246   2.00415    0.004
 5248.00    2.46562   1.99985    0.004
 5249.00    2.47476   2.01936    0.004
 5250.00    2.31413   2.03682    0.004
 5251.00    2.05060   1.98778    0.004
 5252.00    2.44768   1.91051    0.004
 5253.00    3.19436   1.89686    0.004
 5254.00    2.70966   1.91643    0.004
 5255.00    1.65951   1.89542    0.004
 5256.00    1.59764   1.88556    0.004
 5257.00    1.92649   1.91889    0.004
 5258.00    2.21067   1.94901    0.004
 5259.00    2.47980   1.93837    0.004
 5260.00    2.44650   1.91106    0.004
 5261.00    2.32761   1.94023    0.004
 5262.00    2.25885   2.01233    0.004
 5263.00    2.20179   2.05872    0.004
 5264.00    1.99362   2.06186    0.004
 5265.00    1.75713   2.03122    0.004
 5266.00    1.45304   1.97663    0.004
 5267.00    1.13917   1.90608    0.004
 5268.00    1.77040   1.83876    0.004
 5269.00    2.50105   1.79146    0.004
 5270.00    2.52847   1.75772    0.004
 5271.00    2.50795   1.75351    0.004
 5272.00    2.44712   1.81231    0.004
 5273.00    2.38494   1.84181    0.004
 5274.00    2.24963   1.74967    0.004
 5275.00    2.11281   1.67924    0.004
 5276.00    1.93021   1.75970    0.004
 5277.00    1.76081   1.87769    0.004
 5278.00    1.79230   1.92085    0.004
 5279.00    1.80167   1.92135    0.004
 5280.00    1.59522   1.90603    0.004
 5281.00    1.43917   1.91465    0.004
 5282.00    1.63806   1.98608    0.004
 5283.00    1.80917   2.05396    0.004
 5284.00    1.82963   2.06244    0.004
 5285.00    1.87621   2.02476    0.004
 5286.00    2.03634   1.97919    0.004
 5287.00    2.18036   1.94483    0.004
 5288.00    2.26675   1.91761    0.004
 5289.00    2.32335   1.91712    0.004
 5290.00    2.29052   1.98179    0.004
 5291.00    2.21951   2.06735    0.004
 5292.00    2.05091   2.10124    0.004
 5293.00    1.95992   2.08597    0.004
 5294.00    2.03965   2.07326    0.004
 5295.00    2.08221   2.08711    0.004
 5296.00    2.05383   2.10162    0.004
 5297.00    1.97082   2.09104    0.004
 5298.00    1.79685   2.06675    0.004
 5299.00    1.82776   2.05919    0.004
 5300.00    2.15769   2.05150    0.004
 5301.00    2.33132   2.00086    0.004
 5302.00    2.30438   1.91422    0.004
 5303.00    2.28064   1.86687    0.004
 5304.00    2.26054   1.91162    0.004
 5305.00    2.24658   1.97676    0.004
 5306.00    2.23876   1.98573    0.004
 5307.00    2.29940   1.97996    0.004
 5308.00    2.42026   2.01400    0.004
 5309.00    2.24215   2.07182    0.004
 5310.00    1.83236   2.10875    0.004
 5311.00    1.75673   2.10370    0.004
 5312.00    1.90879   2.07499    0.004
 5313.00    2.11811   2.06824    0.004
 5314.00    2.36162   2.09309    0.004
 5315.00    2.57593   2.11355    0.004
 5316.00    2.77504   2.11202    0.004
 5317.00    2.82787   2.09885    0.004
 5318.00    2.81462   2.08291    0.004
 5319.00    2.59775   2.07578    0.004
 5320.00    2.30178   2.06979    0.004
 5321.00    2.12770   2.04844    0.004
 5322.00    1.99391   2.03518    0.004
 5323.00    1.95650   2.04727    0.004
 5324.00    1.94581   2.05614    0.004
 5325.00    1.88018   2.04910    0.004
 5326.00    1.80201   2.04553    0.004
 5327.00    1.80497   2.04213    0.004
 5328.00    1.82273   2.01709    0.004
 5329.00    1.88155   1.97368    0.004
 5330.00    1.94613   1.97080    0.004
 5331.00    1.86536   1.98143    0.004
 5332.00    1.76992   1.90953    0.004
 5333.00    2.02023   1.78277    0.004
 5334.00    2.29272   1.76920    0.004
 5335.00    2.27583   1.88663    0.004
 5336.00    2.25139   1.99647    0.004
 5337.00    2.66759   2.02602    0.004
 5338.00    3.06179   2.02055    0.004
 5339.00    2.82689   2.04489    0.004
 5340.00    2.59359   2.08129    0.004
 5341.00    2.38326   2.08506    0.004
 5342.00    2.19407   2.07043    0.004
 5343.00    2.20280   2.06430    0.004
 5344.00    2.24568   2.03528    0.004
 5345.00    2.52146   1.96645    0.004
 5346.00    2.65806   1.93479    0.004
 5347.00    2.05982   1.98504    0.004
 5348.00    1.69745   2.04688    0.004
 5349.00    2.33672   2.06909    0.004
 5350.00    2.83050   2.04980    0.004
 5351.00    2.81427   2.02580    0.004
 5352.00    2.74327   2.03044    0.004
 5353.00    2.51082   2.02415    0.004
 5354.00    2.40375   1.99599    0.004
 5355.00    2.61167   2.00480    0.004
 5356.00    2.59371   2.05777    0.004
 5357.00    2.08690   2.09875    0.004
 5358.00    1.67835   2.10593    0.004
 5359.00    1.45440   2.11981    0.004
 5360.00    1.40364   2.15079    0.004
 5361.00    1.63695   2.16668    0.004
 5362.00    1.81295   2.16761    0.004
 5363.00    1.90651   2.16695    0.004
 5364.00    2.05464   2.16528    0.004
 5365.00    2.27181   2.15432    0.004
 5366.00    2.43954   2.12411    0.004
 5367.00    2.55216   2.08892    0.004
 5368.00    2.50037   2.07613   -2.000
 5369.00    2.28692   2.07130   -2.000
 5370.00    2.31431   2.05497   -2.000
 5371.00    2.55054   2.04945   -2.000
 5372.00    2.70838   2.05489   -2.000
 5373.00    2.80635   2.05482   -2.000
 5374.00    2.76251   2.02688   -2.000
 5375.00    2.62345   1.95681   -2.000
 5376.00    2.34154   1.89223   -2.000
 5377.00    1.97559   1.91288   -2.000
 5378.00    1.86982   2.01231   -2.000
 5379.00    1.89747   2.10043   -2.000
 5380.00    1.92156   2.13901   -2.000
 5381.00    1.94406   2.13560   -2.000
 5382.00    2.12035   2.11556   -2.000
 5383.00    2.35534   2.11559    0.004
 5384.00    2.29130   2.12670    0.004
 5385.00    2.13027   2.11834    0.004
 5386.00    2.25929   2.09921    0.004
 5387.00    2.46706   2.08457    0.004
 5388.00    2.21965   2.07046    0.004
 5389.00    1.87084   2.07526    0.004
 5390.00    1.89040   2.10207    0.003
 5391.00    1.97539   2.11774    0.003
 5392.00    2.14844   2.11459    0.004
 5393.00    2.33343   2.10209    0.004
 5394.00    2.32762   2.07666    0.004
 5395.00    2.30338   2.04694    0.004
 5396.00    1.96053   2.03041    0.004
 5397.00    1.59851   2.02747    0.004
 5398.00    1.68433   2.02747    0.004
 5399.00    1.78290   2.02717    0.004
 5400.00    2.06277   2.02462    0.004
 5401.00    2.32011   1.98892    0.004
 5402.00    1.99631   1.93314    0.004
 5403.00    1.69994   1.94698    0.004
 5404.00    1.77545   2.01927    0.004
 5405.00    1.83812   2.05608    0.004
 5406.00    1.78539   2.05855    0.004
 5407.00    1.75671   2.06959    0.004
 5408.00    1.88694   2.05780    0.004
 5409.00    2.00799   1.98965    0.004
 5410.00    2.08176   1.90600    0.004
 5411.00    2.13665   1.87655    0.004
 5412.00    2.11317   1.92234    0.004
 5413.00    2.12413   1.97446    0.004
 5414.00    2.25334   1.95381    0.004
 5415.00    2.34289   1.87824    0.004
 5416.00    2.31772   1.84701    0.004
 5417.00    2.26756   1.89950    0.004
 5418.00    2.15567   1.98256    0.003
 5419.00    2.14186   2.03553    0.003
 5420.00    2.33689   2.05767    0.004
 5421.00    2.42436   2.09058    0.004
 5422.00    2.31292   2.12951    0.003
 5423.00    2.29711   2.14040    0.003
 5424.00    2.43581   2.12144    0.003
 5425.00    2.46494   2.09311    0.003
 5426.00    2.33877   2.08468    0.003
 5427.00    2.15086   2.10449    0.003
 5428.00    1.88596   2.10251    0.003
 5429.00    1.72926   2.06313    0.003
 5430.00    1.69149   2.05598    0.003
 5431.00    1.61164   2.10579    0.003
 5432.00    1.49099   2.15597    0.003
 5433.00    1.62684   2.13803    0.003
 5434.00    1.98197   2.03968    0.003
 5435.00    2.20552   1.97514    0.003
 5436.00    2.32998   2.01487    0.003
 5437.00    2.56935   2.05615    0.003
 5438.00    2.88476   2.03416    0.003
 5439.00    2.67659   1.99339    0.003
 5440.00    2.16511   1.97890    0.003
 5441.00    2.11135   2.00023    0.003
 5442.00    2.28863   2.04688    0.003
 5443.00    2.46966   2.10635    0.003
 5444.00    2.65232   2.15815    0.003
 5445.00    2.54021   2.18601    0.003
 5446.00    2.31755   2.19252    0.004
 5447.00    2.10415   2.19149    0.003
 5448.00    1.89368   2.19045    0.003
 5449.00    1.90863   2.17021    0.003
 5450.00    1.98351   2.10968    0.004
 5451.00    2.01864   2.01592    0.004
 5452.00    2.04512   1.95459    0.004
 5453.00    2.09642   1.98992    0.004
 5454.00    2.15202   2.07273    0.004
 5455.00    2.11496   2.12344    0.004
 5456.00    2.06576   2.13210    0.004
 5457.00    2.08653   2.12188    0.004
 5458.00    2.11377   2.10113    0.004
 5459.00    2.13436   2.05603    0.003
 5460.00    2.15457   1.98717    0.003
 5461.00    2.46124   1.96072    0.004
 5462.00    2.77078   2.01993    0.004
 5463.00    2.71290   2.10402    0.004
 5464.00    2.65800   2.14398    0.004
 5465.00    2.67335   2.13423    0.003
 5466.00    2.68869   2.10519    0.003
 5467.00    2.70393   2.07053    0.003
 5468.00    2.68846   2.03704    0.003
 5469.00    2.40723   2.04274    0.003
 5470.00    2.15084   2.08295    0.003
 5471.00    2.05367   2.10274    0.003
 5472.00    1.97546   2.10432    0.003
 5473.00    1.99231   2.11587    0.003
 5474.00    2.00421   2.11933    0.003
 5475.00    1.99604   2.09827    0.003
 5476.00    2.02004   2.08370    0.003
 5477.00    2.15231   2.08440    0.003
 5478.00    2.21943   2.06911   -2.000
 5479.00    2.10152   2.05077   -2.000
 5480.00    2.03288   2.04346   -2.000
 5481.00    2.08382   2.00198   -2.000
 5482.00    2.21646   1.95497   -2.000
 5483.00    2.52027   1.98949   -2.000
 5484.00    2.47898   2.07018   -2.000
 5485.00    1.80924   2.09320   -2.000
 5486.00    1.61347   2.04833   -2.000
 5487.00    2.17214   2.01788   -2.000
 5488.00    2.59988   2.04183   -2.000
 5489.00    2.84471   2.09262   -2.000
 5490.00    2.76769   2.13803   -2.000
 5491.00    2.29499   2.14472   -2.000
 5492.00    1.81053   2.10490   -2.000
 5493.00    1.31333   2.07095   -2.000
 5494.00    1.24073   2.07819   -2.000
 5495.00    1.57400   2.09417   -2.000
 5496.00    1.89824   2.10721   -2.000
 5497.00    2.21487   2.12198   -2.000
 5498.00    2.41809   2.11588   -2.000
 5499.00    2.53714   2.10159   -2.000
 5500.00    2.49286   2.11114   -2.000
 5501.00    2.34210   2.11742   -2.000
 5502.00    2.29320   2.09006    0.003
 5503.00    2.30243   2.08084    0.003
 5504.00    2.47397   2.12130    0.003
 5505.00    2.72615   2.14561    0.003
 5506.00    2.75974   2.11251    0.003
 5507.00    2.69941   2.07366    0.003
 5508.00    2.53999   2.07372    0.003
 5509.00    2.34406   2.09349    0.003
 5510.00    1.89080   2.09336    0.003
 5511.00    1.35723   2.06002    0.003
 5512.00    1.45512   2.03835    0.003
 5513.00    1.71731   2.06699    0.003
 5514.00    2.00186   2.10139    0.003
 5515.00    2.29115   2.10663    0.003
 5516.00    2.19056   2.08937    0.003
 5517.00    2.02453   2.05207    0.003
 5518.00    2.03479   2.02350    0.003
 5519.00    2.06738   2.02725    0.003
 5520.00    2.28511   2.05149    0.003
 5521.00    2.51916   2.07806    0.003
 5522.00    2.32958   2.10372    0.003
 5523.00    2.11786   2.13940    0.003
 5524.00    1.94196   2.17209    0.003
 5525.00    1.77136   2.17758    0.003
 5526.00    1.95122   2.16596    0.003
 5527.00    2.13422   2.15869    0.003
 5528.00    2.38469   2.15915    0.003
 5529.00    2.59959   2.15881    0.003
 5530.00    2.38049   2.14653    0.003
 5531.00    2.15365   2.12014    0.003
 5532.00    1.86230   2.07991    0.003
 5533.00    1.66170   2.03696    0.003
 5534.00    2.02564   2.03721    0.003
 5535.00    2.31281   2.09206    0.003
 5536.00    2.22467   2.14190    0.003
 5537.00    2.10206   2.14952    0.003
 5538.00    1.84257   2.13690    0.003
 5539.00    1.70166   2.12187    0.003
 5540.00    1.95199   2.10597    0.003
 5541.00    2.13356   2.10707    0.003
 5542.00    2.12337   2.12413    0.003
 5543.00    2.07381   2.13226    0.003
 5544.00    1.93026   2.14117    0.003
 5545.00    1.90923   2.16646    0.003
 5546.00    2.14074   2.19006    0.003
 5547.00    2.27480   2.18655    0.003
 5548.00    2.23410   2.15785    0.003
 5549.00    2.16300   2.13788    0.003
 5550.00    2.04422   2.13936    0.003
 5551.00    1.97109   2.14003    0.003
 5552.00    1.96080   2.14563    0.003
 5553.00    2.07622   2.17335    0.003
 5554.00    2.34397   2.20183    0.003
 5555.00    2.40851   2.21142    0.003
 5556.00    2.25593   2.21039    0.003
 5557.00    2.04548   2.20221    0.003
 5558.00    1.78050   2.18109    0.003
 5559.00    1.59690   2.15511    0.003
 5560.00    1.48093   2.14574    0.003
 5561.00    1.80999   2.15648    0.003
 5562.00    2.46460   2.16351    0.003
 5563.00    2.57514   2.16024    0.003
 5564.00    2.33620   2.16250    0.003
 5565.00    2.14325   2.16794    0.003
 5566.00    1.97616   2.16457    0.003
 5567.00    1.96924   2.14853    0.003
 5568.00    2.04065   2.12973    0.003
 5569.00    1.94098   2.12727    0.003
 5570.00    1.76903   2.12966    0.003
 5571.00    1.59734   2.11754    0.003
 5572.00    1.42574   2.11004    0.003
 5573.00    1.77438   2.11670    0.003
 5574.00    2.28224   2.11537    0.003
 5575.00    2.16389   2.11458    0.003
 5576.00    1.88610   2.13590    0.003
 5577.00    1.61090   2.13805    0.003
 5578.00    1.33624   2.10979    0.003
 5579.00    1.46699   2.11637    0.003
 5580.00    1.66385   2.15089    0.003
 5581.00    1.77421   2.15847    0.003
 5582.00    1.87400   2.15797    0.003
 5583.00    1.82234   2.16662    0.003
 5584.00    1.75794   2.16895    0.003
 5585.00    1.65735   2.17492    0.003
 5586.00    1.55500   2.17893    0.003
 5587.00    1.63120   2.16600    0.003
 5588.00    1.70876   2.15766    0.003
 5589.00    1.70780   2.15815    0.003
 5590.00    1.70696   2.14082    0.003
 5591.00    1.70856   2.09495    0.003
 5592.00    1.71229   2.03574    0.003
 5593.00    1.74078   1.99718    0.003
 5594.00    1.74817   1.99777    0.003
 5595.00    1.58607   2.02711    0.003
 5596.00    1.50236   2.04434    0.003
 5597.00    1.89224   2.03154    0.003
 5598.00    2.17427   2.02037    0.003
 5599.00    1.94214   2.04190    0.003
 5600.00    1.76799   2.09071    0.003
 5601.00    1.81905   2.15031    0.003
 5602.00    1.85112   2.17993    0.003
 5603.00    1.82173   2.14498    0.003
 5604.00    1.75484   2.09979    0.003
 5605.00    1.58525   2.08912    0.003
 5606.00    1.48566   2.08166    0.003
 5607.00    1.55030   2.06041    0.003
 5608.00    1.65452   2.05417    0.003
 5609.00    1.83906   2.09214    0.003
 5610.00    1.95880   2.15682    0.003
 5611.00    1.96413   2.20511    0.003
 5612.00    1.93349   2.22509    0.003
 5613.00    1.84727   2.22726    0.003
 5614.00    1.79640   2.22097    0.003
 5615.00    1.79350   2.21397    0.003
 5616.00    1.79094   2.21603    0.003
 5617.00    1.78880   2.22924    0.003
 5618.00    1.81708   2.23442    0.003
 5619.00    1.87739   2.19250    0.003
 5620.00    2.02788   2.09591    0.003
 5621.00    2.26216   2.02865    0.003
 5622.00    2.17069   2.06032    0.003
 5623.00    1.81238   2.12558    0.003
 5624.00    1.55729   2.14649    0.003
 5625.00    1.37664   2.14059    0.003
 5626.00    1.59576   2.15126    0.003
 5627.00    2.06788   2.17729    0.003
 5628.00    2.28368   2.17681    0.003
 5629.00    2.35766   2.12559    0.003
 5630.00    2.35128   2.07196    0.003
 5631.00    2.30624   2.07841    0.003
 5632.00    2.40664   2.12321    0.003
 5633.00    2.56747   2.15494    0.003
 5634.00    2.38597   2.17714    0.003
 5635.00    2.08286   2.20241    0.003
 5636.00    1.90765   2.21833    0.003
 5637.00    1.77080   2.21918    0.003
 5638.00    1.70505   2.20960    0.003
 5639.00    1.65701   2.19418    0.003
 5640.00    1.72002   2.17749    0.003
 5641.00    1.80546   2.15922    0.003
 5642.00    1.80673   2.13895    0.003
 5643.00    1.79468   2.13023    0.003
 5644.00    1.75465   2.14138    0.003
 5645.00    1.71133   2.14984    0.003
 5646.00    1.84561   2.13568    0.003
 5647.00    1.99407   2.12384    0.003
 5648.00    2.13369   2.13657    0.003
 5649.00    2.27291   2.15314    0.003
 5650.00    2.22404   2.16223    0.003
 5651.00    2.17044   2.17110    0.003
 5652.00    1.99076   2.18091    0.003
 5653.00    1.82238   2.18750    0.003
 5654.00    1.86242   2.18281    0.003
 5655.00    1.89768   2.17422    0.003
 5656.00    1.88004   2.18171    0.003
 5657.00    1.85406   2.20455    0.003
 5658.00    1.76343   2.21857    0.003
 5659.00    1.69650   2.20265    0.003
 5660.00    1.76872   2.17189    0.003
 5661.00    1.77747   2.16489    0.003
 5662.00    1.49091   2.15943    0.003
 5663.00    1.31250   2.10117    0.003
 5664.00    1.54518   2.04466    0.003
 5665.00    1.72776   2.07401    0.003
 5666.00    1.75136   2.13169    0.003
 5667.00    1.79088   2.13211    0.003
 5668.00    1.87324   2.11109    0.003
 5669.00    1.89861   2.13154    0.003
 5670.00    1.79247   2.17619    0.003
 5671.00    1.76545   2.19565    0.003
 5672.00    1.89643   2.17863    0.003
 5673.00    2.01074   2.15217    0.003
 5674.00    2.09606   2.14696    0.003
 5675.00    2.10334   2.15964    0.003
 5676.00    1.99179   2.17323    0.003
 5677.00    1.88602   2.19356    0.003
 5678.00    1.78800   2.22697    0.003
 5679.00    1.89548   2.25002    0.003
 5680.00    2.24503   2.24325    0.003
 5681.00    2.46681   2.23275    0.003
 5682.00    2.55589   2.24271    0.003
 5683.00    2.50603   2.24845    0.003
 5684.00    2.32888   2.23192    0.003
 5685.00    2.19782   2.21742    0.003
 5686.00    2.10398   2.21342    0.003
 5687.00    1.96002   2.19254    0.003
 5688.00    1.78043   2.15961    0.003
 5689.00    1.74081   2.15690    0.003
 5690.00    1.78845   2.18305    0.003
 5691.00    1.88012   2.19309    0.003
 5692.00    1.99578   2.16976    0.003
 5693.00    2.13389   2.14379    0.003
 5694.00    2.28263   2.14839    0.003
 5695.00    2.26683   2.18086    0.003
 5696.00    2.18383   2.21477    0.003
 5697.00    2.13758   2.23911    0.003
 5698.00    2.10415   2.25526    0.003
 5699.00    2.05951   2.25447    0.003
 5700.00    2.01157   2.24415    0.003
 5701.00    2.00958   2.24249    0.003
 5702.00    2.01878   2.24257    0.003
 5703.00    2.05184   2.22164    0.003
 5704.00    2.08960   2.19143    0.003
 5705.00    2.13321   2.17819    0.003
 5706.00    2.17773   2.16265    0.003
 5707.00    2.26101   2.14011    0.003
 5708.00    2.34869   2.14285    0.003
 5709.00    2.34371   2.17358    0.003
 5710.00    2.33172   2.19433    0.003
 5711.00    2.37925   2.17772    0.003
 5712.00    2.42920   2.14093    0.003
 5713.00    2.25172   2.10921    0.003
 5714.00    2.06935   2.08223    0.003
 5715.00    1.75802   2.07462    0.003
 5716.00    1.46341   2.08965    0.003
 5717.00    1.45608   2.10074    0.003
 5718.00    1.45476   2.12873    0.003
 5719.00    1.51695   2.18435    0.003
 5720.00    1.61314   2.22148    0.003
 5721.00    1.96410   2.23418    0.003
 5722.00    2.27187   2.24008    0.003
 5723.00    2.33319   2.23780    0.003
 5724.00    2.34376   2.24045    0.003
 5725.00    2.12377   2.25469    0.003
 5726.00    1.96332   2.26721    0.003
 5727.00    2.02439   2.27925    0.003
 5728.00    2.04038   2.29200    0.003
 5729.00    1.91607   2.29611    0.003
 5730.00    1.82579   2.29120    0.003
 5731.00    1.82540   2.27371    0.003
 5732.00    1.83628   2.23702    0.003
 5733.00    1.87274   2.21340    0.003
 5734.00    1.91105   2.23550    0.003
 5735.00    1.95299   2.26479    0.003
 5736.00    1.83553   2.25149    0.003
 5737.00    1.44500   2.22155    0.003
 5738.00    1.20504   2.22951    0.003
 5739.00    1.19095   2.26441    0.003
 5740.00    1.35528   2.28485    0.000
 5741.00    1.75487   2.28444    0.000
 5742.00    1.81317   2.27338    0.000
 5743.00    1.47516   2.26359    0.000
 5744.00    1.37071   2.26000    0.000
 5745.00    1.50545   2.25795    0.000
 5746.00    1.75097   2.25782    0.000
 5747.00    2.09656   2.25651    0.000
 5748.00    2.36474   2.24943    0.000
 5749.00    2.57130   2.25050    0.000
 5750.00    2.55198   2.27446    0.000
 5751.00    2.37447   2.30000    0.000
 5752.00    2.35168   2.29226    0.000
 5753.00    2.42392   2.25084    0.000
 5754.00    2.35707   2.22633    0.000
 5755.00    2.21562   2.25215    0.000
 5756.00    2.25903   2.28632    0.000
 5757.00    2.38856   2.27734    0.000
 5758.00    2.42853   2.22752    0.000
 5759.00    2.43255   2.17958    0.000
 5760.00    2.52107   2.17799    0.000
 5761.00    2.63853   2.22780    0.000
 5762.00    2.57523   2.28399    0.000
 5763.00    2.45982   2.30975    0.000
 5764.00    2.20930   2.30440    0.000
 5765.00    1.92660   2.27519    0.000
 5766.00    1.86662   2.23362    0.000
 5767.00    1.84937   2.19391    0.000
 5768.00    1.96878   2.17389    0.000
 5769.00    2.10855   2.20001    0.000
 5770.00    2.12612   2.26138    0.000
 5771.00    2.13037   2.30297    0.000
 5772.00    1.82863   2.31103    0.000
 5773.00    1.50495   2.30912    0.000
 5774.00    1.42541   2.30465    0.000
 5775.00    1.35487   2.29670    0.000
 5776.00    1.52173   2.28902    0.000
 5777.00    1.69052   2.27859    0.000
 5778.00    1.89258   2.26969    0.000
 5779.00    2.07697   2.26757    0.000
 5780.00    1.97716   2.26361    0.000
 5781.00    1.89092   2.26603    0.000
 5782.00    1.94190   2.28178    0.000
 5783.00    1.97835   2.29128    0.000
 5784.00    1.90945   2.28244    0.000
 5785.00    1.85671   2.24572    0.000
 5786.00    1.89372   2.17995    0.000
 5787.00    1.97690   2.12758    0.000
 5788.00    2.26482   2.13003    0.000
 5789.00    2.47836   2.15368    0.000
 5790.00    2.42091   2.14858    0.000
 5791.00    2.36833   2.13880   -2.000
 5792.00    2.33062   2.17395   -2.000
 5793.00    2.35051   2.22865   -2.000
 5794.00    2.51996   2.25991   -2.000
 5795.00    2.58765   2.26465   -2.000
 5796.00    2.42822   2.24307   -2.000
 5797.00    2.25496   2.22893   -2.000
 5798.00    2.05495   2.25176   -2.000
 5799.00    1.87960   2.28367   -2.000
 5800.00    1.74585   2.30702   -2.000
 5801.00    1.80389   2.31612   -2.000
 5802.00    2.14547   2.29138   -2.000
 5803.00    2.34106   2.24828   -2.000
 5804.00    2.34693   2.24134   -2.000
 5805.00    2.37927   2.27217   -2.000
 5806.00    2.44193   2.28022   -2.000
 5807.00    2.51722   2.27727   -2.000
 5808.00    2.60527   2.29144   -2.000
 5809.00    2.65563   2.30050   -2.000
 5810.00    2.67241   2.27739   -2.000
 5811.00    2.68202   2.26335    0.000
 5812.00    2.68600   2.27477    0.000
 5813.00    2.51788   2.28892    0.000
 5814.00    2.23100   2.29671    0.000
 5815.00    2.01207   2.29974    0.000
 5816.00    1.83427   2.29016    0.000
 5817.00    1.80475   2.26761    0.000
 5818.00    1.85354   2.26134    0.000
 5819.00    1.91064   2.27637    0.000
 5820.00    1.97154   2.28643    0.000
 5821.00    2.02924   2.26207    0.000
 5822.00    2.08567   2.24976    0.000
 5823.00    2.24390   2.27493    0.000
 5824.00    2.43633   2.31692    0.000
 5825.00    2.42711   2.34070    0.000
 5826.00    2.36095   2.34636    0.000
 5827.00    2.21256   2.34308    0.000
 5828.00    2.04503   2.33208    0.000
 5829.00    1.87066   2.32425    0.000
 5830.00    1.69502   2.33116    0.000
 5831.00    1.70941   2.34947    0.000
 5832.00    1.75122   2.35711    0.000
 5833.00    1.75597   2.35162    0.000
 5834.00    1.75684   2.34582    0.000
 5835.00    1.88366   2.35004    0.000
 5836.00    2.01900   2.35134    0.000
 5837.00    1.94898   2.34439    0.000
 5838.00    1.87217   2.34143    0.000
 5839.00    1.75284   2.33502    0.000
 5840.00    1.63859   2.31720    0.000
 5841.00    1.68535   2.31301    0.000
 5842.00    1.72519   2.32927    0.000
 5843.00    1.66036   2.33074    0.000
 5844.00    1.61029   2.31525    0.000
 5845.00    1.70354   2.31900    0.000
 5846.00    1.80258   2.34382    0.000
 5847.00    1.94225   2.36191    0.000
 5848.00    2.04233   2.36773    0.000
 5849.00    1.92850   2.36560    0.000
 5850.00    1.87769   2.35415    0.000
 5851.00    2.09999   2.33503    0.000
 5852.00    2.27610   2.31163    0.000
 5853.00    2.28736   2.29183    0.000
 5854.00    2.26868   2.29122    0.000
 5855.00    2.16028   2.30245    0.000
 5856.00    2.08892   2.30690    0.000
 5857.00    2.11209   2.29044    0.000
 5858.00    2.07880   2.25323    0.000
 5859.00    1.92156   2.22433    0.000
 5860.00    1.83824   2.23762    0.000
 5861.00    1.89571   2.26091    0.000
 5862.00    1.90186   2.23876    0.000
 5863.00    1.82271   2.19098    0.000
 5864.00    1.76823   2.18448    0.000
 5865.00    1.74968   2.22614    0.000
 5866.00    1.73273   2.26747    0.000
 5867.00    1.71781   2.28145    0.000
 5868.00    1.70337   2.27093    0.000
 5869.00    1.68946   2.26874    0.000
 5870.00    1.78966   2.28516    0.000
 5871.00    2.00347   2.28658    0.000
 5872.00    2.14245   2.26345    0.000
 5873.00    2.21575   2.25717    0.000
 5874.00    2.25623   2.28664    0.000
 5875.00    2.27133   2.31904    0.000
 5876.00    2.20380   2.33290    0.000
 5877.00    2.08007   2.32832    0.000
 5878.00    2.12526   2.31004    0.000
 5879.00    2.27113   2.28225    0.000
 5880.00    2.38620   2.21921    0.000
 5881.00    2.48526   2.15656    0.000
 5882.00    2.51502   2.14803    0.000
 5883.00    2.51354   2.19967    0.000
 5884.00    2.34310   2.26006    0.000
 5885.00    2.10717   2.25275    0.000
 5886.00    1.91410   2.23730    0.000
 5887.00    1.73517   2.24841    0.000
 5888.00    1.82494   2.26976    0.000
 5889.00    1.98902   2.26355    0.000
 5890.00    1.96191   2.24939    0.000
 5891.00    1.89133   2.25618    0.000
 5892.00    1.89879   2.25778    0.000
 5893.00    1.92045   2.20707    0.000
 5894.00    1.79883   2.05808    0.000
 5895.00    1.65721   1.84224    0.000
 5896.00    1.57779   1.73820    0.000
 5897.00    1.50462   1.85085    0.000
 5898.00    1.76408   2.01835    0.000
 5899.00    2.04471   2.09286    0.000
 5900.00    1.97053   2.05632    0.000
 5901.00    1.88577   1.92167    0.003
 5902.00    1.73843   1.84585    0.003
 5903.00    1.59564   1.95675    0.003
 5904.00    1.58096   2.10954    0.003
 5905.00    1.56353   2.17993    0.003
 5906.00    1.50700   2.21875    0.003
 5907.00    1.44911   2.25388    0.003
 5908.00    1.37867   2.26811    0.003
 5909.00    1.32395   2.27317    0.003
 5910.00    1.37611   2.27420    0.003
 5911.00    1.43645   2.26292    0.003
 5912.00    1.53990   2.25564    0.003
 5913.00    1.64073   2.27037    0.003
 5914.00    1.73049   2.28827    0.003
 5915.00    1.81414   2.29130    0.003
 5916.00    1.87644   2.29153    0.003
 5917.00    1.86535   2.30211    0.003
 5918.00    1.63848   2.29998    0.003
 5919.00    1.47568   2.26469    0.003
 5920.00    1.47355   2.22464    0.003
 5921.00    1.55061   2.21688    0.003
 5922.00    1.79870   2.23160    0.003
 5923.00    1.92567   2.25784    0.003
 5924.00    1.82560   2.27898    0.003
 5925.00    1.81381   2.29116    0.003
 5926.00    1.94655   2.30235    0.003
 5927.00    2.10923   2.29641    0.003
 5928.00    2.31489   2.28175    0.003
 5929.00    2.36921   2.28549    0.003
 5930.00    2.23239   2.30053    0.003
 5931.00    2.14844   2.31107    0.003
 5932.00    2.12332   2.31722    0.003
 5933.00    2.01707   2.30930    0.003
 5934.00    1.83117   2.28573    0.003
 5935.00    1.81789   2.25911    0.003
 5936.00    1.95404   2.25054    0.003
 5937.00    2.11362   2.28146    0.003
 5938.00    2.29106   2.31635    0.003
 5939.00    2.21723   2.30904    0.003
 5940.00    1.97499   2.27332    0.003
 5941.00    1.71659   2.26226    0.003
 5942.00    1.44870   2.29056    0.003
 5943.00    1.29784   2.31424    0.003
 5944.00    1.20689   2.32455    0.003
 5945.00    1.22013   2.33053    0.003
 5946.00    1.27957   2.30962    0.003
 5947.00    1.50557   2.27460    0.003
 5948.00    1.79502   2.26921    0.003
 5949.00    1.98912   2.29056    0.003
 5950.00    2.15238   2.31474    0.003
 5951.00    1.93413   2.33598    0.003
 5952.00    1.61256   2.34472    0.003
 5953.00    1.49779   2.32593    0.003
 5954.00    1.42894   2.28516    0.003
 5955.00    1.56036   2.26469    0.003
 5956.00    1.72722   2.28709    0.003
 5957.00    1.60776   2.30838    0.003
 5958.00    1.44961   2.28656    0.003
 5959.00    1.51892   2.26480    0.003
 5960.00    1.61007   2.28697    0.003
 5961.00    1.69762   2.30568    0.003
 5962.00    1.78495   2.28405    0.003
 5963.00    1.77439   2.26200    0.003
 5964.00    1.76308   2.27318    0.003
 5965.00    2.02441   2.30344    0.003
 5966.00    2.27826   2.33321    0.003
 5967.00    2.34149   2.35189    0.003
 5968.00    2.37401   2.35665    0.003
 5969.00    1.99315   2.35100    0.003
 5970.00    1.62615   2.34274    0.003
 5971.00    1.38318   2.32418    0.003
 5972.00    1.18538   2.31339    0.003
 5973.00    1.28494   2.33127    0.003
 5974.00    1.40903   2.35095    0.003
 5975.00    1.65893   2.36023    0.003
 5976.00    1.87280   2.36895    0.003
 5977.00    1.93751   2.37495    0.003
 5978.00    1.98289   2.37194    0.003
 5979.00    1.96210   2.36597    0.003
 5980.00    1.93911   2.35174    0.003
 5981.00    1.90981   2.31965    0.003
 5982.00    1.83252   2.28707    0.003
 5983.00    1.63697   2.27536    0.003
 5984.00    1.58565   2.28243    0.003
 5985.00    1.84076   2.30593    0.003
 5986.00    2.02391   2.33694    0.003
 5987.00    2.07420   2.35072    0.003
 5988.00    2.04541   2.33366    0.003
 5989.00    1.88906   2.28690    0.003
 5990.00    1.76616   2.24274    0.003
 5991.00    1.69060   2.25477    0.003
 5992.00    1.70901   2.29888    0.003
 5993.00    1.84439   2.31716    0.003
 5994.00    2.02363   2.32429    0.003
 5995.00    2.25099   2.33812    0.003
 5996.00    2.40013   2.34140    0.003
 5997.00    2.47358   2.32459    0.003
 5998.00    2.37510   2.32299    0.003
 5999.00    2.12991   2.35452    0.003
 6000.00    1.92403   2.37911    0.003
 6001.00    1.74769   2.37527    0.003
 6002.00    1.68984   2.34877    0.003
 6003.00    1.71023   2.31583    0.003
 6004.00    1.73978   2.30310    0.003
 6005.00    1.77462   2.31667    0.003
 6006.00    1.79599   2.33704    0.003
 6007.00    1.81057   2.34308    0.003
 6008.00    1.82586   2.31936    0.003
 6009.00    1.84146   2.30053    0.003
 6010.00    1.82372   2.31934    0.003
 6011.00    1.79351   2.33318    0.003
 6012.00    1.69912   2.31273    0.003
 6013.00    1.58437   2.27150    0.003
 6014.00    1.63543   2.24232    0.003
 6015.00    1.73046   2.27642    0.003
 6016.00    1.88975   2.34147    0.003
 6017.00    2.06298   2.36024    0.003
 6018.00    2.00986   2.32655    0.003
 6019.00    1.91776   2.29099    0.003
 6020.00    1.96630   2.29683    0.003
 6021.00    2.03320   2.31875    0.003
 6022.00    1.81109   2.30963    0.003
 6023.00    1.56243   2.29823    0.003
 6024.00    1.46934   2.31174    0.003
 6025.00    1.38492   2.30864    0.003
 6026.00    1.45113   2.28379    0.003
 6027.00    1.52115   2.27935    0.003
 6028.00    1.64379   2.29680    0.003
 6029.00    1.76326   2.31081    0.003
 6030.00    1.80906   2.31820    0.003
 6031.00    1.85606   2.34000    0.003
 6032.00    1.91841   2.35386    0.003
 6033.00    1.98642   2.34761    0.003
 6034.00    2.10331   2.36088    0.003
 6035.00    2.19846   2.38305    0.003
 6036.00    2.15473   2.38493    0.003
 6037.00    2.10739   2.37709    0.003
 6038.00    2.04206   2.38594    0.003
 6039.00    2.00146   2.39961    0.003
 6040.00    2.06098   2.40136    0.003
 6041.00    2.07103   2.39677    0.003
 6042.00    1.91498   2.39691    0.003
 6043.00    1.80363   2.39885    0.003
 6044.00    1.81892   2.39873    0.003
 6045.00    1.86573   2.38897    0.003
 6046.00    1.98890   2.37836    0.003
 6047.00    2.04296   2.37611    0.003
 6048.00    1.95256   2.37769    0.003
 6049.00    1.87287   2.39433    0.003
 6050.00    1.81264   2.41514    0.003
 6051.00    1.80838   2.42284    0.003
 6052.00    1.89304   2.42688    0.003
 6053.00    1.90747   2.42859    0.003
 6054.00    1.82400   2.42263    0.003
 6055.00    1.72154   2.41590    0.003
 6056.00    1.59579   2.42422    0.003
 6057.00    1.59122   2.42918    0.003
 6058.00    1.71776   2.41610    0.003
 6059.00    1.77382   2.39589    0.003
 6060.00    1.76263   2.38672    0.003
 6061.00    1.68991   2.37877    0.003
 6062.00    1.56543   2.36305    0.003
 6063.00    1.61394   2.36123    0.003
 6064.00    1.79062   2.37642    0.003
 6065.00    2.02931   2.40177    0.003
 6066.00    2.30835   2.41914    0.003
 6067.00    2.37894   2.41794    0.003
 6068.00    2.33083   2.39959    0.003
 6069.00    2.18705   2.37276    0.003
 6070.00    1.99583   2.33621    0.003
 6071.00    2.02593   2.29530    0.003
 6072.00    2.15093   2.31488    0.003
 6073.00    2.28765   2.39157    0.003
 6074.00    2.42868   2.44070    0.003
 6075.00    2.30766   2.44890    0.003
 6076.00    2.10505   2.44681    0.003
 6077.00    2.00870   2.44723    0.003
 6078.00    1.93991   2.45021    0.003
 6079.00    1.88356   2.45141    0.003
 6080.00    1.82985   2.45080    0.003
 6081.00    1.85795   2.44576    0.003
 6082.00    1.89974   2.43310    0.003
 6083.00    1.91749   2.41107    0.003
 6084.00    1.93220   2.37504    0.003
 6085.00    1.97470   2.35861    0.003
 6086.00    2.01963   2.37679    0.003
 6087.00    1.84931   2.37119    0.003
 6088.00    1.66785   2.34317    0.003
 6089.00    1.69890   2.34744    0.003
 6090.00    1.73607   2.36925    0.003
 6091.00    1.93751   2.36574    0.003
 6092.00    2.13108   2.36394    0.003
 6093.00    2.15714   2.38353    0.003
 6094.00    2.18134   2.40165    0.003
 6095.00    2.18299   2.38382    0.003
 6096.00    2.16542   2.34434    0.003
 6097.00    1.98839   2.33715    0.003
 6098.00    1.81086   2.35418    0.003
 6099.00    1.63027   2.36189    0.003
 6100.00    1.47598   2.38381    0.003
 6101.00    1.44982   2.41819    0.003
 6102.00    1.45822   2.42097    0.003
 6103.00    1.60339   2.40022    0.003
 6104.00    1.71917   2.40046    0.003
 6105.00    1.73824   2.42275    0.003
 6106.00    1.69875   2.43439    0.003
 6107.00    1.49631   2.39027    0.003
 6108.00    1.36908   2.27754    0.003
 6109.00    1.42095   2.21848    0.003
 6110.00    1.48109   2.29901    0.003
 6111.00    1.55825   2.39244    0.003
 6112.00    1.68600   2.41689    0.003
 6113.00    1.90426   2.39870    0.003
 6114.00    2.07276   2.38141    0.003
 6115.00    2.16334   2.40465    0.003
 6116.00    2.16607   2.42536    0.003
 6117.00    2.04803   2.40071    0.003
 6118.00    2.01874   2.38753    0.003
 6119.00    2.09682   2.41582    0.003
 6120.00    2.24060   2.44504    0.003
 6121.00    2.45446   2.43921    0.003
 6122.00    2.51187   2.40440    0.003
 6123.00    2.42210   2.39631    0.003
 6124.00    2.21076   2.41559    0.003
 6125.00    1.89857   2.40123    0.003
 6126.00    1.74192   2.35273    0.003
 6127.00    1.69885   2.29530    0.003
 6128.00    1.78445   2.24556    0.003
 6129.00    1.95255   2.28795    0.003
 6130.00    2.06829   2.38546    0.003
 6131.00    2.15466   2.41585    0.003
 6132.00    2.18532   2.39482    0.003
 6133.00    2.18878   2.37336    0.003
 6134.00    2.19787   2.35871    0.003
 6135.00    2.20935   2.36554    0.003
 6136.00    2.36580   2.40203    0.003
 6137.00    2.57458   2.43345    0.003
 6138.00    2.43896   2.44087    0.003
 6139.00    2.19822   2.43937    0.003
 6140.00    1.89715   2.41304    0.003
 6141.00    1.58077   2.34152    0.003
 6142.00    1.67194   2.22587    0.003
 6143.00    1.84727   2.13476    0.003
 6144.00    2.07061   2.18997    0.003
 6145.00    2.30175   2.33947    0.003
 6146.00    2.22911   2.41174    0.003
 6147.00    2.11954   2.36743    0.003
 6148.00    2.02213   2.32669    0.003
 6149.00    1.92573   2.37353    0.003
 6150.00    2.11408   2.44044    0.003
 6151.00    2.31608   2.45763    0.003
 6152.00    2.41228   2.44530    0.003
 6153.00    2.50383   2.42450    0.003
 6154.00    2.41546   2.39393    0.003
 6155.00    2.33331   2.36255    0.003
 6156.00    2.37356   2.34939    0.003
 6157.00    2.38735   2.36524    0.003
 6158.00    2.09580   2.39891    0.003
 6159.00    1.82751   2.42015    0.003
 6160.00    1.74543   2.39695    0.003
 6161.00    1.66876   2.36682    0.003
 6162.00    1.62465   2.37243    0.003
 6163.00    1.58385   2.37907    0.003
 6164.00    1.55880   2.37166    0.003
 6165.00    1.53595   2.36158    0.003
 6166.00    1.52162   2.30867    0.003
 6167.00    1.54276   2.18626    0.003
 6168.00    1.67839   2.08793    0.003
 6169.00    1.82595   2.10400    0.003
 6170.00    2.00612   2.19171    0.003
 6171.00    2.12491   2.26559    0.003
 6172.00    2.09996   2.29437    0.003
 6173.00    2.04021   2.31691    0.003
 6174.00    1.90999   2.30568    0.003
 6175.00    1.85741   2.22166    0.003
 6176.00    1.94168   2.17522    0.003
 6177.00    1.97818   2.24406    0.003
 6178.00    1.94100   2.32264    0.003
 6179.00    1.91173   2.33025    0.003
 6180.00    1.89316   2.32544    0.003
 6181.00    1.89859   2.33570    0.003
 6182.00    1.93267   2.33163    0.003
 6183.00    1.93338   2.32574    0.003
 6184.00    1.89901   2.34949    0.003
 6185.00    1.86965   2.36979    0.003
 6186.00    1.84494   2.35961    0.003
 6187.00    1.89777   2.36551    0.003
 6188.00    2.01403   2.39064    0.003
 6189.00    2.01843   2.39484    0.003
 6190.00    1.94232   2.38943    0.003
 6191.00    1.88838   2.38238    0.003
 6192.00    1.84843   2.35014    0.003
 6193.00    1.86262   2.31476    0.003
 6194.00    1.90673   2.30359    0.003
 6195.00    2.26222   2.30707    0.003
 6196.00    2.76724   2.28248   -2.000
 6197.00    3.62453   2.20876   -2.000
 6198.00    4.62785   2.19411   -2.000
 6199.00    5.14961   2.27881   -2.000
 6200.00    5.50069   2.34784   -2.000
 6201.00    4.33143   2.36816   -2.000
 6202.00    2.70720   2.38098   -2.000
 6203.00    1.64756   2.39564   -2.000
 6204.00    0.72815   2.38062   -2.000
 6205.00    0.78677   2.32458   -2.000
 6206.00    1.04233   2.28268   -2.000
 6207.00    1.36137   2.30886   -2.000
 6208.00    1.69044   2.36520    0.003
 6209.00    1.65443   2.39386    0.003
 6210.00    1.57565   2.39215    0.003
 6211.00    1.63490   2.38632    0.003
 6212.00    1.70510   2.39323    0.003
 6213.00    1.77971   2.40078    0.003
 6214.00    1.85452   2.40205    0.003
 6215.00    1.76527   2.39983    0.003
 6216.00    1.67629   2.38585    0.003
 6217.00    1.68542   2.36930    0.003
 6218.00    1.69593   2.34871    0.003
 6219.00    1.73181   2.29565    0.003
 6220.00    1.76772   2.24066    0.003
 6221.00    1.80406   2.22331    0.003
 6222.00    1.81837   2.23828    0.003
 6223.00    1.66254   2.28250    0.003
 6224.00    1.52639   2.31069    0.003
 6225.00    1.50537   2.28372    0.003
 6226.00    1.53241   2.25355    0.003
 6227.00    1.78239   2.26268    0.003
 6228.00    1.98933   2.29752    0.003
 6229.00    2.03305   2.31987    0.003
 6230.00    2.04259   2.31294    0.003
 6231.00    1.94395   2.31329    0.003
 6232.00    1.85784   2.32930    0.003
 6233.00    1.80535   2.33624    0.003
 6234.00    1.73352   2.33115    0.003
 6235.00    1.61718   2.29151    0.003
 6236.00    1.50941   2.21003    0.003
 6237.00    1.41872   2.16385    0.003
 6238.00    1.40847   2.19637    0.003
 6239.00    1.53784   2.25114    0.003
 6240.00    1.66329   2.31586    0.003
 6241.00    1.78278   2.37198    0.003
 6242.00    1.88866   2.38218    0.003
 6243.00    1.97639   2.35530    0.003
 6244.00    2.02098   2.31772    0.003
 6245.00    2.01485   2.28009    0.003
 6246.00    2.00785   2.25281    0.003
 6247.00    1.99995   2.26751    0.003
 6248.00    1.93751   2.27847    0.003
 6249.00    1.82520   2.23990    0.003
 6250.00    1.72295   2.22458    0.003
 6251.00    1.62881   2.23926    0.003
 6252.00    1.63045   2.24207    0.003
 6253.00    1.70002   2.27275    0.003
 6254.00    1.69936   2.33260    0.003
 6255.00    1.65500   2.36507    0.003
 6256.00    1.59366   2.36305    0.003
 6257.00    1.52308   2.33034    0.003
 6258.00    1.69808   2.26569    0.003
 6259.00    1.98911   2.22541    0.003
 6260.00    2.35423   2.23264    0.003
 6261.00    2.74953   2.25298    0.003
 6262.00    2.66991   2.24467    0.004
 6263.00    2.42502   2.20955    0.004
 6264.00    2.08735   2.17644    0.004
 6265.00    1.72245   2.19021    0.003
 6266.00    1.50090   2.25405    0.003
 6267.00    1.31417   2.29719    0.003
 6268.00    1.29475   2.32957    0.003
 6269.00    1.30818   2.37428    0.003
 6270.00    1.43788   2.37626    0.003
 6271.00    1.58537   2.33157    0.003
 6272.00    1.70057   2.31904    0.003
 6273.00    1.81213   2.34984    0.003
 6274.00    1.78009   2.36118    0.003
 6275.00    1.73724   2.34277    0.003
 6276.00    1.73261   2.33126    0.003
 6277.00    1.72952   2.34091    0.003
 6278.00    1.61872   2.36503    0.003
 6279.00    1.50817   2.38279    0.003
 6280.00    1.44001   2.37879    0.000
 6281.00    1.37340   2.37238    0.000
 6282.00    1.33311   2.37599    0.000
 6283.00    1.30226   2.37845    0.000
 6284.00    1.37085   2.37504    0.000
 6285.00    1.44211   2.35582    0.000
 6286.00    1.53338   2.31708    0.000
 6287.00    1.59645   2.30244    0.000
 6288.00    1.49919   2.32396    0.000
 6289.00    1.41680   2.35503    0.000
 6290.00    1.40177   2.37895    0.000
 6291.00    1.41665   2.37766    0.000
 6292.00    1.54259   2.38101    0.000
 6293.00    1.64531   2.40795    0.000
 6294.00    1.67599   2.43602    0.000
 6295.00    1.72378   2.44891    0.000
 6296.00    1.81674   2.43174    0.000
 6297.00    1.91737   2.40064    0.000
 6298.00    2.03538   2.38224    0.000
 6299.00    2.08533   2.37868    0.000
 6300.00    2.00179   2.39341    0.000
 6301.00    1.89987   2.39912    0.000
 6302.00    1.76655   2.36325    0.000
 6303.00    1.67980   2.32117    0.000
 6304.00    1.66280   2.32127    0.000
 6305.00    1.64027   2.35258    0.000
 6306.00    1.61045   2.36168    0.000
 6307.00    1.58611   2.32892    0.000
 6308.00    1.56813   2.30183    0.000
 6309.00    1.56180   2.32493    0.000
 6310.00    1.56738   2.36547    0.000
 6311.00    1.59615   2.37836    0.000
 6312.00    1.64582   2.38286    0.000
 6313.00    1.67586   2.41342    0.000
 6314.00    1.69031   2.44325    0.000
 6315.00    1.70147   2.44105    0.000
 6316.00    1.71034   2.41212    0.000
 6317.00    1.69583   2.38123    0.000
 6318.00    1.66699   2.37156    0.000
 6319.00    1.64898   2.38463    0.000
 6320.00    1.63676   2.37484    0.000
 6321.00    1.62014   2.33750    0.003
 6322.00    1.60147   2.33425    0.003
 6323.00    1.58243   2.34316    0.003
 6324.00    1.56326   2.31250    0.003
 6325.00    1.43070   2.30239    0.003
 6326.00    1.25941   2.34517    0.003
 6327.00    1.26625   2.38367    0.003
 6328.00    1.32429   2.38888    0.003
 6329.00    1.52873   2.39520    0.003
 6330.00    1.76792   2.42436    0.003
 6331.00    1.80074   2.44401    0.003
 6332.00    1.79409   2.44469    0.003
 6333.00    1.84341   2.43509    0.003
 6334.00    1.90102   2.43847    0.003
 6335.00    1.84618   2.45154    0.003
 6336.00    1.77914   2.43966    0.003
 6337.00    1.74796   2.43043    0.003
 6338.00    1.71934   2.45145    0.003
 6339.00    1.88364   2.47457    0.003
 6340.00    2.05495   2.45561    0.003
 6341.00    1.85225   2.38211    0.003
 6342.00    1.65308   2.32167    0.003
 6343.00    1.62779   2.33433    0.003
 6344.00    1.60711   2.38176    0.003
 6345.00    1.66018   2.40776    0.003
 6346.00    1.71101   2.43066    0.003
 6347.00    1.73925   2.45718    0.003
 6348.00    1.77085   2.45204    0.003
 6349.00    1.82658   2.41169    0.003
 6350.00    1.85872   2.36988    0.003
 6351.00    1.76033   2.37129    0.003
 6352.00    1.68266   2.39889    0.003
 6353.00    1.69663   2.42000    0.003
 6354.00    1.73564   2.43892    0.003
 6355.00    1.86566   2.45932    0.003
 6356.00    1.96304   2.46770    0.003
 6357.00    1.96102   2.46779    0.003
 6358.00    1.98840   2.46869    0.003
 6359.00    2.09197   2.45683    0.003
 6360.00    2.15493   2.41939    0.003
 6361.00    2.12743   2.38522    0.003
 6362.00    2.04944   2.39196    0.003
 6363.00    1.87397   2.40447    0.003
 6364.00    1.65646   2.37036    0.003
 6365.00    1.36816   2.32877    0.003
 6366.00    1.20696   2.32464    0.003
 6367.00    1.23332   2.32810    0.003
 6368.00    1.30785   2.31359    0.003
 6369.00    1.44485   2.31058    0.003
 6370.00    1.57474   2.33420    0.003
 6371.00    1.69651   2.36702    0.003
 6372.00    1.84302   2.39430    0.003
 6373.00    2.01447   2.42081    0.003
 6374.00    2.12219   2.45075    0.003
 6375.00    2.17326   2.46163    0.003
 6376.00    2.14717   2.44812    0.003
 6377.00    2.06063   2.44382    0.003
 6378.00    1.91744   2.46825    0.003
 6379.00    1.73523   2.49897    0.003
 6380.00    1.67337   2.50676    0.003
 6381.00    1.68418   2.49786    0.002
 6382.00    1.73279   2.49665    0.003
 6383.00    1.80132   2.49598    0.003
 6384.00    1.66282   2.47263    0.003
 6385.00    1.42965   2.44485    0.003
 6386.00    1.16493   2.43561    0.003
 6387.00    0.88779   2.43845    0.003
 6388.00    0.94054   2.45556    0.003
 6389.00    1.10389   2.47266    0.003
 6390.00    1.26995   2.46716    0.003
 6391.00    1.43677   2.45789    0.003
 6392.00    1.53937   2.47040    0.003
 6393.00    1.62706   2.48825    0.003
 6394.00    1.58380   2.49112    0.003
 6395.00    1.51615   2.48908    0.003
 6396.00    1.43229   2.49255    0.003
 6397.00    1.34611   2.48868    0.003
 6398.00    1.42607   2.44880    0.003
 6399.00    1.52333   2.37772    0.003
 6400.00    1.51432   2.35240    0.003
 6401.00    1.49818   2.40802    0.003
 6402.00    1.45440   2.47877    0.003
 6403.00    1.40972   2.51442    0.003
 6404.00    1.48388   2.50771    0.003
 6405.00    1.55636   2.44035    0.003
 6406.00    1.57601   2.34991    0.003
 6407.00    1.59910   2.35504    0.003
 6408.00    1.67370   2.44578    0.003
 6409.00    1.73948   2.51176    0.003
 6410.00    1.72024   2.52880    0.003
 6411.00    1.69030   2.52087    0.003
 6412.00    1.58560   2.49815    0.003
 6413.00    1.49286   2.45706    0.003
 6414.00    1.46456   2.42118    0.003
 6415.00    1.44165   2.44220    0.003
 6416.00    1.44207   2.47961    0.003
 6417.00    1.45077   2.45909    0.003
 6418.00    1.48898   2.42785    0.003
 6419.00    1.51734   2.43996    0.003
 6420.00    1.51626   2.46116    0.003
 6421.00    1.51158   2.47258    0.003
 6422.00    1.49776   2.48806    0.003
 6423.00    1.55953   2.49740    0.003
 6424.00    1.78691   2.49115    0.003
 6425.00    1.98394   2.46367    0.003
 6426.00    2.12329   2.41342    0.003
 6427.00    2.18905   2.37923    0.003
 6428.00    2.13272   2.41051    0.003
 6429.00    2.05759   2.48784    0.003
 6430.00    1.95514   2.53131    0.003
 6431.00    1.82094   2.52706    0.003
 6432.00    1.64615   2.52518    0.003
 6433.00    1.52878   2.54125    0.003
 6434.00    1.47613   2.55185    0.003
 6435.00    1.49756   2.52744    0.003
 6436.00    1.59261   2.45848    0.003
 6437.00    1.63014   2.39407    0.003
 6438.00    1.61724   2.40172    0.003
 6439.00    1.55851   2.45762    0.003
 6440.00    1.46440   2.50587    0.003
 6441.00    1.44037   2.52992    0.003
 6442.00    1.46392   2.53833    0.003
 6443.00    1.55778   2.52508    0.003
 6444.00    1.69346   2.46883    0.003
 6445.00    1.78604   2.40760    0.003
 6446.00    1.85624   2.42759    0.003
 6447.00    1.85056   2.50825    0.003
 6448.00    1.81074   2.56263    0.003
 6449.00    1.80137   2.57463    0.003
 6450.00    1.80378   2.57130    0.003
 6451.00    1.68974   2.57098    0.003
 6452.00    1.53738   2.57908    0.003
 6453.00    1.44571   2.58182    0.003
 6454.00    1.37077   2.54297    0.003
 6455.00    1.46625   2.43660    0.003
 6456.00    1.60038   2.33361    0.003
 6457.00    1.58611   2.34464    0.003
 6458.00    1.54493   2.43704    0.003
 6459.00    1.48431   2.51462    0.003
 6460.00    1.42099   2.53841    0.003
 6461.00    1.50380   2.50194    0.003
 6462.00    1.60118   2.45850    0.003
 6463.00    1.60261   2.47425    0.003
 6464.00    1.59799   2.53230    0.003
 6465.00    1.56032   2.57997    0.003
 6466.00    1.52164   2.59549    0.003
 6467.00    1.46118   2.56122    0.003
 6468.00    1.41046   2.46510    0.003
 6469.00    1.63037   2.38942    0.003
 6470.00    1.84928   2.42126    0.003
 6471.00    2.05412   2.49791    0.003
 6472.00    2.21813   2.54459    0.003
 6473.00    2.00376   2.56392    0.003
 6474.00    1.79931   2.56851    0.003
 6475.00    1.66201   2.55562    0.003
 6476.00    1.54443   2.53272    0.003
 6477.00    1.53024   2.50772    0.003
 6478.00    1.49801   2.49928    0.003
 6479.00    1.38963   2.52321    0.003
 6480.00    1.30844   2.53710    0.003
 6481.00    1.32210   2.51722    0.003
 6482.00    1.38509   2.50876    0.003
 6483.00    1.59285   2.53242    0.003
 6484.00    1.72941   2.55077    0.003
 6485.00    1.68786   2.55055    0.003
 6486.00    1.60643   2.54193    0.003
 6487.00    1.43903   2.50573    0.003
 6488.00    1.36397   2.44539    0.003
 6489.00    1.46167   2.41809    0.003
 6490.00    1.50792   2.44723    0.003
 6491.00    1.47009   2.49304    0.003
 6492.00    1.43826   2.52115    0.003
 6493.00    1.41503   2.53409    0.003
 6494.00    1.46183   2.54181    0.003
 6495.00    1.59690   2.53544    0.003
 6496.00    1.65023   2.50871    0.003
 6497.00    1.61277   2.47839    0.003
 6498.00    1.58624   2.45809    0.003
 6499.00    1.57044   2.40938    0.003
 6500.00    1.55422   2.30344    0.003
 6501.00    1.53764   2.21126    0.003
 6502.00    1.52107   2.19769    0.003
 6503.00    1.50449   2.24239    0.003
 6504.00    1.47432   2.30316    0.003
 6505.00    1.43507   2.34289    0.003
 6506.00    1.51793   2.37778    0.003
 6507.00    1.67234   2.42998    0.003
 6508.00    1.74883   2.47337    0.003
 6509.00    1.78551   2.49691    0.003
 6510.00    1.81021   2.50972    0.003
 6511.00    1.82961   2.52151    0.003
 6512.00    1.88840   2.53513    0.003
 6513.00    1.96215   2.53602    0.003
 6514.00    1.93858   2.51687    0.003
 6515.00    1.88360   2.50098    0.003
 6516.00    1.72806   2.51191    0.003
 6517.00    1.54535   2.53435    0.003
 6518.00    1.43962   2.54317    0.003
 6519.00    1.35092   2.54153    0.003
 6520.00    1.35798   2.53482    0.003
 6521.00    1.38193   2.51404    0.003
 6522.00    1.52153   2.48732    0.003
 6523.00    1.67670   2.47432    0.003
 6524.00    1.79731   2.46458    0.003
 6525.00    1.91462   2.46164    0.003
 6526.00    1.92789   2.48934    0.003
 6527.00    1.93501   2.52825    0.003
 6528.00    1.82124   2.54596    0.000
 6529.00    1.70478   2.54415    0.000
 6530.00    1.63818   2.54369    0.000
 6531.00    1.56923   2.54593    0.000
 6532.00    1.44123   2.52557    0.000
 6533.00    1.32557   2.49008    0.000
 6534.00    1.37508   2.48366    0.000
 6535.00    1.43680   2.51187    0.000
 6536.00    1.60734   2.53936    0.000
 6537.00    1.76138   2.54024    0.000
 6538.00    1.80729   2.51682    0.000
 6539.00    1.85500   2.49535    0.000
 6540.00    1.91188   2.50283    0.000
 6541.00    1.93896   2.53582    0.000
 6542.00    1.84300   2.56133    0.000
 6543.00    1.75615   2.55834    0.000
 6544.00    1.70047   2.54729    0.000
 6545.00    1.65324   2.55847    0.000
 6546.00    1.63033   2.58121    0.000
 6547.00    1.58952   2.58399    0.000
 6548.00    1.50469   2.56380    0.000
 6549.00    1.40603   2.53815    0.000
 6550.00    1.27803   2.51914    0.000
 6551.00    1.21975   2.49403    0.000
 6552.00    1.28993   2.45116    0.000
 6553.00    1.39523   2.43301    0.000
 6554.00    1.55708   2.46480    0.000
 6555.00    1.66725   2.50349    0.000
 6556.00    1.70442   2.51238    0.000
 6557.00    1.75724   2.49561    0.000
 6558.00    1.82951   2.47659    0.000
 6559.00    2.00432   2.46360    0.000
 6560.00    2.29144   2.43861    0.000
 6561.00    2.40690   2.39873    0.000
 6562.00    2.35650   2.37127    0.000
 6563.00    2.16924   2.37022    0.000
 6564.00    1.86537   2.36723    0.000
 6565.00    1.75023   2.33476    0.000
 6566.00    1.77669   2.27452    0.000
 6567.00    1.82711   2.15500    0.000
 6568.00    1.89333   1.91388    0.000
 6569.00    1.87108   1.67747    0.000
 6570.00    1.79778   1.71844    0.000
 6571.00    1.65087   2.00032    0.000
 6572.00    1.46696   2.25233    0.000
 6573.00    1.31053   2.38137    0.000
 6574.00    1.16606   2.42997    0.000
 6575.00    1.12312   2.42633    0.000
 6576.00    1.11810   2.41752    0.000
 6577.00    1.24619   2.43373    0.000
 6578.00    1.41644   2.44071    0.000
 6579.00    1.61241   2.41775    0.000
 6580.00    1.81517   2.39208    0.000
 6581.00    1.89553   2.39153    0.000
 6582.00    1.94943   2.42961    0.000
 6583.00    1.75384   2.48868    0.000
 6584.00    1.51547   2.52935    0.000
 6585.00    1.40614   2.53699    0.000
 6586.00    1.31358   2.51775    0.000
 6587.00    1.26460   2.48860    0.000
 6588.00    1.21960   2.48215    0.000
 6589.00    1.23677   2.50551    0.000
 6590.00    1.25736   2.52832    0.000
 6591.00    1.32901   2.53246    0.000
 6592.00    1.40088   2.52147    0.000
 6593.00    1.39027   2.52088    0.000
 6594.00    1.38395   2.54519    0.000
 6595.00    1.47595   2.56759    0.000
 6596.00    1.55667   2.57267    0.000
 6597.00    1.49445   2.55528    0.000
 6598.00    1.43624   2.49173    0.000
 6599.00    1.41247   2.40035    0.000
 6600.00    1.39666   2.36694    0.000
 6601.00    1.43148   2.42407    0.000
 6602.00    1.43503   2.49713    0.000
 6603.00    1.28286   2.52172    0.000
 6604.00    1.14076   2.50684    0.000
 6605.00    1.03935   2.49382    0.000
 6606.00    0.97395   2.51330    0.000
 6607.00    1.02916   2.55262    0.000
 6608.00    1.10612   2.57548    0.000
 6609.00    1.24456   2.57002    0.003
 6610.00    1.36685   2.54588    0.003
 6611.00    1.45010   2.51869    0.003
 6612.00    1.48106   2.50380    0.003
 6613.00    1.40296   2.49780    0.002
 6614.00    1.34383   2.48088    0.002
 6615.00    1.31915   2.45256    0.003
 6616.00    1.35735   2.45466    0.003
 6617.00    1.49529   2.50802    0.003
 6618.00    1.56679   2.55815    0.003
 6619.00    1.54585   2.55663    0.003
 6620.00    1.55426   2.53360    0.003
 6621.00    1.59864   2.54131    0.003
 6622.00    1.66716   2.56974    0.003
 6623.00    1.76173   2.57900    0.003
 6624.00    1.75481   2.57133    0.003
 6625.00    1.65121   2.57043    0.003
 6626.00    1.52250   2.58089    0.003
 6627.00    1.37269   2.59135    0.003
 6628.00    1.34275   2.59011    0.003
 6629.00    1.40146   2.56973    0.003
 6630.00    1.43833   2.52946    0.003
 6631.00    1.46101   2.49263    0.003
 6632.00    1.39860   2.49502    0.003
 6633.00    1.28783   2.52508    0.003
 6634.00    1.23984   2.54317    0.003
 6635.00    1.22292   2.54349    0.003
 6636.00    1.29323   2.53675    0.003
 6637.00    1.40087   2.52850    0.003
 6638.00    1.47455   2.51396    0.003
 6639.00    1.53577   2.48220    0.003
 6640.00    1.54574   2.45044    0.003
 6641.00    1.53980   2.45691    0.003
 6642.00    1.44496   2.49909    0.003
 6643.00    1.32711   2.53926    0.003
 6644.00    1.38259   2.55627    0.003
 6645.00    1.47463   2.54919    0.003
 6646.00    1.53386   2.53596    0.003
 6647.00    1.58762   2.54216    0.003
 6648.00    1.37730   2.55210    0.003
 6649.00    1.13385   2.52430    0.003
 6650.00    1.03986   2.48353    0.003
 6651.00    0.95890   2.48986    0.003
 6652.00    0.97823   2.52633    0.003
 6653.00    1.00270   2.54116    0.003
 6654.00    1.07882   2.53709    0.003
 6655.00    1.15647   2.54165    0.003
 6656.00    1.27756   2.55074    0.003
 6657.00    1.39593   2.54596    0.003
 6658.00    1.45683   2.53293    0.003
 6659.00    1.50867   2.52716    0.003
 6660.00    1.45151   2.53070    0.003
 6661.00    1.39736   2.53803    0.003
 6662.00    1.36803   2.54092    0.003
 6663.00    1.35545   2.53725    0.003
 6664.00    1.44633   2.53839    0.003
 6665.00    1.50823   2.54364    0.003
 6666.00    1.42944   2.53871    0.003
 6667.00    1.38460   2.52442    0.003
 6668.00    1.47382   2.50490    0.003
 6669.00    1.53426   2.47051    0.003
 6670.00    1.50022   2.44540    0.003
 6671.00    1.44241   2.46328    0.003
 6672.00    1.31861   2.49259    0.003
 6673.00    1.24060   2.49783    0.003
 6674.00    1.27143   2.49683    0.003
 6675.00    1.33360   2.51355    0.003
 6676.00    1.46012   2.54252    0.003
 6677.00    1.53918   2.56285    0.003
 6678.00    1.53344   2.56635    0.003
 6679.00    1.49622   2.56228    0.003
 6680.00    1.40984   2.56118    0.003
 6681.00    1.40043   2.56398    0.003
 6682.00    1.49664   2.55584    0.003
 6683.00    1.58761   2.50597    0.003
 6684.00    1.67227   2.42491    0.003
 6685.00    1.72095   2.39380    0.003
 6686.00    1.73130   2.44074    0.003
 6687.00    1.74782   2.48752    0.003
 6688.00    1.77015   2.49622    0.003
 6689.00    1.77235   2.50087    0.003
 6690.00    1.75790   2.51644    0.003
 6691.00    1.67136   2.53167    0.003
 6692.00    1.53228   2.53923    0.003
 6693.00    1.49821   2.53911    0.003
 6694.00    1.53134   2.53406    0.003
 6695.00    1.53573   2.53472    0.003
 6696.00    1.52404   2.54402    0.000
 6697.00    1.48331   2.55171    0.000
 6698.00    1.42844   2.55274    0.000
 6699.00    1.38835   2.55143    0.000
 6700.00    1.35448   2.55038    0.000
 6701.00    1.40212   2.53840    0.000
 6702.00    1.47911   2.50803    0.000
 6703.00    1.52975   2.48271    0.000
 6704.00    1.57237   2.48540    0.000
 6705.00    1.63423   2.50606    0.000
 6706.00    1.70096   2.53399    0.000
 6707.00    1.75154   2.55868    0.000
 6708.00    1.79879   2.56265    0.000
 6709.00    1.79020   2.54442    0.000
 6710.00    1.77256   2.51771    0.000
 6711.00    1.60929   2.50570    0.000
 6712.00    1.42840   2.52071    0.000
 6713.00    1.43770   2.54357    0.000
 6714.00    1.46278   2.55422    0.000
 6715.00    1.65294   2.55307    0.000
 6716.00    1.85093   2.54239    0.000
 6717.00    1.82318   2.53055    0.000
 6718.00    1.78952   2.53073    0.000
 6719.00    1.60265   2.52786    0.000
 6720.00    1.42602   2.51094    0.000
 6721.00    1.44876   2.48773    0.000
 6722.00    1.47314   2.45875    0.000
 6723.00    1.51642   2.42383    0.000
 6724.00    1.54151   2.40505    0.000
 6725.00    1.42184   2.43568    0.000
 6726.00    1.33024   2.49304    0.000
 6727.00    1.40706   2.52101    0.000
 6728.00    1.47188   2.51776    0.000
 6729.00    1.47983   2.51890    0.000
 6730.00    1.47878   2.53463    0.000
 6731.00    1.44296   2.53898    0.000
 6732.00    1.43021   2.52066    0.000
 6733.00    1.49172   2.50514    0.000
 6734.00    1.51135   2.51333    0.000
 6735.00    1.41677   2.53067    0.000
 6736.00    1.34636   2.54267    0.000
 6737.00    1.33243   2.54918    0.000
 6738.00    1.37966   2.54655    0.000
 6739.00    1.55045   2.53666    0.000
 6740.00    1.68000   2.53039    0.000
 6741.00    1.73700   2.53641    0.000
 6742.00    1.69960   2.54949    0.000
 6743.00    1.51688   2.55332    0.000
 6744.00    1.32597   2.53422    0.000
 6745.00    1.12398   2.50648    0.000
 6746.00    1.02709   2.49878    0.000
 6747.00    1.05534   2.51397    0.000
 6748.00    1.12606   2.52232    0.000
 6749.00    1.24135   2.50414    0.000
 6750.00    1.34874   2.49042    0.000
 6751.00    1.44881   2.50532    0.000
 6752.00    1.60756   2.52029    0.000
 6753.00    1.81420   2.51907    0.003
 6754.00    1.79575   2.51133    0.003
 6755.00    1.61560   2.50000    0.003
 6756.00    1.24584   2.48762    0.003
 6757.00    0.75653   2.48738    0.003
 6758.00    0.56799   2.50078    0.003
 6759.00    0.54522   2.50180    0.003
 6760.00    0.79313   2.49926    0.003
 6761.00    1.17074   2.51669    0.003
 6762.00    1.47601   2.53550    0.003
 6763.00    1.75135   2.55207    0.003
 6764.00    1.77355   2.57233    0.003
 6765.00    1.70623   2.58573    0.003
 6766.00    1.67735   2.59007    0.003
 6767.00    1.65993   2.58891    0.003
 6768.00    1.60222   2.58101    0.003
 6769.00    1.53453   2.57426    0.003
 6770.00    1.46826   2.57740    0.003
 6771.00    1.40227   2.57957    0.003
 6772.00    1.45056   2.56434    0.003
 6773.00    1.51680   2.53049    0.003
 6774.00    1.55604   2.50472    0.003
 6775.00    1.59214   2.51528    0.003
 6776.00    1.60365   2.53786    0.003
 6777.00    1.61323   2.53466    0.003
 6778.00    1.61193   2.52339    0.003
 6779.00    1.61015   2.53765    0.003
 6780.00    1.67274   2.56882    0.003
 6781.00    1.73194   2.59477    0.003
 6782.00    1.60150   2.60958    0.003
 6783.00    1.47109   2.61250    0.003
 6784.00    1.34125   2.60871    0.003
 6785.00    1.22116   2.61233    0.003
 6786.00    1.20774   2.62003    0.003
 6787.00    1.20742   2.61456    0.003
 6788.00    1.30777   2.58954    0.003
 6789.00    1.41986   2.54763    0.003
 6790.00    1.60038   2.50609    0.003
 6791.00    1.75682   2.48634    0.003
 6792.00    1.80192   2.49287    0.003
 6793.00    1.82456   2.51493    0.003
 6794.00    1.76226   2.54509    0.003
 6795.00    1.70304   2.56664    0.003
 6796.00    1.65355   2.56571    0.003
 6797.00    1.64889   2.56400    0.003
 6798.00    1.76429   2.57088    0.003
 6799.00    1.79175   2.56404    0.003
 6800.00    1.61713   2.54335    0.003
 6801.00    1.50075   2.53403    0.003
 6802.00    1.50019   2.54101    0.003
 6803.00    1.52761   2.55226    0.003
 6804.00    1.60351   2.56635    0.003
 6805.00    1.64011   2.57451    0.003
 6806.00    1.61708   2.57850    0.003
 6807.00    1.56546   2.58657    0.003
 6808.00    1.47573   2.59560    0.003
 6809.00    1.43817   2.59658    0.003
 6810.00    1.46182   2.58596    0.003
 6811.00    1.59705   2.57873    0.003
 6812.00    1.84775   2.58248    0.003
 6813.00    1.96255   2.57829    0.003
 6814.00    1.95326   2.57353    0.003
 6815.00    1.79992   2.58125    0.003
 6816.00    1.53064   2.58009    0.003
 6817.00    1.32516   2.57293    0.003
 6818.00    1.16484   2.58103    0.003
 6819.00    1.26745   2.59058    0.003
 6820.00    1.53339   2.58396    0.003
 6821.00    1.60030   2.56287    0.003
 6822.00    1.55921   2.55491    0.003
 6823.00    1.54544   2.58030    0.003
 6824.00    1.54455   2.60884    0.003
 6825.00    1.50014   2.60835    0.003
 6826.00    1.43803   2.58705    0.003
 6827.00    1.37918   2.57361    0.003
 6828.00    1.32147   2.58708    0.003
 6829.00    1.44382   2.61288    0.003
 6830.00    1.61886   2.62905    0.003
 6831.00    1.75685   2.63362    0.003
 6832.00    1.88586   2.63306    0.003
 6833.00    1.93094   2.62149    0.003
 6834.00    1.95959   2.59227    0.003
 6835.00    1.86432   2.56675    0.003
 6836.00    1.75016   2.57433    0.003
 6837.00    1.57471   2.60413    0.003
 6838.00    1.39237   2.62178    0.003
 6839.00    1.35720   2.61659    0.003
 6840.00    1.33303   2.61139    0.003
 6841.00    1.11306   2.62416    0.003
 6842.00    0.88531   2.63615    0.003
 6843.00    0.77727   2.62864    0.003
 6844.00    0.68413   2.61089    0.003
 6845.00    1.15081   2.58841    0.003
 6846.00    1.58255   2.55860    0.003
 6847.00    1.42408   2.52673    0.003
 6848.00    1.28915   2.50337    0.003
 6849.00    1.40045   2.50627    0.003
 6850.00    1.47841   2.54074    0.003
 6851.00    1.30853   2.58566    0.003
 6852.00    1.17417   2.61518    0.003
 6853.00    1.24107   2.62075    0.003
 6854.00    1.33083   2.62140    0.003
 6855.00    1.52377   2.62471    0.003
 6856.00    1.64329   2.62053    0.003
 6857.00    1.49099   2.61282    0.003
 6858.00    1.36211   2.61309    0.003
 6859.00    1.30575   2.61876    0.003
 6860.00    1.26456   2.61052    0.003
 6861.00    1.26328   2.57200    0.003
 6862.00    1.27758   2.53431    0.003
 6863.00    1.32711   2.53947    0.003
 6864.00    1.34490   2.56276    0.003
 6865.00    1.30054   2.57693    0.003
 6866.00    1.26584   2.58421    0.003
 6867.00    1.24764   2.56618    0.003
 6868.00    1.17344   2.53577    0.003
 6869.00    1.01553   2.54544    0.003
 6870.00    0.96816   2.59955    0.003
 6871.00    1.06599   2.64163    0.003
 6872.00    1.25648   2.64001    0.003
 6873.00    1.55419   2.61130    0.003
 6874.00    1.56973   2.57259    0.003
 6875.00    1.29734   2.55129    0.003
 6876.00    1.18304   2.57155    0.003
 6877.00    1.21102   2.60164    0.003
 6878.00    1.25203   2.59642    0.003
 6879.00    1.30337   2.57529    0.003
 6880.00    1.36120   2.57971    0.003
 6881.00    1.42355   2.59854    0.003
 6882.00    1.57222   2.60475    0.003
 6883.00    1.77370   2.61216    0.003
 6884.00    1.86376   2.63356    0.003
 6885.00    1.89427   2.65204    0.003
 6886.00    1.77601   2.65184    0.003
 6887.00    1.58873   2.63513    0.003
 6888.00    1.52697   2.60328    0.003
 6889.00    1.51536   2.57592    0.003
 6890.00    1.46522   2.57791    0.003
 6891.00    1.40194   2.60618    0.003
 6892.00    1.26665   2.62023    0.003
 6893.00    1.11072   2.61773    0.003
 6894.00    1.22348   2.63180    0.003
 6895.00    1.39986   2.64900    0.003
 6896.00    1.57847   2.64997    0.003
 6897.00    1.75749   2.65113    0.003
 6898.00    1.80761   2.65818    0.003
 6899.00    1.83868   2.65659    0.003
 6900.00    1.89361   2.65370    0.003
 6901.00    1.95112   2.65673    0.003
 6902.00    1.80227   2.65114    0.003
 6903.00    1.63883   2.64568    0.003
 6904.00    1.36651   2.65810    0.003
 6905.00    1.09028   2.67261    0.003
 6906.00    1.26376   2.66555    0.003
 6907.00    1.43762   2.64860    0.003
 6908.00    1.57318   2.65801    0.003
 6909.00    1.69278   2.68611    0.003
 6910.00    1.55971   2.69548    0.003
 6911.00    1.44990   2.68426    0.003
 6912.00    1.57289   2.67735    0.003
 6913.00    1.65044   2.69028    0.003
 6914.00    1.40135   2.70901    0.003
 6915.00    1.17143   2.71525    0.003
 6916.00    1.04720   2.71326    0.003
 6917.00    0.97590   2.70676    0.003
 6918.00    1.13798   2.69285    0.003
 6919.00    1.29081   2.67612    0.003
 6920.00    1.41012   2.65234    0.003
 6921.00    1.47460   2.63015    0.003
 6922.00    1.37247   2.63802    0.003
 6923.00    1.30611   2.65495    0.003
 6924.00    1.33221   2.65775    0.003
 6925.00    1.35933   2.66806    0.003
 6926.00    1.38873   2.68472    0.003
 6927.00    1.37550   2.70246    0.003
 6928.00    1.28013   2.71680    0.003
 6929.00    1.21420   2.71507    0.003
 6930.00    1.19777   2.68561    0.003
 6931.00    1.27455   2.63728    0.003
 6932.00    1.48863   2.61070    0.003
 6933.00    1.67040   2.62511    0.003
 6934.00    1.81032   2.66271    0.003
 6935.00    1.83810   2.68974    0.003
 6936.00    1.73795   2.69775    0.003
 6937.00    1.57171   2.69753    0.003
 6938.00    1.33899   2.69059    0.003
 6939.00    1.25183   2.67059    0.003
 6940.00    1.29382   2.65005    0.003
 6941.00    1.30771   2.66277    0.003
 6942.00    1.29963   2.69243    0.003
 6943.00    1.21808   2.69994    0.003
 6944.00    1.08602   2.69248    0.003
 6945.00    1.05700   2.69202    0.003
 6946.00    1.09009   2.70432    0.003
 6947.00    1.01384   2.72255    0.003
 6948.00    0.88006   2.73111    0.003
 6949.00    1.01717   2.71565    0.003
 6950.00    1.27791   2.68283    0.003
 6951.00    1.32853   2.64193    0.003
 6952.00    1.29663   2.61959    0.003
 6953.00    1.22983   2.64713    0.003
 6954.00    1.15136   2.69564    0.003
 6955.00    1.25733   2.71990    0.003
 6956.00    1.41512   2.72644    0.003
 6957.00    1.38674   2.71233    0.003
 6958.00    1.31529   2.67985    0.003
 6959.00    1.30324   2.66216    0.003
 6960.00    1.30221   2.66030    0.003
 6961.00    1.20704   2.66165    0.003
 6962.00    1.09839   2.68094    0.003
 6963.00    1.17357   2.71067    0.003
 6964.00    1.26778   2.72699    0.003
 6965.00    1.25640   2.72719    0.003
 6966.00    1.23798   2.72663    0.003
 6967.00    1.25479   2.72994    0.003
 6968.00    1.27274   2.73814    0.003
 6969.00    1.31017   2.74608    0.003
 6970.00    1.34350   2.75292    0.003
 6971.00    1.25115   2.75448    0.003
 6972.00    1.16457   2.73818    0.003
 6973.00    1.16394   2.72396    0.003
 6974.00    1.15133   2.74396    0.003
 6975.00    1.02358   2.77502    0.003
 6976.00    0.94638   2.77828    0.003
 6977.00    1.22079   2.75459    0.003
 6978.00    1.41630   2.73263    0.003
 6979.00    1.18823   2.74247    0.003
 6980.00    1.04950   2.76817    0.003
 6981.00    1.29559   2.76026    0.003
 6982.00    1.51096   2.72638    0.003
 6983.00    1.61723   2.69134    0.003
 6984.00    1.66980   2.63794    0.003
 6985.00    1.56221   2.56479    0.003
 6986.00    1.45452   2.55123    0.003
 6987.00    1.34655   2.62868    0.003
 6988.00    1.26653   2.71157    0.003
 6989.00    1.24762   2.75791    0.003
 6990.00    1.23509   2.78032    0.003
 6991.00    1.23467   2.78557    0.003
 6992.00    1.20276   2.78297    0.003
 6993.00    1.11872   2.77986    0.003
 6994.00    1.12901   2.77179    0.003
 6995.00    1.27619   2.75017    0.003
 6996.00    1.34237   2.72578    0.003
 6997.00    1.30516   2.72753    0.003
 6998.00    1.33896   2.75326    0.003
 6999.00    1.45266   2.77698    0.003
 7000.00    1.49067   2.77811    0.003
 7001.00    1.45360   2.76424    0.003
 7002.00    1.53765   2.75938    0.003
 7003.00    1.72766   2.76803    0.003
 7004.00    1.73898   2.77064    0.003
 7005.00    1.61256   2.74998    0.003
 7006.00    1.50836   2.70648    0.003
 7007.00    1.41921   2.68526    0.003
 7008.00    1.37913   2.71376    0.003
 7009.00    1.36819   2.75427    0.003
 7010.00    1.25806   2.75454    0.003
 7011.00    1.09656   2.72133    0.003
 7012.00    1.17201   2.70215    0.003
 7013.00    1.35383   2.71146    0.003
 7014.00    1.39458   2.73202    0.003
 7015.00    1.38089   2.75365    0.003
 7016.00    1.33042   2.77199    0.003
 7017.00    1.26789   2.77157    0.003
 7018.00    1.28474   2.75590    0.003
 7019.00    1.32342   2.75835    0.003
 7020.00    1.23888   2.77768    0.003
 7021.00    1.12649   2.76514    0.003
 7022.00    1.55840   2.69231    0.003
 7023.00    2.08867   2.61022    0.003
 7024.00    1.90311   2.62526    0.003
 7025.00    1.61838   2.72464    0.003
 7026.00    1.43766   2.79617    0.003
 7027.00    1.26727   2.81531    0.003
 7028.00    1.44989   2.81276    0.003
 7029.00    1.65463   2.78075    0.003
 7030.00    1.17781   2.72081    0.003
 7031.00    0.68290   2.68419    0.003
 7032.00    0.51438   2.70366    0.003
 7033.00    0.36969   2.74780    0.003
 7034.00    0.87959   2.76948    0.003
 7035.00    1.34583   2.77635    0.003
 7036.00    1.19903   2.78733    0.003
 7037.00    1.09002   2.79842    0.003
 7038.00    1.32951   2.80056    0.003
 7039.00    1.53339   2.79053    0.003
 7040.00    1.49736   2.78204    0.003
 7041.00    1.50413   2.78259    0.003
 7042.00    1.73461   2.79660    0.003
 7043.00    1.88551   2.81324    0.003
 7044.00    1.70138   2.78010    0.003
 7045.00    1.56955   2.70890    0.003
 7046.00    1.61966   2.70866    0.003
 7047.00    1.62521   2.79944    0.003
 7048.00    1.50033   2.88020    0.003
 7049.00    1.45054   2.90958    0.003
 7050.00    1.58819   2.90201   -2.000
 7051.00    1.66613   2.86595   -2.000
 7052.00    1.61569   2.82954   -2.000
 7053.00    1.59924   2.83660   -2.000
 7054.00    1.64625   2.87343   -2.000
 7055.00    1.68315   2.90526   -2.000
 7056.00    1.70355   2.91497   -2.000
 7057.00    1.72405   2.90055   -2.000
 7058.00    1.74468   2.86333   -2.000
 7059.00    1.59720   2.79130   -2.000
 7060.00    1.23817   2.71084   -2.000
 7061.00    1.05514   2.66520   -2.000
 7062.00    1.06726   2.66169   -2.000
 7063.00    1.00042   2.69644   -2.000
 7064.00    0.85633   2.73706   -2.000
 7065.00    0.98109   2.74097   -2.000
 7066.00    1.33775   2.69765   -2.000
 7067.00    1.36967   2.64892   -2.000
 7068.00    1.15486   2.64466   -2.000
 7069.00    1.21448   2.66884   -2.000
 7070.00    1.45735   2.68984   -2.000
 7071.00    1.60893   2.71083   -2.000
 7072.00    1.70711   2.71202   -2.000
 7073.00    1.48154   2.67539   -2.000
 7074.00    1.09093   2.63280   -2.000
 7075.00    1.03686   2.60256   -2.000
 7076.00    1.13140   2.61936   -2.000
 7077.00    1.14207   2.68636   -2.000
 7078.00    1.12094   2.74155   -2.000
 7079.00    1.27724   2.75449   -2.000
 7080.00    1.49068   2.75469   -2.000
 7081.00    1.69377   2.75496   -2.000
 7082.00    1.89406   2.74941   -2.000
 7083.00    1.59799   2.74440   -2.000
 7084.00    1.19232   2.74781   -2.000
 7085.00    1.14751   2.75978   -2.000
 7086.00    1.16612   2.76883   -2.000
 7087.00    1.08684   2.78397   -2.000
 7088.00    0.99444   2.79410   -2.000
 7089.00    1.16183   2.76891   -2.000
 7090.00    1.35391   2.70433   -2.000
 7091.00    1.23643   2.62793   -2.000
 7092.00    1.10080   2.59738   -2.000
 7093.00    1.51155   2.62696   -2.000
 7094.00    1.93244   2.63462   -2.000
 7095.00    1.89930   2.60498   -2.000
 7096.00    1.86270   2.58489   -2.000
 7097.00    1.73992   2.57558   -2.000
 7098.00    1.62132   2.58554   -2.000
 7099.00    1.55825   2.60467   -2.000
 7100.00    1.49273   2.60294   -2.000
 7101.00    1.40550   2.60360   -2.000
 7102.00    1.33308   2.60398   -2.000
 7103.00    1.35749   2.60495   -2.000
 7104.00    1.38495   2.61567   -2.000
 7105.00    1.42792   2.63618   -2.000
 7106.00    1.51122   2.66648   -2.000
 7107.00    1.76047   2.67772   -2.000
 7108.00    1.90299   2.66798   -2.000
 7109.00    1.68170   2.64282   -2.000
 7110.00    1.58588   2.63071   -2.000
 7111.00    1.85052   2.65419   -2.000
 7112.00    2.05474   2.68646   -2.000
 7113.00    2.11070   2.68409   -2.000
 7114.00    2.09708   2.65929   -2.000
 7115.00    1.93619   2.65814   -2.000
 7116.00    1.81458   2.66945   -2.000
 7117.00    1.76516   2.65104   -2.000
 7118.00    1.82161   2.61258   -2.000
 7119.00    2.04817   2.60887   -2.000
 7120.00    2.03527   2.64398   -2.000
 7121.00    1.68481   2.67333   -2.000
 7122.00    1.57505   2.68170   -2.000
 7123.00    1.76388   2.69160   -2.000
 7124.00    1.81943   2.69857   -2.000
 7125.00    1.72928   2.69394   -2.000
 7126.00    1.73974   2.68999   -2.000
 7127.00    1.84725   2.68422   -2.000
 7128.00    1.84425   2.67271   -2.000
 7129.00    1.74728   2.65158   -2.000
 7130.00    1.81375   2.66354   -2.000
 7131.00    2.00261   2.68896   -2.000
 7132.00    1.77038   2.66012   -2.000
 7133.00    1.26110   2.60623   -2.000
 7134.00    0.99747   2.59364   -2.000
 7135.00    0.87534   2.61611   -2.000
 7136.00    0.77784   2.61568   -2.000
 7137.00    0.69269   2.56951   -2.000
 7138.00    1.19767   2.53466   -2.000
 7139.00    1.95890   2.56079   -2.000
 7140.00    1.98181   2.60768   -2.000
 7141.00    1.72970   2.64667   -2.000
 7142.00    1.46365   2.66337   -2.000
 7143.00    1.19321   2.66543   -2.000
 7144.00    1.39249   2.67817   -2.000
 7145.00    1.71564   2.67270   -2.000
 7146.00    1.75382   2.63935   -2.000
 7147.00    1.73057   2.63630   -2.000
 7148.00    1.61032   2.67157   -2.000
 7149.00    1.47349   2.68786   -2.000
 7150.00    1.05980   2.68075   -2.000
 7151.00    0.61029   2.67662   -2.000
 7152.00    1.17337   2.67285   -2.000
 7153.00    1.82841   2.67085   -2.000
 7154.00    1.94211   2.63670   -2.000
 7155.00    2.02619   2.57768   -2.000
 7156.00    1.51405   2.58188   -2.000
 7157.00    1.00062   2.63215   -2.000
 7158.00    1.51082   2.66173   -2.000
 7159.00    2.02531   2.69290   -2.000
 7160.00    2.63726   2.73036   -2.000
 7161.00    3.22215   2.72934   -2.000
 7162.00    3.46613   2.69559   -2.000
 7163.00    3.58829   2.69708   -2.000
 7164.00    2.67120   2.74181   -2.000
 7165.00    1.77731   2.74738   -2.000
 7166.00    1.03042   2.70813   -2.000
 7167.00    0.52987   2.68063   -2.000
 7168.00    1.25241   2.69208   -2.000
 7169.00    1.79911   2.72081   -2.000
 7170.00    1.63803   2.70546   -2.000
 7171.00    1.50334   2.62984   -2.000
 7172.00    1.45686   2.57610   -2.000
 7173.00    1.41525   2.61485   -2.000
 7174.00    1.38742   2.69383   -2.000
 7175.00    1.40250   2.74253   -2.000
 7176.00    1.52112   2.74330   -2.000
 7177.00    1.64069   2.72769   -2.000
 7178.00    1.76225   2.73654   -2.000
 7179.00    1.89237   2.76563   -2.000
 7180.00    2.03796   2.78122   -2.000
 7181.00    2.07433   2.77187   -2.000
 7182.00    1.93779   2.74197   -2.000
 7183.00    1.77286   2.70755   -2.000
 7184.00    1.56849   2.71207   -2.000
 7185.00    1.45737   2.75143   -2.000
 7186.00    1.46027   2.75241   -2.000
 7187.00    1.63145   2.68895   -2.000
 7188.00    1.98404   2.62766   -2.000
 7189.00    2.10687   2.64943   -2.000
 7190.00    2.01125   2.73793   -2.000
 7191.00    1.80623   2.79439   -2.000
 7192.00    1.50950   2.78677   -2.000
 7193.00    1.22298   2.73697   -2.000
 7194.00    0.94400   2.65710   -2.000
 7195.00    0.95956   2.61271   -2.000
 7196.00    1.16607   2.63021   -2.000
 7197.00   -0.18201   2.67464   -2.000
 7198.00   -2.41200   2.72065   -2.000
 7199.00   -5.66541   2.72405   -2.000
 7200.00   -9.42425   2.70239   -2.000
 7201.00  -11.06713   2.71059   -2.000
 7202.00  -11.80648   2.74678   -2.000
 7203.00   -9.20652   2.75293   -2.000
 7204.00   -5.38477   2.71623   -2.000
 7205.00   -2.18437   2.70995   -2.000
 7206.00    0.82355   2.74179   -2.000
 7207.00    1.32462   2.75903   -2.000
 7208.00    1.17867   2.73723   -2.000
 7209.00    1.38473   2.70725   -2.000
 7210.00    1.66483   2.73435   -2.000
 7211.00    1.45648   2.79009   -2.000
 7212.00    1.16701   2.80612   -2.000
 7213.00    1.11598   2.74605   -2.000
 7214.00    1.09475   2.64135   -2.000
 7215.00    1.37860   2.60767   -2.000
 7216.00    1.68888   2.65229   -2.000
 7217.00    1.20995   2.71992   -2.000
 7218.00    0.69093   2.79003   -2.000
