###################################################################
## OUTPUT of StarlightChains_v04.for    [Cid@UFSC - 01/Apr/2007] ##
###################################################################

## Some input info
KUG0210-078._45_46.txt                   [arq_obs]
Base.CB07.vall.4m                        [arq_base]
Masks.EmLines.NEW.gm                     [arq_masks]
StCv04.C11.config                        [arq_config]
   66                                    [N_base]
    0                                    [N_YAV_components = # of components with extra extinction!]
    0                                    [i_FitPowerLaw (1/0 = Yes/No)]
-9.99                                    [alpha_PowerLaw]
CCM                                      [red_law_option]
 1.458241                                [q_norm = A(l_norm)/A(V)]

## (Re)Sampling Parameters
 3741.00                                 [l_ini (A)]
 7218.00                                 [l_fin (A)]
    1.00                                 [dl    (A)]     (OBS: dl_cushion =    50.00 A)

## Normalization info
 4020.00                                 [l_norm (A) - for base]
 4010.00                                 [llow_norm (A) - window for f_obs]
 4060.00                                 [lupp_norm (A) - window for f_obs]
9.534981E-18                             [fobs_norm (in input units)]

## S/N
 3691.00                                 [llow_SN (A) - window for S/N]
 7268.00                                 [lupp_SN (A) - window for S/N]
   2.787                                 [S/N in S/N window]
   4.088                                 [S/N in norm. window]
   0.008                                 [S/N_err in S/N window]
   0.011                                 [S/N_err in norm. window]
  1.0000                                 [fscale_chi2]

## etc...
    -2007874                             [idum_orig]
  2417                                   [NOl_eff]
  2256                                   [Nl_eff]
   161    NSIGMA                         [Ntot_cliped & clip_method]
  6648250                                [Nglobal_steps]
   7                                     [N_chains]
  25                                     [NEX0s_base = N_base in EX0s-fits]
 0   0   1      161   2.0   5.307E+03    [Clip-Bug, RC-Crash & Burn-In warning-flags, n_censored_weights, wei_nsig_threshold & wei_limit]
    54     53.849     53.199      0.649  [idt_all, wdt_TotTime, wdt_UsrTime & wdt_SysTime (sec)]

## Synthesis Results - Best model ##

 1.08953E-05                             [chi2/Nl_eff]
    17.85113                             [adev (%)]

   107.24218                             [sum-of-x (%)]
 4.77606E-18                             [Flux_tot (units of input spectrum!)]
 2.30321E-14                             [Mini_tot (???)]
 1.37938E-14                             [Mcor_tot (???)]

  85.02                                  [v0_min  (km/s)]
 346.37                                  [vd_min  (km/s)]
-0.5668                                  [AV_min  (mag)]
 0.0000                                  [YAV_min (mag)]

# j     x_j(%)      Mini_j(%)     Mcor_j(%)     age_j(yr)     Z_j      (L/M)_j    YAV?  Mstars   component_j        a/Fe...       SSP_chi2r SSP_adev(%)   SSP_AV   SSP_x(%)
  1      0.0000     0.0000E+00    0.0000E+00    1.000000E+06  0.00400  1.094E-02    0   1.0000   age020_m42            0.0000     1.1840E-05    18.8630   2.0052    92.0938
  2      8.6621     4.1800E-02    6.9788E-02    3.160000E+06  0.00400  4.007E-02    0   0.9999   age045_m42            0.0000     1.1553E-05    18.7593   1.3401    96.0156
  3      0.0000     0.0000E+00    0.0000E+00    5.010000E+06  0.00400  2.539E-02    0   0.9488   age055_m42            0.0000     1.1713E-05    18.8025   1.6407    94.4591
  4      0.0000     0.0000E+00    0.0000E+00    6.610000E+06  0.00400  2.620E-02    0   0.9220   age061_m42            0.0000     1.1625E-05    18.7665   1.2844    95.6634
  5      0.0000     0.0000E+00    0.0000E+00    1.000000E+07  0.00400  1.322E-02    0   0.8862   age070_m42            0.0000     1.1806E-05    19.1043   1.0620    96.2728
  6      0.0000     0.0000E+00    0.0000E+00    1.445000E+07  0.00400  7.883E-03    0   0.8571   age078_m42            0.0000     1.1828E-05    19.0161   1.3643    94.7026
  7      0.0000     0.0000E+00    0.0000E+00    2.512000E+07  0.00400  5.251E-03    0   0.8174   age090_m42            0.0000     1.1785E-05    19.2334   0.9482    96.4015
  8      0.0000     0.0000E+00    0.0000E+00    4.000000E+07  0.00400  3.649E-03    0   0.7851   age104_m42            0.0000     1.1684E-05    19.1424   0.7212    97.0714
  9      0.0000     0.0000E+00    0.0000E+00    5.500000E+07  0.00400  3.098E-03    0   0.7629   age110_m42            0.0000     1.1632E-05    18.9241   0.8596    97.2196
 10      0.0000     0.0000E+00    0.0000E+00    1.015200E+08  0.00400  2.228E-03    0   0.7207   age116_m42            0.0000     1.1627E-05    18.8474   0.8751    97.3458
 11      0.0000     0.0000E+00    0.0000E+00    2.861200E+08  0.00400  1.093E-03    0   0.6648   age125_m42            0.0000     1.1524E-05    18.8984   0.3339    99.3296
 12      2.2167     6.4973E-01    6.9053E-01    5.088000E+08  0.00400  6.597E-04    0   0.6365   age130_m42            0.0000     1.1364E-05    18.6187   0.2993   100.6684
 13      0.0000     0.0000E+00    0.0000E+00    1.434000E+09  0.00400  2.132E-04    0   0.5798   age139_m42            0.0000     1.0959E-05    18.0894  -0.7163   103.7620
 14      1.2122     3.9761E+00    3.5698E+00    4.250000E+09  0.00400  5.895E-05    0   0.5377   age158_m42            0.0000     1.1243E-05    20.4140  -1.0000    98.7302
 15      0.0000     0.0000E+00    0.0000E+00    7.500000E+09  0.00400  3.510E-05    0   0.5212   age171_m42            0.0000     1.2020E-05    24.0413  -1.0000    94.8898
 16      0.0000     0.0000E+00    0.0000E+00    1.300000E+10  0.00400  2.005E-05    0   0.5034   age193_m42            0.0000     1.3082E-05    27.7674  -1.0000    91.2892
 17      0.0000     0.0000E+00    0.0000E+00    1.800000E+10  0.00400  1.525E-05    0   0.4967   age213_m42            0.0000     1.3193E-05    28.3641  -1.0000    90.4713
 18      0.0000     0.0000E+00    0.0000E+00    1.000000E+06  0.00800  1.238E-02    0   1.0000   age020_m52            0.0000     1.1840E-05    18.8555   1.9984    92.3520
 19      0.0000     0.0000E+00    0.0000E+00    3.160000E+06  0.00800  3.074E-02    0   0.9966   age045_m52            0.0000     1.1812E-05    18.8568   1.9239    93.0672
 20      0.0000     0.0000E+00    0.0000E+00    5.010000E+06  0.00800  2.668E-02    0   0.9443   age055_m52            0.0000     1.1754E-05    18.8051   1.7184    93.8835
 21      0.0000     0.0000E+00    0.0000E+00    6.610000E+06  0.00800  2.136E-02    0   0.9177   age061_m52            0.0000     1.1531E-05    18.7106   0.5154    98.8119
 22      8.3464     1.3283E-01    1.9577E-01    1.000000E+07  0.00800  1.215E-02    0   0.8827   age070_m52            0.0000     1.1823E-05    19.1918   1.2419    96.2875
 23      0.0000     0.0000E+00    0.0000E+00    1.445000E+07  0.00800  8.717E-03    0   0.8552   age078_m52            0.0000     1.1773E-05    19.0006   1.3333    95.8893
 24      2.9347     1.0148E-01    1.3830E-01    2.512000E+07  0.00800  5.592E-03    0   0.8162   age090_m52            0.0000     1.1733E-05    19.1894   1.0123    97.5122
 25      0.0000     0.0000E+00    0.0000E+00    4.000000E+07  0.00800  3.896E-03    0   0.7841   age104_m52            0.0000     1.1600E-05    19.0348   0.9217    98.1613
 26      0.0000     0.0000E+00    0.0000E+00    1.015200E+08  0.00800  2.148E-03    0   0.7226   age116_m52            0.0000     1.1506E-05    18.8021   0.8446    98.1589
 27      0.0000     0.0000E+00    0.0000E+00    2.861200E+08  0.00800  9.925E-04    0   0.6683   age125_m52            0.0000     1.1442E-05    18.6530   0.3740   101.2654
 28      0.0000     0.0000E+00    0.0000E+00    9.047900E+08  0.00800  3.141E-04    0   0.6138   age135_m52            0.0000     1.0870E-05    17.8821  -0.5209   108.0745
 29      0.6530     7.3450E-01    7.1783E-01    1.434000E+09  0.00800  1.719E-04    0   0.5853   age139_m52            0.0000     1.0933E-05    18.7275  -1.0000   104.7375
 30      0.0000     0.0000E+00    0.0000E+00    2.500000E+09  0.00800  7.872E-05    0   0.5600   age150_m52            0.0000     1.1969E-05    23.5105  -1.0000    97.7809
 31      0.0000     0.0000E+00    0.0000E+00    4.250000E+09  0.00800  4.336E-05    0   0.5426   age158_m52            0.0000     1.2144E-05    23.9454  -1.0000    96.7523
 32      0.0000     0.0000E+00    0.0000E+00    6.250000E+09  0.00800  3.159E-05    0   0.5319   age166_m52            0.0000     1.3519E-05    28.3423  -1.0000    92.7005
 33      0.0000     0.0000E+00    0.0000E+00    1.300000E+10  0.00800  1.361E-05    0   0.5073   age193_m52            0.0000     1.7962E-05    38.9147  -1.0000    81.6990
 34      0.0000     0.0000E+00    0.0000E+00    1.800000E+10  0.00800  9.886E-06    0   0.4990   age213_m52            0.0000     1.9616E-05    40.9998  -1.0000    78.6909
 35      0.0000     0.0000E+00    0.0000E+00    1.000000E+06  0.02000  1.544E-02    0   1.0000   age020_m62            0.0000     1.1850E-05    18.8739   1.9933    92.6477
 36      0.0000     0.0000E+00    0.0000E+00    3.160000E+06  0.02000  3.762E-02    0   0.9858   age045_m62            0.0000     1.1857E-05    18.8812   1.9312    93.4911
 37      0.0000     0.0000E+00    0.0000E+00    5.010000E+06  0.02000  3.296E-02    0   0.9342   age055_m62            0.0000     1.1734E-05    18.7935   1.6097    95.2187
 38      0.0000     0.0000E+00    0.0000E+00    8.710000E+06  0.02000  1.154E-02    0   0.8861   age067_m62            0.0000     1.2319E-05    20.7723   0.7664    97.7063
 39      0.0000     0.0000E+00    0.0000E+00    1.445000E+07  0.02000  7.663E-03    0   0.8472   age078_m62            0.0000     1.1804E-05    19.4271   0.9067    98.1149
 40      0.6171     2.6330E-02    3.5606E-02    2.512000E+07  0.02000  4.532E-03    0   0.8099   age090_m62            0.0000     1.1876E-05    19.6002   0.9189    97.1987
 41      0.0000     0.0000E+00    0.0000E+00    5.500000E+07  0.02000  2.733E-03    0   0.7595   age110_m62            0.0000     1.1686E-05    19.0348   0.9039    97.4942
 42      0.0714     1.0079E-02    1.1755E-02    1.609000E+08  0.02000  1.369E-03    0   0.6985   age120_m62            0.0000     1.1679E-05    18.8941   0.7500    99.4190
 43      0.0000     0.0000E+00    0.0000E+00    2.861200E+08  0.02000  9.013E-04    0   0.6714   age125_m62            0.0000     1.1578E-05    18.7608   0.4974   102.0621
 44      0.0000     0.0000E+00    0.0000E+00    5.088000E+08  0.02000  5.028E-04    0   0.6449   age130_m62            0.0000     1.1129E-05    18.2077   0.0488   106.6454
 45     32.0774     2.5546E+01    2.6357E+01    9.047900E+08  0.02000  2.428E-04    0   0.6179   age135_m62            0.0000     1.0827E-05    17.7893  -0.6305   108.8257
 46     34.4177     5.2693E+01    5.1980E+01    1.434000E+09  0.02000  1.263E-04    0   0.5908   age139_m62            0.0000     1.1034E-05    18.2378  -1.0000   106.5994
 47      0.7209     2.3291E+00    2.2062E+00    2.500000E+09  0.02000  5.985E-05    0   0.5673   age150_m62            0.0000     1.2450E-05    24.0166  -1.0000    98.8386
 48      0.0000     0.0000E+00    0.0000E+00    4.250000E+09  0.02000  3.271E-05    0   0.5468   age158_m62            0.0000     1.4769E-05    30.6229  -1.0000    91.6000
 49      0.0000     0.0000E+00    0.0000E+00    1.000000E+10  0.02000  1.360E-05    0   0.5167   age181_m62            0.0000     1.8687E-05    38.1163  -1.0000    83.1332
 50      0.0069     1.8810E-01    1.5745E-01    1.800000E+10  0.02000  7.124E-06    0   0.5013   age213_m62            0.0000     2.1787E-05    42.1544  -1.0000    77.3370
 51      1.3987     1.0435E-02    1.7420E-02    1.000000E+06  0.05000  2.592E-02    0   0.9998   age020_m72            0.0000     1.1859E-05    18.8725   1.9764    92.9780
 52      0.0000     0.0000E+00    0.0000E+00    3.160000E+06  0.05000  4.845E-02    0   0.9577   age045_m72            0.0000     1.1781E-05    18.8294   1.8307    94.0307
 53      0.0000     0.0000E+00    0.0000E+00    5.010000E+06  0.05000  3.072E-02    0   0.9147   age055_m72            0.0000     1.1755E-05    18.9059   1.4310    96.1047
 54      1.9950     2.6512E-02    3.9297E-02    6.610000E+06  0.05000  1.455E-02    0   0.8877   age061_m72            0.0000     1.2616E-05    21.6471   0.8294    98.0588
 55      0.0000     0.0000E+00    0.0000E+00    1.000000E+07  0.05000  9.074E-03    0   0.8524   age070_m72            0.0000     1.1815E-05    19.0063   1.6097    95.7062
 56      0.0000     0.0000E+00    0.0000E+00    2.512000E+07  0.05000  4.250E-03    0   0.7902   age090_m72            0.0000     1.1745E-05    19.0687   1.3556    96.0395
 57      0.0000     0.0000E+00    0.0000E+00    4.000000E+07  0.05000  3.087E-03    0   0.7618   age104_m72            0.0000     1.1799E-05    19.2779   1.1560    96.7333
 58      0.0000     0.0000E+00    0.0000E+00    1.015200E+08  0.05000  1.700E-03    0   0.7096   age116_m72            0.0000     1.1757E-05    19.0628   0.9062    98.6882
 59      0.2337     6.1205E-02    6.7787E-02    2.861200E+08  0.05000  7.384E-04    0   0.6633   age125_m72            0.0000     1.1383E-05    18.4527   0.3330   104.2764
 60      0.0000     0.0000E+00    0.0000E+00    5.088000E+08  0.05000  3.819E-04    0   0.6372   age130_m72            0.0000     1.0939E-05    17.9933  -0.2576   108.8705
 61     11.6783     1.3473E+01    1.3746E+01    9.047900E+08  0.05000  1.676E-04    0   0.6110   age135_m72            0.0000     1.1061E-05    18.1970  -1.0000   109.3410
 62      0.0000     0.0000E+00    0.0000E+00    1.434000E+09  0.05000  8.837E-05    0   0.5874   age139_m72            0.0000     1.2495E-05    24.0648  -1.0000   100.4145
 63      0.0000     0.0000E+00    0.0000E+00    2.500000E+09  0.05000  4.233E-05    0   0.5598   age150_m72            0.0000     1.5028E-05    30.6451  -1.0000    92.4339
 64      0.0000     0.0000E+00    0.0000E+00    6.250000E+09  0.05000  1.435E-05    0   0.5249   age166_m72            0.0000     1.9956E-05    40.0926  -1.0000    80.4908
 65      0.0000     0.0000E+00    0.0000E+00    1.300000E+10  0.05000  6.513E-06    0   0.5036   age193_m72            0.0000     2.4363E-05    45.1629  -1.0000    74.1473
 66      0.0000     0.0000E+00    0.0000E+00    1.800000E+10  0.05000  4.527E-06    0   0.4945   age213_m72            0.0000     2.7235E-05    47.6988  -1.0000    69.8591


## Synthesis Results - Average & Chains ##

# j      x_j: min, <> & last-chain-values for 1 ...  7 chains
  1      0.0000      0.1979      0.0428      0.0000      0.1633      0.1642      0.0651      0.0000      0.0231
  2      8.6621     25.7867     28.9812     27.0741     28.2122     27.5290     29.3108     27.7006     29.5263
  3      0.0000      0.1896      0.0558      0.0021      0.0579      0.3622      0.0283      0.0131      0.0523
  4      0.0000      0.2320      0.1771      0.0000      0.1354      0.1288      0.1667      0.1025      0.0561
  5      0.0000      0.2724      0.0371      0.1757      0.0686      0.0508      0.0000      0.1042      0.0000
  6      0.0000      0.2578      0.0756      0.0571      0.0776      0.2147      0.1074      0.0000      0.2544
  7      0.0000      0.2759      0.0006      0.0715      0.1535      0.2404      0.0515      0.0048      0.0000
  8      0.0000      0.2769      0.1262      0.0597      0.0520      0.4534      0.3994      0.0000      0.0000
  9      0.0000      0.2512      0.2973      0.0498      0.0494      0.2466      0.0577      0.0769      0.0810
 10      0.0000      0.1795      0.0816      0.0769      0.0000      0.2985      0.0000      0.0000      0.0111
 11      0.0000      0.1344      0.0872      0.1033      0.1484      0.1928      0.0000      0.0000      0.0906
 12      2.2167      0.3368      0.1240      0.1794      0.6846      0.4218      0.0822      0.2141      0.3217
 13      0.0000      0.2405      0.0634      0.0000      0.0539      0.0000      0.1086      0.1105      0.2507
 14      1.2122      0.3399      0.0946      0.0023      0.0680      0.0887      0.1642      0.2102      0.2506
 15      0.0000      0.2871      0.0000      0.0222      0.1031      0.0743      0.1185      0.2379      0.0000
 16      0.0000      0.2354      0.1714      0.1071      0.2454      0.1348      0.0242      0.1839      0.0782
 17      0.0000      0.2053      0.0987      0.0796      0.0000      0.0913      0.0533      0.3788      0.0000
 18      0.0000      0.1717      0.0555      0.0000      0.0000      0.0885      0.0000      0.0285      0.0241
 19      0.0000      0.2836      0.1799      0.0887      0.2395      0.1385      0.0293      0.0267      0.2473
 20      0.0000      0.2544      0.0254      0.0544      0.0372      0.0000      0.1400      0.0197      0.0890
 21      0.0000      0.2591      0.0954      0.0117      0.0984      0.0000      0.0000      0.0236      0.1388
 22      8.3464      0.2030      0.0000      0.0655      0.0182      0.1246      0.0316      0.2552      0.0000
 23      0.0000      0.1775      0.0000      0.0685      0.1109      0.0295      0.0000      0.0073      0.0664
 24      2.9347      0.3055      0.0039      0.0000      0.0000      0.4449      0.2471      0.2826      0.2913
 25      0.0000      0.1658      0.1548      0.0000      0.0392      0.1212      0.0161      0.1578      0.0036
 26      0.0000      0.2512      0.0261      0.1727      0.1096      0.0505      0.0330      0.1467      0.0672
 27      0.0000      0.2351      0.0383      0.0865      0.3511      0.1004      0.0674      0.0087      0.1162
 28      0.0000      0.2423      0.0000      0.3958      0.3980      0.0652      0.0167      0.1424      0.0091
 29      0.6530      0.2245      0.2408      0.0000      0.0636      0.1078      0.0106      0.1980      0.1236
 30      0.0000      0.3036      0.0036      0.0919      0.0503      0.2304      0.0000      0.0175      0.1073
 31      0.0000      0.2126      0.0000      0.1098      0.0000      0.0000      0.0131      0.0225      0.1860
 32      0.0000      0.3016      0.2871      0.0336      0.2164      0.1211      0.0000      0.1511      0.0939
 33      0.0000      0.2632      0.0000      0.1255      0.1819      0.2893      0.0000      0.0000      0.1704
 34      0.0000      0.2034      0.1957      0.1454      0.1692      0.2598      0.0000      0.1409      0.1023
 35      0.0000      0.2325      0.1557      0.0000      0.1163      0.0000      0.0000      0.1489      0.0652
 36      0.0000      0.2217      0.0023      0.0133      0.1023      0.8165      0.0463      0.0933      0.2236
 37      0.0000      0.2986      0.0370      0.0190      0.3331      0.1394      0.0000      0.2194      0.0808
 38      0.0000      0.2434      0.1102      0.0285      0.0368      0.1573      0.0000      0.0000      0.1089
 39      0.0000      0.2631      0.1227      0.0000      0.3916      0.0000      0.0299      0.0019      0.0810
 40      0.6171      0.2655      0.2815      0.0000      0.0483      0.1495      0.1174      0.2078      0.0570
 41      0.0000      0.3290      0.2073      0.0000      0.1510      0.3086      0.0178      0.0487      0.2814
 42      0.0714      9.0416      9.6171      9.2101      9.1324      6.4517      9.1649     12.0229      9.0181
 43      0.0000      2.1138      2.3469      2.2822      2.4921      2.3426      2.5422      2.2180      2.2269
 44      0.0000      0.1847      0.0000      0.0680      0.1081      0.0703      0.0637      0.1962      0.0841
 45     32.0774      0.2499      0.0000      0.0997      0.4915      0.2284      0.1289      0.4327      0.1116
 46     34.4177      0.2917      0.5413      0.1308      0.2626      0.0930      0.0260      0.3919      0.0726
 47      0.7209      0.2839      0.0792      0.1022      0.0373      0.4415      0.0000      0.3324      0.2359
 48      0.0000      0.3139      0.0422      0.2614      0.1863      0.6577      0.3063      0.0554      0.0574
 49      0.0000      0.2484      0.1735      0.0398      0.3711      0.1882      0.0018      0.0688      0.0310
 50      0.0069      0.1919      0.3228      0.0365      0.1415      0.0566      0.0027      0.1636      0.1664
 51      1.3987      2.4974      2.6050      2.9011      2.3937      2.7634      2.8565      2.4298      2.7728
 52      0.0000      0.1723      0.0621      0.1736      0.0219      0.1344      0.0274      0.0410      0.0189
 53      0.0000      0.2066      0.0000      0.1308      0.0259      0.0558      0.0244      0.0207      0.0308
 54      1.9950      0.2328      0.3612      0.0290      0.0601      0.1812      0.0028      0.2029      0.1392
 55      0.0000      0.2123      0.0640      0.0000      0.2311      0.1010      0.0893      0.0559      0.0129
 56      0.0000      0.2560      0.0127      0.0162      0.0000      0.0599      0.1048      0.0077      0.0000
 57      0.0000      0.2342      0.0000      0.0555      0.0431      0.0000      0.0000      0.1489      0.2661
 58      0.0000     18.1108     18.6023     20.8016     20.5503     21.2725     19.2448     19.1259     18.8282
 59      0.2337     33.0450     37.0042     38.9658     34.2481     34.5260     38.6658     34.7365     36.6079
 60      0.0000      0.2761      0.0000      0.0663      0.0911      0.2965      0.1167      0.0000      0.4514
 61     11.6783      0.1911      0.0455      0.0545      0.2092      0.1512      0.3170      0.2388      0.1036
 62      0.0000      0.1743      0.0000      0.1176      0.0778      0.1444      0.0598      0.0339      0.0410
 63      0.0000      0.2557      0.1907      0.2522      0.2507      0.1237      0.0136      0.0252      0.1161
 64      0.0000      0.3002      0.0992      0.0000      0.1582      0.0022      0.0259      0.1783      0.0000
 65      0.0000      0.2662      0.1484      0.0636      0.0514      0.1388      0.0000      0.0088      0.0705
 66      0.0000      0.2762      0.1778      0.1100      0.0114      0.1176      0.0127      0.3313      0.0667

# j      m_j: min, <> & last-chain-values for 1 ...  7 chains
  1  0.0000E+00  9.1368E-03  2.7222E-03  0.0000E+00  1.2172E-02  1.0873E-02  8.9008E-03  0.0000E+00  2.0553E-03
  2  6.9788E-02  3.2495E-01  5.0332E-01  6.4899E-01  5.7414E-01  4.9761E-01  1.0941E+00  4.6638E-01  7.1759E-01
  3  0.0000E+00  3.5787E-03  1.4500E-03  7.4518E-05  1.7646E-03  9.8043E-03  1.5818E-03  3.3038E-04  1.9026E-03
  4  0.0000E+00  4.1225E-03  4.3371E-03  0.0000E+00  3.8845E-03  3.2842E-03  8.7751E-03  2.4345E-03  1.9236E-03
  5  0.0000E+00  9.2217E-03  1.7316E-03  1.1315E-02  3.7494E-03  2.4658E-03  0.0000E+00  4.7148E-03  0.0000E+00
  6  0.0000E+00  1.4153E-02  5.7198E-03  5.9599E-03  6.8795E-03  1.6907E-02  1.7474E-02  0.0000E+00  2.6945E-02
  7  0.0000E+00  2.1688E-02  6.4330E-05  1.0699E-02  1.9488E-02  2.7111E-02  1.2001E-02  5.0725E-04  0.0000E+00
  8  0.0000E+00  3.0082E-02  1.8900E-02  1.2334E-02  9.1202E-03  7.0658E-02  1.2853E-01  0.0000E+00  0.0000E+00
  9  0.0000E+00  3.1242E-02  5.0962E-02  1.1770E-02  9.9271E-03  4.3991E-02  2.1255E-02  1.2775E-02  1.9429E-02
 10  0.0000E+00  2.9328E-02  1.8362E-02  2.3898E-02  0.0000E+00  6.9952E-02  0.0000E+00  0.0000E+00  3.4951E-03
 11  0.0000E+00  4.1278E-02  3.6920E-02  6.0363E-02  7.3589E-02  8.4925E-02  0.0000E+00  0.0000E+00  5.3665E-02
 12  6.9053E-01  1.6408E-01  8.3298E-02  1.6632E-01  5.3869E-01  2.9478E-01  1.1856E-01  1.3936E-01  3.0230E-01
 13  0.0000E+00  3.3026E-01  1.2002E-01  0.0000E+00  1.1953E-01  0.0000E+00  4.4164E-01  2.0274E-01  6.6395E-01
 14  3.5698E+00  1.5657E+00  6.0025E-01  1.9970E-02  5.0550E-01  5.8584E-01  2.2404E+00  1.2935E+00  2.2263E+00
 15  0.0000E+00  2.1529E+00  0.0000E+00  3.1671E-01  1.2486E+00  7.9891E-01  2.6310E+00  2.3836E+00  0.0000E+00
 16  0.0000E+00  2.9842E+00  2.9946E+00  2.5840E+00  5.0240E+00  2.4522E+00  9.0759E-01  3.1152E+00  1.9123E+00
 17  0.0000E+00  3.3769E+00  2.2381E+00  2.4914E+00  0.0000E+00  2.1537E+00  2.5951E+00  8.3236E+00  0.0000E+00
 18  0.0000E+00  7.0029E-03  3.1197E-03  0.0000E+00  0.0000E+00  5.1799E-03  0.0000E+00  1.5540E-03  1.8954E-03
 19  0.0000E+00  4.6425E-03  4.0597E-03  2.7617E-03  6.3329E-03  3.2525E-03  1.4189E-03  5.8480E-04  7.8098E-03
 20  0.0000E+00  4.5461E-03  6.2532E-04  1.8494E-03  1.0733E-03  0.0000E+00  7.4132E-03  4.7065E-04  3.0692E-03
 21  0.0000E+00  5.6222E-03  2.8529E-03  4.8274E-04  3.4488E-03  0.0000E+00  0.0000E+00  6.8541E-04  5.8066E-03
 22  1.9577E-01  7.4488E-03  0.0000E+00  4.5746E-03  1.0804E-03  6.5548E-03  3.4314E-03  1.2509E-02  0.0000E+00
 23  0.0000E+00  8.7955E-03  0.0000E+00  6.4534E-03  8.8699E-03  2.0983E-03  2.7935E-07  4.8405E-04  6.3447E-03
 24  1.3830E-01  2.2516E-02  3.9396E-04  0.0000E+00  0.0000E+00  4.7038E-02  5.3948E-02  2.7828E-02  4.1409E-02
 25  0.0000E+00  1.6851E-02  2.1687E-02  0.0000E+00  6.4289E-03  1.7666E-02  4.8511E-03  2.1426E-02  7.1509E-04
 26  0.0000E+00  4.2667E-02  6.0994E-03  5.5810E-02  3.0079E-02  1.2312E-02  1.6605E-02  3.3295E-02  2.2027E-02
 27  0.0000E+00  7.9937E-02  1.7955E-02  5.5921E-02  1.9281E-01  4.8978E-02  6.7849E-02  3.9331E-03  7.6220E-02
 28  0.0000E+00  2.3909E-01  0.0000E+00  7.4290E-01  6.3436E-01  9.2243E-02  4.8825E-02  1.8775E-01  1.7301E-02
 29  7.1783E-01  3.8603E-01  5.7062E-01  0.0000E+00  1.7651E-01  2.6579E-01  5.4152E-02  4.5492E-01  4.0991E-01
 30  0.0000E+00  1.0906E+00  1.7799E-02  6.2779E-01  2.9194E-01  1.1875E+00  0.0000E+00  8.4020E-02  7.4364E-01
 31  0.0000E+00  1.3437E+00  0.0000E+00  1.3203E+00  0.0000E+00  0.0000E+00  2.4577E-01  1.8978E-01  2.2663E+00
 32  0.0000E+00  2.5647E+00  3.3650E+00  5.4375E-01  2.9718E+00  1.4766E+00  0.0000E+00  1.7161E+00  1.5395E+00
 33  0.0000E+00  4.9549E+00  0.0000E+00  4.4936E+00  5.5281E+00  7.8103E+00  0.0000E+00  0.0000E+00  6.1845E+00
 34  0.0000E+00  5.1836E+00  6.8763E+00  7.0512E+00  6.9653E+00  9.4985E+00  0.0000E+00  4.7990E+00  5.0285E+00
 35  0.0000E+00  7.6035E-03  7.0179E-03  0.0000E+00  6.1455E-03  0.0000E+00  0.0000E+00  6.5051E-03  4.1107E-03
 36  0.0000E+00  2.9335E-03  4.1357E-05  3.3530E-04  2.1866E-03  1.5499E-02  1.8151E-03  1.6503E-03  5.7060E-03
 37  0.0000E+00  4.2745E-03  7.3071E-04  5.1855E-04  7.6990E-03  2.8611E-03  0.0000E+00  4.1965E-03  2.2304E-03
 38  0.0000E+00  9.4398E-03  5.8886E-03  2.1034E-03  2.3047E-03  8.7483E-03  0.0000E+00  0.0000E+00  8.1439E-03
 39  0.0000E+00  1.4690E-02  9.4410E-03  0.0000E+00  3.5312E-02  0.0000E+00  4.9526E-03  1.3890E-04  8.7237E-03
 40  3.5606E-02  2.3960E-02  3.5011E-02  0.0000E+00  7.0428E-03  1.9347E-02  3.1393E-02  2.5060E-02  9.9233E-03
 41  0.0000E+00  4.6166E-02  4.0096E-02  0.0000E+00  3.4232E-02  6.2131E-02  7.4116E-03  9.1313E-03  7.6156E-02
 42  1.1755E-02  2.3297E+00  3.4151E+00  4.5142E+00  3.8001E+00  2.3845E+00  6.9947E+00  4.1389E+00  4.4814E+00
 43  0.0000E+00  7.9517E-01  1.2168E+00  1.6331E+00  1.5140E+00  1.2641E+00  2.8327E+00  1.1148E+00  1.6156E+00
 44  0.0000E+00  1.1963E-01  0.0000E+00  8.3724E-02  1.1312E-01  6.5310E-02  1.2213E-01  1.6982E-01  1.0500E-01
 45  2.6357E+01  3.2120E-01  0.0000E+00  2.4378E-01  1.0200E+00  4.2104E-01  4.9067E-01  7.4289E-01  2.7661E-01
 46  5.1980E+01  6.8905E-01  1.7623E+00  5.8776E-01  1.0018E+00  3.1518E-01  1.8207E-01  1.2370E+00  3.3056E-01
 47  2.2062E+00  1.3591E+00  5.2259E-01  9.3094E-01  2.8835E-01  3.0317E+00  0.0000E+00  2.1258E+00  2.1779E+00
 48  0.0000E+00  2.6495E+00  4.9111E-01  4.1975E+00  2.5398E+00  7.9642E+00  7.6581E+00  6.2460E-01  9.3510E-01
 49  0.0000E+00  4.7657E+00  4.5866E+00  1.4535E+00  1.1500E+01  5.1804E+00  1.0077E-01  1.7643E+00  1.1479E+00
 50  1.5745E-01  6.8202E+00  1.5809E+01  2.4673E+00  8.1227E+00  2.8862E+00  2.8771E-01  7.7679E+00  1.1402E+01
 51  1.7420E-02  4.8646E-02  6.9933E-02  1.0749E-01  7.5299E-02  7.7212E-02  1.6481E-01  6.3237E-02  1.0417E-01
 52  0.0000E+00  1.7194E-03  8.5371E-04  3.2960E-03  3.5322E-04  1.9246E-03  8.0869E-04  5.4679E-04  3.6420E-04
 53  0.0000E+00  3.1059E-03  0.0000E+00  3.7409E-03  6.2981E-04  1.2046E-03  1.0859E-03  4.1623E-04  8.9382E-04
 54  3.9297E-02  7.1725E-03  1.5335E-02  1.6983E-03  2.9904E-03  8.0094E-03  2.5155E-04  8.3531E-03  8.2710E-03
 55  0.0000E+00  1.0072E-02  4.1823E-03  0.0000E+00  1.7706E-02  6.8745E-03  1.2550E-02  3.5432E-03  1.1758E-03
 56  0.0000E+00  2.4040E-02  1.6485E-03  2.8888E-03  0.0000E+00  8.0673E-03  2.9136E-02  9.7147E-04  0.0000E+00
 57  0.0000E+00  2.9191E-02  0.0000E+00  1.3162E-02  8.6775E-03  0.0000E+00  0.0000E+00  2.4794E-02  6.3946E-02
 58  0.0000E+00  3.8176E+00  5.4041E+00  8.3409E+00  6.9956E+00  6.4320E+00  1.2016E+01  5.3865E+00  7.6543E+00
 59  6.7787E-02  1.4990E+01  2.3135E+01  3.3624E+01  2.5090E+01  2.2466E+01  5.1955E+01  2.1053E+01  3.2028E+01
 60  0.0000E+00  2.3262E-01  0.0000E+00  1.0621E-01  1.2402E-01  3.5837E-01  2.9131E-01  0.0000E+00  7.3350E-01
 61  1.3746E+01  3.5188E-01  1.1536E-01  1.9087E-01  6.2211E-01  3.9938E-01  1.7285E+00  5.8730E-01  3.6787E-01
 62  0.0000E+00  5.8494E-01  0.0000E+00  7.5095E-01  4.2195E-01  6.9516E-01  5.9412E-01  1.5225E-01  2.6553E-01
 63  0.0000E+00  1.7077E+00  1.7549E+00  3.2036E+00  2.7042E+00  1.1846E+00  2.6957E-01  2.2503E-01  1.4956E+00
 64  0.0000E+00  5.5459E+00  2.5266E+00  0.0000E+00  4.7179E+00  5.9210E-02  1.4150E+00  4.3999E+00  0.0000E+00
 65  0.0000E+00  1.0395E+01  7.9855E+00  4.7275E+00  3.2425E+00  7.7767E+00  0.0000E+00  4.6116E-01  5.3103E+00
 66  0.0000E+00  1.5237E+01  1.3518E+01  1.1538E+01  1.0128E+00  9.3070E+00  2.0768E+00  2.4420E+01  7.0924E+00

# AV, chi2 & Mass for <> & i_chain = 1 ...  7 solutions
AV      -0.5668      0.5894      0.5365      0.5548      0.5355      0.5298      0.6107      0.5226      0.5738
chi2 1.0895E-05  1.1814E-05  1.1690E-05  1.1705E-05  1.1682E-05  1.1680E-05  1.1711E-05  1.1676E-05  1.1699E-05
Mass 1.3794E-14  4.1669E-14  2.8161E-14  2.0913E-14  2.4001E-14  2.6817E-14  1.4476E-14  2.8511E-14  2.1159E-14
  85.02                                  [v0_min (km/s) before EX0s...]
 346.37                                  [vd_min (km/s) before EX0s...]


## Synthetic spectrum (Best Model) ##l_obs f_obs f_syn wei
 3478    [Nl_obs]
 3741.00    1.77535   0.64014    0.000
 3742.00    1.64766   0.64495    0.000
 3743.00    1.17401   0.64554    0.000
 3744.00    1.12963   0.64166    0.000
 3745.00    1.33535   0.63430   -1.000
 3746.00    1.27306   0.62492   -1.000
 3747.00    1.07467   0.61454   -1.000
 3748.00    0.57382   0.60646   -1.000
 3749.00   -0.06004   0.60001    0.000
 3750.00   -0.10162   0.59825    0.000
 3751.00    0.08041   0.60167   -1.000
 3752.00    0.12455   0.61037   -1.000
 3753.00    0.12449   0.62311   -1.000
 3754.00    0.28920   0.63750   -1.000
 3755.00    0.49806   0.65357   -1.000
 3756.00    0.85505   0.66842   -1.000
 3757.00    1.24456   0.68116   -1.000
 3758.00    0.78417   0.69091   -1.000
 3759.00    0.17542   0.69787   -1.000
 3760.00    0.02892   0.70241   -1.000
 3761.00   -0.05616   0.70423    0.000
 3762.00    0.16630   0.70339   -1.000
 3763.00    0.41767   0.70019   -1.000
 3764.00    0.11187   0.69431   -1.000
 3765.00   -0.22608   0.68620    0.000
 3766.00   -0.12262   0.67741    0.000
 3767.00   -0.00739   0.66779    0.000
 3768.00    0.26420   0.65923   -1.000
 3769.00    0.52794   0.65270   -1.000
 3770.00    0.60117   0.64909   -1.000
 3771.00    0.67039   0.64949   -1.000
 3772.00    0.68720   0.65511   -1.000
 3773.00    0.72318   0.66647   -1.000
 3774.00    0.92750   0.68201   -1.000
 3775.00    1.09586   0.70073   -1.000
 3776.00    1.03111   0.72199   -1.000
 3777.00    0.90592   0.74392   -1.000
 3778.00    0.47483   0.76592   -1.000
 3779.00    0.21371   0.78587   -1.000
 3780.00    0.64829   0.80350   -1.000
 3781.00    0.90867   0.81747   -1.000
 3782.00    0.57825   0.82643   -1.000
 3783.00    0.36507   0.83119   -1.000
 3784.00    0.48723   0.83107   -1.000
 3785.00    0.53447   0.82720   -1.000
 3786.00    0.39866   0.81867   -1.000
 3787.00    0.42480   0.80615   -1.000
 3788.00    0.79229   0.79141   -1.000
 3789.00    1.13774   0.77394   -1.000
 3790.00    1.44285   0.75487   -1.000
 3791.00    1.53813   0.73442   -1.000
 3792.00    1.29752   0.71340   -1.000
 3793.00    1.10891   0.69226   -1.000
 3794.00    0.99334   0.67169   -1.000
 3795.00    0.79322   0.65336   -1.000
 3796.00    0.48860   0.63849   -1.000
 3797.00    0.46503   0.62837   -1.000
 3798.00    0.74766   0.62353   -1.000
 3799.00    0.77018   0.62543   -1.000
 3800.00    0.54276   0.63402   -1.000
 3801.00    0.33949   0.64879   -1.000
 3802.00    0.15668   0.66838   -1.000
 3803.00    0.10228   0.69102   -1.000
 3804.00    0.14370   0.71554   -1.000
 3805.00    0.37544   0.73925   -1.000
 3806.00    0.73193   0.76173   -1.000
 3807.00    0.97179   0.78129   -1.000
 3808.00    1.14473   0.79801   -1.000
 3809.00    1.08294   0.81168   -1.000
 3810.00    0.90382   0.82180   -1.000
 3811.00    0.84603   0.82880   -1.000
 3812.00    0.84071   0.83211   -1.000
 3813.00    0.91958   0.83226   -1.000
 3814.00    1.02967   0.82950   -1.000
 3815.00    1.21155   0.82574   -1.000
 3816.00    1.41600   0.82105   -1.000
 3817.00    1.19834   0.81577   -1.000
 3818.00    0.86995   0.81021   -1.000
 3819.00    0.91994   0.80372   -1.000
 3820.00    1.05100   0.79628   -1.000
 3821.00    1.24292   0.78750   -1.000
 3822.00    1.44518   0.77837   -1.000
 3823.00    1.24996   0.76805   -1.000
 3824.00    1.00374   0.75631   -1.000
 3825.00    0.75328   0.74228   -1.000
 3826.00    0.50243   0.72635   -1.000
 3827.00    0.59817   0.70862   -1.000
 3828.00    0.71255   0.68919   -1.000
 3829.00    0.66215   0.66877   -1.000
 3830.00    0.60685   0.64772   -1.000
 3831.00    0.41738   0.62688   -1.000
 3832.00    0.24049   0.60690   -1.000
 3833.00    0.34316   0.58889   -1.000
 3834.00    0.45838   0.57462   -1.000
 3835.00    0.72975   0.56515   -1.000
 3836.00    0.97846   0.56164   -1.000
 3837.00    1.03569   0.56501   -1.000
 3838.00    1.07792   0.57488   -1.000
 3839.00    1.02571   0.59048   -1.000
 3840.00    0.99305   0.61137   -1.000
 3841.00    1.05681   0.63574   -1.000
 3842.00    1.05704   0.66263   -1.000
 3843.00    0.80295   0.69057   -1.000
 3844.00    0.62940   0.71792   -1.000
 3845.00    0.72365   0.74437   -1.000
 3846.00    0.84885   0.76824   -1.000
 3847.00    1.06097   0.78960    0.000
 3848.00    1.28349   0.80817    0.000
 3849.00    1.53099   0.82383    0.000
 3850.00    1.57104   0.83652    0.000
 3851.00    1.18084   0.84668    0.000
 3852.00    0.94469   0.85483    0.000
 3853.00    0.98638   0.86058    0.000
 3854.00    1.14560   0.86500    0.000
 3855.00    1.49019   0.86801    0.000
 3856.00    1.51458   0.87005    0.000
 3857.00    1.09570   0.87149    0.000
 3858.00    0.90778   0.87356    0.000
 3859.00    1.00131   0.87541    0.000
 3860.00    1.10076   0.87795    0.000
 3861.00    1.20656   0.88136    0.000
 3862.00    1.28617   0.88516    0.000
 3863.00    1.34096   0.88915    0.000
 3864.00    1.27019   0.89243    0.000
 3865.00    1.09453   0.89488    0.000
 3866.00    0.91149   0.89542    0.000
 3867.00    0.72304   0.89478    0.000
 3868.00    0.56464   0.89249    0.000
 3869.00    0.42567   0.88857    0.000
 3870.00    0.50056   0.88339    0.000
 3871.00    0.69629   0.87669    0.000
 3872.00    1.06142   0.86900    0.000
 3873.00    1.50988   0.86035    0.000
 3874.00    1.37411   0.85170    0.000
 3875.00    0.98991   0.84268    0.000
 3876.00    0.64061   0.83327    0.000
 3877.00    0.30401   0.82295    0.000
 3878.00    0.36560   0.81133    0.000
 3879.00    0.54994   0.79730    0.000
 3880.00    0.67734   0.78200    0.000
 3881.00    0.79013   0.76472   -1.000
 3882.00    0.67237   0.74545   -1.000
 3883.00    0.50642   0.72493   -1.000
 3884.00    0.27416   0.70337   -1.000
 3885.00    0.03097   0.68215   -1.000
 3886.00    0.10309   0.66218   -1.000
 3887.00    0.21425   0.64502   -1.000
 3888.00    0.52756   0.63206   -1.000
 3889.00    0.85817   0.62428   -1.000
 3890.00    0.37591   0.62268   -1.000
 3891.00   -0.14686   0.62776    0.000
 3892.00    0.03057   0.63820   -1.000
 3893.00    0.22088   0.65398   -1.000
 3894.00    0.50228   0.67275   -1.000
 3895.00    0.77364   0.69353   -1.000
 3896.00    0.83984   0.71468   -1.000
 3897.00    0.89845   0.73539   -1.000
 3898.00    0.86738   0.75539   -1.000
 3899.00    0.83076   0.77331   -1.000
 3900.00    0.74894   0.78994   -1.000
 3901.00    0.66828   0.80449   -1.000
 3902.00    0.59465   0.81787   -1.000
 3903.00    0.57322   0.82981   -1.000
 3904.00    0.80300   0.84069   -1.000
 3905.00    0.98613   0.85120   -1.000
 3906.00    0.98657   0.86068   -1.000
 3907.00    0.98451   0.87030   -1.000
 3908.00    0.97425   0.87977   -1.000
 3909.00    0.91155   0.88853   -1.000
 3910.00    0.70422   0.89666   -1.000
 3911.00    0.54733   0.90324   -1.000
 3912.00    0.50953   0.90791   -1.000
 3913.00    0.63473   0.91028   -1.000
 3914.00    1.09260   0.91052   -1.000
 3915.00    1.28865   0.90851   -1.000
 3916.00    1.01969   0.90504   -1.000
 3917.00    0.88914   0.89948   -1.000
 3918.00    0.97365   0.89332   -1.000
 3919.00    0.80477   0.88545    0.119
 3920.00    0.29017   0.87662    0.035
 3921.00    0.07302   0.86659    0.026
 3922.00    0.21315   0.85469    0.027
 3923.00    0.09327   0.84119    0.027
 3924.00   -0.30197   0.82458    0.000
 3925.00   -0.19921   0.80559    0.000
 3926.00    0.36880   0.78280    0.028
 3927.00    0.87343   0.75734    0.028
 3928.00    1.32587   0.72953    0.028
 3929.00    1.22498   0.70038    0.028
 3930.00    0.72297   0.67201    0.028
 3931.00    0.21337   0.64571    0.027
 3932.00   -0.30107   0.62369    0.000
 3933.00   -0.04100   0.60746    0.000
 3934.00    0.65011   0.59838    0.027
 3935.00    0.71026   0.59731    0.027
 3936.00    0.46497   0.60412    0.027
 3937.00    0.50040   0.61858    0.027
 3938.00    0.65320   0.63891    0.026
 3939.00    0.86999   0.66330    0.026
 3940.00    1.10967   0.68965    0.027
 3941.00    0.78724   0.71630    0.026
 3942.00    0.29491   0.74178    0.026
 3943.00    0.50077   0.76524    0.026
 3944.00    0.88199   0.78568    0.026
 3945.00    1.02026   0.80333    0.026
 3946.00    1.10898   0.81829    0.025
 3947.00    1.11939   0.83059    0.026
 3948.00    1.11726   0.84026    0.026
 3949.00    1.02362   0.84793    0.025
 3950.00    0.91905   0.85293    0.025
 3951.00    0.57789   0.85601    0.025
 3952.00    0.21747   0.85705    0.025
 3953.00    0.46771   0.85601    0.026
 3954.00    0.74602   0.85247    0.026
 3955.00    0.69190   0.84643    0.025
 3956.00    0.63360   0.83731    0.024
 3957.00    0.57852   0.82521    0.025
 3958.00    0.53618   0.80936    0.025
 3959.00    0.73516   0.78953    0.025
 3960.00    0.92745   0.76603    0.000
 3961.00    1.04443   0.73918    0.000
 3962.00    1.11574   0.70863    0.000
 3963.00    0.82813   0.67559    0.000
 3964.00    0.59988   0.64096    0.000
 3965.00    0.72384   0.60666    0.000
 3966.00    0.86515   0.57482    0.000
 3967.00    1.08787   0.54661    0.000
 3968.00    1.18062   0.52427    0.000
 3969.00    0.77527   0.50923    0.000
 3970.00    0.67892   0.50296    0.000
 3971.00    1.57024   0.50597    0.000
 3972.00    1.97494   0.51831    0.000
 3973.00    1.06174   0.53893    0.000
 3974.00    0.37410   0.56638    0.000
 3975.00    0.21020   0.59861    0.000
 3976.00    0.22968   0.63354    0.000
 3977.00    0.61748   0.66934    0.000
 3978.00    0.89453   0.70452    0.000
 3979.00    0.97788   0.73775    0.000
 3980.00    0.95896   0.76807    0.000
 3981.00    0.78346   0.79543    0.026
 3982.00    0.81554   0.81941    0.026
 3983.00    1.12678   0.84020    0.026
 3984.00    1.17149   0.85818    0.025
 3985.00    0.90057   0.87366    0.025
 3986.00    0.75819   0.88763    0.025
 3987.00    0.75006   0.89995    0.024
 3988.00    0.75801   0.91094    0.024
 3989.00    0.78077   0.92076    0.024
 3990.00    0.94547   0.92913    0.024
 3991.00    1.22541   0.93669    0.023
 3992.00    1.28533   0.94291    0.023
 3993.00    1.18807   0.94778    0.024
 3994.00    0.89161   0.95214    0.024
 3995.00    0.47026   0.95551    0.024
 3996.00    0.44522   0.95840    0.024
 3997.00    0.63736   0.96061    0.023
 3998.00    0.83649   0.96273    0.023
 3999.00    1.03896   0.96468    0.024
 4000.00    0.91862   0.96676    0.024
 4001.00    0.66560   0.96876    0.024
 4002.00    0.51119   0.97099    0.024
 4003.00    0.39140   0.97300    0.024
 4004.00    0.39604   0.97435    0.023
 4005.00    0.43756   0.97603    0.023
 4006.00    0.46227   0.97776    0.023
 4007.00    0.48285   0.98017    0.024
 4008.00    0.22589   0.98256    0.024
 4009.00   -0.08625   0.98653    0.000
 4010.00   -0.02610   0.99149    0.000
 4011.00    0.09191   0.99668    0.024
 4012.00    0.69884   1.00199    0.024
 4013.00    1.36199   1.00694    0.024
 4014.00    1.12982   1.01217    0.024
 4015.00    0.82843   1.01628    0.025
 4016.00    0.32907   1.02035    0.024
 4017.00   -0.17863   1.02329    0.000
 4018.00    0.43436   1.02565    0.024
 4019.00    1.03282   1.02700    0.024
 4020.00    0.54628   1.02712    0.024
 4021.00    0.10275   1.02634    0.024
 4022.00    0.41742   1.02508    0.024
 4023.00    0.73103   1.02247    0.024
 4024.00    1.03316   1.01892    0.025
 4025.00    1.26905   1.01463    0.025
 4026.00    1.00214   1.01014    0.024
 4027.00    0.73348   1.00497    0.024
 4028.00    0.45471   0.99994    0.024
 4029.00    0.24153   0.99542    0.023
 4030.00    0.32897   0.99157    0.023
 4031.00    0.43391   0.98828    0.023
 4032.00    0.60447   0.98642    0.023
 4033.00    0.78124   0.98576    0.022
 4034.00    0.97749   0.98698    0.023
 4035.00    1.09656   0.99032    0.023
 4036.00    1.01029   0.99452    0.023
 4037.00    1.05328   0.99952    0.023
 4038.00    1.39138   1.00415    0.023
 4039.00    1.69597   1.00788    0.023
 4040.00    1.93431   1.01030    0.023
 4041.00    1.93551   1.01067    0.023
 4042.00    1.52817   1.00942    0.023
 4043.00    1.24053   1.00668    0.023
 4044.00    1.13347   1.00344    0.023
 4045.00    1.05299   1.00018    0.023
 4046.00    1.00775   0.99753    0.023
 4047.00    0.98275   0.99480    0.023
 4048.00    0.98138   0.99333    0.023
 4049.00    0.99494   0.99246    0.023
 4050.00    1.02388   0.99317    0.023
 4051.00    1.19309   0.99315    0.023
 4052.00    1.48968   0.99273    0.022
 4053.00    1.59790   0.99163    0.023
 4054.00    1.55535   0.98981    0.023
 4055.00    1.21924   0.98712    0.023
 4056.00    0.67643   0.98398    0.022
 4057.00    0.67195   0.98062    0.023
 4058.00    1.00000   0.97717    0.023
 4059.00    1.06833   0.97403    0.023
 4060.00    0.99652   0.97088    0.023
 4061.00    0.91217   0.96794    0.023
 4062.00    0.82194   0.96564    0.023
 4063.00    0.82830   0.96364    0.023
 4064.00    0.87367   0.96191    0.023
 4065.00    1.04545   0.96024    0.023
 4066.00    1.26081   0.95881    0.023
 4067.00    1.21797   0.95773    0.023
 4068.00    1.10016   0.95712    0.023
 4069.00    1.00243   0.95585    0.024
 4070.00    0.90953   0.95404    0.024
 4071.00    1.09445   0.95165    0.024
 4072.00    1.33319   0.94872    0.023
 4073.00    0.61198   0.94481    0.023
 4074.00   -0.25389   0.94055    0.000
 4075.00    0.38158   0.93624    0.023
 4076.00    1.18310   0.93290    0.023
 4077.00    1.22218   0.93012    0.023
 4078.00    1.20542   0.92850    0.023
 4079.00    1.38300   0.92793    0.023
 4080.00    1.56802   0.92852    0.022
 4081.00    0.88271   0.93042    0.022
 4082.00    0.22385   0.93320    0.022
 4083.00    0.74397   0.93626    0.022
 4084.00    1.24232   0.93909    0.022
 4085.00    1.38186   0.94108    0.022
 4086.00    1.47438   0.94175    0.022
 4087.00    1.08309   0.94111    0.022
 4088.00    0.78606   0.93855    0.021
 4089.00    1.18079   0.93407    0.022
 4090.00    1.52948   0.92709    0.022
 4091.00    1.61997   0.91735    0.022
 4092.00    1.64050   0.90442    0.000
 4093.00    1.34796   0.88836    0.000
 4094.00    1.14624   0.86921    0.000
 4095.00    1.27802   0.84757    0.000
 4096.00    1.32018   0.82398    0.000
 4097.00    1.08675   0.79981    0.000
 4098.00    0.89876   0.77566    0.000
 4099.00    0.82956   0.75354    0.000
 4100.00    0.86232   0.73439    0.000
 4101.00    1.12404   0.71981    0.000
 4102.00    1.25576   0.71061    0.000
 4103.00    1.13448   0.70741    0.000
 4104.00    1.10740   0.71009    0.000
 4105.00    1.24017   0.71858    0.000
 4106.00    1.29029   0.73200    0.000
 4107.00    1.21757   0.74922    0.000
 4108.00    1.24491   0.76891    0.000
 4109.00    1.40300   0.78974    0.000
 4110.00    1.43253   0.81033    0.000
 4111.00    1.31409   0.83017    0.000
 4112.00    1.13900   0.84842    0.000
 4113.00    0.90643   0.86485    0.021
 4114.00    0.97104   0.87924    0.021
 4115.00    1.30172   0.89147    0.022
 4116.00    1.14550   0.90163    0.030
 4117.00    0.60510   0.90978    0.105
 4118.00    0.55161   0.91607   -1.000
 4119.00    0.83600   0.92083   -1.000
 4120.00    1.02087   0.92421   -1.000
 4121.00    1.14519   0.92659   -1.000
 4122.00    1.11660   0.92815   -1.000
 4123.00    1.00678   0.92911   -1.000
 4124.00    0.99912   0.92963    0.061
 4125.00    1.03856   0.92978    0.025
 4126.00    1.02816   0.92969    0.021
 4127.00    0.99797   0.92901    0.022
 4128.00    0.89574   0.92857    0.022
 4129.00    0.76914   0.92785    0.021
 4130.00    0.66106   0.92802    0.021
 4131.00    0.55826   0.92820    0.021
 4132.00    0.86448   0.92988    0.021
 4133.00    1.26673   0.93210    0.021
 4134.00    1.16228   0.93590    0.021
 4135.00    0.96218   0.94014    0.021
 4136.00    0.81462   0.94496    0.021
 4137.00    0.67474   0.94954    0.020
 4138.00    0.94082   0.95369    0.021
 4139.00    1.25004   0.95706    0.021
 4140.00    1.56380   0.95898    0.021
 4141.00    1.87788   0.95981    0.021
 4142.00    1.45239   0.95916    0.021
 4143.00    1.00139   0.95778    0.020
 4144.00    1.17521   0.95601    0.020
 4145.00    1.33321   0.95395    0.020
 4146.00    0.92723   0.95211    0.020
 4147.00    0.55320   0.95040    0.020
 4148.00    0.67309   0.94909    0.020
 4149.00    0.81486   0.94814    0.020
 4150.00    1.17243   0.94780    0.020
 4151.00    1.48108   0.94717    0.020
 4152.00    1.44233   0.94667    0.020
 4153.00    1.40058   0.94612    0.020
 4154.00    1.34241   0.94602    0.020
 4155.00    1.28398   0.94625    0.020
 4156.00    1.22442   0.94737    0.020
 4157.00    1.19547   0.94911    0.020
 4158.00    1.27660   0.95157    0.020
 4159.00    1.35186   0.95468    0.019
 4160.00    1.40941   0.95801    0.020
 4161.00    1.41209   0.96165    0.020
 4162.00    1.27388   0.96457    0.020
 4163.00    1.16507   0.96707    0.020
 4164.00    1.12122   0.96819    0.020
 4165.00    1.03884   0.96802    0.020
 4166.00    0.88267   0.96623    0.019
 4167.00    0.86474   0.96287    0.019
 4168.00    1.07787   0.95825    0.020
 4169.00    1.23528   0.95216    0.020
 4170.00    1.31106   0.94554    0.020
 4171.00    1.42234   0.93826    0.020
 4172.00    1.57932   0.93134    0.020
 4173.00    1.40978   0.92483    0.020
 4174.00    0.86971   0.91959    0.020
 4175.00    0.44866   0.91546    0.020
 4176.00    0.14673   0.91292    0.020
 4177.00    0.48061   0.91176    0.020
 4178.00    1.37571   0.91208    0.020
 4179.00    1.68736   0.91362    0.020
 4180.00    1.54525   0.91612    0.021
 4181.00    1.26592   0.91921    0.020
 4182.00    0.89275   0.92265    0.020
 4183.00    0.67066   0.92610    0.020
 4184.00    0.53912   0.92964    0.020
 4185.00    0.57960   0.93299    0.020
 4186.00    0.71004   0.93628    0.020
 4187.00    0.95881   0.93931    0.020
 4188.00    1.26126   0.94212    0.021
 4189.00    1.02038   0.94453    0.020
 4190.00    0.56750   0.94650    0.020
 4191.00    0.84619   0.94785    0.020
 4192.00    1.36787   0.94826    0.020
 4193.00    1.38651   0.94766    0.020
 4194.00    1.26495   0.94593    0.020
 4195.00    1.43973   0.94310    0.020
 4196.00    1.68249   0.93970    0.021
 4197.00    1.54829   0.93550    0.020
 4198.00    1.34481   0.93137    0.020
 4199.00    1.23775   0.92747    0.020
 4200.00    1.14433   0.92468    0.020
 4201.00    1.18016   0.92289    0.020
 4202.00    1.22918   0.92253    0.019
 4203.00    1.03910   0.92370    0.019
 4204.00    0.83344   0.92623    0.019
 4205.00    0.85176   0.92999    0.019
 4206.00    0.87719   0.93430    0.019
 4207.00    1.04059   0.93930    0.019
 4208.00    1.19762   0.94387    0.019
 4209.00    1.16722   0.94827    0.019
 4210.00    1.13967   0.95176    0.019
 4211.00    1.15350   0.95467    0.019
 4212.00    1.13279   0.95643    0.019
 4213.00    0.78550   0.95759    0.019
 4214.00    0.47890   0.95784    0.018
 4215.00    0.45209   0.95758    0.018
 4216.00    0.48807   0.95671    0.018
 4217.00    0.85773   0.95527    0.018
 4218.00    1.16802   0.95328    0.018
 4219.00    1.22474   0.95035    0.018
 4220.00    1.25456   0.94669    0.018
 4221.00    1.18961   0.94182    0.018
 4222.00    1.10996   0.93626    0.018
 4223.00    0.98678   0.92985    0.018
 4224.00    0.80397   0.92346    0.018
 4225.00    0.47063   0.91731    0.018
 4226.00    0.31737   0.91219    0.018
 4227.00    0.55541   0.90850    0.018
 4228.00    0.74350   0.90641    0.018
 4229.00    0.83743   0.90621    0.017
 4230.00    0.97362   0.90746    0.017
 4231.00    1.17937   0.91008    0.017
 4232.00    1.17325   0.91328    0.017
 4233.00    0.86127   0.91695    0.017
 4234.00    0.64626   0.92051    0.017
 4235.00    0.55436   0.92394    0.016
 4236.00    0.67965   0.92718    0.016
 4237.00    1.04794   0.93021    0.017
 4238.00    1.03032   0.93330    0.017
 4239.00    0.63188   0.93618    0.016
 4240.00    0.55767   0.93921    0.016
 4241.00    0.76561   0.94194    0.017
 4242.00    1.09850   0.94447    0.017
 4243.00    1.52718   0.94638    0.017
 4244.00    1.56170   0.94758    0.018
 4245.00    1.33059   0.94786    0.018
 4246.00    1.20026   0.94721    0.018
 4247.00    1.12945   0.94577    0.018
 4248.00    1.03272   0.94363    0.018
 4249.00    0.92265   0.94123    0.018
 4250.00    0.93931   0.93869    0.018
 4251.00    1.01251   0.93643    0.018
 4252.00    1.12846   0.93455    0.018
 4253.00    1.26079   0.93322    0.019
 4254.00    0.97491   0.93246    0.018
 4255.00    0.55274   0.93226    0.018
 4256.00    0.56639   0.93263    0.018
 4257.00    0.69901   0.93341    0.018
 4258.00    0.92440   0.93470    0.018
 4259.00    1.17059   0.93632    0.019
 4260.00    1.31230   0.93832    0.019
 4261.00    1.43534   0.94045    0.019
 4262.00    1.31369   0.94261    0.019
 4263.00    1.15857   0.94444    0.019
 4264.00    1.17496   0.94559    0.019
 4265.00    1.20811   0.94579    0.019
 4266.00    0.95882   0.94463    0.018
 4267.00    0.69226   0.94212    0.018
 4268.00    0.83368   0.93818    0.018
 4269.00    0.98605   0.93324    0.018
 4270.00    1.12994   0.92765    0.018
 4271.00    1.26951   0.92203    0.018
 4272.00    1.29504   0.91706    0.018
 4273.00    1.31590   0.91311    0.018
 4274.00    1.27261   0.91072    0.018
 4275.00    1.18072   0.90975    0.018
 4276.00    0.64743   0.91033    0.018
 4277.00    0.23431   0.91179    0.018
 4278.00    0.62157   0.91392    0.018
 4279.00    0.93853   0.91588    0.018
 4280.00    0.89154   0.91737    0.018
 4281.00    0.85016   0.91781    0.018
 4282.00    0.83223   0.91697   -2.000
 4283.00    0.83019   0.91483   -2.000
 4284.00    0.88301   0.91129   -2.000
 4285.00    0.93447   0.90679   -2.000
 4286.00    0.98202   0.90134   -2.000
 4287.00    0.97712   0.89558   -2.000
 4288.00    0.84210   0.88960   -2.000
 4289.00    0.75261   0.88384   -2.000
 4290.00    0.76046   0.87842   -2.000
 4291.00    0.86293   0.87331   -2.000
 4292.00    1.14108   0.86860   -2.000
 4293.00    1.37160   0.86385   -2.000
 4294.00    1.52487   0.85910   -2.000
 4295.00    1.50812   0.85378   -2.000
 4296.00    1.24949   0.84802   -2.000
 4297.00    1.09869   0.84155   -2.000
 4298.00    1.08285   0.83459    0.018
 4299.00    1.03162   0.82735    0.018
 4300.00    0.94135   0.82011    0.018
 4301.00    0.80753   0.81340    0.017
 4302.00    0.63134   0.80745    0.017
 4303.00    0.69299   0.80274    0.016
 4304.00    0.95869   0.79940    0.017
 4305.00    1.27502   0.79768    0.017
 4306.00    1.62961   0.79763    0.017
 4307.00    1.60555   0.79926    0.017
 4308.00    1.33004   0.80265    0.017
 4309.00    1.19572   0.80759    0.017
 4310.00    1.14352   0.81419    0.017
 4311.00    1.02922   0.82206    0.016
 4312.00    0.88344   0.83111    0.016
 4313.00    0.82026   0.84091    0.016
 4314.00    0.79331   0.85098    0.016
 4315.00    0.74081   0.86095    0.016
 4316.00    0.67868   0.86991    0.016
 4317.00    0.67804   0.87776    0.016
 4318.00    0.69705   0.88340    0.016
 4319.00    0.86056   0.88719    0.016
 4320.00    1.06270   0.88820    0.016
 4321.00    1.02769   0.88730    0.016
 4322.00    0.94079   0.88398    0.017
 4323.00    1.02773   0.87945    0.017
 4324.00    1.14492   0.87358    0.016
 4325.00    1.24674   0.86746    0.017
 4326.00    1.34652   0.86110    0.017
 4327.00    1.25644   0.85501    0.017
 4328.00    1.14861   0.84898    0.017
 4329.00    1.01249   0.84284    0.017
 4330.00    0.87475   0.83608    0.000
 4331.00    0.74961   0.82814    0.000
 4332.00    0.62737   0.81849    0.000
 4333.00    0.80419   0.80675    0.000
 4334.00    0.96446   0.79280    0.000
 4335.00    0.72713   0.77690    0.000
 4336.00    0.52094   0.75969    0.000
 4337.00    0.72019   0.74213    0.000
 4338.00    0.91195   0.72545    0.000
 4339.00    1.03827   0.71092    0.000
 4340.00    1.13150   0.69982    0.000
 4341.00    1.01104   0.69302    0.000
 4342.00    0.89249   0.69112    0.000
 4343.00    0.78356   0.69417    0.000
 4344.00    0.67250   0.70180    0.000
 4345.00    0.55270   0.71327    0.000
 4346.00    0.54041   0.72747    0.000
 4347.00    0.89187   0.74341    0.000
 4348.00    1.16349   0.75989    0.000
 4349.00    1.20732   0.77622    0.000
 4350.00    1.21491   0.79169    0.000
 4351.00    1.13416   0.80614    0.017
 4352.00    1.11350   0.81943    0.020
 4353.00    1.21926   0.83178    0.052
 4354.00    1.24821   0.84333   -1.000
 4355.00    1.13671   0.85440   -1.000
 4356.00    1.09321   0.86504   -1.000
 4357.00    1.15834   0.87545   -1.000
 4358.00    1.25556   0.88545   -1.000
 4359.00    1.39776   0.89508   -1.000
 4360.00    1.43055   0.90400   -1.000
 4361.00    1.32833   0.91213   -1.000
 4362.00    1.15705   0.91910   -1.000
 4363.00    0.91064   0.92484   -1.000
 4364.00    0.82962   0.92913   -1.000
 4365.00    0.90726   0.93189   -1.000
 4366.00    1.01890   0.93320    0.061
 4367.00    1.15932   0.93303    0.021
 4368.00    1.04579   0.93177    0.017
 4369.00    0.74311   0.92941    0.017
 4370.00    0.64312   0.92656    0.017
 4371.00    0.67575   0.92315    0.016
 4372.00    0.70149   0.91985    0.016
 4373.00    0.72328   0.91642    0.016
 4374.00    0.54801   0.91335    0.016
 4375.00    0.27445   0.91029    0.017
 4376.00    0.52924   0.90740    0.017
 4377.00    1.01204   0.90430    0.016
 4378.00    1.11251   0.90088    0.017
 4379.00    1.07152   0.89699    0.017
 4380.00    1.24000   0.89250    0.017
 4381.00    1.47417   0.88764    0.017
 4382.00    1.11179   0.88243    0.016
 4383.00    0.59334   0.87753    0.016
 4384.00    0.71428   0.87303    0.016
 4385.00    0.97180   0.86968    0.016
 4386.00    1.04826   0.86752    0.016
 4387.00    1.09410   0.86705    0.016
 4388.00    1.02303   0.86799    0.016
 4389.00    0.93702   0.87047    0.015
 4390.00    0.96656   0.87398    0.016
 4391.00    1.00640   0.87832    0.016
 4392.00    0.98419   0.88298    0.016
 4393.00    0.95867   0.88763    0.016
 4394.00    0.97221   0.89196    0.016
 4395.00    0.98674   0.89565    0.016
 4396.00    1.01966   0.89866    0.016
 4397.00    1.04479   0.90070    0.016
 4398.00    0.89885   0.90201    0.016
 4399.00    0.76050   0.90236    0.016
 4400.00    0.71581   0.90216    0.016
 4401.00    0.69151   0.90132    0.016
 4402.00    0.83869   0.90026    0.016
 4403.00    0.96589   0.89913    0.016
 4404.00    0.96780   0.89819    0.016
 4405.00    0.95223   0.89771    0.016
 4406.00    0.85070   0.89770    0.016
 4407.00    0.79124   0.89839    0.016
 4408.00    0.89972   0.89955    0.016
 4409.00    1.00936   0.90125    0.015
 4410.00    1.12283   0.90310    0.015
 4411.00    1.19029   0.90511    0.015
 4412.00    1.12884   0.90693    0.015
 4413.00    1.07478   0.90860    0.015
 4414.00    1.03841   0.90997    0.015
 4415.00    1.01669   0.91117    0.015
 4416.00    1.02528   0.91226    0.015
 4417.00    1.06300   0.91330    0.015
 4418.00    1.15316   0.91450    0.015
 4419.00    1.16924   0.91572    0.015
 4420.00    1.06870   0.91715    0.016
 4421.00    0.97048   0.91849    0.016
 4422.00    0.87548   0.91981    0.016
 4423.00    0.80258   0.92087    0.016
 4424.00    0.75656   0.92161    0.015
 4425.00    0.77687   0.92187    0.015
 4426.00    0.86829   0.92169    0.015
 4427.00    0.94579   0.92102    0.015
 4428.00    1.01013   0.91997    0.015
 4429.00    1.00257   0.91858    0.015
 4430.00    0.93507   0.91702    0.015
 4431.00    0.77362   0.91542    0.016
 4432.00    0.54321   0.91390    0.016
 4433.00    0.58431   0.91267    0.016
 4434.00    0.80046   0.91174    0.016
 4435.00    1.07620   0.91129    0.016
 4436.00    1.38555   0.91126    0.016
 4437.00    1.34417   0.91160    0.016
 4438.00    1.13061   0.91221    0.016
 4439.00    1.06241   0.91300    0.016
 4440.00    1.05590   0.91387    0.016
 4441.00    0.99998   0.91475    0.016
 4442.00    0.92612   0.91562    0.016
 4443.00    0.96499   0.91648    0.016
 4444.00    1.03852   0.91726    0.016
 4445.00    1.11787   0.91796    0.016
 4446.00    1.19871   0.91846    0.016
 4447.00    0.92617   0.91860    0.016
 4448.00    0.57998   0.91822    0.016
 4449.00    0.69354   0.91717    0.016
 4450.00    0.88264   0.91527    0.016
 4451.00    0.97564   0.91247    0.016
 4452.00    1.05679   0.90870    0.016
 4453.00    0.88305   0.90428    0.016
 4454.00    0.68764   0.89918    0.016
 4455.00    0.78535   0.89399    0.016
 4456.00    0.89753   0.88884    0.015
 4457.00    0.97271   0.88423    0.015
 4458.00    1.04714   0.88026    0.015
 4459.00    1.11201   0.87727    0.015
 4460.00    1.15825   0.87531    0.016
 4461.00    0.82731   0.87437    0.000
 4462.00    0.53394   0.87445    0.000
 4463.00    0.68231   0.87541    0.000
 4464.00    0.83268   0.87711    0.000
 4465.00    0.99934   0.87948    0.000
 4466.00    1.15133   0.88230    0.000
 4467.00    1.21405   0.88567    0.000
 4468.00    1.25709   0.88927    0.000
 4469.00    1.20573   0.89336    0.000
 4470.00    1.14707   0.89767    0.000
 4471.00    1.05984   0.90221    0.000
 4472.00    1.01320   0.90676    0.000
 4473.00    1.09858   0.91103    0.000
 4474.00    1.12509   0.91492    0.000
 4475.00    0.98964   0.91809    0.000
 4476.00    0.93590   0.92055    0.000
 4477.00    1.07468   0.92203    0.000
 4478.00    1.09315   0.92267    0.000
 4479.00    0.86659   0.92254    0.000
 4480.00    0.74362   0.92180    0.000
 4481.00    0.80430   0.92076    0.000
 4482.00    0.91822   0.91958    0.015
 4483.00    1.11470   0.91858    0.015
 4484.00    1.16103   0.91780    0.015
 4485.00    1.00288   0.91737    0.015
 4486.00    0.92887   0.91718    0.015
 4487.00    0.95576   0.91711    0.015
 4488.00    0.92110   0.91719    0.015
 4489.00    0.82134   0.91715    0.015
 4490.00    0.88567   0.91732    0.015
 4491.00    1.10301   0.91744    0.015
 4492.00    1.22169   0.91792    0.015
 4493.00    1.25925   0.91861    0.015
 4494.00    1.09553   0.91979    0.015
 4495.00    0.78614   0.92154    0.015
 4496.00    0.65079   0.92384    0.015
 4497.00    0.62598   0.92696    0.015
 4498.00    0.78352   0.93064    0.015
 4499.00    1.04234   0.93494    0.015
 4500.00    1.01453   0.93946    0.015
 4501.00    0.84825   0.94426    0.015
 4502.00    0.87753   0.94899    0.015
 4503.00    0.98841   0.95348    0.015
 4504.00    1.09686   0.95760    0.015
 4505.00    1.20445   0.96102    0.015
 4506.00    1.09852   0.96373    0.015
 4507.00    0.92823   0.96536    0.015
 4508.00    0.90893   0.96613    0.015
 4509.00    0.92746   0.96583    0.015
 4510.00    0.89568   0.96469    0.015
 4511.00    0.85367   0.96273    0.015
 4512.00    0.82091   0.96013    0.015
 4513.00    0.78963   0.95687    0.015
 4514.00    0.74172   0.95343    0.015
 4515.00    0.69184   0.94952    0.015
 4516.00    0.73282   0.94571    0.015
 4517.00    0.78117   0.94141    0.015
 4518.00    0.97467   0.93719    0.015
 4519.00    1.17477   0.93271    0.015
 4520.00    0.86967   0.92797    0.015
 4521.00    0.56474   0.92294    0.015
 4522.00    0.58498   0.91739    0.015
 4523.00    0.60333   0.91172    0.015
 4524.00    0.58639   0.90544    0.015
 4525.00    0.57624   0.89953    0.014
 4526.00    0.64211   0.89319    0.015
 4527.00    0.70755   0.88774    0.015
 4528.00    0.76966   0.88231    0.014
 4529.00    0.81216   0.87802    0.014
 4530.00    0.73871   0.87467    0.014
 4531.00    0.69399   0.87275    0.014
 4532.00    0.78379   0.87240    0.014
 4533.00    0.86585   0.87309    0.015
 4534.00    0.91831   0.87523    0.015
 4535.00    0.97263   0.87804    0.015
 4536.00    1.03286   0.88189    0.015
 4537.00    1.04696   0.88600    0.015
 4538.00    0.93638   0.89042    0.015
 4539.00    0.88139   0.89437    0.015
 4540.00    0.95523   0.89776    0.015
 4541.00    0.94320   0.90055    0.015
 4542.00    0.75904   0.90216    0.014
 4543.00    0.64484   0.90303    0.014
 4544.00    0.65278   0.90242    0.014
 4545.00    0.68469   0.90138    0.014
 4546.00    0.75320   0.89947    0.014
 4547.00    0.73420   0.89717    0.014
 4548.00    0.59774   0.89461    0.014
 4549.00    0.57273   0.89195    0.014
 4550.00    0.67946   0.88974    0.000
 4551.00    0.82989   0.88785    0.000
 4552.00    1.02586   0.88710    0.000
 4553.00    1.06894   0.88678    0.000
 4554.00    0.97145   0.88774    0.000
 4555.00    0.82092   0.88924    0.000
 4556.00    0.62741   0.89168    0.000
 4557.00    0.61138   0.89464    0.000
 4558.00    0.72193   0.89782    0.000
 4559.00    0.87223   0.90122    0.000
 4560.00    1.04741   0.90437    0.000
 4561.00    0.96294   0.90745    0.000
 4562.00    0.73645   0.91014    0.000
 4563.00    0.71869   0.91252    0.000
 4564.00    0.80016   0.91445    0.000
 4565.00    0.85064   0.91601    0.000
 4566.00    0.88841   0.91708    0.000
 4567.00    0.80506   0.91792    0.000
 4568.00    0.67927   0.91865    0.000
 4569.00    0.89713   0.91905    0.000
 4570.00    1.21655   0.91948    0.000
 4571.00    1.09986   0.91951    0.000
 4572.00    0.87634   0.91930    0.000
 4573.00    0.70747   0.91862    0.000
 4574.00    0.54943   0.91753    0.000
 4575.00    0.69220   0.91586    0.000
 4576.00    0.88155   0.91364    0.000
 4577.00    0.87080   0.91099    0.000
 4578.00    0.83715   0.90785    0.000
 4579.00    0.83642   0.90458    0.000
 4580.00    0.83822   0.90117    0.000
 4581.00    0.91617   0.89781    0.000
 4582.00    0.99729   0.89497    0.000
 4583.00    0.93152   0.89237    0.000
 4584.00    0.86377   0.89066    0.000
 4585.00    0.76570   0.88931    0.000
 4586.00    0.67172   0.88879    0.000
 4587.00    0.64930   0.88857    0.000
 4588.00    0.62848   0.88888    0.000
 4589.00    0.62478   0.88936    0.000
 4590.00    0.63791   0.89000    0.000
 4591.00    0.77832   0.89075    0.000
 4592.00    0.90609   0.89127    0.000
 4593.00    0.96124   0.89179    0.000
 4594.00    0.98401   0.89221    0.000
 4595.00    0.85881   0.89250    0.000
 4596.00    0.76166   0.89289    0.000
 4597.00    0.76941   0.89322    0.000
 4598.00    0.77996   0.89371    0.000
 4599.00    0.79927   0.89460    0.000
 4600.00    0.79024   0.89550    0.000
 4601.00    0.70600   0.89705    0.000
 4602.00    0.65767   0.89856    0.000
 4603.00    0.69118   0.90084    0.000
 4604.00    0.72247   0.90317    0.000
 4605.00    0.74934   0.90599    0.000
 4606.00    0.79236   0.90881    0.000
 4607.00    0.86315   0.91160    0.000
 4608.00    0.89328   0.91425    0.000
 4609.00    0.86219   0.91660    0.000
 4610.00    0.85760   0.91878    0.000
 4611.00    0.88807   0.92021    0.000
 4612.00    0.90450   0.92167    0.000
 4613.00    0.90457   0.92204    0.000
 4614.00    0.85688   0.92251    0.000
 4615.00    0.76010   0.92226    0.000
 4616.00    0.68678   0.92195    0.000
 4617.00    0.63475   0.92142    0.000
 4618.00    0.65330   0.92109    0.000
 4619.00    0.72825   0.92066    0.000
 4620.00    0.78207   0.92020    0.000
 4621.00    0.82103   0.91999    0.000
 4622.00    0.83276   0.91953    0.000
 4623.00    0.82770   0.91926    0.000
 4624.00    0.76598   0.91880    0.000
 4625.00    0.67374   0.91837    0.000
 4626.00    0.67620   0.91748    0.000
 4627.00    0.72296   0.91665    0.000
 4628.00    0.88035   0.91557    0.000
 4629.00    1.08234   0.91421    0.000
 4630.00    1.04452   0.91241    0.000
 4631.00    0.92421   0.91045    0.000
 4632.00    0.84181   0.90840    0.000
 4633.00    0.77039   0.90621    0.000
 4634.00    0.79366   0.90386    0.000
 4635.00    0.83960   0.90127    0.000
 4636.00    0.94632   0.89896    0.000
 4637.00    1.06478   0.89639    0.000
 4638.00    1.02496   0.89412    0.000
 4639.00    0.96138   0.89179    0.000
 4640.00    0.84335   0.88940    0.000
 4641.00    0.71932   0.88694    0.000
 4642.00    0.69861   0.88456    0.000
 4643.00    0.68540   0.88203    0.000
 4644.00    0.59056   0.87968    0.000
 4645.00    0.49263   0.87764    0.000
 4646.00    0.54571   0.87602    0.000
 4647.00    0.59717   0.87486    0.000
 4648.00    0.55988   0.87419    0.000
 4649.00    0.53758   0.87391    0.000
 4650.00    0.76032   0.87442    0.000
 4651.00    0.96471   0.87506    0.000
 4652.00    0.98116   0.87631    0.000
 4653.00    0.97454   0.87799    0.000
 4654.00    0.79932   0.87981    0.000
 4655.00    0.66287   0.88219    0.000
 4656.00    0.74314   0.88411    0.000
 4657.00    0.81484   0.88600    0.000
 4658.00    0.84827   0.88685    0.000
 4659.00    0.84215   0.88733    0.000
 4660.00    0.69121   0.88668    0.000
 4661.00    0.58825   0.88538    0.000
 4662.00    0.63251   0.88323    0.000
 4663.00    0.67427   0.87997    0.000
 4664.00    0.70949   0.87613    0.000
 4665.00    0.72108   0.87214    0.000
 4666.00    0.67972   0.86876    0.000
 4667.00    0.72041   0.86544    0.000
 4668.00    0.92042   0.86321    0.000
 4669.00    1.04154   0.86151    0.000
 4670.00    1.02907   0.86074    0.000
 4671.00    0.98280   0.86098    0.000
 4672.00    0.88639   0.86204    0.000
 4673.00    0.84471   0.86403    0.000
 4674.00    0.87439   0.86613    0.000
 4675.00    0.86561   0.86839    0.000
 4676.00    0.81263   0.87038    0.000
 4677.00    0.79994   0.87233    0.000
 4678.00    0.82807   0.87384    0.000
 4679.00    0.79115   0.87509    0.000
 4680.00    0.69609   0.87609    0.000
 4681.00    0.66168   0.87669    0.000
 4682.00    0.67506   0.87694    0.000
 4683.00    0.74659   0.87706    0.000
 4684.00    0.85840   0.87711    0.000
 4685.00    0.90635   0.87716    0.000
 4686.00    0.91553   0.87723    0.000
 4687.00    0.85669   0.87738    0.000
 4688.00    0.76178   0.87719    0.000
 4689.00    0.79304   0.87725    0.000
 4690.00    0.88235   0.87723    0.000
 4691.00    0.87492   0.87704    0.000
 4692.00    0.82915   0.87679    0.000
 4693.00    0.72941   0.87616    0.000
 4694.00    0.61146   0.87526    0.000
 4695.00    0.67810   0.87349    0.000
 4696.00    0.79711   0.87156    0.000
 4697.00    0.78930   0.86944    0.000
 4698.00    0.75180   0.86687    0.000
 4699.00    0.78466   0.86411    0.000
 4700.00    0.83074   0.86093    0.000
 4701.00    0.83403   0.85833    0.000
 4702.00    0.83108   0.85568    0.000
 4703.00    0.80618   0.85355    0.000
 4704.00    0.77895   0.85139    0.000
 4705.00    0.77463   0.84991    0.000
 4706.00    0.77190   0.84905    0.000
 4707.00    0.68593   0.84877    0.000
 4708.00    0.59714   0.84957    0.000
 4709.00    0.74208   0.85049    0.000
 4710.00    0.88431   0.85237    0.000
 4711.00    0.92669   0.85420    0.000
 4712.00    0.96705   0.85693    0.000
 4713.00    0.97651   0.85998    0.000
 4714.00    0.97142   0.86356    0.000
 4715.00    0.82368   0.86714    0.000
 4716.00    0.71913   0.87085    0.000
 4717.00    0.91996   0.87449    0.000
 4718.00    1.07730   0.87780    0.000
 4719.00    0.99805   0.88081    0.000
 4720.00    0.91108   0.88313    0.000
 4721.00    0.79050   0.88505    0.000
 4722.00    0.68324   0.88591    0.000
 4723.00    0.62376   0.88604    0.000
 4724.00    0.58920   0.88487    0.000
 4725.00    0.62967   0.88311    0.000
 4726.00    0.66128   0.88068    0.000
 4727.00    0.67017   0.87789    0.000
 4728.00    0.70351   0.87474    0.000
 4729.00    0.79074   0.87179    0.000
 4730.00    0.83554   0.86915    0.000
 4731.00    0.79922   0.86672    0.000
 4732.00    0.78852   0.86524    0.000
 4733.00    0.82054   0.86385    0.000
 4734.00    0.84251   0.86331    0.000
 4735.00    0.84982   0.86355    0.000
 4736.00    0.90599   0.86428    0.000
 4737.00    1.02501   0.86546    0.000
 4738.00    1.01435   0.86694    0.000
 4739.00    0.85680   0.86873    0.000
 4740.00    0.72238   0.87069    0.000
 4741.00    0.61108   0.87258    0.000
 4742.00    0.66707   0.87422    0.000
 4743.00    0.87047   0.87590    0.000
 4744.00    0.94775   0.87723    0.000
 4745.00    0.92711   0.87817    0.000
 4746.00    0.91582   0.87904    0.000
 4747.00    0.91092   0.87944    0.000
 4748.00    0.94970   0.87943    0.000
 4749.00    1.01463   0.87879    0.000
 4750.00    1.02245   0.87793    0.000
 4751.00    1.00046   0.87638    0.000
 4752.00    0.90757   0.87476    0.000
 4753.00    0.78259   0.87250    0.000
 4754.00    0.82918   0.87028    0.000
 4755.00    0.94256   0.86778    0.000
 4756.00    0.90769   0.86508    0.000
 4757.00    0.82369   0.86240    0.000
 4758.00    0.86817   0.85935    0.000
 4759.00    0.94836   0.85621    0.000
 4760.00    0.99854   0.85302    0.000
 4761.00    1.04186   0.85003    0.013
 4762.00    0.90793   0.84720    0.013
 4763.00    0.74154   0.84482    0.013
 4764.00    0.77964   0.84297    0.013
 4765.00    0.84655   0.84177    0.013
 4766.00    0.70917   0.84121    0.013
 4767.00    0.55108   0.84147    0.013
 4768.00    0.67506   0.84192    0.013
 4769.00    0.81727   0.84324    0.013
 4770.00    0.76017   0.84483    0.013
 4771.00    0.69741   0.84721    0.013
 4772.00    0.82020   0.84985    0.013
 4773.00    0.93717   0.85237    0.013
 4774.00    0.88592   0.85504    0.013
 4775.00    0.83672   0.85720    0.013
 4776.00    0.81704   0.85905    0.013
 4777.00    0.79692   0.86020    0.013
 4778.00    0.77271   0.86092    0.013
 4779.00    0.75875   0.86085    0.013
 4780.00    0.81494   0.86013    0.013
 4781.00    0.86600   0.85934    0.013
 4782.00    0.88994   0.85820    0.012
 4783.00    0.89444   0.85660    0.012
 4784.00    0.81617   0.85508    0.012
 4785.00    0.76777   0.85376    0.012
 4786.00    0.82432   0.85250    0.013
 4787.00    0.83654   0.85184    0.013
 4788.00    0.71780   0.85147    0.013
 4789.00    0.66095   0.85179    0.013
 4790.00    0.75994   0.85266    0.013
 4791.00    0.88004   0.85376    0.013
 4792.00    1.04593   0.85533    0.013
 4793.00    1.08497   0.85694    0.013
 4794.00    0.88528   0.85840    0.013
 4795.00    0.78641   0.85936    0.013
 4796.00    0.85321   0.86039    0.013
 4797.00    0.88806   0.86077    0.013
 4798.00    0.87685   0.86089    0.013
 4799.00    0.87824   0.86097    0.013
 4800.00    0.89561   0.86039    0.013
 4801.00    0.88151   0.85967    0.013
 4802.00    0.83229   0.85834    0.013
 4803.00    0.76864   0.85718    0.013
 4804.00    0.69077   0.85554    0.013
 4805.00    0.77490   0.85424    0.013
 4806.00    0.99977   0.85318    0.013
 4807.00    0.99432   0.85225    0.013
 4808.00    0.81263   0.85189    0.013
 4809.00    0.77455   0.85167    0.013
 4810.00    0.83308   0.85192    0.013
 4811.00    0.86191   0.85211    0.013
 4812.00    0.87325   0.85265    0.013
 4813.00    0.86908   0.85327    0.013
 4814.00    0.85695   0.85420    0.013
 4815.00    0.82230   0.85507    0.013
 4816.00    0.77764   0.85572    0.013
 4817.00    0.77431   0.85608    0.021
 4818.00    0.78679   0.85611    0.104
 4819.00    0.73664   0.85562   -1.000
 4820.00    0.66611   0.85425   -1.000
 4821.00    0.68919   0.85272   -1.000
 4822.00    0.73775   0.85087   -1.000
 4823.00    0.80386   0.84885   -1.000
 4824.00    0.87390   0.84690   -1.000
 4825.00    0.78959   0.84468   -1.000
 4826.00    0.67778   0.84243   -1.000
 4827.00    0.72788   0.84029   -1.000
 4828.00    0.80004   0.83818   -1.000
 4829.00    0.85954   0.83618    0.028
 4830.00    0.91780   0.83451    0.013
 4831.00    0.87177   0.83290    0.013
 4832.00    0.81941   0.83161    0.013
 4833.00    0.86963   0.83036    0.013
 4834.00    0.92210   0.82917    0.013
 4835.00    0.88936   0.82740    0.013
 4836.00    0.86358   0.82558    0.013
 4837.00    1.01945   0.82356    0.013
 4838.00    1.15391   0.82131    0.013
 4839.00    0.99602   0.81918    0.013
 4840.00    0.84534   0.81646    0.013
 4841.00    0.75978   0.81404    0.012
 4842.00    0.70777   0.81101    0.012
 4843.00    0.87839   0.80785    0.012
 4844.00    0.99458   0.80417    0.012
 4845.00    0.82990   0.79975    0.012
 4846.00    0.69493   0.79491    0.012
 4847.00    0.68370   0.78935    0.012
 4848.00    0.68472   0.78308    0.000
 4849.00    0.72792   0.77583    0.000
 4850.00    0.74790   0.76759    0.000
 4851.00    0.70050   0.75779    0.000
 4852.00    0.66645   0.74683    0.000
 4853.00    0.66544   0.73484    0.000
 4854.00    0.63761   0.72187    0.000
 4855.00    0.55258   0.70831    0.000
 4856.00    0.53468   0.69466    0.000
 4857.00    0.64117   0.68077    0.000
 4858.00    0.76406   0.66714    0.000
 4859.00    0.91348   0.65519    0.000
 4860.00    0.96137   0.64508    0.000
 4861.00    0.86509   0.63749    0.000
 4862.00    0.79579   0.63332    0.000
 4863.00    0.76020   0.63149    0.000
 4864.00    0.76104   0.63261    0.000
 4865.00    0.80201   0.63604    0.000
 4866.00    0.77390   0.64165    0.000
 4867.00    0.67869   0.64893    0.000
 4868.00    0.62707   0.65751    0.000
 4869.00    0.61277   0.66790    0.000
 4870.00    0.66960   0.67818    0.000
 4871.00    0.78008   0.68910    0.000
 4872.00    0.77636   0.69974    0.000
 4873.00    0.69694   0.70956    0.000
 4874.00    0.63567   0.71907    0.000
 4875.00    0.58492   0.72735    0.012
 4876.00    0.64095   0.73566    0.012
 4877.00    0.75098   0.74255    0.012
 4878.00    0.88941   0.74906    0.012
 4879.00    1.04026   0.75498    0.012
 4880.00    0.94744   0.75956    0.012
 4881.00    0.76303   0.76355    0.012
 4882.00    0.72371   0.76647    0.012
 4883.00    0.73066   0.76887    0.012
 4884.00    0.73197   0.77042    0.012
 4885.00    0.73177   0.77199    0.012
 4886.00    0.73026   0.77324    0.012
 4887.00    0.72847   0.77436    0.012
 4888.00    0.70078   0.77527    0.012
 4889.00    0.66858   0.77723    0.012
 4890.00    0.71156   0.77922    0.012
 4891.00    0.76444   0.78254    0.012
 4892.00    0.74602   0.78670    0.012
 4893.00    0.72098   0.79083    0.012
 4894.00    0.73398   0.79577    0.012
 4895.00    0.74914   0.80020    0.012
 4896.00    0.81995   0.80474    0.012
 4897.00    0.89052   0.80839    0.013
 4898.00    0.79634   0.81232    0.012
 4899.00    0.70830   0.81561    0.012
 4900.00    0.76580   0.81807    0.012
 4901.00    0.81596   0.82008    0.012
 4902.00    0.77124   0.82094    0.012
 4903.00    0.72364   0.82139    0.012
 4904.00    0.65091   0.82135    0.012
 4905.00    0.60949   0.82080    0.012
 4906.00    0.76962   0.81952    0.012
 4907.00    0.86799   0.81802    0.012
 4908.00    0.65577   0.81634    0.012
 4909.00    0.52368   0.81409    0.012
 4910.00    0.71768   0.81197    0.012
 4911.00    0.85207   0.80999    0.012
 4912.00    0.78530   0.80786    0.013
 4913.00    0.73601   0.80504    0.013
 4914.00    0.73650   0.80186    0.013
 4915.00    0.75402   0.79816    0.013
 4916.00    0.81297   0.79415    0.012
 4917.00    0.82590   0.79011    0.012
 4918.00    0.74221   0.78649    0.012
 4919.00    0.69411   0.78373    0.012
 4920.00    0.71092   0.78118    0.012
 4921.00    0.69359   0.77991    0.013
 4922.00    0.62180   0.77894    0.013
 4923.00    0.61133   0.77878    0.013
 4924.00    0.68667   0.77941    0.012
 4925.00    0.66925   0.78134    0.012
 4926.00    0.53760   0.78416    0.012
 4927.00    0.52846   0.78720    0.012
 4928.00    0.65234   0.79099    0.012
 4929.00    0.72866   0.79401    0.012
 4930.00    0.75941   0.79623    0.012
 4931.00    0.74839   0.79820    0.012
 4932.00    0.70209   0.79973    0.012
 4933.00    0.72812   0.80044    0.012
 4934.00    0.80793   0.80093    0.012
 4935.00    0.87197   0.80092    0.012
 4936.00    0.92570   0.80027    0.012
 4937.00    0.84498   0.79971    0.012
 4938.00    0.68739   0.79977    0.012
 4939.00    0.68550   0.80015    0.012
 4940.00    0.76113   0.80140    0.000
 4941.00    0.77287   0.80346    0.000
 4942.00    0.75711   0.80572    0.000
 4943.00    0.84671   0.80783    0.000
 4944.00    0.97521   0.80998    0.000
 4945.00    1.00259   0.81228    0.000
 4946.00    0.99834   0.81502    0.000
 4947.00    0.98457   0.81738    0.000
 4948.00    0.96830   0.81874    0.000
 4949.00    0.95068   0.81929    0.000
 4950.00    0.93277   0.81933    0.000
 4951.00    0.85465   0.81841    0.000
 4952.00    0.76639   0.81651    0.000
 4953.00    0.78185   0.81482    0.000
 4954.00    0.81050   0.81196    0.000
 4955.00    0.75251   0.80920    0.000
 4956.00    0.68684   0.80582    0.000
 4957.00    0.75697   0.80308    0.000
 4958.00    0.83426   0.80156    0.000
 4959.00    0.84635   0.79948    0.000
 4960.00    0.85788   0.79829    0.000
 4961.00    0.92286   0.79695    0.000
 4962.00    0.98714   0.79622    0.000
 4963.00    1.03594   0.79517    0.000
 4964.00    1.06126   0.79462    0.000
 4965.00    0.79848   0.79569    0.000
 4966.00    0.56130   0.79645    0.000
 4967.00    0.53857   0.79655    0.000
 4968.00    0.53326   0.79669    0.000
 4969.00    0.63668   0.79694    0.000
 4970.00    0.73206   0.79701    0.000
 4971.00    0.78803   0.79693    0.000
 4972.00    0.82688   0.79631    0.000
 4973.00    0.79753   0.79600    0.000
 4974.00    0.76425   0.79485    0.000
 4975.00    0.71798   0.79297    0.000
 4976.00    0.69203   0.79088    0.000
 4977.00    0.72288   0.78788    0.000
 4978.00    0.74936   0.78478    0.000
 4979.00    0.76535   0.78102    0.000
 4980.00    0.79035   0.77703    0.000
 4981.00    0.83393   0.77294    0.000
 4982.00    0.86574   0.76899    0.000
 4983.00    0.87641   0.76612    0.000
 4984.00    0.83698   0.76397    0.000
 4985.00    0.71883   0.76239    0.000
 4986.00    0.66925   0.76207    0.000
 4987.00    0.71424   0.76203    0.000
 4988.00    0.71606   0.76199    0.000
 4989.00    0.66548   0.76303    0.000
 4990.00    0.67164   0.76435    0.000
 4991.00    0.73854   0.76628    0.000
 4992.00    0.74416   0.76783    0.000
 4993.00    0.69191   0.76889    0.000
 4994.00    0.64653   0.76985    0.000
 4995.00    0.60686   0.76948    0.000
 4996.00    0.63077   0.76872    0.000
 4997.00    0.70128   0.76723    0.000
 4998.00    0.81430   0.76517    0.000
 4999.00    0.95468   0.76293    0.000
 5000.00    0.87656   0.76009    0.000
 5001.00    0.67542   0.75745    0.000
 5002.00    0.69927   0.75451    0.000
 5003.00    0.83335   0.75105    0.000
 5004.00    0.90416   0.74758    0.000
 5005.00    0.94819   0.74415    0.000
 5006.00    0.90122   0.74144    0.000
 5007.00    0.82127   0.73949    0.000
 5008.00    0.90065   0.73757    0.000
 5009.00    1.02891   0.73533    0.000
 5010.00    0.92808   0.73319    0.000
 5011.00    0.76876   0.73065    0.000
 5012.00    0.66430   0.72863    0.000
 5013.00    0.57124   0.72740    0.000
 5014.00    0.58699   0.72651    0.000
 5015.00    0.62056   0.72595    0.000
 5016.00    0.72879   0.72488    0.000
 5017.00    0.84618   0.72418    0.000
 5018.00    0.75979   0.72423    0.000
 5019.00    0.65617   0.72493    0.000
 5020.00    0.74782   0.72651    0.000
 5021.00    0.84900   0.72837    0.000
 5022.00    0.75431   0.73086    0.000
 5023.00    0.65865   0.73380    0.000
 5024.00    0.68955   0.73614    0.000
 5025.00    0.72099   0.73939    0.000
 5026.00    0.76335   0.74235    0.000
 5027.00    0.79784   0.74499    0.000
 5028.00    0.74027   0.74784    0.000
 5029.00    0.68290   0.75014    0.012
 5030.00    0.62723   0.75230    0.012
 5031.00    0.58574   0.75336    0.012
 5032.00    0.63032   0.75388    0.012
 5033.00    0.67234   0.75346    0.012
 5034.00    0.70213   0.75240    0.012
 5035.00    0.72819   0.75122    0.012
 5036.00    0.73975   0.75010    0.012
 5037.00    0.72709   0.74838    0.012
 5038.00    0.63593   0.74607    0.012
 5039.00    0.55446   0.74409    0.012
 5040.00    0.49960   0.74172    0.012
 5041.00    0.48484   0.74071    0.012
 5042.00    0.56435   0.74081    0.012
 5043.00    0.63139   0.74119    0.012
 5044.00    0.67308   0.74208    0.012
 5045.00    0.70080   0.74270    0.012
 5046.00    0.70382   0.74392    0.012
 5047.00    0.73400   0.74527    0.012
 5048.00    0.80621   0.74698    0.012
 5049.00    0.83179   0.74980    0.012
 5050.00    0.79398   0.75205    0.012
 5051.00    0.71244   0.75407    0.012
 5052.00    0.57855   0.75632    0.012
 5053.00    0.53974   0.75840    0.012
 5054.00    0.60128   0.76042    0.012
 5055.00    0.69912   0.76239    0.012
 5056.00    0.83074   0.76435    0.012
 5057.00    0.78691   0.76640    0.012
 5058.00    0.59908   0.76802    0.012
 5059.00    0.60535   0.76930    0.012
 5060.00    0.75181   0.77019    0.012
 5061.00    0.86766   0.77001    0.012
 5062.00    0.96410   0.76952    0.012
 5063.00    0.89637   0.76808    0.012
 5064.00    0.73762   0.76601    0.012
 5065.00    0.63929   0.76450    0.012
 5066.00    0.57010   0.76228    0.012
 5067.00    0.60605   0.75978    0.011
 5068.00    0.68578   0.75689    0.011
 5069.00    0.73444   0.75421    0.012
 5070.00    0.77202   0.75174    0.012
 5071.00    0.69166   0.74825    0.012
 5072.00    0.57583   0.74602    0.012
 5073.00    0.58202   0.74408    0.012
 5074.00    0.61869   0.74179    0.011
 5075.00    0.66276   0.73965    0.012
 5076.00    0.70833   0.73739    0.012
 5077.00    0.71069   0.73585    0.012
 5078.00    0.70617   0.73337    0.012
 5079.00    0.79633   0.73173    0.012
 5080.00    0.89769   0.73132    0.012
 5081.00    0.80747   0.73120    0.012
 5082.00    0.70185   0.73131    0.011
 5083.00    0.68271   0.73148    0.011
 5084.00    0.66746   0.73286    0.011
 5085.00    0.69806   0.73434    0.011
 5086.00    0.72799   0.73626    0.011
 5087.00    0.69715   0.73859    0.011
 5088.00    0.66875   0.74116    0.011
 5089.00    0.68556   0.74335    0.011
 5090.00    0.70391   0.74489    0.011
 5091.00    0.73946   0.74644    0.011
 5092.00    0.76169   0.74763    0.011
 5093.00    0.68013   0.74828    0.011
 5094.00    0.61090   0.74807    0.011
 5095.00    0.61431   0.74725    0.012
 5096.00    0.63063   0.74588    0.012
 5097.00    0.70716   0.74430    0.012
 5098.00    0.76114   0.74248    0.011
 5099.00    0.72916   0.74089    0.011
 5100.00    0.70895   0.73958    0.011
 5101.00    0.72621   0.73795    0.011
 5102.00    0.71728   0.73619    0.011
 5103.00    0.63778   0.73483    0.011
 5104.00    0.58019   0.73409    0.011
 5105.00    0.57324   0.73387    0.011
 5106.00    0.59921   0.73365    0.011
 5107.00    0.69106   0.73369    0.011
 5108.00    0.74124   0.73436    0.012
 5109.00    0.71881   0.73466    0.012
 5110.00    0.71256   0.73572    0.012
 5111.00    0.73101   0.73705    0.012
 5112.00    0.74164   0.73813    0.012
 5113.00    0.74179   0.73951    0.012
 5114.00    0.71930   0.74031    0.012
 5115.00    0.67008   0.74121    0.012
 5116.00    0.69369   0.74205    0.012
 5117.00    0.79306   0.74211    0.012
 5118.00    0.84691   0.74179    0.012
 5119.00    0.85897   0.74068    0.012
 5120.00    0.79088   0.73880    0.012
 5121.00    0.65794   0.73684    0.012
 5122.00    0.66346   0.73408    0.012
 5123.00    0.76754   0.73139    0.012
 5124.00    0.78050   0.72873    0.012
 5125.00    0.73655   0.72582    0.012
 5126.00    0.74881   0.72322    0.012
 5127.00    0.79177   0.72086    0.012
 5128.00    0.67114   0.71886    0.012
 5129.00    0.47291   0.71742    0.012
 5130.00    0.41694   0.71672    0.012
 5131.00    0.41919   0.71580    0.012
 5132.00    0.51080   0.71568    0.012
 5133.00    0.63365   0.71530    0.012
 5134.00    0.76417   0.71529    0.012
 5135.00    0.89695   0.71540    0.012
 5136.00    0.89936   0.71445    0.012
 5137.00    0.86992   0.71456    0.012
 5138.00    0.75984   0.71337    0.012
 5139.00    0.63383   0.71294    0.012
 5140.00    0.64200   0.71276    0.012
 5141.00    0.67086   0.71098    0.011
 5142.00    0.76268   0.71027    0.011
 5143.00    0.86167   0.70929    0.012
 5144.00    0.73045   0.70868    0.011
 5145.00    0.58167   0.70810    0.011
 5146.00    0.54880   0.70715    0.011
 5147.00    0.52069   0.70703    0.011
 5148.00    0.61485   0.70723    0.011
 5149.00    0.70711   0.70750    0.011
 5150.00    0.67661   0.70756    0.011
 5151.00    0.64504   0.70803    0.011
 5152.00    0.59506   0.70876    0.011
 5153.00    0.55115   0.70924    0.012
 5154.00    0.57181   0.71005    0.011
 5155.00    0.60718   0.71090    0.011
 5156.00    0.75325   0.71141    0.011
 5157.00    0.86164   0.71116    0.011
 5158.00    0.75427   0.70976    0.011
 5159.00    0.66650   0.70795    0.011
 5160.00    0.66796   0.70544    0.011
 5161.00    0.64672   0.70164    0.012
 5162.00    0.54077   0.69754    0.011
 5163.00    0.49546   0.69222    0.011
 5164.00    0.63932   0.68544    0.011
 5165.00    0.71024   0.67813    0.011
 5166.00    0.58797   0.67020    0.011
 5167.00    0.49136   0.66388    0.011
 5168.00    0.45310   0.65862    0.011
 5169.00    0.46999   0.65396    0.011
 5170.00    0.59548   0.64953    0.012
 5171.00    0.61992   0.64466    0.012
 5172.00    0.47093   0.64269    0.011
 5173.00    0.41364   0.64371    0.011
 5174.00    0.49417   0.64589    0.011
 5175.00    0.57065   0.64754    0.011
 5176.00    0.64175   0.64857    0.011
 5177.00    0.69144   0.65070    0.011
 5178.00    0.71620   0.65357    0.011
 5179.00    0.65182   0.65672    0.011
 5180.00    0.49601   0.65905    0.011
 5181.00    0.40822   0.66070    0.011
 5182.00    0.38199   0.66087    0.011
 5183.00    0.48883   0.66063    0.011
 5184.00    0.70178   0.66274    0.011
 5185.00    0.73911   0.66436    0.011
 5186.00    0.65323   0.66552    0.011
 5187.00    0.60748   0.66541    0.011
 5188.00    0.58645   0.66571    0.011
 5189.00    0.62616   0.66879    0.011
 5190.00    0.69854   0.67048    0.000
 5191.00    0.66666   0.67221    0.000
 5192.00    0.58612   0.67435    0.000
 5193.00    0.75152   0.67663    0.000
 5194.00    1.01586   0.67869    0.000
 5195.00    1.02693   0.67997    0.000
 5196.00    0.95107   0.68160    0.000
 5197.00    0.79412   0.68310    0.000
 5198.00    0.61375   0.68459    0.000
 5199.00    0.50483   0.68489    0.000
 5200.00    0.41296   0.68503    0.000
 5201.00    0.65977   0.68500    0.000
 5202.00    0.97177   0.68424    0.000
 5203.00    0.70409   0.68345    0.000
 5204.00    0.34974   0.68212    0.000
 5205.00    0.48991   0.68135    0.000
 5206.00    0.68424   0.68111    0.000
 5207.00    0.67439   0.68014    0.000
 5208.00    0.64980   0.67984    0.000
 5209.00    0.68100   0.68023    0.000
 5210.00    0.71428   0.68115    0.000
 5211.00    0.56600   0.68361    0.011
 5212.00    0.42856   0.68544    0.011
 5213.00    0.71705   0.68782    0.012
 5214.00    0.98184   0.69016    0.012
 5215.00    0.86257   0.69239    0.012
 5216.00    0.75938   0.69552    0.011
 5217.00    0.82000   0.69804    0.011
 5218.00    0.86388   0.70023    0.011
 5219.00    0.78592   0.70078    0.011
 5220.00    0.70476   0.70102    0.012
 5221.00    0.60571   0.70111    0.012
 5222.00    0.53634   0.70092    0.011
 5223.00    0.59895   0.70041    0.011
 5224.00    0.63188   0.69849    0.011
 5225.00    0.55634   0.69657    0.011
 5226.00    0.53761   0.69410    0.011
 5227.00    0.69274   0.69334    0.011
 5228.00    0.79266   0.69339    0.011
 5229.00    0.74893   0.69228    0.011
 5230.00    0.69326   0.69241    0.011
 5231.00    0.61087   0.69195    0.011
 5232.00    0.62273   0.69304    0.011
 5233.00    0.81729   0.69578    0.011
 5234.00    0.89458   0.69763    0.011
 5235.00    0.77366   0.70107    0.011
 5236.00    0.67712   0.70354    0.011
 5237.00    0.61670   0.70568    0.011
 5238.00    0.61905   0.70885    0.011
 5239.00    0.70313   0.71123    0.011
 5240.00    0.74710   0.71435    0.011
 5241.00    0.74505   0.71618    0.011
 5242.00    0.78748   0.71718    0.011
 5243.00    0.87488   0.71856    0.011
 5244.00    0.88111   0.71895    0.011
 5245.00    0.81492   0.71912    0.011
 5246.00    0.74241   0.71822    0.011
 5247.00    0.66494   0.71742    0.011
 5248.00    0.67746   0.71705    0.011
 5249.00    0.75219   0.71549    0.011
 5250.00    0.75741   0.71424    0.011
 5251.00    0.72048   0.71293    0.011
 5252.00    0.73207   0.71184    0.012
 5253.00    0.76933   0.71075    0.012
 5254.00    0.80620   0.70830    0.012
 5255.00    0.84290   0.70691    0.012
 5256.00    0.79282   0.70551    0.012
 5257.00    0.70844   0.70315    0.012
 5258.00    0.66984   0.70012    0.012
 5259.00    0.64667   0.69580    0.012
 5260.00    0.68454   0.69182    0.012
 5261.00    0.73969   0.68734    0.012
 5262.00    0.71878   0.68217    0.012
 5263.00    0.68012   0.67643    0.012
 5264.00    0.76646   0.67046    0.012
 5265.00    0.87623   0.66541    0.012
 5266.00    0.75342   0.66133    0.012
 5267.00    0.59692   0.65781    0.012
 5268.00    0.54684   0.65353    0.012
 5269.00    0.50795   0.65058    0.012
 5270.00    0.62656   0.65070    0.012
 5271.00    0.75591   0.65283    0.012
 5272.00    0.67823   0.65492    0.012
 5273.00    0.59360   0.65624    0.012
 5274.00    0.58780   0.65847    0.012
 5275.00    0.58197   0.66310    0.012
 5276.00    0.57254   0.66956    0.012
 5277.00    0.56496   0.67480    0.012
 5278.00    0.58546   0.67917    0.012
 5279.00    0.60946   0.68347    0.012
 5280.00    0.66758   0.68798    0.012
 5281.00    0.72777   0.69370    0.012
 5282.00    0.80249   0.69830    0.011
 5283.00    0.84015   0.70190    0.011
 5284.00    0.67678   0.70606    0.011
 5285.00    0.54555   0.70982    0.011
 5286.00    0.55393   0.71327    0.011
 5287.00    0.58171   0.71582    0.011
 5288.00    0.67886   0.71785    0.011
 5289.00    0.76272   0.72061    0.011
 5290.00    0.80663   0.72250    0.011
 5291.00    0.84469   0.72310    0.011
 5292.00    0.86780   0.72277    0.011
 5293.00    0.87429   0.72265    0.011
 5294.00    0.84422   0.72261    0.011
 5295.00    0.79754   0.72147    0.011
 5296.00    0.71918   0.71950    0.011
 5297.00    0.67713   0.71751    0.011
 5298.00    0.69556   0.71715    0.011
 5299.00    0.70394   0.71704    0.011
 5300.00    0.69767   0.71596    0.011
 5301.00    0.71521   0.71496    0.011
 5302.00    0.76330   0.71492    0.011
 5303.00    0.76624   0.71685    0.011
 5304.00    0.71810   0.71888    0.011
 5305.00    0.66161   0.71971    0.011
 5306.00    0.59681   0.72054    0.011
 5307.00    0.57994   0.72200    0.011
 5308.00    0.60524   0.72431    0.011
 5309.00    0.67100   0.72609    0.011
 5310.00    0.76811   0.72633    0.011
 5311.00    0.77529   0.72619    0.011
 5312.00    0.72119   0.72611    0.011
 5313.00    0.71703   0.72595    0.011
 5314.00    0.74269   0.72544    0.012
 5315.00    0.72309   0.72325    0.012
 5316.00    0.67991   0.72084    0.012
 5317.00    0.67810   0.71873    0.012
 5318.00    0.69498   0.71600    0.011
 5319.00    0.73311   0.71347    0.011
 5320.00    0.77950   0.70979    0.011
 5321.00    0.82486   0.70587    0.011
 5322.00    0.86988   0.70207    0.011
 5323.00    0.72288   0.69812    0.012
 5324.00    0.52264   0.69538    0.012
 5325.00    0.59638   0.69254    0.012
 5326.00    0.73261   0.68926    0.012
 5327.00    0.84072   0.68515    0.012
 5328.00    0.94369   0.68295    0.012
 5329.00    0.89328   0.68323    0.012
 5330.00    0.82135   0.68349    0.012
 5331.00    0.71599   0.68314    0.011
 5332.00    0.60725   0.68162    0.011
 5333.00    0.60920   0.68279    0.011
 5334.00    0.61826   0.68558    0.011
 5335.00    0.62091   0.68755    0.011
 5336.00    0.62338   0.68914    0.011
 5337.00    0.63241   0.68972    0.011
 5338.00    0.64042   0.69155    0.011
 5339.00    0.61908   0.69290    0.011
 5340.00    0.60336   0.69389    0.011
 5341.00    0.66812   0.69580    0.011
 5342.00    0.72854   0.69667    0.011
 5343.00    0.74832   0.69784    0.011
 5344.00    0.76318   0.69820    0.011
 5345.00    0.74444   0.69902    0.011
 5346.00    0.72297   0.70183    0.011
 5347.00    0.68711   0.70340    0.011
 5348.00    0.66046   0.70499    0.011
 5349.00    0.67293   0.70680    0.011
 5350.00    0.67609   0.70899    0.011
 5351.00    0.64665   0.71235    0.011
 5352.00    0.65341   0.71448    0.011
 5353.00    0.76688   0.71642    0.011
 5354.00    0.82710   0.71884    0.011
 5355.00    0.75351   0.72098    0.011
 5356.00    0.67975   0.72265    0.011
 5357.00    0.60564   0.72326    0.011
 5358.00    0.58918   0.72348    0.011
 5359.00    0.68103   0.72334    0.011
 5360.00    0.74140   0.72246    0.011
 5361.00    0.75014   0.72052    0.011
 5362.00    0.73022   0.71838    0.011
 5363.00    0.66908   0.71593    0.011
 5364.00    0.63670   0.71256    0.011
 5365.00    0.64068   0.70938    0.011
 5366.00    0.65693   0.70597    0.011
 5367.00    0.68684   0.70355    0.011
 5368.00    0.72780   0.70130   -2.000
 5369.00    0.77962   0.69827   -2.000
 5370.00    0.76504   0.69633   -2.000
 5371.00    0.69287   0.69539   -2.000
 5372.00    0.80801   0.69601   -2.000
 5373.00    1.06623   0.69652   -2.000
 5374.00    1.14385   0.69637   -2.000
 5375.00    1.10021   0.69684   -2.000
 5376.00    1.00928   0.69822   -2.000
 5377.00    0.89054   0.70069   -2.000
 5378.00    0.79869   0.70244   -2.000
 5379.00    0.72063   0.70328   -2.000
 5380.00    0.67757   0.70390   -2.000
 5381.00    0.65006   0.70461   -2.000
 5382.00    0.69763   0.70542   -2.000
 5383.00    0.77385   0.70569    0.011
 5384.00    0.75057   0.70536    0.011
 5385.00    0.69501   0.70435    0.011
 5386.00    0.65405   0.70313    0.011
 5387.00    0.61704   0.70182    0.011
 5388.00    0.63982   0.70010    0.011
 5389.00    0.67592   0.69846    0.011
 5390.00    0.62647   0.69607    0.011
 5391.00    0.56182   0.69317    0.011
 5392.00    0.61771   0.69099    0.011
 5393.00    0.68996   0.68845    0.011
 5394.00    0.68676   0.68600    0.011
 5395.00    0.67627   0.68320    0.011
 5396.00    0.67146   0.67993    0.011
 5397.00    0.66699   0.67806    0.011
 5398.00    0.69681   0.67597    0.010
 5399.00    0.72751   0.67340    0.010
 5400.00    0.75596   0.67107    0.010
 5401.00    0.78267   0.66914    0.010
 5402.00    0.76444   0.66815    0.010
 5403.00    0.73953   0.66664    0.010
 5404.00    0.62414   0.66455    0.010
 5405.00    0.51488   0.66364    0.010
 5406.00    0.46066   0.66426    0.010
 5407.00    0.41043   0.66498    0.010
 5408.00    0.38650   0.66463    0.010
 5409.00    0.39417   0.66421    0.011
 5410.00    0.56429   0.66598    0.011
 5411.00    0.70460   0.66943    0.010
 5412.00    0.72116   0.67201    0.010
 5413.00    0.71373   0.67323    0.010
 5414.00    0.62389   0.67441    0.011
 5415.00    0.54388   0.67760    0.011
 5416.00    0.49230   0.68182    0.011
 5417.00    0.49175   0.68398    0.011
 5418.00    0.61722   0.68445    0.011
 5419.00    0.70727   0.68522    0.011
 5420.00    0.72192   0.68708    0.011
 5421.00    0.69298   0.68941    0.011
 5422.00    0.58342   0.68946    0.011
 5423.00    0.55815   0.68721    0.011
 5424.00    0.66907   0.68649    0.011
 5425.00    0.75316   0.68706    0.011
 5426.00    0.79920   0.68720    0.011
 5427.00    0.81278   0.68594    0.011
 5428.00    0.78587   0.68243    0.011
 5429.00    0.76174   0.68106    0.011
 5430.00    0.74065   0.68227    0.011
 5431.00    0.70751   0.68206    0.011
 5432.00    0.66267   0.68140    0.011
 5433.00    0.67050   0.67978    0.011
 5434.00    0.72336   0.67957    0.011
 5435.00    0.71706   0.68198    0.011
 5436.00    0.66623   0.68302    0.011
 5437.00    0.60687   0.68403    0.010
 5438.00    0.54185   0.68477    0.011
 5439.00    0.56392   0.68559    0.010
 5440.00    0.63644   0.68720    0.010
 5441.00    0.68465   0.68796    0.010
 5442.00    0.72059   0.68925    0.010
 5443.00    0.73691   0.68964    0.010
 5444.00    0.74465   0.68913    0.010
 5445.00    0.75816   0.68834    0.010
 5446.00    0.77384   0.68722    0.010
 5447.00    0.67115   0.68760    0.010
 5448.00    0.53081   0.68693    0.010
 5449.00    0.55477   0.68480    0.010
 5450.00    0.62242   0.68320    0.010
 5451.00    0.73426   0.68202    0.010
 5452.00    0.85572   0.68211    0.010
 5453.00    0.79785   0.68172    0.010
 5454.00    0.70902   0.67954    0.010
 5455.00    0.69474   0.67863    0.010
 5456.00    0.69023   0.67887    0.010
 5457.00    0.63408   0.67878    0.010
 5458.00    0.57316   0.67894    0.010
 5459.00    0.57035   0.67792    0.010
 5460.00    0.57080   0.67741    0.010
 5461.00    0.59761   0.67815    0.010
 5462.00    0.62487   0.67769    0.010
 5463.00    0.63886   0.67792    0.010
 5464.00    0.65474   0.67790    0.010
 5465.00    0.71495   0.67700    0.010
 5466.00    0.76825   0.67698    0.010
 5467.00    0.73264   0.67611    0.010
 5468.00    0.69346   0.67567    0.010
 5469.00    0.62328   0.67531    0.010
 5470.00    0.55467   0.67331    0.010
 5471.00    0.49606   0.67203    0.010
 5472.00    0.47721   0.67079    0.010
 5473.00    0.65765   0.66969    0.011
 5474.00    0.78579   0.66898    0.011
 5475.00    0.70168   0.66620    0.011
 5476.00    0.62309   0.66450    0.011
 5477.00    0.56309   0.66447    0.011
 5478.00    0.53544   0.66427   -2.000
 5479.00    0.59966   0.66443   -2.000
 5480.00    0.64894   0.66301   -2.000
 5481.00    0.66194   0.66257   -2.000
 5482.00    0.72891   0.66434   -2.000
 5483.00    0.90898   0.66569   -2.000
 5484.00    0.99726   0.66695   -2.000
 5485.00    0.91840   0.66748   -2.000
 5486.00    1.02975   0.66793   -2.000
 5487.00    1.44387   0.66954   -2.000
 5488.00    1.69959   0.67121   -2.000
 5489.00    1.73401   0.67225   -2.000
 5490.00    1.54396   0.67294   -2.000
 5491.00    1.07795   0.67309   -2.000
 5492.00    0.65528   0.67319   -2.000
 5493.00    0.27960   0.67404   -2.000
 5494.00    0.17379   0.67441   -2.000
 5495.00    0.32594   0.67395   -2.000
 5496.00    0.46679   0.67299   -2.000
 5497.00    0.59810   0.67221   -2.000
 5498.00    0.66649   0.67251   -2.000
 5499.00    0.68817   0.67216   -2.000
 5500.00    0.66654   0.67027   -2.000
 5501.00    0.61666   0.66875   -2.000
 5502.00    0.63336   0.66812    0.010
 5503.00    0.68804   0.66784    0.010
 5504.00    0.74021   0.66715    0.010
 5505.00    0.79112   0.66499    0.010
 5506.00    0.77719   0.66371    0.010
 5507.00    0.73541   0.66401    0.010
 5508.00    0.69002   0.66356    0.010
 5509.00    0.64331   0.66323    0.010
 5510.00    0.69022   0.66265    0.010
 5511.00    0.76634   0.66209    0.010
 5512.00    0.72236   0.66322    0.010
 5513.00    0.64713   0.66381    0.010
 5514.00    0.64751   0.66421    0.010
 5515.00    0.66394   0.66526    0.010
 5516.00    0.68785   0.66562    0.010
 5517.00    0.71302   0.66701    0.010
 5518.00    0.62580   0.66829    0.010
 5519.00    0.52436   0.66855    0.010
 5520.00    0.61606   0.66944    0.011
 5521.00    0.72480   0.66963    0.011
 5522.00    0.74537   0.66975    0.010
 5523.00    0.76134   0.67016    0.010
 5524.00    0.62543   0.66955    0.010
 5525.00    0.49086   0.66916    0.010
 5526.00    0.67223   0.66844    0.010
 5527.00    0.84204   0.66717    0.010
 5528.00    0.76326   0.66685    0.010
 5529.00    0.69133   0.66649    0.010
 5530.00    0.70291   0.66609    0.010
 5531.00    0.71511   0.66574    0.010
 5532.00    0.73251   0.66518    0.010
 5533.00    0.73855   0.66548    0.010
 5534.00    0.67396   0.66579    0.010
 5535.00    0.62813   0.66661    0.010
 5536.00    0.67402   0.66757    0.010
 5537.00    0.69707   0.66782    0.010
 5538.00    0.62942   0.66894    0.010
 5539.00    0.58126   0.66997    0.010
 5540.00    0.59741   0.67104    0.010
 5541.00    0.62462   0.67231    0.010
 5542.00    0.68265   0.67257    0.009
 5543.00    0.71641   0.67361    0.009
 5544.00    0.69226   0.67483    0.009
 5545.00    0.66686   0.67516    0.009
 5546.00    0.63892   0.67593    0.009
 5547.00    0.61824   0.67641    0.009
 5548.00    0.61056   0.67669    0.009
 5549.00    0.63310   0.67725    0.009
 5550.00    0.70303   0.67719    0.009
 5551.00    0.74675   0.67710    0.010
 5552.00    0.75436   0.67702    0.010
 5553.00    0.71658   0.67640    0.010
 5554.00    0.62378   0.67590    0.010
 5555.00    0.61127   0.67546    0.010
 5556.00    0.68455   0.67439    0.010
 5557.00    0.71671   0.67316    0.010
 5558.00    0.71009   0.67214    0.010
 5559.00    0.68628   0.67079    0.010
 5560.00    0.64818   0.66956    0.010
 5561.00    0.62918   0.66800    0.010
 5562.00    0.62416   0.66621    0.010
 5563.00    0.59655   0.66513    0.010
 5564.00    0.55442   0.66363    0.010
 5565.00    0.57706   0.66223    0.010
 5566.00    0.63609   0.66101    0.010
 5567.00    0.64861   0.65970    0.010
 5568.00    0.63838   0.65897    0.010
 5569.00    0.66795   0.65804    0.010
 5570.00    0.71433   0.65782    0.010
 5571.00    0.73695   0.65731    0.010
 5572.00    0.75096   0.65624    0.010
 5573.00    0.77195   0.65684    0.010
 5574.00    0.79508   0.65697    0.010
 5575.00    0.71332   0.65646    0.010
 5576.00    0.60486   0.65668    0.010
 5577.00    0.63053   0.65603    0.010
 5578.00    0.68398   0.65598    0.010
 5579.00    0.68648   0.65601    0.010
 5580.00    0.68067   0.65430    0.010
 5581.00    0.68525   0.65318    0.010
 5582.00    0.69111   0.65228    0.010
 5583.00    0.69818   0.65045    0.010
 5584.00    0.70535   0.64904    0.009
 5585.00    0.71685   0.64665    0.010
 5586.00    0.72855   0.64403    0.010
 5587.00    0.64748   0.64274    0.010
 5588.00    0.56661   0.64047    0.009
 5589.00    0.58102   0.63878    0.010
 5590.00    0.59520   0.63807    0.010
 5591.00    0.60499   0.63653    0.010
 5592.00    0.61422   0.63581    0.010
 5593.00    0.61702   0.63496    0.010
 5594.00    0.62191   0.63458    0.010
 5595.00    0.64371   0.63612    0.010
 5596.00    0.66205   0.63642    0.010
 5597.00    0.65949   0.63615    0.010
 5598.00    0.65997   0.63741    0.010
 5599.00    0.67496   0.63888    0.010
 5600.00    0.67073   0.64046    0.010
 5601.00    0.59183   0.64153    0.010
 5602.00    0.51904   0.64242    0.010
 5603.00    0.46600   0.64505    0.010
 5604.00    0.44302   0.64741    0.010
 5605.00    0.50241   0.64861    0.010
 5606.00    0.54595   0.64994    0.010
 5607.00    0.55230   0.65154    0.010
 5608.00    0.56487   0.65339    0.010
 5609.00    0.59007   0.65417    0.010
 5610.00    0.60409   0.65445    0.010
 5611.00    0.59835   0.65508    0.010
 5612.00    0.58259   0.65556    0.010
 5613.00    0.55135   0.65523    0.010
 5614.00    0.52287   0.65315    0.010
 5615.00    0.49816   0.65209    0.010
 5616.00    0.52655   0.65237    0.010
 5617.00    0.61839   0.65133    0.010
 5618.00    0.70684   0.64971    0.010
 5619.00    0.79173   0.64806    0.010
 5620.00    0.78624   0.64742    0.010
 5621.00    0.69677   0.64775    0.010
 5622.00    0.62935   0.64691    0.009
 5623.00    0.58001   0.64571    0.009
 5624.00    0.57160   0.64582    0.009
 5625.00    0.59271   0.64679    0.009
 5626.00    0.62321   0.64730    0.009
 5627.00    0.65967   0.64709    0.009
 5628.00    0.68747   0.64741    0.009
 5629.00    0.71048   0.64837    0.009
 5630.00    0.70590   0.64919    0.009
 5631.00    0.68803   0.64928    0.009
 5632.00    0.70512   0.64899    0.009
 5633.00    0.73673   0.64943    0.009
 5634.00    0.73739   0.64979    0.009
 5635.00    0.72705   0.64929    0.009
 5636.00    0.71529   0.64863    0.009
 5637.00    0.70309   0.64803    0.009
 5638.00    0.67526   0.64801    0.009
 5639.00    0.64354   0.64777    0.009
 5640.00    0.60421   0.64647    0.009
 5641.00    0.56333   0.64603    0.009
 5642.00    0.57965   0.64613    0.009
 5643.00    0.60503   0.64571    0.009
 5644.00    0.61857   0.64548    0.009
 5645.00    0.63072   0.64494    0.010
 5646.00    0.61003   0.64489    0.010
 5647.00    0.58671   0.64531    0.010
 5648.00    0.58369   0.64449    0.009
 5649.00    0.58158   0.64362    0.009
 5650.00    0.65423   0.64353    0.010
 5651.00    0.72465   0.64316    0.010
 5652.00    0.64506   0.64237    0.010
 5653.00    0.56878   0.64075    0.010
 5654.00    0.55358   0.63907    0.010
 5655.00    0.54310   0.63884    0.010
 5656.00    0.58486   0.63782    0.010
 5657.00    0.61836   0.63512    0.010
 5658.00    0.58780   0.63381    0.010
 5659.00    0.55897   0.63388    0.010
 5660.00    0.54026   0.63335    0.010
 5661.00    0.53237   0.63211    0.009
 5662.00    0.57483   0.63108    0.009
 5663.00    0.62177   0.63178    0.009
 5664.00    0.68574   0.63316    0.009
 5665.00    0.72377   0.63324    0.009
 5666.00    0.67947   0.63336    0.009
 5667.00    0.64987   0.63496    0.009
 5668.00    0.65984   0.63682    0.009
 5669.00    0.67626   0.63801    0.009
 5670.00    0.70758   0.63905    0.009
 5671.00    0.72732   0.64053    0.009
 5672.00    0.72395   0.64254    0.009
 5673.00    0.71757   0.64370    0.009
 5674.00    0.70596   0.64397    0.009
 5675.00    0.69224   0.64482    0.009
 5676.00    0.67533   0.64586    0.009
 5677.00    0.67264   0.64608    0.009
 5678.00    0.68900   0.64566    0.009
 5679.00    0.67770   0.64538    0.009
 5680.00    0.63383   0.64535    0.009
 5681.00    0.60103   0.64442    0.009
 5682.00    0.57975   0.64322    0.009
 5683.00    0.53534   0.64264    0.009
 5684.00    0.46974   0.64218    0.009
 5685.00    0.47734   0.64149    0.009
 5686.00    0.54406   0.64040    0.010
 5687.00    0.60490   0.63968    0.010
 5688.00    0.66157   0.63981    0.010
 5689.00    0.67598   0.63962    0.009
 5690.00    0.66404   0.63923    0.009
 5691.00    0.64923   0.63944    0.009
 5692.00    0.63287   0.63949    0.010
 5693.00    0.63590   0.63938    0.010
 5694.00    0.64812   0.63918    0.010
 5695.00    0.70348   0.63891    0.010
 5696.00    0.77645   0.63883    0.010
 5697.00    0.75393   0.63785    0.010
 5698.00    0.69810   0.63700    0.010
 5699.00    0.63654   0.63627    0.010
 5700.00    0.57330   0.63450    0.009
 5701.00    0.58866   0.63315    0.009
 5702.00    0.62316   0.63162    0.009
 5703.00    0.62347   0.63007    0.009
 5704.00    0.61704   0.62904    0.009
 5705.00    0.54712   0.62670    0.009
 5706.00    0.46746   0.62544    0.009
 5707.00    0.49142   0.62492    0.009
 5708.00    0.52712   0.62331    0.009
 5709.00    0.53937   0.62334    0.009
 5710.00    0.54984   0.62343    0.009
 5711.00    0.56323   0.62321    0.009
 5712.00    0.57674   0.62491    0.009
 5713.00    0.57700   0.62580    0.009
 5714.00    0.57656   0.62691    0.009
 5715.00    0.55171   0.62946    0.009
 5716.00    0.53255   0.63103    0.009
 5717.00    0.61110   0.63324    0.009
 5718.00    0.68501   0.63593    0.009
 5719.00    0.70969   0.63764    0.009
 5720.00    0.73092   0.64013    0.009
 5721.00    0.72629   0.64241    0.009
 5722.00    0.71560   0.64362    0.009
 5723.00    0.67030   0.64525    0.009
 5724.00    0.62434   0.64672    0.009
 5725.00    0.57539   0.64741    0.009
 5726.00    0.53756   0.64803    0.009
 5727.00    0.54115   0.64849    0.009
 5728.00    0.55479   0.64891    0.009
 5729.00    0.59970   0.64932    0.009
 5730.00    0.62502   0.64888    0.009
 5731.00    0.59855   0.64847    0.009
 5732.00    0.57420   0.64890    0.009
 5733.00    0.55468   0.64875    0.009
 5734.00    0.56995   0.64831    0.009
 5735.00    0.65360   0.64815    0.009
 5736.00    0.70046   0.64799    0.009
 5737.00    0.68428   0.64814    0.009
 5738.00    0.67554   0.64766    0.009
 5739.00    0.67796   0.64705    0.009
 5740.00    0.68019   0.64730    0.000
 5741.00    0.68217   0.64706    0.000
 5742.00    0.66211   0.64649    0.000
 5743.00    0.61645   0.64612    0.000
 5744.00    0.58776   0.64551    0.000
 5745.00    0.57646   0.64521    0.000
 5746.00    0.58426   0.64450    0.000
 5747.00    0.60932   0.64337    0.000
 5748.00    0.65472   0.64299    0.000
 5749.00    0.71631   0.64257    0.000
 5750.00    0.72543   0.64162    0.000
 5751.00    0.69782   0.64079    0.000
 5752.00    0.70515   0.63991    0.000
 5753.00    0.73394   0.63907    0.000
 5754.00    0.71779   0.63868    0.000
 5755.00    0.67753   0.63824    0.000
 5756.00    0.67339   0.63775    0.000
 5757.00    0.68608   0.63769    0.000
 5758.00    0.67259   0.63742    0.000
 5759.00    0.64859   0.63702    0.000
 5760.00    0.63506   0.63711    0.000
 5761.00    0.62511   0.63689    0.000
 5762.00    0.64977   0.63687    0.000
 5763.00    0.68441   0.63779    0.000
 5764.00    0.66282   0.63817    0.000
 5765.00    0.62784   0.63816    0.000
 5766.00    0.60149   0.63860    0.000
 5767.00    0.57680   0.63873    0.000
 5768.00    0.58712   0.63882    0.000
 5769.00    0.60266   0.63898    0.000
 5770.00    0.64801   0.63860    0.000
 5771.00    0.69661   0.63836    0.000
 5772.00    0.71211   0.63825    0.000
 5773.00    0.72523   0.63722    0.000
 5774.00    0.68729   0.63618    0.000
 5775.00    0.64747   0.63537    0.000
 5776.00    0.70951   0.63372    0.000
 5777.00    0.77181   0.63227    0.000
 5778.00    0.82835   0.63101    0.000
 5779.00    0.87915   0.62892    0.000
 5780.00    0.83764   0.62727    0.000
 5781.00    0.79472   0.62574    0.000
 5782.00    0.73751   0.62432    0.000
 5783.00    0.68352   0.62354    0.000
 5784.00    0.65284   0.62205    0.000
 5785.00    0.62580   0.62139    0.000
 5786.00    0.61890   0.62179    0.000
 5787.00    0.61041   0.62124    0.000
 5788.00    0.59484   0.62151    0.000
 5789.00    0.58642   0.62213    0.000
 5790.00    0.60404   0.62273    0.000
 5791.00    0.64021   0.62441   -2.000
 5792.00    0.73300   0.62520   -2.000
 5793.00    0.81750   0.62633   -2.000
 5794.00    0.88050   0.62845   -2.000
 5795.00    0.90077   0.62951   -2.000
 5796.00    0.82567   0.63072   -2.000
 5797.00    0.74375   0.63179   -2.000
 5798.00    0.64866   0.63287   -2.000
 5799.00    0.60071   0.63443   -2.000
 5800.00    0.63230   0.63495   -2.000
 5801.00    0.65998   0.63572   -2.000
 5802.00    0.68187   0.63668   -2.000
 5803.00    0.67902   0.63674   -2.000
 5804.00    0.64403   0.63701   -2.000
 5805.00    0.61998   0.63699   -2.000
 5806.00    0.60847   0.63729   -2.000
 5807.00    0.60172   0.63769   -2.000
 5808.00    0.59977   0.63727   -2.000
 5809.00    0.59406   0.63741   -2.000
 5810.00    0.58502   0.63765   -2.000
 5811.00    0.57454   0.63720    0.000
 5812.00    0.56292   0.63713    0.000
 5813.00    0.52170   0.63730    0.000
 5814.00    0.46004   0.63747    0.000
 5815.00    0.48536   0.63737    0.000
 5816.00    0.56331   0.63755    0.000
 5817.00    0.62097   0.63821    0.000
 5818.00    0.66792   0.63850    0.000
 5819.00    0.64890   0.63874    0.000
 5820.00    0.59965   0.63918    0.000
 5821.00    0.58903   0.63968    0.000
 5822.00    0.59366   0.64010    0.000
 5823.00    0.63316   0.64022    0.000
 5824.00    0.68438   0.64077    0.000
 5825.00    0.70214   0.64140    0.000
 5826.00    0.71046   0.64149    0.000
 5827.00    0.72080   0.64165    0.000
 5828.00    0.73162   0.64196    0.000
 5829.00    0.72871   0.64201    0.000
 5830.00    0.72323   0.64183    0.000
 5831.00    0.69515   0.64171    0.000
 5832.00    0.66380   0.64184    0.000
 5833.00    0.70288   0.64161    0.000
 5834.00    0.74933   0.64105    0.000
 5835.00    0.68250   0.64101    0.000
 5836.00    0.60800   0.64094    0.000
 5837.00    0.64553   0.64027    0.000
 5838.00    0.68676   0.63982    0.000
 5839.00    0.65132   0.63954    0.000
 5840.00    0.61662   0.63908    0.000
 5841.00    0.60675   0.63836    0.000
 5842.00    0.59647   0.63747    0.000
 5843.00    0.57984   0.63676    0.000
 5844.00    0.56450   0.63578    0.000
 5845.00    0.56175   0.63436    0.000
 5846.00    0.56325   0.63300    0.000
 5847.00    0.59460   0.63165    0.000
 5848.00    0.62095   0.63004    0.000
 5849.00    0.62030   0.62817    0.000
 5850.00    0.61440   0.62642    0.000
 5851.00    0.58572   0.62466    0.000
 5852.00    0.57323   0.62250    0.000
 5853.00    0.61852   0.62054    0.000
 5854.00    0.64494   0.61914    0.000
 5855.00    0.61481   0.61765    0.000
 5856.00    0.58447   0.61590    0.000
 5857.00    0.55361   0.61475    0.000
 5858.00    0.54086   0.61414    0.000
 5859.00    0.56788   0.61349    0.000
 5860.00    0.60051   0.61321    0.000
 5861.00    0.64384   0.61296    0.000
 5862.00    0.66120   0.61313    0.000
 5863.00    0.63540   0.61388    0.000
 5864.00    0.61359   0.61416    0.000
 5865.00    0.59761   0.61462    0.000
 5866.00    0.61330   0.61556    0.000
 5867.00    0.66957   0.61633    0.000
 5868.00    0.66693   0.61710    0.000
 5869.00    0.59777   0.61769    0.000
 5870.00    0.53631   0.61814    0.000
 5871.00    0.48251   0.61851    0.000
 5872.00    0.49697   0.61851    0.000
 5873.00    0.57137   0.61835    0.000
 5874.00    0.62812   0.61791    0.000
 5875.00    0.67124   0.61709    0.000
 5876.00    0.67420   0.61604    0.000
 5877.00    0.64985   0.61455    0.000
 5878.00    0.63179   0.61262    0.000
 5879.00    0.61748   0.61039    0.000
 5880.00    0.57758   0.60751    0.000
 5881.00    0.52439   0.60454    0.000
 5882.00    0.50419   0.60131    0.000
 5883.00    0.49888   0.59687    0.000
 5884.00    0.47012   0.59278    0.000
 5885.00    0.43227   0.58859    0.000
 5886.00    0.45150   0.58316    0.000
 5887.00    0.48954   0.57904    0.000
 5888.00    0.54838   0.57405    0.000
 5889.00    0.61296   0.56802    0.000
 5890.00    0.62659   0.56553    0.000
 5891.00    0.62862   0.56225    0.000
 5892.00    0.60351   0.55796    0.000
 5893.00    0.57346   0.55751    0.000
 5894.00    0.58083   0.55566    0.000
 5895.00    0.59344   0.55366    0.000
 5896.00    0.56862   0.55569    0.000
 5897.00    0.54005   0.55666    0.000
 5898.00    0.52223   0.55838    0.000
 5899.00    0.50510   0.56234    0.000
 5900.00    0.58901   0.56498    0.000
 5901.00    0.67549   0.56893    0.009
 5902.00    0.62663   0.57343    0.009
 5903.00    0.57896   0.57644    0.009
 5904.00    0.56496   0.58092    0.009
 5905.00    0.55162   0.58530    0.009
 5906.00    0.54777   0.58805    0.009
 5907.00    0.54750   0.59152    0.009
 5908.00    0.58061   0.59490    0.009
 5909.00    0.60335   0.59683    0.009
 5910.00    0.55565   0.59875    0.009
 5911.00    0.51490   0.60090    0.009
 5912.00    0.51070   0.60185    0.009
 5913.00    0.51089   0.60247    0.009
 5914.00    0.52965   0.60360    0.009
 5915.00    0.55584   0.60403    0.009
 5916.00    0.60802   0.60450    0.009
 5917.00    0.65011   0.60504    0.009
 5918.00    0.66254   0.60491    0.009
 5919.00    0.65607   0.60553    0.009
 5920.00    0.60223   0.60584    0.009
 5921.00    0.56579   0.60544    0.009
 5922.00    0.56695   0.60603    0.008
 5923.00    0.57243   0.60624    0.008
 5924.00    0.58599   0.60610    0.009
 5925.00    0.59163   0.60656    0.009
 5926.00    0.58430   0.60639    0.008
 5927.00    0.56426   0.60648    0.008
 5928.00    0.52598   0.60677    0.008
 5929.00    0.51181   0.60621    0.008
 5930.00    0.52807   0.60629    0.009
 5931.00    0.55042   0.60662    0.009
 5932.00    0.57952   0.60636    0.009
 5933.00    0.61124   0.60618    0.009
 5934.00    0.64553   0.60603    0.009
 5935.00    0.63417   0.60625    0.009
 5936.00    0.58330   0.60625    0.009
 5937.00    0.57226   0.60569    0.009
 5938.00    0.59158   0.60597    0.009
 5939.00    0.60543   0.60611    0.009
 5940.00    0.61562   0.60543    0.009
 5941.00    0.57123   0.60540    0.009
 5942.00    0.49480   0.60542    0.009
 5943.00    0.49091   0.60515    0.009
 5944.00    0.52415   0.60490    0.009
 5945.00    0.55560   0.60435    0.009
 5946.00    0.58625   0.60427    0.009
 5947.00    0.54838   0.60412    0.009
 5948.00    0.48441   0.60313    0.009
 5949.00    0.47445   0.60298    0.008
 5950.00    0.48197   0.60329    0.008
 5951.00    0.49589   0.60258    0.008
 5952.00    0.51154   0.60211    0.008
 5953.00    0.46932   0.60243    0.008
 5954.00    0.41425   0.60252    0.008
 5955.00    0.40119   0.60239    0.008
 5956.00    0.39556   0.60245    0.008
 5957.00    0.44198   0.60289    0.008
 5958.00    0.49543   0.60338    0.008
 5959.00    0.52019   0.60362    0.008
 5960.00    0.54220   0.60416    0.008
 5961.00    0.54923   0.60496    0.008
 5962.00    0.55537   0.60540    0.009
 5963.00    0.59547   0.60590    0.009
 5964.00    0.63617   0.60647    0.009
 5965.00    0.63507   0.60691    0.009
 5966.00    0.63512   0.60741    0.009
 5967.00    0.66488   0.60771    0.009
 5968.00    0.69181   0.60785    0.009
 5969.00    0.68078   0.60798    0.009
 5970.00    0.66831   0.60800    0.009
 5971.00    0.64297   0.60776    0.009
 5972.00    0.62096   0.60730    0.009
 5973.00    0.62097   0.60687    0.009
 5974.00    0.61615   0.60627    0.009
 5975.00    0.58656   0.60539    0.009
 5976.00    0.56258   0.60466    0.009
 5977.00    0.56183   0.60377    0.009
 5978.00    0.55949   0.60292    0.009
 5979.00    0.55176   0.60223    0.009
 5980.00    0.54211   0.60103    0.009
 5981.00    0.52693   0.60038    0.008
 5982.00    0.51293   0.59989    0.008
 5983.00    0.50185   0.59862    0.008
 5984.00    0.50293   0.59821    0.008
 5985.00    0.52983   0.59822    0.008
 5986.00    0.55625   0.59756    0.008
 5987.00    0.58179   0.59729    0.008
 5988.00    0.59204   0.59737    0.008
 5989.00    0.57762   0.59749    0.008
 5990.00    0.57521   0.59747    0.008
 5991.00    0.58978   0.59732    0.008
 5992.00    0.62153   0.59775    0.008
 5993.00    0.67467   0.59784    0.008
 5994.00    0.68658   0.59756    0.008
 5995.00    0.65326   0.59772    0.009
 5996.00    0.62632   0.59762    0.009
 5997.00    0.60556   0.59753    0.008
 5998.00    0.58257   0.59719    0.009
 5999.00    0.55767   0.59662    0.009
 6000.00    0.55077   0.59674    0.009
 6001.00    0.55740   0.59594    0.009
 6002.00    0.58859   0.59490    0.009
 6003.00    0.63599   0.59499    0.009
 6004.00    0.68211   0.59401    0.009
 6005.00    0.72749   0.59312    0.009
 6006.00    0.70968   0.59300    0.009
 6007.00    0.66004   0.59172    0.009
 6008.00    0.62659   0.59116    0.009
 6009.00    0.60019   0.59098    0.009
 6010.00    0.61774   0.58999    0.009
 6011.00    0.65172   0.58988    0.009
 6012.00    0.67237   0.58916    0.009
 6013.00    0.68877   0.58824    0.009
 6014.00    0.64320   0.58874    0.009
 6015.00    0.58119   0.58803    0.008
 6016.00    0.57275   0.58724    0.008
 6017.00    0.57593   0.58781    0.009
 6018.00    0.58738   0.58739    0.009
 6019.00    0.60026   0.58705    0.009
 6020.00    0.58500   0.58740    0.008
 6021.00    0.56607   0.58767    0.008
 6022.00    0.57170   0.58811    0.008
 6023.00    0.57960   0.58810    0.008
 6024.00    0.58562   0.58878    0.008
 6025.00    0.59155   0.59003    0.009
 6026.00    0.59011   0.59026    0.009
 6027.00    0.58880   0.59108    0.009
 6028.00    0.61536   0.59253    0.009
 6029.00    0.64157   0.59330    0.009
 6030.00    0.65980   0.59420    0.009
 6031.00    0.67183   0.59529    0.009
 6032.00    0.60471   0.59632    0.009
 6033.00    0.54131   0.59734    0.009
 6034.00    0.50996   0.59801    0.009
 6035.00    0.48664   0.59877    0.009
 6036.00    0.51468   0.59968    0.008
 6037.00    0.54308   0.60016    0.008
 6038.00    0.57326   0.60041    0.009
 6039.00    0.60180   0.60103    0.009
 6040.00    0.62372   0.60147    0.009
 6041.00    0.63668   0.60132    0.009
 6042.00    0.61956   0.60164    0.009
 6043.00    0.60449   0.60203    0.009
 6044.00    0.59527   0.60175    0.008
 6045.00    0.58469   0.60177    0.008
 6046.00    0.57080   0.60186    0.009
 6047.00    0.56599   0.60160    0.008
 6048.00    0.58017   0.60147    0.008
 6049.00    0.60194   0.60112    0.008
 6050.00    0.63750   0.60079    0.008
 6051.00    0.65207   0.60060    0.008
 6052.00    0.63330   0.59982    0.008
 6053.00    0.62307   0.59937    0.008
 6054.00    0.62476   0.59916    0.008
 6055.00    0.62917   0.59827    0.008
 6056.00    0.63692   0.59774    0.008
 6057.00    0.62392   0.59749    0.009
 6058.00    0.58847   0.59668    0.009
 6059.00    0.56973   0.59627    0.009
 6060.00    0.56691   0.59610    0.008
 6061.00    0.57385   0.59530    0.008
 6062.00    0.58899   0.59515    0.009
 6063.00    0.59169   0.59535    0.009
 6064.00    0.58516   0.59469    0.009
 6065.00    0.58049   0.59481    0.009
 6066.00    0.57704   0.59531    0.009
 6067.00    0.58230   0.59502    0.009
 6068.00    0.59251   0.59534    0.009
 6069.00    0.63781   0.59568    0.009
 6070.00    0.70049   0.59559    0.009
 6071.00    0.70761   0.59591    0.009
 6072.00    0.69090   0.59581    0.008
 6073.00    0.63177   0.59575    0.008
 6074.00    0.55705   0.59570    0.008
 6075.00    0.50703   0.59495    0.008
 6076.00    0.46469   0.59482    0.008
 6077.00    0.49084   0.59431    0.008
 6078.00    0.53476   0.59304    0.008
 6079.00    0.57701   0.59275    0.008
 6080.00    0.61891   0.59197    0.008
 6081.00    0.59355   0.59060    0.008
 6082.00    0.55695   0.59008    0.008
 6083.00    0.52254   0.58917    0.008
 6084.00    0.48840   0.58817    0.008
 6085.00    0.50056   0.58767    0.008
 6086.00    0.51678   0.58671    0.008
 6087.00    0.54531   0.58625    0.008
 6088.00    0.57448   0.58602    0.008
 6089.00    0.56782   0.58507    0.008
 6090.00    0.56119   0.58489    0.008
 6091.00    0.60517   0.58507    0.009
 6092.00    0.64618   0.58427    0.009
 6093.00    0.62405   0.58402    0.009
 6094.00    0.60036   0.58446    0.009
 6095.00    0.55782   0.58376    0.009
 6096.00    0.51967   0.58332    0.009
 6097.00    0.51789   0.58383    0.009
 6098.00    0.51711   0.58295    0.009
 6099.00    0.52254   0.58232    0.009
 6100.00    0.53448   0.58303    0.009
 6101.00    0.57817   0.58212    0.008
 6102.00    0.60684   0.58146    0.008
 6103.00    0.57604   0.58224    0.008
 6104.00    0.55554   0.58154    0.008
 6105.00    0.56895   0.58143    0.008
 6106.00    0.59456   0.58212    0.008
 6107.00    0.65414   0.58139    0.008
 6108.00    0.69331   0.58185    0.008
 6109.00    0.68389   0.58243    0.008
 6110.00    0.66387   0.58179    0.008
 6111.00    0.62207   0.58252    0.008
 6112.00    0.59919   0.58253    0.008
 6113.00    0.61020   0.58197    0.008
 6114.00    0.63039   0.58281    0.008
 6115.00    0.66495   0.58195    0.008
 6116.00    0.67058   0.58123    0.008
 6117.00    0.63642   0.58190    0.008
 6118.00    0.60032   0.58036    0.008
 6119.00    0.56187   0.57971    0.008
 6120.00    0.52990   0.58013    0.008
 6121.00    0.50486   0.57811    0.008
 6122.00    0.48794   0.57754    0.008
 6123.00    0.47867   0.57792    0.008
 6124.00    0.48087   0.57605    0.008
 6125.00    0.49258   0.57554    0.008
 6126.00    0.51499   0.57565    0.008
 6127.00    0.54520   0.57416    0.009
 6128.00    0.56765   0.57380    0.009
 6129.00    0.58513   0.57358    0.008
 6130.00    0.60109   0.57226    0.008
 6131.00    0.61621   0.57197    0.008
 6132.00    0.62144   0.57144    0.008
 6133.00    0.62185   0.56995    0.008
 6134.00    0.60284   0.56965    0.008
 6135.00    0.57564   0.56921    0.008
 6136.00    0.57084   0.56796    0.008
 6137.00    0.57412   0.56760    0.008
 6138.00    0.59405   0.56731    0.008
 6139.00    0.61907   0.56687    0.008
 6140.00    0.59007   0.56678    0.008
 6141.00    0.54735   0.56644    0.008
 6142.00    0.55165   0.56668    0.008
 6143.00    0.56567   0.56712    0.008
 6144.00    0.55855   0.56690    0.008
 6145.00    0.54799   0.56731    0.008
 6146.00    0.53629   0.56789    0.008
 6147.00    0.52446   0.56769    0.008
 6148.00    0.52916   0.56783    0.008
 6149.00    0.53524   0.56816    0.008
 6150.00    0.54655   0.56767    0.008
 6151.00    0.55812   0.56703    0.008
 6152.00    0.51935   0.56681    0.008
 6153.00    0.48053   0.56590    0.009
 6154.00    0.48060   0.56430    0.009
 6155.00    0.48250   0.56330    0.008
 6156.00    0.52030   0.56196    0.008
 6157.00    0.55857   0.55971    0.008
 6158.00    0.60241   0.55802    0.009
 6159.00    0.64323   0.55627    0.009
 6160.00    0.65996   0.55415    0.009
 6161.00    0.66767   0.55257    0.009
 6162.00    0.62117   0.55061    0.009
 6163.00    0.57788   0.54908    0.008
 6164.00    0.54980   0.54844    0.008
 6165.00    0.52689   0.54669    0.008
 6166.00    0.52398   0.54573    0.008
 6167.00    0.51232   0.54633    0.008
 6168.00    0.47238   0.54560    0.008
 6169.00    0.44360   0.54527    0.008
 6170.00    0.44535   0.54664    0.008
 6171.00    0.44926   0.54710    0.008
 6172.00    0.45820   0.54749    0.008
 6173.00    0.46649   0.54899    0.008
 6174.00    0.47347   0.55021    0.008
 6175.00    0.49263   0.55123    0.008
 6176.00    0.53327   0.55236    0.008
 6177.00    0.55687   0.55372    0.008
 6178.00    0.55422   0.55502    0.008
 6179.00    0.55215   0.55559    0.008
 6180.00    0.55088   0.55660    0.008
 6181.00    0.55024   0.55765    0.008
 6182.00    0.55035   0.55768    0.009
 6183.00    0.54107   0.55816    0.009
 6184.00    0.52192   0.55845    0.009
 6185.00    0.50998   0.55813    0.008
 6186.00    0.50472   0.55843    0.008
 6187.00    0.51018   0.55778    0.008
 6188.00    0.52440   0.55722    0.009
 6189.00    0.52781   0.55781    0.009
 6190.00    0.52343   0.55684    0.008
 6191.00    0.51097   0.55627    0.008
 6192.00    0.49342   0.55701    0.008
 6193.00    0.53283   0.55633    0.008
 6194.00    0.60370   0.55623    0.008
 6195.00    0.78682   0.55693    0.009
 6196.00    1.02385   0.55660   -2.000
 6197.00    1.28210   0.55711   -2.000
 6198.00    1.54913   0.55783   -2.000
 6199.00    1.48114   0.55788   -2.000
 6200.00    1.29439   0.55860   -2.000
 6201.00    0.94687   0.55909   -2.000
 6202.00    0.55124   0.55933   -2.000
 6203.00    0.29884   0.55983   -2.000
 6204.00    0.08203   0.55989   -2.000
 6205.00    0.13034   0.56005   -2.000
 6206.00    0.23203   0.55991   -2.000
 6207.00    0.35631   0.55943   -2.000
 6208.00    0.48414   0.55929    0.009
 6209.00    0.49987   0.55833    0.009
 6210.00    0.50246   0.55734    0.009
 6211.00    0.49735   0.55684    0.009
 6212.00    0.49163   0.55524    0.008
 6213.00    0.47493   0.55408    0.008
 6214.00    0.45775   0.55337    0.008
 6215.00    0.45387   0.55152    0.008
 6216.00    0.45057   0.55038    0.008
 6217.00    0.46758   0.54958    0.008
 6218.00    0.48483   0.54806    0.008
 6219.00    0.50627   0.54731    0.008
 6220.00    0.52931   0.54640    0.008
 6221.00    0.57000   0.54535    0.008
 6222.00    0.60339   0.54510    0.008
 6223.00    0.58026   0.54411    0.008
 6224.00    0.55238   0.54348    0.008
 6225.00    0.49666   0.54361    0.008
 6226.00    0.44622   0.54241    0.008
 6227.00    0.42027   0.54190    0.008
 6228.00    0.40040   0.54232    0.008
 6229.00    0.40360   0.54113    0.008
 6230.00    0.41574   0.54064    0.008
 6231.00    0.45618   0.54109    0.009
 6232.00    0.48358   0.54003    0.009
 6233.00    0.47596   0.53933    0.008
 6234.00    0.47938   0.53959    0.008
 6235.00    0.50820   0.53881    0.008
 6236.00    0.52895   0.53781    0.008
 6237.00    0.53363   0.53795    0.008
 6238.00    0.52917   0.53756    0.008
 6239.00    0.50888   0.53615    0.008
 6240.00    0.49354   0.53605    0.008
 6241.00    0.48574   0.53598    0.008
 6242.00    0.48959   0.53436    0.008
 6243.00    0.50901   0.53411    0.008
 6244.00    0.52475   0.53424    0.008
 6245.00    0.53618   0.53263    0.008
 6246.00    0.53587   0.53235    0.008
 6247.00    0.52340   0.53252    0.008
 6248.00    0.51995   0.53096    0.008
 6249.00    0.52476   0.53068    0.008
 6250.00    0.53710   0.53093    0.008
 6251.00    0.55552   0.52969    0.008
 6252.00    0.56424   0.52953    0.008
 6253.00    0.56609   0.52994    0.008
 6254.00    0.54813   0.52900    0.008
 6255.00    0.51783   0.52901    0.008
 6256.00    0.50867   0.52988    0.008
 6257.00    0.51100   0.52944    0.008
 6258.00    0.54727   0.52963    0.009
 6259.00    0.59959   0.53099    0.009
 6260.00    0.67962   0.53119    0.010
 6261.00    0.77093   0.53153    0.010
 6262.00    0.72634   0.53315    0.011
 6263.00    0.63446   0.53396    0.011
 6264.00    0.46398   0.53450    0.011
 6265.00    0.27045   0.53609    0.010
 6266.00    0.24713   0.53715    0.010
 6267.00    0.26516   0.53769    0.009
 6268.00    0.31943   0.53907    0.009
 6269.00    0.38083   0.54011    0.008
 6270.00    0.42461   0.54041    0.008
 6271.00    0.46569   0.54145    0.008
 6272.00    0.49068   0.54227    0.008
 6273.00    0.51385   0.54226    0.008
 6274.00    0.51741   0.54301    0.008
 6275.00    0.51949   0.54357    0.008
 6276.00    0.54224   0.54326    0.008
 6277.00    0.56582   0.54388    0.008
 6278.00    0.52384   0.54424    0.008
 6279.00    0.48200   0.54388    0.008
 6280.00    0.46535   0.54446    0.000
 6281.00    0.45278   0.54469    0.000
 6282.00    0.50944   0.54440    0.000
 6283.00    0.56599   0.54494    0.000
 6284.00    0.62145   0.54506    0.000
 6285.00    0.66621   0.54494    0.000
 6286.00    0.63109   0.54525    0.000
 6287.00    0.59973   0.54521    0.000
 6288.00    0.58983   0.54513    0.000
 6289.00    0.58562   0.54506    0.000
 6290.00    0.60724   0.54480    0.000
 6291.00    0.62016   0.54462    0.000
 6292.00    0.60081   0.54411    0.000
 6293.00    0.58876   0.54363    0.000
 6294.00    0.59936   0.54323    0.000
 6295.00    0.60830   0.54239    0.000
 6296.00    0.61289   0.54190    0.000
 6297.00    0.61881   0.54144    0.000
 6298.00    0.62773   0.54043    0.000
 6299.00    0.63582   0.54007    0.000
 6300.00    0.64224   0.53984    0.000
 6301.00    0.63874   0.53899    0.000
 6302.00    0.61826   0.53877    0.000
 6303.00    0.59918   0.53887    0.000
 6304.00    0.58222   0.53830    0.000
 6305.00    0.55502   0.53815    0.000
 6306.00    0.51435   0.53853    0.000
 6307.00    0.47481   0.53818    0.000
 6308.00    0.43660   0.53780    0.000
 6309.00    0.41842   0.53833    0.000
 6310.00    0.42071   0.53815    0.000
 6311.00    0.44971   0.53734    0.000
 6312.00    0.50278   0.53777    0.000
 6313.00    0.52150   0.53779    0.000
 6314.00    0.51291   0.53671    0.000
 6315.00    0.50009   0.53697    0.000
 6316.00    0.48431   0.53724    0.000
 6317.00    0.47205   0.53623    0.000
 6318.00    0.46194   0.53649    0.000
 6319.00    0.45424   0.53706    0.000
 6320.00    0.44784   0.53638    0.000
 6321.00    0.44969   0.53677    0.008
 6322.00    0.45537   0.53766    0.008
 6323.00    0.47430   0.53735    0.008
 6324.00    0.49854   0.53785    0.008
 6325.00    0.48417   0.53884    0.008
 6326.00    0.45660   0.53873    0.008
 6327.00    0.41187   0.53922    0.008
 6328.00    0.36221   0.53994    0.008
 6329.00    0.34605   0.53968    0.008
 6330.00    0.33785   0.54003    0.008
 6331.00    0.38086   0.54035    0.008
 6332.00    0.43366   0.53975    0.008
 6333.00    0.47512   0.53990    0.008
 6334.00    0.51489   0.53981    0.008
 6335.00    0.50552   0.53898    0.008
 6336.00    0.49083   0.53896    0.008
 6337.00    0.51074   0.53855    0.008
 6338.00    0.53311   0.53776    0.008
 6339.00    0.54625   0.53778    0.008
 6340.00    0.55906   0.53721    0.008
 6341.00    0.55198   0.53667    0.008
 6342.00    0.54433   0.53683    0.008
 6343.00    0.51941   0.53626    0.008
 6344.00    0.49288   0.53603    0.008
 6345.00    0.44062   0.53624    0.008
 6346.00    0.39540   0.53572    0.008
 6347.00    0.42099   0.53569    0.008
 6348.00    0.44586   0.53573    0.008
 6349.00    0.46558   0.53520    0.008
 6350.00    0.47889   0.53522    0.008
 6351.00    0.45673   0.53489    0.008
 6352.00    0.44392   0.53422    0.008
 6353.00    0.47250   0.53412    0.008
 6354.00    0.49242   0.53339    0.008
 6355.00    0.48083   0.53257    0.008
 6356.00    0.46183   0.53232    0.008
 6357.00    0.42022   0.53136    0.008
 6358.00    0.40047   0.53055    0.008
 6359.00    0.43735   0.53033    0.008
 6360.00    0.46636   0.52947    0.008
 6361.00    0.47785   0.52891    0.008
 6362.00    0.47619   0.52897    0.008
 6363.00    0.44911   0.52857    0.008
 6364.00    0.42778   0.52846    0.008
 6365.00    0.41616   0.52893    0.008
 6366.00    0.41798   0.52916    0.008
 6367.00    0.43964   0.52956    0.008
 6368.00    0.46720   0.53033    0.008
 6369.00    0.50242   0.53106    0.008
 6370.00    0.53551   0.53184    0.008
 6371.00    0.56617   0.53266    0.008
 6372.00    0.58136   0.53360    0.008
 6373.00    0.58098   0.53450    0.008
 6374.00    0.54625   0.53507    0.008
 6375.00    0.48098   0.53592    0.008
 6376.00    0.41041   0.53675    0.008
 6377.00    0.33568   0.53690    0.008
 6378.00    0.32104   0.53746    0.008
 6379.00    0.34777   0.53812    0.008
 6380.00    0.37516   0.53783    0.008
 6381.00    0.40295   0.53806    0.008
 6382.00    0.45103   0.53857    0.008
 6383.00    0.50980   0.53789    0.008
 6384.00    0.55311   0.53781    0.008
 6385.00    0.58934   0.53823    0.008
 6386.00    0.56399   0.53729    0.008
 6387.00    0.51439   0.53691    0.008
 6388.00    0.47229   0.53733    0.008
 6389.00    0.43271   0.53620    0.008
 6390.00    0.43041   0.53552    0.008
 6391.00    0.43861   0.53605    0.008
 6392.00    0.44349   0.53487    0.008
 6393.00    0.44761   0.53394    0.008
 6394.00    0.45177   0.53466    0.009
 6395.00    0.45593   0.53356    0.009
 6396.00    0.45202   0.53249    0.008
 6397.00    0.44695   0.53345    0.008
 6398.00    0.44069   0.53252    0.008
 6399.00    0.43430   0.53146    0.008
 6400.00    0.47022   0.53260    0.008
 6401.00    0.50898   0.53184    0.008
 6402.00    0.53362   0.53092    0.008
 6403.00    0.55779   0.53212    0.008
 6404.00    0.55304   0.53135    0.008
 6405.00    0.54830   0.53066    0.008
 6406.00    0.54425   0.53180    0.008
 6407.00    0.53767   0.53088    0.008
 6408.00    0.49317   0.53039    0.008
 6409.00    0.45245   0.53144    0.008
 6410.00    0.44812   0.53034    0.008
 6411.00    0.44729   0.52999    0.008
 6412.00    0.47100   0.53098    0.008
 6413.00    0.48826   0.52986    0.008
 6414.00    0.47087   0.52958    0.008
 6415.00    0.46583   0.53054    0.008
 6416.00    0.51419   0.52966    0.008
 6417.00    0.55182   0.52943    0.008
 6418.00    0.55125   0.53035    0.008
 6419.00    0.55252   0.52991    0.008
 6420.00    0.55933   0.52970    0.008
 6421.00    0.56160   0.53050    0.008
 6422.00    0.55230   0.53055    0.008
 6423.00    0.53854   0.53032    0.008
 6424.00    0.51499   0.53091    0.008
 6425.00    0.50082   0.53131    0.008
 6426.00    0.50448   0.53101    0.008
 6427.00    0.50287   0.53135    0.008
 6428.00    0.49254   0.53190    0.008
 6429.00    0.48326   0.53148    0.008
 6430.00    0.47551   0.53163    0.008
 6431.00    0.46252   0.53218    0.008
 6432.00    0.44284   0.53166    0.008
 6433.00    0.42910   0.53175    0.008
 6434.00    0.42205   0.53226    0.008
 6435.00    0.42929   0.53168    0.008
 6436.00    0.45073   0.53184    0.008
 6437.00    0.46478   0.53230    0.008
 6438.00    0.47236   0.53176    0.008
 6439.00    0.49338   0.53195    0.008
 6440.00    0.52477   0.53230    0.008
 6441.00    0.53759   0.53186    0.008
 6442.00    0.53780   0.53189    0.008
 6443.00    0.53563   0.53200    0.008
 6444.00    0.53203   0.53171    0.008
 6445.00    0.53767   0.53141    0.008
 6446.00    0.54811   0.53108    0.008
 6447.00    0.57015   0.53102    0.008
 6448.00    0.59741   0.53039    0.008
 6449.00    0.57910   0.52956    0.008
 6450.00    0.54316   0.52977    0.008
 6451.00    0.52066   0.52909    0.008
 6452.00    0.50258   0.52781    0.008
 6453.00    0.51025   0.52828    0.008
 6454.00    0.52501   0.52793    0.008
 6455.00    0.54269   0.52638    0.008
 6456.00    0.56104   0.52699    0.008
 6457.00    0.57093   0.52725    0.008
 6458.00    0.57930   0.52565    0.008
 6459.00    0.53168   0.52618    0.008
 6460.00    0.47628   0.52712    0.008
 6461.00    0.40979   0.52565    0.008
 6462.00    0.34219   0.52591    0.008
 6463.00    0.37197   0.52738    0.008
 6464.00    0.40790   0.52618    0.008
 6465.00    0.44698   0.52602    0.008
 6466.00    0.48608   0.52776    0.008
 6467.00    0.50272   0.52690    0.008
 6468.00    0.52047   0.52631    0.008
 6469.00    0.56895   0.52797    0.008
 6470.00    0.61520   0.52746    0.008
 6471.00    0.63005   0.52650    0.008
 6472.00    0.63792   0.52778    0.008
 6473.00    0.58119   0.52755    0.008
 6474.00    0.53015   0.52631    0.008
 6475.00    0.51763   0.52699    0.008
 6476.00    0.51532   0.52690    0.008
 6477.00    0.56659   0.52550    0.008
 6478.00    0.60619   0.52546    0.008
 6479.00    0.59656   0.52534    0.008
 6480.00    0.58235   0.52384    0.008
 6481.00    0.55214   0.52305    0.008
 6482.00    0.53351   0.52272    0.008
 6483.00    0.54883   0.52114    0.008
 6484.00    0.57494   0.51965    0.008
 6485.00    0.62802   0.51896    0.008
 6486.00    0.65887   0.51726    0.008
 6487.00    0.64181   0.51519    0.008
 6488.00    0.61313   0.51416    0.008
 6489.00    0.56273   0.51237    0.008
 6490.00    0.50973   0.50998    0.008
 6491.00    0.45250   0.50886    0.008
 6492.00    0.41479   0.50722    0.008
 6493.00    0.40505   0.50497    0.008
 6494.00    0.40430   0.50422    0.008
 6495.00    0.41488   0.50310    0.008
 6496.00    0.43095   0.50153    0.008
 6497.00    0.45313   0.50160    0.008
 6498.00    0.46414   0.50132    0.008
 6499.00    0.46423   0.50078    0.008
 6500.00    0.47585   0.50182    0.008
 6501.00    0.49744   0.50242    0.008
 6502.00    0.50817   0.50285    0.008
 6503.00    0.51064   0.50460    0.008
 6504.00    0.50502   0.50575    0.008
 6505.00    0.49398   0.50668    0.008
 6506.00    0.48460   0.50861    0.008
 6507.00    0.47619   0.50983    0.008
 6508.00    0.47867   0.51070    0.008
 6509.00    0.48672   0.51226    0.008
 6510.00    0.49330   0.51320    0.008
 6511.00    0.49924   0.51363    0.008
 6512.00    0.50257   0.51456    0.008
 6513.00    0.50492   0.51514    0.008
 6514.00    0.54834   0.51510    0.008
 6515.00    0.60502   0.51542    0.008
 6516.00    0.61774   0.51575    0.008
 6517.00    0.61860   0.51546    0.008
 6518.00    0.60152   0.51540    0.008
 6519.00    0.58047   0.51562    0.008
 6520.00    0.58134   0.51531    0.008
 6521.00    0.58608   0.51511    0.008
 6522.00    0.62282   0.51528    0.008
 6523.00    0.66387   0.51508    0.008
 6524.00    0.64117   0.51490    0.008
 6525.00    0.61238   0.51500    0.008
 6526.00    0.56218   0.51486    0.008
 6527.00    0.51073   0.51473    0.008
 6528.00    0.51672   0.51472    0.000
 6529.00    0.52405   0.51455    0.000
 6530.00    0.51608   0.51437    0.000
 6531.00    0.50758   0.51424    0.000
 6532.00    0.48534   0.51393    0.000
 6533.00    0.46470   0.51358    0.000
 6534.00    0.46540   0.51329    0.000
 6535.00    0.46708   0.51277    0.000
 6536.00    0.47740   0.51208    0.000
 6537.00    0.48665   0.51153    0.000
 6538.00    0.48887   0.51072    0.000
 6539.00    0.49986   0.50951    0.000
 6540.00    0.55566   0.50858    0.000
 6541.00    0.61244   0.50733    0.000
 6542.00    0.67322   0.50547    0.000
 6543.00    0.72394   0.50398    0.000
 6544.00    0.74023   0.50219    0.000
 6545.00    0.74803   0.49957    0.000
 6546.00    0.73134   0.49732    0.000
 6547.00    0.70284   0.49488    0.000
 6548.00    0.64526   0.49148    0.000
 6549.00    0.60091   0.48827    0.000
 6550.00    0.58463   0.48510    0.000
 6551.00    0.57733   0.48103    0.000
 6552.00    0.58654   0.47673    0.000
 6553.00    0.59586   0.47285    0.000
 6554.00    0.60534   0.46852    0.000
 6555.00    0.68849   0.46331    0.000
 6556.00    0.87566   0.45894    0.000
 6557.00    1.11460   0.45515    0.000
 6558.00    1.41785   0.44972    0.000
 6559.00    1.60280   0.44538    0.000
 6560.00    1.65819   0.44316    0.000
 6561.00    1.58279   0.43871    0.000
 6562.00    1.38104   0.43517    0.000
 6563.00    1.13313   0.43538    0.000
 6564.00    0.84590   0.43314    0.000
 6565.00    0.66526   0.43106    0.000
 6566.00    0.56458   0.43384    0.000
 6567.00    0.51979   0.43445    0.000
 6568.00    0.51185   0.43413    0.000
 6569.00    0.49101   0.43880    0.000
 6570.00    0.46272   0.44189    0.000
 6571.00    0.44307   0.44309    0.000
 6572.00    0.42776   0.44849    0.000
 6573.00    0.45420   0.45292    0.000
 6574.00    0.49879   0.45504    0.000
 6575.00    0.56957   0.46011    0.000
 6576.00    0.65012   0.46464    0.000
 6577.00    0.74631   0.46696    0.000
 6578.00    0.84744   0.47108    0.000
 6579.00    0.93891   0.47485    0.000
 6580.00    1.02782   0.47689    0.000
 6581.00    1.01511   0.47991    0.000
 6582.00    0.98043   0.48251    0.000
 6583.00    0.85182   0.48394    0.000
 6584.00    0.70709   0.48606    0.000
 6585.00    0.59738   0.48756    0.000
 6586.00    0.49221   0.48831    0.000
 6587.00    0.46234   0.48980    0.000
 6588.00    0.43934   0.49050    0.000
 6589.00    0.44945   0.49064    0.000
 6590.00    0.46139   0.49173    0.000
 6591.00    0.49351   0.49201    0.000
 6592.00    0.52572   0.49174    0.000
 6593.00    0.52554   0.49265    0.000
 6594.00    0.52558   0.49285    0.000
 6595.00    0.53085   0.49241    0.000
 6596.00    0.53427   0.49325    0.000
 6597.00    0.51427   0.49357    0.000
 6598.00    0.49343   0.49317    0.000
 6599.00    0.46545   0.49394    0.000
 6600.00    0.44163   0.49444    0.000
 6601.00    0.44423   0.49417    0.000
 6602.00    0.45053   0.49481    0.000
 6603.00    0.47528   0.49538    0.000
 6604.00    0.49930   0.49530    0.000
 6605.00    0.52039   0.49578    0.000
 6606.00    0.52625   0.49631    0.000
 6607.00    0.48106   0.49643    0.000
 6608.00    0.45048   0.49679    0.000
 6609.00    0.46118   0.49723    0.008
 6610.00    0.47647   0.49750    0.008
 6611.00    0.50280   0.49781    0.008
 6612.00    0.51101   0.49817    0.008
 6613.00    0.48142   0.49852    0.008
 6614.00    0.44451   0.49879    0.008
 6615.00    0.39433   0.49907    0.008
 6616.00    0.36961   0.49938    0.008
 6617.00    0.38527   0.49953    0.008
 6618.00    0.40495   0.49967    0.008
 6619.00    0.43022   0.49983    0.008
 6620.00    0.46148   0.49977    0.008
 6621.00    0.50011   0.49967    0.008
 6622.00    0.52957   0.49962    0.008
 6623.00    0.54913   0.49922    0.008
 6624.00    0.54253   0.49889    0.008
 6625.00    0.51100   0.49873    0.008
 6626.00    0.47741   0.49801    0.008
 6627.00    0.44209   0.49740    0.008
 6628.00    0.43925   0.49733    0.008
 6629.00    0.46043   0.49647    0.008
 6630.00    0.46947   0.49565    0.008
 6631.00    0.47064   0.49575    0.008
 6632.00    0.48336   0.49499    0.008
 6633.00    0.50264   0.49404    0.008
 6634.00    0.52230   0.49439    0.008
 6635.00    0.54215   0.49393    0.008
 6636.00    0.55559   0.49297    0.008
 6637.00    0.56628   0.49347    0.008
 6638.00    0.54173   0.49337    0.008
 6639.00    0.50426   0.49245    0.008
 6640.00    0.47908   0.49299    0.008
 6641.00    0.45773   0.49327    0.008
 6642.00    0.45175   0.49243    0.008
 6643.00    0.44975   0.49281    0.007
 6644.00    0.45534   0.49337    0.007
 6645.00    0.46252   0.49272    0.007
 6646.00    0.46255   0.49278    0.008
 6647.00    0.46138   0.49337    0.008
 6648.00    0.44226   0.49297    0.008
 6649.00    0.42087   0.49269    0.008
 6650.00    0.44882   0.49309    0.008
 6651.00    0.48107   0.49300    0.008
 6652.00    0.49753   0.49246    0.008
 6653.00    0.51319   0.49243    0.008
 6654.00    0.55934   0.49258    0.008
 6655.00    0.60544   0.49198    0.008
 6656.00    0.60954   0.49147    0.008
 6657.00    0.61038   0.49164    0.008
 6658.00    0.54252   0.49112    0.008
 6659.00    0.47529   0.49030    0.008
 6660.00    0.41560   0.49038    0.008
 6661.00    0.36440   0.49005    0.008
 6662.00    0.38332   0.48910    0.008
 6663.00    0.40587   0.48908    0.008
 6664.00    0.45094   0.48899    0.008
 6665.00    0.49192   0.48812    0.008
 6666.00    0.51311   0.48800    0.008
 6667.00    0.52882   0.48808    0.008
 6668.00    0.52294   0.48740    0.008
 6669.00    0.51832   0.48728    0.008
 6670.00    0.51780   0.48737    0.008
 6671.00    0.50545   0.48687    0.008
 6672.00    0.46027   0.48688    0.008
 6673.00    0.42808   0.48680    0.008
 6674.00    0.42675   0.48633    0.008
 6675.00    0.43851   0.48658    0.008
 6676.00    0.47715   0.48638    0.008
 6677.00    0.49272   0.48576    0.008
 6678.00    0.46710   0.48623    0.008
 6679.00    0.44347   0.48613    0.008
 6680.00    0.42295   0.48539    0.008
 6681.00    0.41677   0.48599    0.008
 6682.00    0.43026   0.48611    0.008
 6683.00    0.46308   0.48534    0.008
 6684.00    0.51922   0.48589    0.008
 6685.00    0.55498   0.48631    0.008
 6686.00    0.56901   0.48577    0.008
 6687.00    0.56693   0.48610    0.008
 6688.00    0.54970   0.48647    0.008
 6689.00    0.52134   0.48615    0.008
 6690.00    0.48378   0.48631    0.008
 6691.00    0.47093   0.48645    0.008
 6692.00    0.47610   0.48616    0.008
 6693.00    0.47062   0.48621    0.008
 6694.00    0.45832   0.48612    0.008
 6695.00    0.46401   0.48573    0.008
 6696.00    0.47977   0.48573    0.000
 6697.00    0.51828   0.48551    0.000
 6698.00    0.56787   0.48495    0.000
 6699.00    0.58366   0.48493    0.000
 6700.00    0.58524   0.48466    0.000
 6701.00    0.54247   0.48399    0.000
 6702.00    0.48373   0.48390    0.000
 6703.00    0.46620   0.48358    0.000
 6704.00    0.46123   0.48295    0.000
 6705.00    0.46032   0.48281    0.000
 6706.00    0.46044   0.48230    0.000
 6707.00    0.50432   0.48168    0.000
 6708.00    0.55721   0.48149    0.000
 6709.00    0.62536   0.48078    0.000
 6710.00    0.69598   0.48007    0.000
 6711.00    0.71331   0.47994    0.000
 6712.00    0.72418   0.47922    0.000
 6713.00    0.73366   0.47843    0.000
 6714.00    0.74303   0.47832    0.000
 6715.00    0.74877   0.47776    0.000
 6716.00    0.75434   0.47703    0.000
 6717.00    0.65324   0.47697    0.000
 6718.00    0.55211   0.47677    0.000
 6719.00    0.53409   0.47624    0.000
 6720.00    0.51729   0.47625    0.000
 6721.00    0.52420   0.47645    0.000
 6722.00    0.53262   0.47622    0.000
 6723.00    0.55854   0.47631    0.000
 6724.00    0.59339   0.47679    0.000
 6725.00    0.69940   0.47688    0.000
 6726.00    0.78659   0.47709    0.000
 6727.00    0.76092   0.47751    0.000
 6728.00    0.72978   0.47763    0.000
 6729.00    0.67270   0.47788    0.000
 6730.00    0.62115   0.47826    0.000
 6731.00    0.59099   0.47823    0.000
 6732.00    0.56697   0.47826    0.000
 6733.00    0.56272   0.47852    0.000
 6734.00    0.55476   0.47839    0.000
 6735.00    0.53667   0.47813    0.000
 6736.00    0.52174   0.47813    0.000
 6737.00    0.51420   0.47793    0.000
 6738.00    0.49740   0.47744    0.000
 6739.00    0.46190   0.47715    0.000
 6740.00    0.43720   0.47695    0.000
 6741.00    0.43153   0.47641    0.000
 6742.00    0.44133   0.47586    0.000
 6743.00    0.47498   0.47570    0.000
 6744.00    0.50152   0.47530    0.000
 6745.00    0.51846   0.47458    0.000
 6746.00    0.51169   0.47449    0.000
 6747.00    0.47671   0.47446    0.000
 6748.00    0.46885   0.47374    0.000
 6749.00    0.48945   0.47360    0.000
 6750.00    0.49144   0.47399    0.000
 6751.00    0.47619   0.47355    0.000
 6752.00    0.44974   0.47332    0.000
 6753.00    0.41415   0.47398    0.008
 6754.00    0.40701   0.47394    0.009
 6755.00    0.42031   0.47368    0.009
 6756.00    0.44796   0.47442    0.009
 6757.00    0.48466   0.47471    0.009
 6758.00    0.51336   0.47450    0.009
 6759.00    0.53766   0.47512    0.009
 6760.00    0.53421   0.47550    0.009
 6761.00    0.51746   0.47539    0.010
 6762.00    0.45846   0.47584    0.010
 6763.00    0.38199   0.47609    0.010
 6764.00    0.40220   0.47597    0.010
 6765.00    0.45659   0.47634    0.010
 6766.00    0.50309   0.47641    0.010
 6767.00    0.54724   0.47617    0.009
 6768.00    0.53282   0.47654    0.009
 6769.00    0.50390   0.47653    0.009
 6770.00    0.49243   0.47612    0.009
 6771.00    0.48447   0.47651    0.009
 6772.00    0.53315   0.47657    0.009
 6773.00    0.59073   0.47599    0.009
 6774.00    0.58955   0.47627    0.008
 6775.00    0.58151   0.47651    0.008
 6776.00    0.52984   0.47587    0.008
 6777.00    0.47472   0.47585    0.008
 6778.00    0.44058   0.47615    0.008
 6779.00    0.40735   0.47551    0.009
 6780.00    0.39931   0.47517    0.009
 6781.00    0.39160   0.47547    0.009
 6782.00    0.38679   0.47484    0.009
 6783.00    0.38314   0.47420    0.009
 6784.00    0.40044   0.47450    0.009
 6785.00    0.42072   0.47395    0.009
 6786.00    0.47347   0.47315    0.009
 6787.00    0.52397   0.47345    0.009
 6788.00    0.55710   0.47313    0.009
 6789.00    0.59229   0.47229    0.009
 6790.00    0.63945   0.47263    0.009
 6791.00    0.66347   0.47265    0.009
 6792.00    0.58050   0.47189    0.009
 6793.00    0.51504   0.47213    0.009
 6794.00    0.51578   0.47247    0.009
 6795.00    0.52645   0.47189    0.009
 6796.00    0.56850   0.47190    0.008
 6797.00    0.61009   0.47240    0.008
 6798.00    0.65042   0.47211    0.008
 6799.00    0.67223   0.47194    0.008
 6800.00    0.65150   0.47232    0.009
 6801.00    0.63643   0.47234    0.009
 6802.00    0.63263   0.47209    0.008
 6803.00    0.60761   0.47217    0.008
 6804.00    0.54587   0.47242    0.009
 6805.00    0.48525   0.47219    0.009
 6806.00    0.42634   0.47191    0.009
 6807.00    0.43285   0.47230    0.008
 6808.00    0.52656   0.47217    0.009
 6809.00    0.58934   0.47167    0.009
 6810.00    0.61580   0.47202    0.009
 6811.00    0.60762   0.47203    0.009
 6812.00    0.56358   0.47155    0.009
 6813.00    0.54639   0.47176    0.009
 6814.00    0.55371   0.47184    0.009
 6815.00    0.53748   0.47160    0.009
 6816.00    0.50228   0.47167    0.009
 6817.00    0.48181   0.47169    0.009
 6818.00    0.47176   0.47169    0.008
 6819.00    0.50256   0.47179    0.008
 6820.00    0.55875   0.47173    0.008
 6821.00    0.55481   0.47178    0.008
 6822.00    0.51823   0.47185    0.008
 6823.00    0.51423   0.47178    0.008
 6824.00    0.52560   0.47175    0.008
 6825.00    0.50835   0.47178    0.008
 6826.00    0.47948   0.47168    0.008
 6827.00    0.48485   0.47143    0.009
 6828.00    0.50211   0.47139    0.009
 6829.00    0.48407   0.47123    0.009
 6830.00    0.45571   0.47074    0.009
 6831.00    0.47277   0.47050    0.009
 6832.00    0.50084   0.47028    0.009
 6833.00    0.52643   0.46977    0.009
 6834.00    0.55154   0.46930    0.009
 6835.00    0.57556   0.46890    0.009
 6836.00    0.59941   0.46847    0.009
 6837.00    0.60813   0.46794    0.009
 6838.00    0.61514   0.46742    0.009
 6839.00    0.48512   0.46705    0.009
 6840.00    0.34486   0.46656    0.009
 6841.00    0.33895   0.46604    0.009
 6842.00    0.33838   0.46583    0.009
 6843.00    0.38282   0.46546    0.009
 6844.00    0.42837   0.46500    0.008
 6845.00    0.50577   0.46494    0.008
 6846.00    0.57671   0.46487    0.008
 6847.00    0.53851   0.46450    0.008
 6848.00    0.50639   0.46443    0.008
 6849.00    0.53785   0.46460    0.008
 6850.00    0.56282   0.46427    0.009
 6851.00    0.53963   0.46401    0.009
 6852.00    0.52492   0.46437    0.009
 6853.00    0.55830   0.46407    0.009
 6854.00    0.58459   0.46345    0.009
 6855.00    0.57886   0.46394    0.009
 6856.00    0.57633   0.46388    0.008
 6857.00    0.58566   0.46279    0.008
 6858.00    0.58959   0.46318    0.008
 6859.00    0.57682   0.46357    0.008
 6860.00    0.57422   0.46237    0.008
 6861.00    0.59837   0.46241    0.008
 6862.00    0.61851   0.46320    0.008
 6863.00    0.62959   0.46226    0.008
 6864.00    0.62122   0.46182    0.008
 6865.00    0.57476   0.46277    0.008
 6866.00    0.52529   0.46245    0.008
 6867.00    0.47071   0.46169    0.008
 6868.00    0.44367   0.46241    0.008
 6869.00    0.45780   0.46262    0.009
 6870.00    0.47666   0.46183    0.009
 6871.00    0.50176   0.46217    0.009
 6872.00    0.51556   0.46269    0.009
 6873.00    0.51630   0.46230    0.009
 6874.00    0.51892   0.46224    0.009
 6875.00    0.52347   0.46259    0.009
 6876.00    0.53898   0.46274    0.009
 6877.00    0.56434   0.46271    0.009
 6878.00    0.56490   0.46263    0.008
 6879.00    0.54577   0.46298    0.008
 6880.00    0.52193   0.46343    0.008
 6881.00    0.49478   0.46311    0.008
 6882.00    0.47654   0.46318    0.008
 6883.00    0.46375   0.46414    0.008
 6884.00    0.45515   0.46399    0.008
 6885.00    0.44880   0.46351    0.008
 6886.00    0.46395   0.46477    0.008
 6887.00    0.48907   0.46526    0.008
 6888.00    0.50458   0.46433    0.008
 6889.00    0.51624   0.46535    0.008
 6890.00    0.51689   0.46651    0.008
 6891.00    0.51377   0.46561    0.008
 6892.00    0.50971   0.46599    0.008
 6893.00    0.50538   0.46750    0.009
 6894.00    0.48813   0.46701    0.009
 6895.00    0.46783   0.46670    0.009
 6896.00    0.44352   0.46808    0.009
 6897.00    0.41846   0.46819    0.008
 6898.00    0.45176   0.46752    0.009
 6899.00    0.49368   0.46833    0.009
 6900.00    0.49763   0.46887    0.009
 6901.00    0.49748   0.46835    0.008
 6902.00    0.45663   0.46848    0.008
 6903.00    0.41289   0.46894    0.008
 6904.00    0.40960   0.46878    0.008
 6905.00    0.40777   0.46865    0.008
 6906.00    0.47632   0.46870    0.008
 6907.00    0.54310   0.46859    0.008
 6908.00    0.53999   0.46845    0.008
 6909.00    0.53556   0.46831    0.008
 6910.00    0.51021   0.46798    0.008
 6911.00    0.48546   0.46782    0.008
 6912.00    0.46656   0.46765    0.008
 6913.00    0.45011   0.46706    0.008
 6914.00    0.45129   0.46692    0.008
 6915.00    0.45053   0.46680    0.008
 6916.00    0.43906   0.46604    0.008
 6917.00    0.43042   0.46588    0.009
 6918.00    0.43420   0.46594    0.009
 6919.00    0.43624   0.46527    0.009
 6920.00    0.43195   0.46499    0.009
 6921.00    0.42889   0.46517    0.009
 6922.00    0.42954   0.46476    0.008
 6923.00    0.42958   0.46444    0.008
 6924.00    0.42801   0.46464    0.008
 6925.00    0.41907   0.46440    0.008
 6926.00    0.39378   0.46410    0.008
 6927.00    0.38989   0.46426    0.008
 6928.00    0.42723   0.46411    0.008
 6929.00    0.45722   0.46398    0.008
 6930.00    0.47486   0.46425    0.008
 6931.00    0.50864   0.46410    0.008
 6932.00    0.56620   0.46391    0.009
 6933.00    0.58520   0.46421    0.009
 6934.00    0.55428   0.46417    0.009
 6935.00    0.53836   0.46383    0.009
 6936.00    0.53957   0.46401    0.009
 6937.00    0.55437   0.46413    0.009
 6938.00    0.58285   0.46378    0.009
 6939.00    0.60726   0.46380    0.009
 6940.00    0.62807   0.46384    0.009
 6941.00    0.59809   0.46347    0.009
 6942.00    0.52840   0.46348    0.009
 6943.00    0.49981   0.46350    0.009
 6944.00    0.49947   0.46301    0.009
 6945.00    0.50225   0.46305    0.009
 6946.00    0.50691   0.46314    0.008
 6947.00    0.52118   0.46250    0.008
 6948.00    0.54051   0.46259    0.008
 6949.00    0.57645   0.46293    0.008
 6950.00    0.61997   0.46239    0.008
 6951.00    0.59135   0.46243    0.008
 6952.00    0.53438   0.46291    0.008
 6953.00    0.49168   0.46255    0.008
 6954.00    0.45375   0.46248    0.008
 6955.00    0.42579   0.46301    0.009
 6956.00    0.40063   0.46305    0.009
 6957.00    0.36207   0.46293    0.009
 6958.00    0.32041   0.46334    0.009
 6959.00    0.35702   0.46370    0.009
 6960.00    0.40816   0.46359    0.009
 6961.00    0.41690   0.46375    0.009
 6962.00    0.41957   0.46410    0.009
 6963.00    0.44676   0.46413    0.009
 6964.00    0.47649   0.46403    0.009
 6965.00    0.46610   0.46412    0.009
 6966.00    0.45304   0.46424    0.008
 6967.00    0.46761   0.46391    0.009
 6968.00    0.48307   0.46356    0.009
 6969.00    0.45043   0.46368    0.008
 6970.00    0.41867   0.46330    0.008
 6971.00    0.41379   0.46267    0.008
 6972.00    0.41035   0.46269    0.009
 6973.00    0.42817   0.46222    0.009
 6974.00    0.45015   0.46137    0.009
 6975.00    0.51215   0.46136    0.009
 6976.00    0.56135   0.46124    0.009
 6977.00    0.52145   0.46030    0.009
 6978.00    0.47292   0.46000    0.009
 6979.00    0.37807   0.46039    0.009
 6980.00    0.31660   0.45977    0.009
 6981.00    0.39886   0.45921    0.009
 6982.00    0.46353   0.46000    0.009
 6983.00    0.46571   0.46016    0.009
 6984.00    0.45559   0.45973    0.009
 6985.00    0.40881   0.46030    0.009
 6986.00    0.38361   0.46085    0.009
 6987.00    0.41322   0.46071    0.009
 6988.00    0.43485   0.46090    0.009
 6989.00    0.43901   0.46148    0.009
 6990.00    0.42296   0.46162    0.009
 6991.00    0.36857   0.46153    0.008
 6992.00    0.35305   0.46185    0.008
 6993.00    0.40190   0.46202    0.008
 6994.00    0.44884   0.46191    0.008
 6995.00    0.49300   0.46190    0.008
 6996.00    0.51815   0.46180    0.009
 6997.00    0.51903   0.46167    0.009
 6998.00    0.52858   0.46147    0.009
 6999.00    0.54790   0.46114    0.009
 7000.00    0.55747   0.46095    0.009
 7001.00    0.55740   0.46060    0.009
 7002.00    0.55644   0.46002    0.009
 7003.00    0.55472   0.45977    0.009
 7004.00    0.61055   0.45968    0.009
 7005.00    0.71075   0.45910    0.011
 7006.00    0.73966   0.45852    0.011
 7007.00    0.72026   0.45849    0.011
 7008.00    0.69822   0.45818    0.011
 7009.00    0.67461   0.45759    0.011
 7010.00    0.64546   0.45758    0.010
 7011.00    0.61344   0.45747    0.010
 7012.00    0.54831   0.45685    0.009
 7013.00    0.46832   0.45672    0.009
 7014.00    0.48658   0.45674    0.009
 7015.00    0.54276   0.45618    0.009
 7016.00    0.46723   0.45609    0.011
 7017.00    0.34847   0.45634    0.014
 7018.00    0.38616   0.45569    0.015
 7019.00    0.46689   0.45533    0.016
 7020.00    0.63231   0.45597    0.016
 7021.00    0.81689   0.45592    0.017
 7022.00    0.76624   0.45547    0.014
 7023.00    0.67309   0.45587    0.012
 7024.00    0.56616   0.45613    0.010
 7025.00    0.45733   0.45583    0.009
 7026.00    0.49863   0.45594    0.009
 7027.00    0.55484   0.45630    0.009
 7028.00    0.57620   0.45651    0.009
 7029.00    0.59538   0.45679    0.009
 7030.00    0.50038   0.45704    0.009
 7031.00    0.40269   0.45734    0.009
 7032.00    0.44848   0.45791    0.009
 7033.00    0.49407   0.45821    0.009
 7034.00    0.53413   0.45836    0.009
 7035.00    0.56823   0.45916    0.009
 7036.00    0.51841   0.45966    0.009
 7037.00    0.47273   0.45949    0.009
 7038.00    0.46519   0.46027    0.009
 7039.00    0.45983   0.46121    0.009
 7040.00    0.46917   0.46079    0.009
 7041.00    0.47689   0.46093    0.009
 7042.00    0.47615   0.46211    0.009
 7043.00    0.47517   0.46209    0.009
 7044.00    0.47312   0.46163    0.009
 7045.00    0.47088   0.46216    0.009
 7046.00    0.46794   0.46214    0.009
 7047.00    0.46116   0.46131    0.009
 7048.00    0.44311   0.46100    0.009
 7049.00    0.42753   0.46078    0.009
 7050.00    0.41812   0.46001   -2.000
 7051.00    0.40325   0.45903   -2.000
 7052.00    0.37665   0.45821   -2.000
 7053.00    0.36102   0.45737   -2.000
 7054.00    0.36588   0.45609   -2.000
 7055.00    0.40870   0.45471   -2.000
 7056.00    0.51346   0.45376   -2.000
 7057.00    0.54702   0.45270   -2.000
 7058.00    0.47874   0.45128   -2.000
 7059.00    0.43321   0.45024   -2.000
 7060.00    0.41631   0.44955   -2.000
 7061.00    0.37490   0.44830   -2.000
 7062.00    0.30631   0.44708   -2.000
 7063.00    0.26691   0.44674   -2.000
 7064.00    0.25605   0.44608   -2.000
 7065.00    0.34893   0.44502   -2.000
 7066.00    0.53129   0.44483   -2.000
 7067.00    0.56492   0.44461   -2.000
 7068.00    0.48554   0.44376   -2.000
 7069.00    0.45220   0.44355   -2.000
 7070.00    0.44960   0.44347   -2.000
 7071.00    0.49741   0.44289   -2.000
 7072.00    0.57470   0.44281   -2.000
 7073.00    0.54524   0.44287   -2.000
 7074.00    0.46136   0.44235   -2.000
 7075.00    0.45914   0.44195   -2.000
 7076.00    0.49297   0.44175   -2.000
 7077.00    0.51221   0.44125   -2.000
 7078.00    0.52592   0.44065   -2.000
 7079.00    0.48333   0.44001   -2.000
 7080.00    0.42261   0.43932   -2.000
 7081.00    0.40836   0.43860   -2.000
 7082.00    0.40663   0.43764   -2.000
 7083.00    0.33949   0.43657   -2.000
 7084.00    0.25791   0.43574   -2.000
 7085.00    0.33395   0.43476   -2.000
 7086.00    0.43770   0.43322   -2.000
 7087.00    0.42796   0.43218   -2.000
 7088.00    0.40303   0.43169   -2.000
 7089.00    0.42863   0.43028   -2.000
 7090.00    0.45903   0.42914   -2.000
 7091.00    0.44389   0.42893   -2.000
 7092.00    0.42608   0.42787   -2.000
 7093.00    0.49849   0.42691   -2.000
 7094.00    0.57266   0.42697   -2.000
 7095.00    0.58357   0.42650   -2.000
 7096.00    0.59358   0.42575   -2.000
 7097.00    0.58100   0.42585   -2.000
 7098.00    0.56700   0.42610   -2.000
 7099.00    0.53422   0.42561   -2.000
 7100.00    0.50642   0.42556   -2.000
 7101.00    0.52276   0.42630   -2.000
 7102.00    0.52656   0.42618   -2.000
 7103.00    0.44834   0.42601   -2.000
 7104.00    0.38901   0.42658   -2.000
 7105.00    0.42586   0.42674   -2.000
 7106.00    0.46564   0.42661   -2.000
 7107.00    0.51749   0.42696   -2.000
 7108.00    0.55192   0.42732   -2.000
 7109.00    0.52698   0.42712   -2.000
 7110.00    0.52946   0.42703   -2.000
 7111.00    0.61072   0.42743   -2.000
 7112.00    0.62888   0.42748   -2.000
 7113.00    0.49221   0.42717   -2.000
 7114.00    0.41088   0.42709   -2.000
 7115.00    0.44662   0.42732   -2.000
 7116.00    0.48416   0.42732   -2.000
 7117.00    0.52500   0.42695   -2.000
 7118.00    0.54166   0.42694   -2.000
 7119.00    0.51947   0.42705   -2.000
 7120.00    0.50014   0.42673   -2.000
 7121.00    0.48481   0.42640   -2.000
 7122.00    0.50604   0.42646   -2.000
 7123.00    0.57261   0.42640   -2.000
 7124.00    0.63798   0.42581   -2.000
 7125.00    0.70204   0.42568   -2.000
 7126.00    0.70356   0.42602   -2.000
 7127.00    0.64478   0.42561   -2.000
 7128.00    0.62336   0.42512   -2.000
 7129.00    0.63371   0.42531   -2.000
 7130.00    0.62913   0.42538   -2.000
 7131.00    0.61337   0.42506   -2.000
 7132.00    0.56799   0.42491   -2.000
 7133.00    0.50313   0.42513   -2.000
 7134.00    0.36754   0.42510   -2.000
 7135.00    0.19122   0.42501   -2.000
 7136.00    0.25377   0.42545   -2.000
 7137.00    0.43619   0.42551   -2.000
 7138.00    0.53346   0.42530   -2.000
 7139.00    0.59375   0.42571   -2.000
 7140.00    0.53444   0.42585   -2.000
 7141.00    0.43058   0.42565   -2.000
 7142.00    0.40220   0.42593   -2.000
 7143.00    0.39766   0.42616   -2.000
 7144.00    0.39994   0.42596   -2.000
 7145.00    0.40401   0.42629   -2.000
 7146.00    0.46222   0.42662   -2.000
 7147.00    0.53211   0.42610   -2.000
 7148.00    0.52570   0.42640   -2.000
 7149.00    0.50626   0.42709   -2.000
 7150.00    0.44192   0.42636   -2.000
 7151.00    0.37176   0.42631   -2.000
 7152.00    0.42427   0.42732   -2.000
 7153.00    0.48793   0.42708   -2.000
 7154.00    0.43713   0.42665   -2.000
 7155.00    0.38006   0.42755   -2.000
 7156.00    0.38886   0.42777   -2.000
 7157.00    0.40124   0.42690   -2.000
 7158.00    0.61541   0.42733   -2.000
 7159.00    0.81819   0.42811   -2.000
 7160.00    0.76252   0.42747   -2.000
 7161.00    0.72238   0.42737   -2.000
 7162.00    0.87778   0.42795   -2.000
 7163.00    0.97706   0.42771   -2.000
 7164.00    0.59756   0.42752   -2.000
 7165.00    0.28145   0.42790   -2.000
 7166.00    0.36707   0.42784   -2.000
 7167.00    0.46030   0.42743   -2.000
 7168.00    0.59135   0.42749   -2.000
 7169.00    0.67114   0.42776   -2.000
 7170.00    0.54457   0.42789   -2.000
 7171.00    0.45940   0.42779   -2.000
 7172.00    0.51257   0.42746   -2.000
 7173.00    0.52301   0.42751   -2.000
 7174.00    0.41291   0.42771   -2.000
 7175.00    0.33372   0.42731   -2.000
 7176.00    0.32912   0.42703   -2.000
 7177.00    0.34621   0.42723   -2.000
 7178.00    0.40850   0.42672   -2.000
 7179.00    0.49296   0.42593   -2.000
 7180.00    0.61757   0.42624   -2.000
 7181.00    0.65448   0.42617   -2.000
 7182.00    0.55257   0.42501   -2.000
 7183.00    0.50714   0.42455   -2.000
 7184.00    0.54020   0.42485   -2.000
 7185.00    0.49497   0.42425   -2.000
 7186.00    0.35400   0.42334   -2.000
 7187.00    0.28245   0.42371   -2.000
 7188.00    0.28573   0.42349   -2.000
 7189.00    0.31030   0.42213   -2.000
 7190.00    0.35511   0.42239   -2.000
 7191.00    0.34089   0.42289   -2.000
 7192.00    0.27716   0.42193   -2.000
 7193.00    0.33075   0.42170   -2.000
 7194.00    0.47094   0.42250   -2.000
 7195.00    0.52030   0.42212   -2.000
 7196.00    0.51077   0.42147   -2.000
 7197.00    0.50684   0.42250   -2.000
 7198.00    0.50609   0.42268   -2.000
 7199.00    0.54531   0.42153   -2.000
 7200.00    0.60428   0.42212   -2.000
 7201.00    0.51977   0.42293   -2.000
 7202.00    0.37400   0.42227   -2.000
 7203.00    0.23678   0.42242   -2.000
 7204.00    0.10269   0.42322   -2.000
 7205.00    0.16495   0.42278   -2.000
 7206.00    0.28804   0.42252   -2.000
 7207.00    0.24081   0.42354   -2.000
 7208.00    0.14963   0.42350   -2.000
 7209.00    0.25450   0.42283   -2.000
 7210.00    0.40061   0.42357   -2.000
 7211.00    0.43542   0.42403   -2.000
 7212.00    0.45175   0.42377   -2.000
 7213.00    0.50898   0.42441   -2.000
 7214.00    0.57131   0.42495   -2.000
 7215.00    0.46403   0.42467   -2.000
 7216.00    0.34207   0.42512   -2.000
 7217.00    0.31193   0.42600   -2.000
 7218.00    0.28646   0.42598   -2.000
