###################################################################
## OUTPUT of StarlightChains_v04.for    [Cid@UFSC - 01/Apr/2007] ##
###################################################################

## Some input info
KUG0210-078._37_38.txt                   [arq_obs]
Base.CB07.vall.4m                        [arq_base]
Masks.EmLines.NEW.gm                     [arq_masks]
StCv04.C11.config                        [arq_config]
   66                                    [N_base]
    0                                    [N_YAV_components = # of components with extra extinction!]
    0                                    [i_FitPowerLaw (1/0 = Yes/No)]
-9.99                                    [alpha_PowerLaw]
CCM                                      [red_law_option]
 1.458241                                [q_norm = A(l_norm)/A(V)]

## (Re)Sampling Parameters
 3741.00                                 [l_ini (A)]
 7218.00                                 [l_fin (A)]
    1.00                                 [dl    (A)]     (OBS: dl_cushion =    50.00 A)

## Normalization info
 4020.00                                 [l_norm (A) - for base]
 4010.00                                 [llow_norm (A) - window for f_obs]
 4060.00                                 [lupp_norm (A) - window for f_obs]
1.948387E-17                             [fobs_norm (in input units)]

## S/N
 3691.00                                 [llow_SN (A) - window for S/N]
 7268.00                                 [lupp_SN (A) - window for S/N]
   4.945                                 [S/N in S/N window]
   4.525                                 [S/N in norm. window]
   0.027                                 [S/N_err in S/N window]
   0.025                                 [S/N_err in norm. window]
  1.0000                                 [fscale_chi2]

## etc...
    -2007632                             [idum_orig]
  2431                                   [NOl_eff]
  2416                                   [Nl_eff]
    15    NSIGMA                         [Ntot_cliped & clip_method]
  5755190                                [Nglobal_steps]
   7                                     [N_chains]
  38                                     [NEX0s_base = N_base in EX0s-fits]
 0   0   1       15   2.0   3.123E+03    [Clip-Bug, RC-Crash & Burn-In warning-flags, n_censored_weights, wei_nsig_threshold & wei_limit]
    76     74.981     74.317      0.665  [idt_all, wdt_TotTime, wdt_UsrTime & wdt_SysTime (sec)]

## Synthesis Results - Best model ##

 1.36904E-05                             [chi2/Nl_eff]
    10.16843                             [adev (%)]

   106.72121                             [sum-of-x (%)]
 2.22109E-17                             [Flux_tot (units of input spectrum!)]
 4.43520E-13                             [Mini_tot (???)]
 2.41192E-13                             [Mcor_tot (???)]

 -36.55                                  [v0_min  (km/s)]
   0.00                                  [vd_min  (km/s)]
 0.0491                                  [AV_min  (mag)]
 0.0000                                  [YAV_min (mag)]

# j     x_j(%)      Mini_j(%)     Mcor_j(%)     age_j(yr)     Z_j      (L/M)_j    YAV?  Mstars   component_j        a/Fe...       SSP_chi2r SSP_adev(%)   SSP_AV   SSP_x(%)
  1      0.0000     0.0000E+00    0.0000E+00    1.000000E+06  0.00400  1.094E-02    0   1.0000   age020_m42            0.0000     3.2125E-05    16.0785   3.5085    86.9941
  2      0.0000     0.0000E+00    0.0000E+00    3.160000E+06  0.00400  4.007E-02    0   0.9999   age045_m42            0.0000     2.5777E-05    14.4044   2.7657    93.6275
  3      0.0000     0.0000E+00    0.0000E+00    5.010000E+06  0.00400  2.539E-02    0   0.9488   age055_m42            0.0000     2.8648E-05    15.1315   3.0948    90.9994
  4      0.0000     0.0000E+00    0.0000E+00    6.610000E+06  0.00400  2.620E-02    0   0.9220   age061_m42            0.0000     2.5691E-05    14.3121   2.6940    93.7728
  5      0.0000     0.0000E+00    0.0000E+00    1.000000E+07  0.00400  1.322E-02    0   0.8862   age070_m42            0.0000     2.8562E-05    15.6712   2.4360    95.0142
  6      0.0000     0.0000E+00    0.0000E+00    1.445000E+07  0.00400  7.883E-03    0   0.8571   age078_m42            0.0000     3.0116E-05    15.9842   2.7643    92.5252
  7      0.0000     0.0000E+00    0.0000E+00    2.512000E+07  0.00400  5.251E-03    0   0.8174   age090_m42            0.0000     2.8818E-05    15.8655   2.3090    95.4692
  8      0.0000     0.0000E+00    0.0000E+00    4.000000E+07  0.00400  3.649E-03    0   0.7851   age104_m42            0.0000     2.7261E-05    15.3925   2.0769    96.4626
  9      0.0000     0.0000E+00    0.0000E+00    5.500000E+07  0.00400  3.098E-03    0   0.7629   age110_m42            0.0000     2.5046E-05    14.4104   2.2158    96.9641
 10      0.0000     0.0000E+00    0.0000E+00    1.015200E+08  0.00400  2.228E-03    0   0.7207   age116_m42            0.0000     2.3503E-05    13.6973   2.2268    97.4579
 11      0.0000     0.0000E+00    0.0000E+00    2.861200E+08  0.00400  1.093E-03    0   0.6648   age125_m42            0.0000     2.2799E-05    13.7070   1.6585   100.2572
 12      1.8210     1.2953E-01    1.5160E-01    5.088000E+08  0.00400  6.597E-04    0   0.6365   age130_m42            0.0000     2.0224E-05    12.5878   1.6343   101.6543
 13      6.8519     1.5081E+00    1.6079E+00    1.434000E+09  0.00400  2.132E-04    0   0.5798   age139_m42            0.0000     1.6634E-05    11.5222   0.6594   103.8836
 14      0.0000     0.0000E+00    0.0000E+00    4.250000E+09  0.00400  5.895E-05    0   0.5377   age158_m42            0.0000     1.6278E-05    11.3198   0.2168    99.8151
 15      0.0000     0.0000E+00    0.0000E+00    7.500000E+09  0.00400  3.510E-05    0   0.5212   age171_m42            0.0000     1.5889E-05    11.0793   0.0242    99.2590
 16      0.0000     0.0000E+00    0.0000E+00    1.300000E+10  0.00400  2.005E-05    0   0.5034   age193_m42            0.0000     1.5842E-05    10.9305  -0.1460    98.8317
 17      0.0000     0.0000E+00    0.0000E+00    1.800000E+10  0.00400  1.525E-05    0   0.4967   age213_m42            0.0000     1.5973E-05    11.0295  -0.1672    98.3457
 18      0.0000     0.0000E+00    0.0000E+00    1.000000E+06  0.00800  1.238E-02    0   1.0000   age020_m52            0.0000     3.2092E-05    16.0685   3.5048    87.1694
 19      0.0000     0.0000E+00    0.0000E+00    3.160000E+06  0.00800  3.074E-02    0   0.9966   age045_m52            0.0000     3.1600E-05    15.8642   3.4272    87.9999
 20      0.0000     0.0000E+00    0.0000E+00    5.010000E+06  0.00800  2.668E-02    0   0.9443   age055_m52            0.0000     2.9573E-05    15.3416   3.1811    90.0724
 21      0.9500     2.0870E-03    3.5218E-03    6.610000E+06  0.00800  2.136E-02    0   0.9177   age061_m52            0.0000     2.7550E-05    15.5075   1.9372    96.1007
 22      0.0000     0.0000E+00    0.0000E+00    1.000000E+07  0.00800  1.215E-02    0   0.8827   age070_m52            0.0000     3.0593E-05    16.3685   2.6201    94.6012
 23      0.0000     0.0000E+00    0.0000E+00    1.445000E+07  0.00800  8.717E-03    0   0.8552   age078_m52            0.0000     2.9567E-05    15.8693   2.7288    93.8686
 24      0.0000     0.0000E+00    0.0000E+00    2.512000E+07  0.00800  5.592E-03    0   0.8162   age090_m52            0.0000     2.8658E-05    15.8545   2.3711    96.6592
 25      0.0000     0.0000E+00    0.0000E+00    4.000000E+07  0.00800  3.896E-03    0   0.7841   age104_m52            0.0000     2.6728E-05    15.2000   2.2756    97.6733
 26      0.0000     0.0000E+00    0.0000E+00    1.015200E+08  0.00800  2.148E-03    0   0.7226   age116_m52            0.0000     2.4076E-05    14.0680   2.2003    97.9858
 27      0.0000     0.0000E+00    0.0000E+00    2.861200E+08  0.00800  9.925E-04    0   0.6683   age125_m52            0.0000     2.0062E-05    12.4763   1.6978   102.6505
 28      0.0000     0.0000E+00    0.0000E+00    9.047900E+08  0.00800  3.141E-04    0   0.6138   age135_m52            0.0000     1.5402E-05    10.8856   0.8782   107.7193
 29      0.0000     0.0000E+00    0.0000E+00    1.434000E+09  0.00800  1.719E-04    0   0.5853   age139_m52            0.0000     1.5614E-05    11.2194   0.3065   105.0765
 30      0.0000     0.0000E+00    0.0000E+00    2.500000E+09  0.00800  7.872E-05    0   0.5600   age150_m52            0.0000     1.4615E-05    10.5962   0.0303   102.5312
 31      0.0000     0.0000E+00    0.0000E+00    4.250000E+09  0.00800  4.336E-05    0   0.5426   age158_m52            0.0000     1.4964E-05    10.7065   0.0161   101.5184
 32     12.1646     1.8070E+01    1.7674E+01    6.250000E+09  0.00800  3.159E-05    0   0.5319   age166_m52            0.0000     1.4270E-05    10.2893  -0.1962   101.8333
 33      8.6407     2.9791E+01    2.7791E+01    1.300000E+10  0.00800  1.361E-05    0   0.5073   age193_m52            0.0000     1.4054E-05    10.0128  -0.6761   101.5033
 34      0.0000     0.0000E+00    0.0000E+00    1.800000E+10  0.00800  9.886E-06    0   0.4990   age213_m52            0.0000     1.3988E-05     9.8473  -0.7972   101.4189
 35      0.0000     0.0000E+00    0.0000E+00    1.000000E+06  0.02000  1.544E-02    0   1.0000   age020_m62            0.0000     3.2298E-05    16.0988   3.5012    87.3654
 36      0.0000     0.0000E+00    0.0000E+00    3.160000E+06  0.02000  3.762E-02    0   0.9858   age045_m62            0.0000     3.2305E-05    15.9908   3.4368    88.2512
 37      0.0000     0.0000E+00    0.0000E+00    5.010000E+06  0.02000  3.296E-02    0   0.9342   age055_m62            0.0000     2.7215E-05    14.5943   3.0481    92.3777
 38      0.0000     0.0000E+00    0.0000E+00    8.710000E+06  0.02000  1.154E-02    0   0.8861   age067_m62            0.0000     4.1636E-05    20.3194   2.1102    95.8614
 39      0.0000     0.0000E+00    0.0000E+00    1.445000E+07  0.02000  7.663E-03    0   0.8472   age078_m62            0.0000     3.2792E-05    17.3674   2.2756    96.4076
 40      0.0000     0.0000E+00    0.0000E+00    2.512000E+07  0.02000  4.532E-03    0   0.8099   age090_m62            0.0000     3.3065E-05    17.4360   2.2697    96.0468
 41      0.0000     0.0000E+00    0.0000E+00    5.500000E+07  0.02000  2.733E-03    0   0.7595   age110_m62            0.0000     2.7093E-05    15.2238   2.2610    96.8544
 42      0.0000     0.0000E+00    0.0000E+00    1.609000E+08  0.02000  1.369E-03    0   0.6985   age120_m62            0.0000     2.2575E-05    13.3608   2.0760   100.4148
 43      0.0000     0.0000E+00    0.0000E+00    2.861200E+08  0.02000  9.013E-04    0   0.6714   age125_m62            0.0000     1.9885E-05    12.1842   1.8087   104.0056
 44     11.9745     1.1175E+00    1.3253E+00    5.088000E+08  0.02000  5.028E-04    0   0.6449   age130_m62            0.0000     1.6282E-05    10.7196   1.4064   107.7341
 45      0.0000     0.0000E+00    0.0000E+00    9.047900E+08  0.02000  2.428E-04    0   0.6179   age135_m62            0.0000     1.4492E-05    10.4649   0.8189   107.0109
 46      0.0000     0.0000E+00    0.0000E+00    1.434000E+09  0.02000  1.263E-04    0   0.5908   age139_m62            0.0000     1.4512E-05    10.6026   0.3794   105.1872
 47      0.0000     0.0000E+00    0.0000E+00    2.500000E+09  0.02000  5.985E-05    0   0.5673   age150_m62            0.0000     1.4228E-05    10.3222   0.0044   103.9801
 48      0.0000     0.0000E+00    0.0000E+00    4.250000E+09  0.02000  3.271E-05    0   0.5468   age158_m62            0.0000     1.3819E-05     9.9523  -0.3157   103.5653
 49      0.0000     0.0000E+00    0.0000E+00    1.000000E+10  0.02000  1.360E-05    0   0.5167   age181_m62            0.0000     1.4136E-05     9.8424  -0.6838   103.7251
 50      0.0000     0.0000E+00    0.0000E+00    1.800000E+10  0.02000  7.124E-06    0   0.5013   age213_m62            0.0000     1.4889E-05     9.9539  -0.9117   103.4458
 51      0.0000     0.0000E+00    0.0000E+00    1.000000E+06  0.05000  2.592E-02    0   0.9998   age020_m72            0.0000     3.3016E-05    16.2881   3.4952    87.3027
 52      0.0000     0.0000E+00    0.0000E+00    3.160000E+06  0.05000  4.845E-02    0   0.9577   age045_m72            0.0000     3.0316E-05    15.3818   3.3148    89.5932
 53      0.0000     0.0000E+00    0.0000E+00    5.010000E+06  0.05000  3.072E-02    0   0.9147   age055_m72            0.0000     3.2652E-05    16.7830   2.8493    92.9823
 54      0.0000     0.0000E+00    0.0000E+00    6.610000E+06  0.05000  1.455E-02    0   0.8877   age061_m72            0.0000     5.0080E-05    22.6850   2.1464    96.4425
 55      0.0000     0.0000E+00    0.0000E+00    1.000000E+07  0.05000  9.074E-03    0   0.8524   age070_m72            0.0000     3.4220E-05    17.1159   3.0156    92.9216
 56      0.0000     0.0000E+00    0.0000E+00    2.512000E+07  0.05000  4.250E-03    0   0.7902   age090_m72            0.0000     3.0845E-05    16.3085   2.7228    94.7060
 57      0.0000     0.0000E+00    0.0000E+00    4.000000E+07  0.05000  3.087E-03    0   0.7618   age104_m72            0.0000     3.0200E-05    16.2220   2.4944    96.3445
 58      0.2393     6.6058E-03    8.6196E-03    1.015200E+08  0.05000  1.700E-03    0   0.7096   age116_m72            0.0000     2.4382E-05    14.0760   2.2240    99.7376
 59      7.5958     4.8271E-01    5.8877E-01    2.861200E+08  0.05000  7.384E-04    0   0.6633   age125_m72            0.0000     1.7725E-05    11.3394   1.6630   105.9661
 60      4.2342     5.2026E-01    6.0960E-01    5.088000E+08  0.05000  3.819E-04    0   0.6372   age130_m72            0.0000     1.4939E-05    10.4470   1.1569   108.2062
 61      0.0000     0.0000E+00    0.0000E+00    9.047900E+08  0.05000  1.676E-04    0   0.6110   age135_m72            0.0000     1.4052E-05    10.2483   0.4534   106.3942
 62     16.5332     8.7792E+00    9.4829E+00    1.434000E+09  0.05000  8.837E-05    0   0.5874   age139_m72            0.0000     1.4330E-05    10.3475  -0.0036   105.7485
 63     35.7160     3.9593E+01    4.0757E+01    2.500000E+09  0.05000  4.233E-05    0   0.5598   age150_m72            0.0000     1.3904E-05    10.0179  -0.3269   104.8129
 64      0.0000     0.0000E+00    0.0000E+00    6.250000E+09  0.05000  1.435E-05    0   0.5249   age166_m72            0.0000     1.4407E-05    10.0384  -0.7895   103.5884
 65      0.0000     0.0000E+00    0.0000E+00    1.300000E+10  0.05000  6.513E-06    0   0.5036   age193_m72            0.0000     1.6275E-05    10.0470  -1.0000   102.3723
 66      0.0000     0.0000E+00    0.0000E+00    1.800000E+10  0.05000  4.527E-06    0   0.4945   age213_m72            0.0000     1.9516E-05    10.6927  -1.0000    97.1134


## Synthesis Results - Average & Chains ##

# j      x_j: min, <> & last-chain-values for 1 ...  7 chains
  1      0.0000      0.8950      2.2016      0.0705      5.3824      0.6609      3.0564      0.5476      0.0000
  2      0.0000      0.5650      0.6839      0.3981      0.3114      0.0000      1.4388      0.0000      0.0000
  3      0.0000      0.8468      1.9339      0.0235      1.0480      1.7989      3.0152      0.5420      0.0000
  4      0.0000      1.0119      3.4154      0.3659      1.4001      1.2527      1.3553      3.9336      0.0000
  5      0.0000      0.7039      1.3247      0.1816      0.0000      0.8833      0.6617      3.2423      0.7082
  6      0.0000      0.5546      1.1514      0.1860      0.0000      0.1840      1.4435      2.3514      0.1548
  7      0.0000      0.9470      0.5754      0.1626      2.9752      1.1143      1.5827      0.0000      0.5947
  8      0.0000      0.8489      0.0000      0.3637      0.9204      0.1474      1.2903      3.0748      1.1974
  9      0.0000      0.7170      0.0000      0.1911      1.4508      0.1963      0.0000      2.0165      0.2440
 10      0.0000      0.9291      0.0000      0.2101      2.0909      2.8001      2.0844      0.6202      0.6337
 11      0.0000      0.5223      0.8913      0.0000      0.0000      1.2681      0.3370      2.9742      0.5682
 12      1.8210      1.3685      3.3227      0.3264      4.1460      0.2815      2.4153      1.4123      1.6659
 13      6.8519      0.4746      0.3013      0.0360      2.0901      0.4903      0.4994      0.0509      0.2215
 14      0.0000      0.7232      0.0000      0.9316      0.9193      0.0000      2.2650      0.7638      0.0000
 15      0.0000      0.8143      0.5145      0.2679      2.1486      0.4356      0.0000      0.1102      0.2504
 16      0.0000      0.8043      1.1511      0.0000      0.0000      0.7887      0.4041      0.0000      0.0000
 17      0.0000      0.5576      0.5387      0.0000      0.0000      0.0000      0.2864      1.6070      0.0180
 18      0.0000      0.7677      2.9783      0.4690      0.0014      0.0000      0.7009      0.7037      0.0000
 19      0.0000      0.7948      1.3456      0.0882      3.4661      0.2856      0.0000      1.3623      0.5919
 20      0.0000      0.6583      2.9277      0.1757      1.1941      0.7229      0.2370      0.3966      0.5854
 21      0.9500      0.6073      1.5620      0.0737      0.0000      0.4792      0.8161      0.0000      0.7429
 22      0.0000      0.5835      4.2788      0.0000      1.4463      0.0000      0.0000      1.1372      0.2048
 23      0.0000      0.9566      0.3097      0.0677      0.1438      0.0263      0.9986      2.8831      0.0000
 24      0.0000      0.8487      2.4943      0.4272      0.7496      1.1612      0.3020      0.0000      0.8106
 25      0.0000      1.0406      1.6661      0.0000      1.4467      0.0000      0.9979      1.2050      1.1120
 26      0.0000      0.5337      1.9037      0.0882      0.9566      0.8155      1.2371      1.0315      0.2918
 27      0.0000      0.5108      0.1589      0.0808      0.1357      0.0000      0.5844      1.3219      1.1992
 28      0.0000      0.8355      1.1061      0.1769      1.6139      0.5082      2.6881      2.1087      1.0911
 29      0.0000      0.6827      1.7029      0.1107      0.0000      0.1165      1.7389      1.0426      0.1019
 30      0.0000      0.8575      0.0434      0.0000      1.8710      0.0397      0.8306      0.3206      0.8205
 31      0.0000      0.6996      0.1930      0.1181      1.3890      0.0000      0.7814      0.4315      0.0000
 32     12.1646      0.4835      0.4691      0.0285      0.4563      0.4764      0.5359      1.2887      0.0000
 33      8.6407      0.9316      0.0000      0.0000      0.5159      0.5630      0.0000      5.8738      0.4481
 34      0.0000      0.6384      1.0515      0.2044      0.0000      0.2280      0.0000      1.2727      0.0000
 35      0.0000      0.6874      0.7693      0.5976      0.1296      0.3466      0.5575      0.1384      0.5282
 36      0.0000      0.7067      0.0000      0.1200      3.9434      0.8331      3.4207      0.6507      0.5008
 37      0.0000      0.7249      1.3886      0.0000      1.8609      0.2179      2.6917      0.0000      0.0241
 38      0.0000      0.6334      0.9366      0.0236      0.5103      0.0978      0.0000      0.2870      0.0447
 39      0.0000      0.8042      1.8371      0.0000      1.6658      0.4517      0.6402      1.5059      0.0000
 40      0.0000      1.0051      0.7921      0.0000      0.0000      0.3943      3.5533      2.6532      0.0000
 41      0.0000      0.6610      1.0169      0.3762      0.6323      0.2700      0.8165      2.7302      0.2648
 42      0.0000      0.5475      0.0000      0.0000      1.1199      0.2326      0.1904      1.4363      0.8205
 43      0.0000      0.7324      3.8644      0.1935      0.1984      1.6788      1.9595      0.3689      0.0000
 44     11.9745     18.2788     11.4198     27.2088     10.6301     24.1116     11.1660     13.9330     24.4149
 45      0.0000      0.6801      1.3110      0.0000      3.3055      0.0000      1.0020      0.9629      0.5229
 46      0.0000      0.6610      1.7031      0.0000      1.0211      0.4809      0.0000      0.0000      0.0000
 47      0.0000      0.7168      0.6056      0.0151      0.0000      0.8570      1.9000      0.0000      0.0000
 48      0.0000      0.7460      0.3110      0.1052      0.0000      0.9313      0.3227      0.0000      0.0000
 49      0.0000      0.8265      3.5637      0.4720      0.0236      0.0000      0.0000      1.1768      0.2232
 50      0.0000      0.8533      1.9020      0.0640      0.8112      0.0328      1.0832      0.8292      0.0475
 51      0.0000      0.7523      0.7061      0.0583      0.2957      0.6084      2.7289      0.0000      0.8335
 52      0.0000      0.6080      1.5140      0.1936      0.0000      0.0882      2.9468      2.3926      0.1489
 53      0.0000      0.7499      0.9531      0.3185      2.5989      0.1396      5.4661      0.4239      0.1564
 54      0.0000      0.7351      0.7780      0.2035      0.3179      0.0000      1.6006      0.2771      0.2565
 55      0.0000      0.5746      3.0298      0.9229      0.0000      0.7045      0.0000      3.2343      0.1970
 56      0.0000      0.5901      1.1844      0.1573      0.3191      0.2240      2.6714      2.0339      0.2668
 57      0.0000      0.7064      0.7895      0.0000      2.3896      0.1148      1.2550      1.2224      0.4336
 58      0.2393      0.6480      0.0000      0.0846      0.6690      0.6000      0.0000      0.0000      0.2842
 59      7.5958      0.3965      0.4525      0.3991      0.5523      0.5310      1.2415      1.6232      0.2375
 60      4.2342     39.6491     21.7497     64.3900     26.1405     52.5705     16.7666     17.0301     57.7237
 61      0.0000      2.4792      1.8933      3.6177      3.0574      1.7381      1.3879      2.6138      2.5530
 62     16.5332      0.7289      0.0000      0.2305      0.0000      0.4437      2.7087      0.1175      0.7082
 63     35.7160      0.7759      0.0000      0.3610      0.0000      0.7081      0.9177      2.7978      0.1719
 64      0.0000      0.6405      0.0000      0.0000      3.7926      0.0289      0.3791      0.0131      0.1046
 65      0.0000      0.8636      1.0482      0.0000      0.3561      0.0000      1.2648      0.0000      0.3699
 66      0.0000      0.6235      0.0000      0.0288      0.0000      0.1823      0.9163      0.0000      0.0768

# j      m_j: min, <> & last-chain-values for 1 ...  7 chains
  1  0.0000E+00  1.4980E-02  3.5397E-02  2.9751E-03  1.1638E-01  2.3079E-02  5.8265E-02  8.4396E-03  0.0000E+00
  2  0.0000E+00  2.5816E-03  3.0018E-03  4.5880E-03  1.8380E-03  0.0000E+00  7.4877E-03  0.0000E+00  0.0000E+00
  3  0.0000E+00  5.7941E-03  1.2711E-02  4.0541E-04  9.2639E-03  2.5681E-02  2.3499E-02  3.4152E-03  0.0000E+00
  4  0.0000E+00  6.5198E-03  2.1141E-02  5.9479E-03  1.1655E-02  1.6841E-02  9.9467E-03  2.3342E-02  0.0000E+00
  5  0.0000E+00  8.6397E-03  1.5619E-02  5.6240E-03  0.0000E+00  2.2620E-02  9.2505E-03  3.6649E-02  2.0384E-02
  6  0.0000E+00  1.1040E-02  2.2019E-02  9.3389E-03  0.0000E+00  7.6420E-03  3.2732E-02  4.3110E-02  7.2257E-03
  7  0.0000E+00  2.6992E-02  1.5755E-02  1.1693E-02  1.0955E-01  6.6265E-02  5.1383E-02  0.0000E+00  3.9750E-02
  8  0.0000E+00  3.3443E-02  0.0000E+00  3.6138E-02  4.6844E-02  1.2114E-02  5.7896E-02  1.1155E-01  1.1062E-01
  9  0.0000E+00  3.2330E-02  0.0000E+00  2.1740E-02  8.4511E-02  1.8463E-02  0.0000E+00  8.3735E-02  2.5798E-02
 10  0.0000E+00  5.5028E-02  0.0000E+00  3.1390E-02  1.5999E-01  3.4601E-01  1.4062E-01  3.3830E-02  8.8021E-02
 11  0.0000E+00  5.8162E-02  9.5357E-02  0.0000E+00  0.0000E+00  2.9464E-01  4.2750E-02  3.0504E-01  1.4840E-01
 12  1.5160E-01  2.4176E-01  5.6388E-01  1.4543E-01  9.4624E-01  1.0375E-01  4.8600E-01  2.2977E-01  6.9016E-01
 13  1.6079E+00  2.3632E-01  1.4414E-01  4.5263E-02  1.3446E+00  5.0937E-01  2.8324E-01  2.3348E-02  2.5863E-01
 14  0.0000E+00  1.2078E+00  0.0000E+00  3.9248E+00  1.9835E+00  0.0000E+00  4.3087E+00  1.1748E+00  0.0000E+00
 15  0.0000E+00  2.2139E+00  1.3437E+00  1.8375E+00  7.5470E+00  2.4708E+00  0.0000E+00  2.7582E-01  1.5968E+00
 16  0.0000E+00  3.6973E+00  5.0834E+00  0.0000E+00  0.0000E+00  7.5647E+00  2.1160E+00  0.0000E+00  0.0000E+00
 17  0.0000E+00  3.3251E+00  3.0861E+00  0.0000E+00  0.0000E+00  0.0000E+00  1.9453E+00  8.8259E+00  2.5210E-01
 18  0.0000E+00  1.1354E-02  4.2315E-02  1.7496E-02  2.6370E-05  0.0000E+00  1.1808E-02  9.5850E-03  0.0000E+00
 19  0.0000E+00  4.7182E-03  7.6730E-03  1.3203E-03  2.6581E-02  3.5372E-03  0.0000E+00  7.4473E-03  8.2391E-03
 20  0.0000E+00  4.2658E-03  1.8226E-02  2.8729E-03  9.9975E-03  9.7744E-03  1.7495E-03  2.3669E-03  8.8973E-03
 21  3.5218E-03  4.7772E-03  1.1803E-02  1.4630E-03  0.0000E+00  7.8644E-03  7.3126E-03  0.0000E+00  1.3705E-02
 22  0.0000E+00  7.7624E-03  5.4676E-02  0.0000E+00  2.4856E-02  0.0000E+00  0.0000E+00  1.3931E-02  6.3876E-03
 23  0.0000E+00  1.7185E-02  5.3446E-03  3.0695E-03  3.3378E-03  9.8466E-04  2.0433E-02  4.7695E-02  0.0000E+00
 24  0.0000E+00  2.2681E-02  6.4035E-02  2.8801E-02  2.5882E-02  6.4744E-02  9.1931E-03  0.0000E+00  5.0805E-02
 25  0.0000E+00  3.8345E-02  5.8979E-02  0.0000E+00  6.8872E-02  0.0000E+00  4.1886E-02  4.0892E-02  9.6094E-02
 26  0.0000E+00  3.2876E-02  1.1265E-01  1.3699E-02  7.6119E-02  1.0481E-01  8.6793E-02  5.8514E-02  4.2149E-02
 27  0.0000E+00  6.2971E-02  1.8823E-02  2.5118E-02  2.1616E-02  0.0000E+00  8.2068E-02  1.5009E-01  3.4673E-01
 28  0.0000E+00  2.9893E-01  3.8019E-01  1.5965E-01  7.4602E-01  3.7941E-01  1.0955E+00  6.9482E-01  9.1553E-01
 29  0.0000E+00  4.2565E-01  1.0198E+00  1.7408E-01  0.0000E+00  1.5153E-01  1.2348E+00  5.9861E-01  1.4891E-01
 30  0.0000E+00  1.1169E+00  5.4253E-02  0.0000E+00  3.1485E+00  1.0791E-01  1.2323E+00  3.8462E-01  2.5064E+00
 31  0.0000E+00  1.6030E+00  4.2486E-01  6.8259E-01  4.1116E+00  0.0000E+00  2.0393E+00  9.1047E-01  0.0000E+00
 32  1.7674E+01  1.4905E+00  1.3892E+00  2.2182E-01  1.8175E+00  3.0641E+00  1.8818E+00  3.6588E+00  0.0000E+00
 33  2.7791E+01  6.3579E+00  0.0000E+00  0.0000E+00  4.5491E+00  8.0165E+00  0.0000E+00  3.6918E+01  7.1726E+00
 34  0.0000E+00  5.9002E+00  9.3351E+00  4.7653E+00  0.0000E+00  4.3964E+00  0.0000E+00  1.0832E+01  0.0000E+00
 35  0.0000E+00  8.1522E-03  8.7640E-03  1.7876E-02  1.9854E-03  8.5763E-03  7.5307E-03  1.5119E-03  1.4688E-02
 36  0.0000E+00  3.3906E-03  0.0000E+00  1.4520E-03  2.4443E-02  8.3392E-03  1.8694E-02  2.8753E-03  5.6343E-03
 37  0.0000E+00  3.7618E-03  6.9228E-03  0.0000E+00  1.2476E-02  2.3590E-03  1.5911E-02  0.0000E+00  2.9289E-04
 38  0.0000E+00  8.9050E-03  1.2650E-02  8.3697E-04  9.2696E-03  2.8701E-03  0.0000E+00  3.7164E-03  1.4753E-03
 39  0.0000E+00  1.6280E-02  3.5724E-02  0.0000E+00  4.3564E-02  1.9078E-02  1.4760E-02  2.8074E-02  0.0000E+00
 40  0.0000E+00  3.2889E-02  2.4897E-02  0.0000E+00  0.0000E+00  2.6920E-02  1.3243E-01  7.9951E-02  0.0000E+00
 41  0.0000E+00  3.3634E-02  4.9705E-02  4.8290E-02  4.1562E-02  2.8664E-02  4.7323E-02  1.2793E-01  3.1599E-02
 42  0.0000E+00  5.1147E-02  0.0000E+00  0.0000E+00  1.3517E-01  4.5339E-02  2.0262E-02  1.2357E-01  1.7976E-01
 43  0.0000E+00  9.9895E-02  5.0634E-01  6.6587E-02  3.4964E-02  4.7775E-01  3.0442E-01  4.6334E-02  0.0000E+00
 44  1.3253E+00  4.2927E+00  2.5763E+00  1.6118E+01  3.2252E+00  1.1814E+01  2.9868E+00  3.0134E+00  1.3446E+01
 45  0.0000E+00  3.1688E-01  5.8683E-01  0.0000E+00  1.9899E+00  0.0000E+00  5.3182E-01  4.1322E-01  5.7138E-01
 46  0.0000E+00  5.6611E-01  1.4013E+00  0.0000E+00  1.1299E+00  8.5943E-01  0.0000E+00  0.0000E+00  0.0000E+00
 47  0.0000E+00  1.2441E+00  1.0097E+00  6.6091E-02  0.0000E+00  3.1032E+00  3.7560E+00  0.0000E+00  0.0000E+00
 48  0.0000E+00  2.2833E+00  9.1452E-01  8.1251E-01  0.0000E+00  5.9474E+00  1.1251E+00  0.0000E+00  0.0000E+00
 49  0.0000E+00  5.7498E+00  2.3815E+01  8.2831E+00  2.1170E-01  0.0000E+00  0.0000E+00  7.5390E+00  3.6405E+00
 50  0.0000E+00  1.0994E+01  2.3541E+01  2.0809E+00  1.3503E+01  8.8139E-01  1.5896E+01  9.8393E+00  1.4358E+00
 51  0.0000E+00  5.3128E-03  4.7908E-03  1.0383E-03  2.6977E-03  8.9643E-03  2.1953E-02  0.0000E+00  1.3804E-02
 52  0.0000E+00  2.2004E-03  5.2640E-03  1.7671E-03  0.0000E+00  6.6600E-04  1.2148E-02  7.9746E-03  1.2638E-03
 53  0.0000E+00  4.0886E-03  4.9918E-03  4.3803E-03  1.8305E-02  1.5876E-03  3.3943E-02  2.1281E-03  1.9991E-03
 54  0.0000E+00  8.2117E-03  8.3484E-03  5.7335E-03  4.5884E-03  0.0000E+00  2.0365E-02  2.8510E-03  6.7189E-03
 55  0.0000E+00  9.8834E-03  5.0061E-02  4.0040E-02  0.0000E+00  2.5281E-02  0.0000E+00  5.1232E-02  7.9477E-03
 56  0.0000E+00  2.0090E-02  3.8735E-02  1.3508E-02  1.4035E-02  1.5911E-02  1.0359E-01  6.3765E-02  2.1304E-02
 57  0.0000E+00  3.1917E-02  3.4269E-02  0.0000E+00  1.3949E-01  1.0821E-02  6.4590E-02  5.0868E-02  4.5942E-02
 58  8.6196E-03  4.9526E-02  0.0000E+00  1.6311E-02  6.6053E-02  9.5676E-02  0.0000E+00  0.0000E+00  5.0947E-02
 59  5.8877E-01  6.5220E-02  7.1494E-02  1.6557E-01  1.1735E-01  1.8221E-01  2.3258E-01  2.4586E-01  9.1620E-02
 60  6.0960E-01  1.2113E+01  6.3830E+00  4.9620E+01  1.0317E+01  3.3508E+01  5.8343E+00  4.7913E+00  4.1355E+01
 61  0.0000E+00  1.6549E+00  1.2140E+00  6.0914E+00  2.6365E+00  2.4206E+00  1.0552E+00  1.6068E+00  3.9964E+00
 62  9.4829E+00  8.8707E-01  0.0000E+00  7.0779E-01  0.0000E+00  1.1267E+00  3.7550E+00  1.3174E-01  2.0212E+00
 63  4.0757E+01  1.8788E+00  0.0000E+00  2.2052E+00  0.0000E+00  3.5772E+00  2.5309E+00  6.2391E+00  9.7627E-01
 64  0.0000E+00  4.2897E+00  0.0000E+00  0.0000E+00  3.2816E+01  4.0361E-01  2.8919E+00  8.0874E-02  1.6431E+00
 65  0.0000E+00  1.2226E+01  1.4255E+01  0.0000E+00  6.5137E+00  0.0000E+00  2.0395E+01  0.0000E+00  1.2282E+01
 66  0.0000E+00  1.2471E+01  0.0000E+00  1.4512E+00  0.0000E+00  7.6082E+00  2.0873E+01  0.0000E+00  3.6024E+00

# AV, chi2 & Mass for <> & i_chain = 1 ...  7 solutions
AV       0.0491      2.7755      2.6421      2.6288      2.6113      2.4407      2.6529      2.6065      2.6097
chi2 1.3690E-05  8.7016E-04  5.1566E-04  5.0264E-04  4.9658E-04  3.4164E-04  4.5551E-04  5.9922E-04  4.6320E-04
Mass 2.4119E-13  4.4253E-12  3.8510E-12  1.4406E-12  2.7473E-12  1.3528E-12  3.2951E-12  3.8296E-12  1.5102E-12
 -36.55                                  [v0_min (km/s) before EX0s...]
   0.00                                  [vd_min (km/s) before EX0s...]


## Synthetic spectrum (Best Model) ##l_obs f_obs f_syn wei
 3478    [Nl_obs]
 3741.00    0.50478   0.61189    0.000
 3742.00    0.54974   0.56737    0.000
 3743.00    0.51998   0.52175    0.000
 3744.00    0.43082   0.48798    0.000
 3745.00    0.30705   0.45331    0.045
 3746.00    0.29810   0.42576    0.045
 3747.00    0.34746   0.39227    0.045
 3748.00    0.29296   0.33672    0.044
 3749.00    0.19278   0.31469    0.044
 3750.00    0.21556   0.37006    0.043
 3751.00    0.28476   0.46182    0.043
 3752.00    0.28103   0.53638    0.042
 3753.00    0.25393   0.59647    0.042
 3754.00    0.34390   0.65581    0.041
 3755.00    0.46524   0.68196    0.041
 3756.00    0.53436   0.63388    0.040
 3757.00    0.59202   0.53772    0.040
 3758.00    0.48984   0.48258    0.040
 3759.00    0.35975   0.50360    0.040
 3760.00    0.30853   0.54834    0.043
 3761.00    0.26777   0.57440    0.046
 3762.00    0.32154   0.57691    0.044
 3763.00    0.38419   0.56910    0.041
 3764.00    0.38854   0.57545    0.040
 3765.00    0.38954   0.57281    0.040
 3766.00    0.34496   0.53412    0.040
 3767.00    0.30108   0.50651    0.040
 3768.00    0.47311   0.51079    0.040
 3769.00    0.63654   0.50168    0.041
 3770.00    0.59105   0.48855    0.040
 3771.00    0.54472   0.52255    0.040
 3772.00    0.48733   0.58340    0.040
 3773.00    0.43937   0.61794    0.040
 3774.00    0.47414   0.62330    0.039
 3775.00    0.50996   0.62931    0.039
 3776.00    0.55263   0.64864    0.039
 3777.00    0.58868   0.66916    0.039
 3778.00    0.59123   0.69178    0.039
 3779.00    0.57581   0.72939    0.039
 3780.00    0.48683   0.76034    0.040
 3781.00    0.42792   0.76351    0.040
 3782.00    0.47100   0.76289    0.040
 3783.00    0.47550   0.77875    0.041
 3784.00    0.36962   0.77565    0.040
 3785.00    0.28690   0.71289    0.040
 3786.00    0.26074   0.63673    0.040
 3787.00    0.25995   0.60262    0.040
 3788.00    0.31264   0.58755    0.039
 3789.00    0.33911   0.57732    0.039
 3790.00    0.31756   0.59074    0.039
 3791.00    0.29137   0.60934    0.039
 3792.00    0.25775   0.59212    0.039
 3793.00    0.24179   0.54507    0.038
 3794.00    0.25065   0.50380    0.038
 3795.00    0.21497   0.48042    0.037
 3796.00    0.12426   0.45055    0.037
 3797.00    0.07252   0.40608    0.037
 3798.00    0.06323   0.39529    0.037
 3799.00    0.08771   0.44852    0.037
 3800.00    0.14464   0.52692    0.038
 3801.00    0.17738   0.58945    0.038
 3802.00    0.18962   0.64297    0.039
 3803.00    0.22084   0.68859    0.039
 3804.00    0.26622   0.70381    0.039
 3805.00    0.36534   0.68311    0.039
 3806.00    0.49969   0.64966    0.039
 3807.00    0.54703   0.64849    0.039
 3808.00    0.54445   0.69475    0.039
 3809.00    0.53882   0.74892    0.039
 3810.00    0.53168   0.77353    0.040
 3811.00    0.48197   0.75813    0.040
 3812.00    0.41385   0.70334    0.039
 3813.00    0.53080   0.63739    0.039
 3814.00    0.71639   0.59303    0.040
 3815.00    0.71606   0.57985    0.039
 3816.00    0.65728   0.60933    0.039
 3817.00    0.56867   0.65616    0.039
 3818.00    0.47222   0.65318    0.039
 3819.00    0.48375   0.59140    0.039
 3820.00    0.51842   0.54744    0.038
 3821.00    0.47339   0.57597    0.038
 3822.00    0.41484   0.61895    0.038
 3823.00    0.31863   0.59674    0.037
 3824.00    0.21758   0.53003    0.037
 3825.00    0.09638   0.48493    0.036
 3826.00   -0.02664   0.47621    0.000
 3827.00    0.14627   0.48053    0.036
 3828.00    0.33509   0.48353    0.037
 3829.00    0.31875   0.48801    0.037
 3830.00    0.29860   0.48182    0.037
 3831.00    0.30274   0.44026    0.037
 3832.00    0.31130   0.38301    0.038
 3833.00    0.41794   0.34888    0.038
 3834.00    0.50774   0.34303    0.038
 3835.00    0.38833   0.36008    0.038
 3836.00    0.27755   0.38361    0.038
 3837.00    0.23982   0.39097    0.038
 3838.00    0.21328   0.39216    0.038
 3839.00    0.25715   0.40714    0.038
 3840.00    0.28096   0.44279    0.038
 3841.00    0.20585   0.50912    0.038
 3842.00    0.15899   0.58105    0.038
 3843.00    0.22520   0.62088    0.038
 3844.00    0.31341   0.63398    0.038
 3845.00    0.47478   0.63843    0.039
 3846.00    0.58744   0.65349    0.039
 3847.00    0.56336   0.67726    0.000
 3848.00    0.55236   0.67163    0.000
 3849.00    0.57278   0.63886    0.000
 3850.00    0.55271   0.63881    0.000
 3851.00    0.44867   0.68077    0.000
 3852.00    0.36276   0.70563    0.000
 3853.00    0.30957   0.69405    0.000
 3854.00    0.32780   0.67165    0.000
 3855.00    0.45866   0.65105    0.000
 3856.00    0.54535   0.64545    0.000
 3857.00    0.57090   0.64192    0.000
 3858.00    0.53123   0.60663    0.000
 3859.00    0.41211   0.57213    0.000
 3860.00    0.37947   0.59555    0.000
 3861.00    0.43974   0.66461    0.000
 3862.00    0.53246   0.72310    0.000
 3863.00    0.65591   0.74051    0.000
 3864.00    0.66432   0.72719    0.000
 3865.00    0.57662   0.70866    0.000
 3866.00    0.60260   0.70219    0.000
 3867.00    0.71219   0.70507    0.000
 3868.00    0.68952   0.70285    0.000
 3869.00    0.58141   0.68158    0.000
 3870.00    0.51506   0.64082    0.000
 3871.00    0.47231   0.59843    0.000
 3872.00    0.49433   0.58543    0.000
 3873.00    0.54821   0.62479    0.000
 3874.00    0.52310   0.68747    0.000
 3875.00    0.46439   0.71696    0.000
 3876.00    0.50322   0.68782    0.000
 3877.00    0.57757   0.61920    0.000
 3878.00    0.54762   0.57681    0.000
 3879.00    0.48552   0.59811    0.000
 3880.00    0.47925   0.61667    0.000
 3881.00    0.48731   0.58578    0.035
 3882.00    0.53415   0.56271    0.035
 3883.00    0.58909   0.58246    0.036
 3884.00    0.48780   0.58231    0.036
 3885.00    0.36075   0.52319    0.037
 3886.00    0.37849   0.46298    0.037
 3887.00    0.41416   0.43758    0.037
 3888.00    0.47971   0.42676    0.037
 3889.00    0.54781   0.44437    0.038
 3890.00    0.55346   0.50906    0.038
 3891.00    0.55599   0.58569    0.037
 3892.00    0.53758   0.63265    0.038
 3893.00    0.51712   0.64341    0.038
 3894.00    0.38674   0.63620    0.037
 3895.00    0.26460   0.64089    0.037
 3896.00    0.31108   0.67293    0.037
 3897.00    0.36805   0.69683    0.037
 3898.00    0.54893   0.68854    0.036
 3899.00    0.70272   0.68374    0.036
 3900.00    0.63579   0.71414    0.035
 3901.00    0.59134   0.74641    0.034
 3902.00    0.68421   0.73679    0.034
 3903.00    0.74371   0.71455    0.034
 3904.00    0.64269   0.69724    0.032
 3905.00    0.57572   0.67381    0.032
 3906.00    0.64214   0.68588    0.032
 3907.00    0.68708   0.74637    0.033
 3908.00    0.66203   0.80431    0.033
 3909.00    0.63446   0.83022    0.033
 3910.00    0.59994   0.84074    0.034
 3911.00    0.59003   0.85246    0.035
 3912.00    0.63825   0.84870    0.036
 3913.00    0.66302   0.82765    0.036
 3914.00    0.63994   0.81661    0.036
 3915.00    0.66762   0.80977    0.037
 3916.00    0.78545   0.79539    0.037
 3917.00    0.82715   0.78419    0.037
 3918.00    0.75053   0.76586    0.037
 3919.00    0.67910   0.73160    0.036
 3920.00    0.61473   0.70058    0.036
 3921.00    0.61274   0.69514    0.037
 3922.00    0.68568   0.71181    0.037
 3923.00    0.69684   0.73183    0.037
 3924.00    0.64256   0.73232    0.037
 3925.00    0.54952   0.70055    0.036
 3926.00    0.42025   0.65202    0.036
 3927.00    0.32496   0.59459    0.036
 3928.00    0.25764   0.53217    0.036
 3929.00    0.26034   0.47594    0.037
 3930.00    0.31379   0.42308    0.037
 3931.00    0.38083   0.36455    0.037
 3932.00    0.45654   0.30238    0.037
 3933.00    0.48356   0.26319    0.037
 3934.00    0.48350   0.27711    0.037
 3935.00    0.48776   0.33875    0.037
 3936.00    0.49411   0.41534    0.037
 3937.00    0.53350   0.48621    0.038
 3938.00    0.58669   0.55276    0.038
 3939.00    0.70284   0.61168    0.039
 3940.00    0.84152   0.64669    0.039
 3941.00    0.79501   0.65705    0.039
 3942.00    0.69254   0.65065    0.039
 3943.00    0.61487   0.63700    0.039
 3944.00    0.54344   0.65538    0.038
 3945.00    0.52892   0.72070    0.038
 3946.00    0.52600   0.76933    0.038
 3947.00    0.53495   0.76124    0.039
 3948.00    0.54579   0.74862    0.039
 3949.00    0.51937   0.77531    0.039
 3950.00    0.48850   0.80846    0.039
 3951.00    0.61708   0.80092    0.039
 3952.00    0.75863   0.77550    0.040
 3953.00    0.64454   0.79091    0.040
 3954.00    0.51870   0.81890    0.039
 3955.00    0.58355   0.79292    0.039
 3956.00    0.65177   0.74467    0.039
 3957.00    0.76875   0.73878    0.040
 3958.00    0.87211   0.76314    0.040
 3959.00    0.71762   0.75502    0.039
 3960.00    0.57904   0.68060    0.000
 3961.00    0.61972   0.58420    0.000
 3962.00    0.65432   0.52917    0.000
 3963.00    0.64112   0.50620    0.000
 3964.00    0.61274   0.46977    0.000
 3965.00    0.49425   0.40430    0.000
 3966.00    0.39415   0.32306    0.000
 3967.00    0.38040   0.25005    0.000
 3968.00    0.34759   0.20921    0.000
 3969.00    0.24173   0.21513    0.000
 3970.00    0.17038   0.26385    0.000
 3971.00    0.20930   0.33432    0.000
 3972.00    0.29566   0.40369    0.000
 3973.00    0.51048   0.46748    0.000
 3974.00    0.73489   0.53491    0.000
 3975.00    0.98156   0.59792    0.000
 3976.00    1.09948   0.64679    0.000
 3977.00    0.95877   0.69637    0.000
 3978.00    0.83932   0.75505    0.000
 3979.00    0.75702   0.80841    0.000
 3980.00    0.75254   0.83035    0.000
 3981.00    0.86719   0.81599    0.039
 3982.00    0.88005   0.80082    0.039
 3983.00    0.75601   0.80913    0.039
 3984.00    0.71298   0.83335    0.039
 3985.00    0.76587   0.85467    0.039
 3986.00    0.83641   0.86833    0.039
 3987.00    0.92538   0.89471    0.039
 3988.00    0.99867   0.91685    0.038
 3989.00    1.05752   0.90797    0.038
 3990.00    1.10161   0.90338    0.038
 3991.00    1.13373   0.92683    0.038
 3992.00    1.08078   0.95319    0.038
 3993.00    0.96704   0.95791    0.038
 3994.00    0.97350   0.93983    0.038
 3995.00    1.05531   0.91131    0.038
 3996.00    1.01615   0.87927    0.039
 3997.00    0.91071   0.86483    0.039
 3998.00    0.92667   0.90067    0.038
 3999.00    1.00046   0.96487    0.038
 4000.00    1.08495   0.99733    0.038
 4001.00    1.17384   1.00016    0.039
 4002.00    1.04462   1.00837    0.038
 4003.00    0.83880   0.99281    0.038
 4004.00    0.87033   0.91599    0.039
 4005.00    0.97220   0.84453    0.039
 4006.00    1.00055   0.86230    0.039
 4007.00    1.01086   0.93485    0.040
 4008.00    0.91633   0.98434    0.039
 4009.00    0.80097   0.99794    0.039
 4010.00    0.96525   1.00066    0.039
 4011.00    1.17298   1.00093    0.039
 4012.00    1.09418   1.00116    0.039
 4013.00    0.98244   1.00531    0.038
 4014.00    0.98673   1.01738    0.039
 4015.00    1.00000   1.03173    0.039
 4016.00    1.00275   1.02165    0.039
 4017.00    1.00506   1.00323    0.039
 4018.00    0.87842   1.02400    0.039
 4019.00    0.75168   1.05782    0.038
 4020.00    0.67212   1.05373    0.038
 4021.00    0.61061   1.02968    0.038
 4022.00    0.86728   1.01491    0.038
 4023.00    1.10216   0.99677    0.039
 4024.00    1.10272   0.97967    0.039
 4025.00    1.10505   1.00105    0.039
 4026.00    1.12077   1.05077    0.038
 4027.00    1.12915   1.08338    0.038
 4028.00    1.09520   1.07304    0.038
 4029.00    1.03644   1.00323    0.038
 4030.00    0.86392   0.90863    0.038
 4031.00    0.74624   0.85770    0.037
 4032.00    0.83427   0.85178    0.037
 4033.00    0.90965   0.86627    0.037
 4034.00    0.94536   0.90424    0.036
 4035.00    0.95719   0.96588    0.036
 4036.00    0.90546   1.03827    0.036
 4037.00    0.88037   1.09140    0.036
 4038.00    0.91613   1.09919    0.036
 4039.00    0.96739   1.06688    0.037
 4040.00    1.04928   1.03127    0.037
 4041.00    1.09272   1.03290    0.038
 4042.00    1.06993   1.04642    0.038
 4043.00    1.02170   0.99390    0.038
 4044.00    0.93508   0.86999    0.038
 4045.00    0.86578   0.78233    0.038
 4046.00    0.81944   0.82864    0.038
 4047.00    0.86003   0.95038    0.038
 4048.00    1.00211   1.02557    0.038
 4049.00    1.14630   1.04971    0.039
 4050.00    1.29268   1.06156    0.040
 4051.00    1.32231   1.05006    0.040
 4052.00    1.24592   1.01576    0.039
 4053.00    1.09096   0.97952    0.039
 4054.00    0.87310   0.95370    0.039
 4055.00    0.84505   0.94834    0.039
 4056.00    0.95067   0.94359    0.039
 4057.00    1.06438   0.92235    0.039
 4058.00    1.18310   0.92674    0.039
 4059.00    1.19221   0.97784    0.039
 4060.00    1.14217   1.02088    0.039
 4061.00    0.99285   0.99292    0.039
 4062.00    0.79700   0.89615    0.039
 4063.00    0.71316   0.82423    0.039
 4064.00    0.67457   0.85730    0.039
 4065.00    0.64068   0.92613    0.039
 4066.00    0.60841   0.94025    0.038
 4067.00    0.58451   0.94763    0.038
 4068.00    0.56304   1.00037    0.038
 4069.00    0.64371   1.03075    0.038
 4070.00    0.74891   0.97293    0.039
 4071.00    0.88508   0.89789    0.039
 4072.00    1.02724   0.91391    0.039
 4073.00    1.12562   0.98358    0.040
 4074.00    1.21741   0.99767    0.040
 4075.00    1.16755   0.93326    0.039
 4076.00    1.10202   0.84253    0.039
 4077.00    1.08149   0.80035    0.039
 4078.00    1.06427   0.84241    0.040
 4079.00    0.99517   0.93216    0.039
 4080.00    0.92408   1.01526    0.039
 4081.00    0.86463   1.04874    0.039
 4082.00    0.81156   1.01967    0.038
 4083.00    0.99639   0.97017    0.038
 4084.00    1.16633   0.94244    0.038
 4085.00    1.09062   0.94552    0.038
 4086.00    1.01433   0.98163    0.038
 4087.00    0.93213   1.03551    0.038
 4088.00    0.86274   1.06655    0.038
 4089.00    0.88744   1.05595    0.037
 4090.00    0.91444   1.02522    0.037
 4091.00    0.95438   0.99398    0.037
 4092.00    0.99611   0.97830    0.000
 4093.00    1.04584   0.97990    0.000
 4094.00    1.04733   0.95392    0.000
 4095.00    0.87167   0.88834    0.000
 4096.00    0.74058   0.83604    0.000
 4097.00    0.74652   0.81665    0.000
 4098.00    0.77034   0.79992    0.000
 4099.00    0.84085   0.75027    0.000
 4100.00    0.87232   0.66046    0.000
 4101.00    0.81611   0.59498    0.000
 4102.00    0.77573   0.62061    0.000
 4103.00    0.76617   0.70486    0.000
 4104.00    0.79166   0.78729    0.000
 4105.00    0.87662   0.85431    0.000
 4106.00    0.93220   0.89766    0.000
 4107.00    0.94409   0.91087    0.000
 4108.00    0.96740   0.90407    0.000
 4109.00    1.00562   0.88957    0.000
 4110.00    1.01024   0.88382    0.000
 4111.00    0.97619   0.89790    0.000
 4112.00    0.94804   0.93124    0.000
 4113.00    0.92587   0.97133    0.037
 4114.00    0.96032   1.00086    0.037
 4115.00    1.04547   1.02160    0.037
 4116.00    1.08621   1.02893    0.037
 4117.00    1.09193   0.99722    0.037
 4118.00    1.01755   0.94577    0.052
 4119.00    0.88761   0.93652    0.191
 4120.00    0.92592   0.96477   -1.000
 4121.00    1.06662   0.97378   -1.000
 4122.00    1.02609   0.96370   -1.000
 4123.00    0.88928   0.97511   -1.000
 4124.00    0.89551   1.00789   -1.000
 4125.00    0.96769   1.01962   -1.000
 4126.00    1.06929   0.99521    0.106
 4127.00    1.18257   0.96082    0.044
 4128.00    1.14851   0.94535    0.038
 4129.00    1.06457   0.94899    0.038
 4130.00    0.87836   0.94111    0.038
 4131.00    0.66305   0.90424    0.038
 4132.00    0.68235   0.87361    0.037
 4133.00    0.75673   0.88469    0.037
 4134.00    0.89292   0.93317    0.037
 4135.00    1.04077   0.99774    0.038
 4136.00    1.00706   1.03448    0.038
 4137.00    0.94684   1.04186    0.039
 4138.00    0.97096   1.05869    0.038
 4139.00    1.00403   1.07667    0.037
 4140.00    0.99875   1.06758    0.037
 4141.00    0.99081   1.00940    0.038
 4142.00    0.99774   0.90912    0.039
 4143.00    1.00519   0.84637    0.039
 4144.00    1.25193   0.88419    0.040
 4145.00    1.48691   0.96603    0.040
 4146.00    1.31802   1.01334    0.039
 4147.00    1.15540   1.02045    0.038
 4148.00    1.08974   1.00122    0.038
 4149.00    1.02164   0.97321    0.038
 4150.00    0.92960   0.96632    0.038
 4151.00    0.87568   0.97489    0.039
 4152.00    1.09240   0.97261    0.039
 4153.00    1.27063   0.95314    0.039
 4154.00    1.23874   0.93468    0.039
 4155.00    1.19096   0.93070    0.038
 4156.00    1.07369   0.93564    0.038
 4157.00    0.93767   0.96057    0.037
 4158.00    0.73417   1.00183    0.036
 4159.00    0.60529   1.02664    0.036
 4160.00    0.70155   1.02590    0.036
 4161.00    0.75555   1.03298    0.037
 4162.00    0.70105   1.05937    0.037
 4163.00    0.70465   1.06716    0.037
 4164.00    0.83662   1.05277    0.037
 4165.00    0.93344   1.03545    0.037
 4166.00    0.96295   1.00620    0.037
 4167.00    1.01665   0.98451    0.037
 4168.00    1.11077   1.00468    0.037
 4169.00    1.17432   1.03294    0.037
 4170.00    1.19308   1.00917    0.037
 4171.00    1.13846   0.92999    0.037
 4172.00    0.98930   0.85689    0.036
 4173.00    0.91869   0.85007    0.036
 4174.00    0.93722   0.89600    0.037
 4175.00    0.98074   0.93707    0.037
 4176.00    1.04928   0.93948    0.037
 4177.00    1.05868   0.91924    0.037
 4178.00    1.01587   0.92346    0.036
 4179.00    0.96005   0.96159    0.036
 4180.00    0.89413   0.98428    0.035
 4181.00    0.90888   0.96713    0.035
 4182.00    0.97879   0.95165    0.035
 4183.00    0.95730   0.96957    0.035
 4184.00    0.88102   1.00873    0.035
 4185.00    0.82505   1.02382    0.035
 4186.00    0.77970   0.97806    0.035
 4187.00    0.85840   0.93159    0.035
 4188.00    0.99336   0.95596    0.036
 4189.00    1.06999   1.00508    0.036
 4190.00    1.12387   1.01174    0.036
 4191.00    1.03919   1.00872    0.035
 4192.00    0.90850   1.04736    0.035
 4193.00    0.81719   1.08115    0.035
 4194.00    0.73685   1.04782    0.035
 4195.00    0.81087   0.97986    0.036
 4196.00    0.92031   0.93477    0.036
 4197.00    1.00191   0.90544    0.036
 4198.00    1.07841   0.88889    0.036
 4199.00    1.01174   0.90994    0.036
 4200.00    0.92483   0.93163    0.036
 4201.00    1.07635   0.91889    0.036
 4202.00    1.25218   0.91827    0.036
 4203.00    1.10762   0.94788    0.036
 4204.00    0.94219   0.97293    0.035
 4205.00    0.96315   0.99570    0.035
 4206.00    0.98977   1.02808    0.035
 4207.00    0.97783   1.05553    0.036
 4208.00    0.96690   1.05816    0.036
 4209.00    0.98575   1.03716    0.037
 4210.00    1.00949   1.03055    0.037
 4211.00    1.10432   1.05513    0.037
 4212.00    1.17786   1.07372    0.038
 4213.00    1.04996   1.04962    0.037
 4214.00    0.94806   0.98114    0.036
 4215.00    1.02485   0.92587    0.036
 4216.00    1.06078   0.95758    0.036
 4217.00    0.87952   1.04227    0.036
 4218.00    0.76475   1.09272    0.036
 4219.00    0.93395   1.10508    0.036
 4220.00    1.06075   1.11341    0.036
 4221.00    1.03815   1.10193    0.036
 4222.00    0.97013   1.05103    0.036
 4223.00    0.76761   0.97806    0.036
 4224.00    0.66819   0.88757    0.036
 4225.00    0.82898   0.77563    0.036
 4226.00    0.93708   0.70049    0.037
 4227.00    0.93072   0.75598    0.037
 4228.00    0.96786   0.90912    0.037
 4229.00    1.08703   1.03162    0.036
 4230.00    1.10665   1.08521    0.035
 4231.00    0.96235   1.08028    0.035
 4232.00    0.88608   1.02417    0.034
 4233.00    0.90801   0.98174    0.035
 4234.00    0.96443   0.97952    0.035
 4235.00    1.06463   0.96681    0.035
 4236.00    1.13212   0.95558    0.035
 4237.00    1.16301   0.97250    0.034
 4238.00    1.24182   0.98432    0.035
 4239.00    1.36792   0.99224    0.035
 4240.00    1.28258   1.02710    0.035
 4241.00    1.01323   1.06260    0.035
 4242.00    0.89021   1.07188    0.035
 4243.00    0.87937   1.09415    0.035
 4244.00    0.88634   1.12771    0.036
 4245.00    0.90532   1.11237    0.037
 4246.00    0.98856   1.05078    0.037
 4247.00    1.10974   1.00267    0.037
 4248.00    1.20941   0.98373    0.037
 4249.00    1.29802   0.95674    0.038
 4250.00    1.21563   0.93929    0.038
 4251.00    1.05695   0.97955    0.038
 4252.00    1.02095   1.02326    0.037
 4253.00    1.03197   1.00121    0.037
 4254.00    0.94526   0.96251    0.036
 4255.00    0.82669   0.98724    0.035
 4256.00    0.87713   1.05423    0.035
 4257.00    0.97371   1.07130    0.035
 4258.00    0.93716   1.01273    0.035
 4259.00    0.87079   0.93375    0.036
 4260.00    0.71908   0.89750    0.036
 4261.00    0.55210   0.94559    0.035
 4262.00    0.82557   1.04520    0.036
 4263.00    1.15931   1.11627    0.037
 4264.00    1.19125   1.14265    0.036
 4265.00    1.19372   1.15253    0.035
 4266.00    1.08475   1.13606    0.035
 4267.00    0.96896   1.08771    0.035
 4268.00    0.97777   1.03926    0.034
 4269.00    0.98922   0.98761    0.034
 4270.00    0.86205   0.90201    0.034
 4271.00    0.73894   0.82870    0.034
 4272.00    0.72321   0.83789    0.034
 4273.00    0.71708   0.87997    0.034
 4274.00    0.84294   0.89795    0.034
 4275.00    0.96542   0.94144    0.034
 4276.00    1.05721   1.02597    0.035
 4277.00    1.14270   1.09308    0.038
 4278.00    1.18628   1.10249    0.082
 4279.00    1.23807   1.05762   -1.000
 4280.00    1.33234   1.01350   -1.000
 4281.00    1.41433   1.00861   -1.000
 4282.00    1.44506   1.02194   -2.000
 4283.00    1.42046   1.03338   -2.000
 4284.00    1.20488   1.02229   -2.000
 4285.00    0.97459   0.99296   -2.000
 4286.00    0.70153   0.98164   -2.000
 4287.00    0.57846   0.97292   -2.000
 4288.00    0.82741   0.91757   -2.000
 4289.00    1.07414   0.84250   -2.000
 4290.00    1.31613   0.83627   -2.000
 4291.00    1.42075   0.91452   -2.000
 4292.00    1.27034   0.99646   -2.000
 4293.00    1.17833   1.00938   -2.000
 4294.00    1.18106   0.98094   -2.000
 4295.00    1.11769   0.96813   -2.000
 4296.00    0.96031   0.95526   -2.000
 4297.00    0.84124   0.91043   -2.000
 4298.00    0.77011   0.82703    0.035
 4299.00    0.72536   0.74820    0.035
 4300.00    0.70969   0.73772    0.035
 4301.00    0.71878   0.76633    0.035
 4302.00    0.75196   0.78193    0.036
 4303.00    0.80061   0.80319    0.035
 4304.00    0.86252   0.82565    0.035
 4305.00    0.85548   0.82020    0.035
 4306.00    0.79632   0.78758    0.035
 4307.00    0.80945   0.73764    0.035
 4308.00    0.87058   0.71191    0.035
 4309.00    0.98081   0.74603    0.035
 4310.00    1.11961   0.81345    0.035
 4311.00    1.11110   0.87085    0.035
 4312.00    1.02793   0.90411    0.034
 4313.00    0.98013   0.92132    0.034
 4314.00    0.94786   0.95947    0.034
 4315.00    0.92165   1.05890    0.034
 4316.00    0.89773   1.16736    0.034
 4317.00    1.00391   1.20557    0.034
 4318.00    1.15170   1.18742    0.035
 4319.00    1.18901   1.15375    0.036
 4320.00    1.19680   1.11537    0.035
 4321.00    1.17664   1.08808    0.036
 4322.00    1.15037   1.04916    0.036
 4323.00    1.11663   0.95624    0.036
 4324.00    1.08159   0.83636    0.036
 4325.00    1.10018   0.77390    0.035
 4326.00    1.12588   0.83868    0.035
 4327.00    1.08744   0.98767    0.035
 4328.00    1.04301   1.09647    0.035
 4329.00    1.17079   1.10481    0.036
 4330.00    1.30841   1.06665    0.000
 4331.00    1.22549   1.05764    0.000
 4332.00    1.13714   1.07257    0.000
 4333.00    1.01483   1.08190    0.000
 4334.00    0.89848   1.09125    0.000
 4335.00    0.92533   1.07253    0.000
 4336.00    0.95989   0.97430    0.000
 4337.00    1.09463   0.83685    0.000
 4338.00    1.21426   0.73590    0.000
 4339.00    1.20188   0.66629    0.000
 4340.00    1.17718   0.64587    0.000
 4341.00    1.07294   0.72510    0.000
 4342.00    0.99205   0.83670    0.000
 4343.00    1.02900   0.89571    0.000
 4344.00    1.06102   0.93924    0.000
 4345.00    1.07288   0.99333    0.000
 4346.00    1.08816   1.02302    0.000
 4347.00    1.11501   1.04836    0.000
 4348.00    1.15120   1.09836    0.000
 4349.00    1.21401   1.11046    0.000
 4350.00    1.22286   1.02020    0.000
 4351.00    1.10018   0.90466    0.037
 4352.00    1.06519   0.89465    0.044
 4353.00    1.21465   0.97287    0.113
 4354.00    1.29699   1.03746   -1.000
 4355.00    1.25665   1.07861   -1.000
 4356.00    1.20929   1.11931   -1.000
 4357.00    1.15074   1.12129   -1.000
 4358.00    1.10624   1.07498   -1.000
 4359.00    1.08145   1.05434   -1.000
 4360.00    1.07896   1.10049    0.163
 4361.00    1.10400   1.15645    0.050
 4362.00    1.22902   1.17305    0.037
 4363.00    1.46275   1.18398    0.037
 4364.00    1.46806   1.21620    0.037
 4365.00    1.25426   1.22157    0.037
 4366.00    1.17353   1.16431    0.037
 4367.00    1.20536   1.09540    0.037
 4368.00    1.16179   1.07653    0.037
 4369.00    1.06205   1.09216    0.037
 4370.00    1.05126   1.10855    0.038
 4371.00    1.09867   1.12313    0.037
 4372.00    1.07273   1.11134    0.037
 4373.00    1.00477   1.04611    0.037
 4374.00    1.06924   0.97444    0.037
 4375.00    1.19976   0.97812    0.037
 4376.00    1.25928   1.06155    0.037
 4377.00    1.28816   1.14661    0.038
 4378.00    1.25112   1.17180    0.037
 4379.00    1.18968   1.14899    0.037
 4380.00    1.06361   1.11773    0.037
 4381.00    0.91727   1.05670    0.037
 4382.00    0.85850   0.91919    0.036
 4383.00    0.82265   0.77817    0.036
 4384.00    0.88615   0.76944    0.036
 4385.00    0.97087   0.89142    0.036
 4386.00    1.06711   1.01175    0.036
 4387.00    1.16530   1.05315    0.036
 4388.00    1.22549   1.04790    0.036
 4389.00    1.28082   1.03278    0.037
 4390.00    1.23108   1.02638    0.037
 4391.00    1.17197   1.05183    0.036
 4392.00    1.08865   1.08633    0.036
 4393.00    1.00403   1.07739    0.035
 4394.00    1.06714   1.04071    0.036
 4395.00    1.13106   1.05631    0.036
 4396.00    1.02622   1.13495    0.036
 4397.00    0.93168   1.18666    0.035
 4398.00    1.06370   1.15936    0.036
 4399.00    1.18033   1.08514    0.037
 4400.00    1.10685   1.03870    0.037
 4401.00    1.05044   1.07431    0.037
 4402.00    1.13759   1.11372    0.037
 4403.00    1.20642   1.04675    0.037
 4404.00    1.16037   0.94708    0.037
 4405.00    1.11261   0.95184    0.036
 4406.00    1.05645   1.01541    0.036
 4407.00    1.03859   1.02911    0.036
 4408.00    1.17363   1.03088    0.036
 4409.00    1.26718   1.08838    0.035
 4410.00    1.22311   1.16266    0.036
 4411.00    1.17949   1.20784    0.037
 4412.00    1.13715   1.21938    0.037
 4413.00    1.14360   1.16492    0.037
 4414.00    1.26703   1.05475    0.036
 4415.00    1.32254   0.99612    0.036
 4416.00    1.23747   1.02753    0.035
 4417.00    1.21364   1.08972    0.035
 4418.00    1.30007   1.15738    0.036
 4419.00    1.34985   1.21204    0.036
 4420.00    1.34196   1.20854    0.035
 4421.00    1.28535   1.14697    0.035
 4422.00    1.16143   1.09460    0.035
 4423.00    1.08481   1.10216    0.035
 4424.00    1.06570   1.13396    0.035
 4425.00    1.08578   1.14189    0.035
 4426.00    1.14787   1.13586    0.035
 4427.00    1.23911   1.14553    0.036
 4428.00    1.35793   1.15799    0.036
 4429.00    1.36606   1.13225    0.036
 4430.00    1.28188   1.10360    0.036
 4431.00    1.24130   1.12343    0.036
 4432.00    1.23271   1.13901    0.036
 4433.00    1.25741   1.09418    0.037
 4434.00    1.30358   1.02579    0.037
 4435.00    1.16655   1.01379    0.036
 4436.00    0.92619   1.08539    0.035
 4437.00    0.97360   1.18289    0.035
 4438.00    1.16228   1.24538    0.035
 4439.00    1.22797   1.24696    0.036
 4440.00    1.24146   1.18652    0.036
 4441.00    1.18726   1.09915    0.036
 4442.00    1.10845   1.03755    0.036
 4443.00    1.14639   1.04462    0.036
 4444.00    1.22023   1.12393    0.037
 4445.00    1.26010   1.20593    0.036
 4446.00    1.29128   1.22224    0.036
 4447.00    1.29567   1.21063    0.035
 4448.00    1.29448   1.21365    0.035
 4449.00    1.35917   1.19839    0.035
 4450.00    1.43469   1.17459    0.035
 4451.00    1.36060   1.17954    0.035
 4452.00    1.26807   1.17766    0.035
 4453.00    1.24733   1.12244    0.035
 4454.00    1.23269   1.04044    0.035
 4455.00    1.21625   1.00738    0.035
 4456.00    1.19973   1.03517    0.035
 4457.00    1.20912   1.05795    0.035
 4458.00    1.21965   1.05059    0.035
 4459.00    1.27566   1.04218    0.035
 4460.00    1.32744   1.02818    0.035
 4461.00    1.29352   1.01182    0.000
 4462.00    1.25687   1.05011    0.000
 4463.00    1.18803   1.12149    0.000
 4464.00    1.13942   1.14863    0.000
 4465.00    1.25489   1.14040    0.000
 4466.00    1.34999   1.13508    0.000
 4467.00    1.32113   1.12543    0.000
 4468.00    1.28785   1.09814    0.000
 4469.00    1.23330   1.08387    0.000
 4470.00    1.20362   1.11011    0.000
 4471.00    1.27104   1.15872    0.000
 4472.00    1.33104   1.20816    0.000
 4473.00    1.36697   1.24473    0.000
 4474.00    1.38080   1.25056    0.000
 4475.00    1.33382   1.24430    0.000
 4476.00    1.27611   1.26677    0.000
 4477.00    1.19307   1.29579    0.000
 4478.00    1.14159   1.26862    0.000
 4479.00    1.15438   1.17792    0.000
 4480.00    1.19570   1.08124    0.000
 4481.00    1.28761   1.04350    0.000
 4482.00    1.30957   1.09113    0.034
 4483.00    1.22304   1.18274    0.034
 4484.00    1.24450   1.25522    0.034
 4485.00    1.41302   1.29001    0.034
 4486.00    1.50167   1.28593    0.034
 4487.00    1.49455   1.23401    0.034
 4488.00    1.43696   1.15576    0.034
 4489.00    1.32601   1.10915    0.034
 4490.00    1.28725   1.12834    0.034
 4491.00    1.31581   1.18628    0.034
 4492.00    1.33125   1.21737    0.034
 4493.00    1.33591   1.18140    0.034
 4494.00    1.32274   1.12495    0.034
 4495.00    1.29667   1.11266    0.034
 4496.00    1.22894   1.14642    0.034
 4497.00    1.13474   1.20181    0.033
 4498.00    1.17333   1.24847    0.033
 4499.00    1.28568   1.25470    0.033
 4500.00    1.28793   1.21687    0.033
 4501.00    1.23699   1.19739    0.033
 4502.00    1.21382   1.25403    0.034
 4503.00    1.20224   1.33301    0.034
 4504.00    1.30731   1.36045    0.034
 4505.00    1.45401   1.33987    0.034
 4506.00    1.47703   1.30307    0.034
 4507.00    1.46276   1.27373    0.034
 4508.00    1.43641   1.27140    0.034
 4509.00    1.40702   1.29611    0.034
 4510.00    1.44432   1.31606    0.034
 4511.00    1.49518   1.30002    0.034
 4512.00    1.47552   1.25972    0.034
 4513.00    1.44460   1.22244    0.034
 4514.00    1.41380   1.20412    0.034
 4515.00    1.38302   1.21378    0.034
 4516.00    1.37722   1.22493    0.034
 4517.00    1.37345   1.21399    0.033
 4518.00    1.29580   1.21468    0.033
 4519.00    1.21480   1.24472    0.032
 4520.00    1.24193   1.27554    0.033
 4521.00    1.26866   1.26595    0.033
 4522.00    1.20719   1.22008    0.033
 4523.00    1.15066   1.19468    0.033
 4524.00    1.18668   1.18401    0.033
 4525.00    1.21725   1.14864    0.033
 4526.00    1.18676   1.09943    0.033
 4527.00    1.16118   1.05836    0.033
 4528.00    1.17414   1.03933    0.033
 4529.00    1.19013   1.05272    0.033
 4530.00    1.22408   1.08667    0.033
 4531.00    1.23668   1.12610    0.033
 4532.00    1.14941   1.13714    0.033
 4533.00    1.10624   1.09650    0.033
 4534.00    1.23169   1.05383    0.033
 4535.00    1.33362   1.07944    0.033
 4536.00    1.36057   1.18146    0.034
 4537.00    1.36729   1.27280    0.034
 4538.00    1.31938   1.27972    0.034
 4539.00    1.25623   1.22995    0.034
 4540.00    1.15773   1.18492    0.033
 4541.00    1.09067   1.18687    0.033
 4542.00    1.08664   1.22350    0.033
 4543.00    1.09829   1.23010    0.033
 4544.00    1.13732   1.19484    0.032
 4545.00    1.17736   1.17698    0.032
 4546.00    1.21892   1.19051    0.033
 4547.00    1.28378   1.18780    0.033
 4548.00    1.37990   1.14294    0.034
 4549.00    1.37021   1.11105    0.034
 4550.00    1.23546   1.14471    0.000
 4551.00    1.18093   1.18458    0.000
 4552.00    1.21003   1.17612    0.000
 4553.00    1.25062   1.14233    0.000
 4554.00    1.30176   1.11677    0.000
 4555.00    1.30737   1.13205    0.000
 4556.00    1.27607   1.19427    0.000
 4557.00    1.31116   1.25346    0.000
 4558.00    1.39361   1.27541    0.000
 4559.00    1.42751   1.27729    0.000
 4560.00    1.43103   1.28254    0.000
 4561.00    1.43649   1.28854    0.000
 4562.00    1.44301   1.26051    0.000
 4563.00    1.36785   1.19577    0.000
 4564.00    1.25386   1.14849    0.000
 4565.00    1.23719   1.16052    0.000
 4566.00    1.26044   1.22461    0.000
 4567.00    1.32131   1.28621    0.000
 4568.00    1.39537   1.30471    0.000
 4569.00    1.42259   1.28514    0.000
 4570.00    1.43596   1.22842    0.000
 4571.00    1.42151   1.17968    0.000
 4572.00    1.40024   1.21143    0.000
 4573.00    1.24795   1.27458    0.000
 4574.00    1.06970   1.28717    0.000
 4575.00    1.19085   1.27284    0.000
 4576.00    1.35835   1.26995    0.000
 4577.00    1.33664   1.26330    0.000
 4578.00    1.29327   1.22661    0.000
 4579.00    1.18877   1.17065    0.000
 4580.00    1.07958   1.13905    0.000
 4581.00    1.11434   1.15009    0.000
 4582.00    1.15508   1.16783    0.000
 4583.00    1.22978   1.16705    0.000
 4584.00    1.30163   1.16415    0.000
 4585.00    1.23890   1.16804    0.000
 4586.00    1.18457   1.18866    0.000
 4587.00    1.27725   1.23029    0.000
 4588.00    1.36152   1.26784    0.000
 4589.00    1.35582   1.27409    0.000
 4590.00    1.33393   1.24257    0.000
 4591.00    1.18961   1.19778    0.000
 4592.00    1.07885   1.17857    0.000
 4593.00    1.16099   1.18505    0.000
 4594.00    1.23619   1.18526    0.000
 4595.00    1.27972   1.17943    0.000
 4596.00    1.30413   1.18401    0.000
 4597.00    1.25700   1.19720    0.000
 4598.00    1.23105   1.21289    0.000
 4599.00    1.27133   1.20625    0.000
 4600.00    1.29797   1.18469    0.000
 4601.00    1.28839   1.19017    0.000
 4602.00    1.29187   1.21088    0.000
 4603.00    1.32511   1.21620    0.000
 4604.00    1.33073   1.20386    0.000
 4605.00    1.28187   1.19906    0.000
 4606.00    1.25443   1.22789    0.000
 4607.00    1.26383   1.28381    0.000
 4608.00    1.27319   1.33438    0.000
 4609.00    1.28252   1.34292    0.000
 4610.00    1.30506   1.31029    0.000
 4611.00    1.34511   1.27499    0.000
 4612.00    1.35483   1.25426    0.000
 4613.00    1.32922   1.25513    0.000
 4614.00    1.30095   1.27792    0.000
 4615.00    1.26995   1.28831    0.000
 4616.00    1.27377   1.28721    0.000
 4617.00    1.30917   1.28728    0.000
 4618.00    1.32484   1.26613    0.000
 4619.00    1.32477   1.25147    0.000
 4620.00    1.30337   1.27782    0.000
 4621.00    1.26699   1.30320    0.000
 4622.00    1.32432   1.30366    0.000
 4623.00    1.43943   1.30214    0.000
 4624.00    1.45698   1.29243    0.000
 4625.00    1.42198   1.27322    0.000
 4626.00    1.42617   1.27297    0.000
 4627.00    1.44870   1.28036    0.000
 4628.00    1.45323   1.26306    0.000
 4629.00    1.45049   1.25018    0.000
 4630.00    1.46735   1.27975    0.000
 4631.00    1.49095   1.30488    0.000
 4632.00    1.47667   1.27710    0.000
 4633.00    1.45142   1.23694    0.000
 4634.00    1.43445   1.22879    0.000
 4635.00    1.41946   1.23581    0.000
 4636.00    1.38771   1.22652    0.000
 4637.00    1.35274   1.20418    0.000
 4638.00    1.28069   1.18964    0.000
 4639.00    1.20307   1.18664    0.000
 4640.00    1.15316   1.20731    0.000
 4641.00    1.10631   1.24446    0.000
 4642.00    1.16467   1.25506    0.000
 4643.00    1.23068   1.23445    0.000
 4644.00    1.21952   1.20236    0.000
 4645.00    1.20544   1.15192    0.000
 4646.00    1.13770   1.10283    0.000
 4647.00    1.07479   1.09589    0.000
 4648.00    1.20121   1.13206    0.000
 4649.00    1.32165   1.18549    0.000
 4650.00    1.34449   1.22702    0.000
 4651.00    1.36101   1.24913    0.000
 4652.00    1.31295   1.25984    0.000
 4653.00    1.26758   1.23994    0.000
 4654.00    1.24183   1.19374    0.000
 4655.00    1.21188   1.16471    0.000
 4656.00    1.15854   1.17513    0.000
 4657.00    1.11120   1.23022    0.000
 4658.00    1.09065   1.30472    0.000
 4659.00    1.11689   1.34695    0.000
 4660.00    1.31445   1.33420    0.000
 4661.00    1.43735   1.28394    0.000
 4662.00    1.33113   1.23055    0.000
 4663.00    1.25451   1.20632    0.000
 4664.00    1.25509   1.20280    0.000
 4665.00    1.26763   1.16183    0.000
 4666.00    1.30698   1.07318    0.000
 4667.00    1.28493   1.01997    0.000
 4668.00    1.14364   1.05466    0.000
 4669.00    1.04673   1.13336    0.000
 4670.00    1.02498   1.20169    0.000
 4671.00    1.09152   1.23317    0.000
 4672.00    1.28905   1.22590    0.000
 4673.00    1.38990   1.21153    0.000
 4674.00    1.36467   1.22147    0.000
 4675.00    1.34125   1.25638    0.000
 4676.00    1.31990   1.27930    0.000
 4677.00    1.34225   1.25636    0.000
 4678.00    1.40889   1.20967    0.000
 4679.00    1.42086   1.17766    0.000
 4680.00    1.38397   1.16409    0.000
 4681.00    1.34463   1.16792    0.000
 4682.00    1.30335   1.19751    0.000
 4683.00    1.32606   1.23276    0.000
 4684.00    1.39309   1.24520    0.000
 4685.00    1.35394   1.24244    0.000
 4686.00    1.25030   1.23421    0.000
 4687.00    1.25628   1.22235    0.000
 4688.00    1.32040   1.21972    0.000
 4689.00    1.30649   1.22049    0.000
 4690.00    1.25668   1.20827    0.000
 4691.00    1.30342   1.19906    0.000
 4692.00    1.38842   1.20933    0.000
 4693.00    1.34916   1.22881    0.000
 4694.00    1.26795   1.25345    0.000
 4695.00    1.24355   1.27808    0.000
 4696.00    1.23528   1.27296    0.000
 4697.00    1.26255   1.22195    0.000
 4698.00    1.29815   1.16841    0.000
 4699.00    1.28287   1.16047    0.000
 4700.00    1.25803   1.17349    0.000
 4701.00    1.23683   1.16252    0.000
 4702.00    1.21617   1.13677    0.000
 4703.00    1.25247   1.14330    0.000
 4704.00    1.29480   1.18454    0.000
 4705.00    1.29371   1.20738    0.000
 4706.00    1.28965   1.18633    0.000
 4707.00    1.20878   1.15231    0.000
 4708.00    1.12530   1.13851    0.000
 4709.00    1.22212   1.15887    0.000
 4710.00    1.31657   1.20975    0.000
 4711.00    1.32465   1.24799    0.000
 4712.00    1.33341   1.23836    0.000
 4713.00    1.35268   1.19493    0.000
 4714.00    1.35482   1.16905    0.000
 4715.00    1.18898   1.20090    0.000
 4716.00    1.04748   1.25591    0.000
 4717.00    1.07802   1.28561    0.000
 4718.00    1.11382   1.30152    0.000
 4719.00    1.17829   1.31839    0.000
 4720.00    1.22151   1.31979    0.000
 4721.00    1.17213   1.29997    0.000
 4722.00    1.15537   1.28452    0.000
 4723.00    1.25560   1.29912    0.000
 4724.00    1.34385   1.32645    0.000
 4725.00    1.39602   1.32118    0.000
 4726.00    1.40655   1.25864    0.000
 4727.00    1.31033   1.17749    0.000
 4728.00    1.25207   1.13867    0.000
 4729.00    1.27749   1.14229    0.000
 4730.00    1.29874   1.15720    0.000
 4731.00    1.31201   1.18280    0.000
 4732.00    1.31477   1.21480    0.000
 4733.00    1.30001   1.23742    0.000
 4734.00    1.28197   1.25119    0.000
 4735.00    1.25913   1.23845    0.000
 4736.00    1.26352   1.20998    0.000
 4737.00    1.30290   1.22661    0.000
 4738.00    1.31007   1.27162    0.000
 4739.00    1.28075   1.27719    0.000
 4740.00    1.24723   1.25208    0.000
 4741.00    1.20952   1.24672    0.000
 4742.00    1.26093   1.26857    0.000
 4743.00    1.39087   1.28212    0.000
 4744.00    1.44006   1.27321    0.000
 4745.00    1.42655   1.27506    0.000
 4746.00    1.39129   1.29511    0.000
 4747.00    1.34118   1.30086    0.000
 4748.00    1.27193   1.29424    0.000
 4749.00    1.19122   1.29706    0.000
 4750.00    1.18105   1.29752    0.000
 4751.00    1.20770   1.27753    0.000
 4752.00    1.28871   1.25105    0.000
 4753.00    1.39433   1.23236    0.000
 4754.00    1.31834   1.22290    0.000
 4755.00    1.17163   1.22101    0.000
 4756.00    1.26319   1.22611    0.000
 4757.00    1.43371   1.23994    0.000
 4758.00    1.41389   1.26071    0.000
 4759.00    1.34117   1.27819    0.000
 4760.00    1.23483   1.26501    0.000
 4761.00    1.12079   1.21524    0.033
 4762.00    1.22597   1.17339    0.033
 4763.00    1.37129   1.15987    0.033
 4764.00    1.33367   1.14703    0.033
 4765.00    1.27029   1.13222    0.033
 4766.00    1.23588   1.14545    0.033
 4767.00    1.20440   1.18724    0.033
 4768.00    1.21981   1.23532    0.032
 4769.00    1.23825   1.26836    0.032
 4770.00    1.30434   1.26013    0.032
 4771.00    1.37170   1.22781    0.033
 4772.00    1.35328   1.22589    0.033
 4773.00    1.33317   1.26585    0.033
 4774.00    1.26433   1.30032    0.032
 4775.00    1.20404   1.29993    0.032
 4776.00    1.26718   1.29805    0.032
 4777.00    1.31432   1.30851    0.032
 4778.00    1.21093   1.30148    0.032
 4779.00    1.13039   1.28168    0.032
 4780.00    1.20630   1.27601    0.031
 4781.00    1.28764   1.26759    0.031
 4782.00    1.39782   1.23552    0.031
 4783.00    1.45835   1.21848    0.031
 4784.00    1.30745   1.23248    0.031
 4785.00    1.17487   1.22540    0.031
 4786.00    1.10666   1.20557    0.031
 4787.00    1.10410   1.21343    0.032
 4788.00    1.29546   1.21981    0.032
 4789.00    1.43383   1.21553    0.031
 4790.00    1.43880   1.22607    0.031
 4791.00    1.42132   1.24595    0.031
 4792.00    1.35518   1.27594    0.031
 4793.00    1.31684   1.32152    0.031
 4794.00    1.33085   1.35536    0.031
 4795.00    1.35147   1.35208    0.031
 4796.00    1.38294   1.32170    0.031
 4797.00    1.37815   1.28038    0.031
 4798.00    1.32114   1.23979    0.031
 4799.00    1.27368   1.22215    0.031
 4800.00    1.23832   1.24417    0.031
 4801.00    1.22728   1.29106    0.032
 4802.00    1.24339   1.32151    0.032
 4803.00    1.30160   1.30843    0.032
 4804.00    1.40128   1.26752    0.031
 4805.00    1.42292   1.24263    0.031
 4806.00    1.37678   1.23595    0.031
 4807.00    1.32069   1.22651    0.031
 4808.00    1.25698   1.23005    0.031
 4809.00    1.24585   1.25152    0.031
 4810.00    1.27009   1.26665    0.031
 4811.00    1.33961   1.26831    0.031
 4812.00    1.43581   1.26733    0.030
 4813.00    1.41385   1.27141    0.030
 4814.00    1.33117   1.28077    0.031
 4815.00    1.27350   1.29448    0.030
 4816.00    1.22695   1.30944    0.030
 4817.00    1.23055   1.32108    0.031
 4818.00    1.25334   1.33205    0.032
 4819.00    1.27138   1.33617    0.032
 4820.00    1.28789   1.32679    0.031
 4821.00    1.40096   1.29858    0.031
 4822.00    1.54032   1.23795    0.031
 4823.00    1.51146   1.18550    0.031
 4824.00    1.44501   1.20189    0.032
 4825.00    1.34349   1.25620    0.031
 4826.00    1.23572   1.28232    0.030
 4827.00    1.25009   1.26921    0.030
 4828.00    1.28111   1.24914    0.030
 4829.00    1.33163   1.24872    0.030
 4830.00    1.38405   1.24432    0.030
 4831.00    1.31227   1.21854    0.030
 4832.00    1.23295   1.21277    0.030
 4833.00    1.20435   1.24228    0.030
 4834.00    1.17754   1.26627    0.030
 4835.00    1.23232   1.26450    0.030
 4836.00    1.28703   1.26092    0.030
 4837.00    1.34000   1.25567    0.031
 4838.00    1.38470   1.22659    0.031
 4839.00    1.31640   1.19386    0.031
 4840.00    1.25165   1.19401    0.030
 4841.00    1.21887   1.21004    0.030
 4842.00    1.19975   1.20467    0.030
 4843.00    1.27116   1.20158    0.030
 4844.00    1.31126   1.23122    0.030
 4845.00    1.18979   1.26135    0.030
 4846.00    1.09569   1.25179    0.030
 4847.00    1.11552   1.20450    0.030
 4848.00    1.14405   1.16831    0.000
 4849.00    1.20254   1.18347    0.000
 4850.00    1.22822   1.21307    0.000
 4851.00    1.15877   1.21508    0.000
 4852.00    1.09987   1.20068    0.000
 4853.00    1.06710   1.16220    0.000
 4854.00    1.06228   1.08963    0.000
 4855.00    1.11710   1.04297    0.000
 4856.00    1.17550   1.06184    0.000
 4857.00    1.24056   1.08170    0.000
 4858.00    1.29297   1.03458    0.000
 4859.00    1.32490   0.91992    0.000
 4860.00    1.29005   0.79590    0.000
 4861.00    1.16036   0.76924    0.000
 4862.00    1.10814   0.86169    0.000
 4863.00    1.15273   0.96323    0.000
 4864.00    1.16449   1.02211    0.000
 4865.00    1.14011   1.06924    0.000
 4866.00    1.10765   1.10739    0.000
 4867.00    1.06736   1.12720    0.000
 4868.00    1.03460   1.14062    0.000
 4869.00    1.00830   1.12659    0.000
 4870.00    1.03552   1.06018    0.000
 4871.00    1.10310   1.01089    0.000
 4872.00    1.14920   1.04663    0.000
 4873.00    1.18104   1.11331    0.000
 4874.00    1.26533   1.14360    0.000
 4875.00    1.38006   1.15269    0.032
 4876.00    1.36223   1.16909    0.032
 4877.00    1.27735   1.19015    0.032
 4878.00    1.26166   1.22847    0.032
 4879.00    1.27627   1.26221    0.031
 4880.00    1.31846   1.24008    0.032
 4881.00    1.37101   1.19865    0.032
 4882.00    1.36849   1.19651    0.032
 4883.00    1.34840   1.20072    0.032
 4884.00    1.26668   1.16966    0.032
 4885.00    1.16854   1.13205    0.033
 4886.00    1.17743   1.12959    0.033
 4887.00    1.20967   1.15363    0.032
 4888.00    1.23491   1.16481    0.032
 4889.00    1.25893   1.13361    0.032
 4890.00    1.20279   1.07672    0.032
 4891.00    1.13610   1.08333    0.033
 4892.00    1.14774   1.17596    0.033
 4893.00    1.16667   1.27280    0.033
 4894.00    1.30733   1.33034    0.033
 4895.00    1.45490   1.35076    0.033
 4896.00    1.43136   1.34734    0.033
 4897.00    1.40406   1.33601    0.034
 4898.00    1.39302   1.30487    0.033
 4899.00    1.38052   1.26117    0.033
 4900.00    1.33346   1.25219    0.033
 4901.00    1.29006   1.26506    0.033
 4902.00    1.29376   1.25031    0.032
 4903.00    1.29871   1.23249    0.032
 4904.00    1.31453   1.26004    0.032
 4905.00    1.32801   1.31152    0.032
 4906.00    1.32650   1.32726    0.032
 4907.00    1.30761   1.29445    0.031
 4908.00    1.20132   1.23923    0.032
 4909.00    1.12619   1.18350    0.032
 4910.00    1.17784   1.16136    0.032
 4911.00    1.21959   1.19028    0.032
 4912.00    1.22792   1.23538    0.031
 4913.00    1.22590   1.26785    0.031
 4914.00    1.19442   1.29845    0.031
 4915.00    1.20612   1.31928    0.031
 4916.00    1.32286   1.29390    0.031
 4917.00    1.35906   1.20892    0.032
 4918.00    1.22618   1.10022    0.032
 4919.00    1.14282   1.02599    0.031
 4920.00    1.14981   1.02860    0.031
 4921.00    1.13891   1.09970    0.031
 4922.00    1.09947   1.16199    0.031
 4923.00    1.10508   1.16441    0.031
 4924.00    1.17374   1.16155    0.031
 4925.00    1.26652   1.20837    0.031
 4926.00    1.38899   1.26486    0.031
 4927.00    1.40417   1.29483    0.031
 4928.00    1.30286   1.31982    0.030
 4929.00    1.28935   1.33627    0.030
 4930.00    1.35991   1.33433    0.030
 4931.00    1.34888   1.31264    0.030
 4932.00    1.26895   1.25095    0.030
 4933.00    1.21851   1.19118    0.030
 4934.00    1.19001   1.20508    0.030
 4935.00    1.18462   1.24640    0.029
 4936.00    1.19432   1.22766    0.029
 4937.00    1.26510   1.15622    0.029
 4938.00    1.37078   1.10756    0.030
 4939.00    1.33901   1.14172    0.030
 4940.00    1.23881   1.22879    0.000
 4941.00    1.23206   1.28801    0.000
 4942.00    1.26557   1.31114    0.000
 4943.00    1.32330   1.32586    0.000
 4944.00    1.38998   1.31506    0.000
 4945.00    1.44183   1.28566    0.000
 4946.00    1.48904   1.28490    0.000
 4947.00    1.44089   1.31105    0.000
 4948.00    1.36786   1.32682    0.000
 4949.00    1.30550   1.33058    0.000
 4950.00    1.24541   1.33854    0.000
 4951.00    1.29386   1.33572    0.000
 4952.00    1.36060   1.31215    0.000
 4953.00    1.31581   1.29300    0.000
 4954.00    1.25683   1.28615    0.000
 4955.00    1.23536   1.24500    0.000
 4956.00    1.21721   1.13416    0.000
 4957.00    1.20356   1.05908    0.000
 4958.00    1.19015   1.12781    0.000
 4959.00    1.27233   1.25024    0.000
 4960.00    1.35550   1.30481    0.000
 4961.00    1.37337   1.30130    0.000
 4962.00    1.38949   1.29874    0.000
 4963.00    1.36785   1.29481    0.000
 4964.00    1.34600   1.25662    0.000
 4965.00    1.32167   1.21057    0.000
 4966.00    1.30031   1.19780    0.000
 4967.00    1.30382   1.20475    0.000
 4968.00    1.30625   1.21359    0.000
 4969.00    1.30193   1.22282    0.000
 4970.00    1.27997   1.23788    0.000
 4971.00    1.17158   1.26447    0.000
 4972.00    1.11562   1.28844    0.000
 4973.00    1.26842   1.30463    0.000
 4974.00    1.36286   1.31052    0.000
 4975.00    1.26422   1.30099    0.000
 4976.00    1.19974   1.28094    0.000
 4977.00    1.23069   1.24693    0.000
 4978.00    1.23599   1.21342    0.000
 4979.00    1.17994   1.20073    0.000
 4980.00    1.14008   1.17906    0.000
 4981.00    1.13365   1.11572    0.000
 4982.00    1.15794   1.05319    0.000
 4983.00    1.23742   1.05013    0.000
 4984.00    1.28027   1.09169    0.000
 4985.00    1.26558   1.14493    0.000
 4986.00    1.27331   1.20746    0.000
 4987.00    1.31199   1.25229    0.000
 4988.00    1.36711   1.25390    0.000
 4989.00    1.44218   1.22951    0.000
 4990.00    1.41384   1.20693    0.000
 4991.00    1.27481   1.21211    0.000
 4992.00    1.19130   1.22461    0.000
 4993.00    1.16020   1.21826    0.000
 4994.00    1.13983   1.22660    0.000
 4995.00    1.12839   1.24998    0.000
 4996.00    1.13375   1.25733    0.000
 4997.00    1.15141   1.24497    0.000
 4998.00    1.11151   1.20790    0.000
 4999.00    1.03457   1.16029    0.000
 5000.00    1.04303   1.13483    0.000
 5001.00    1.09957   1.13543    0.000
 5002.00    1.14226   1.15051    0.000
 5003.00    1.17815   1.15721    0.000
 5004.00    1.28923   1.12488    0.000
 5005.00    1.43214   1.07199    0.000
 5006.00    1.40510   1.07037    0.000
 5007.00    1.31643   1.13950    0.000
 5008.00    1.27371   1.20734    0.000
 5009.00    1.24508   1.22126    0.000
 5010.00    1.19172   1.19403    0.000
 5011.00    1.13204   1.14032    0.000
 5012.00    1.22505   1.08185    0.000
 5013.00    1.34979   1.04942    0.000
 5014.00    1.34074   1.06499    0.000
 5015.00    1.30980   1.10992    0.000
 5016.00    1.20839   1.12236    0.000
 5017.00    1.09834   1.09528    0.000
 5018.00    1.09511   1.09247    0.000
 5019.00    1.10090   1.12843    0.000
 5020.00    1.07868   1.15039    0.000
 5021.00    1.05508   1.13634    0.000
 5022.00    1.07204   1.13316    0.000
 5023.00    1.08898   1.16695    0.000
 5024.00    1.06623   1.19962    0.000
 5025.00    1.04976   1.20275    0.000
 5026.00    1.15898   1.17145    0.000
 5027.00    1.25541   1.14515    0.000
 5028.00    1.20255   1.16966    0.000
 5029.00    1.15881   1.20886    0.029
 5030.00    1.18870   1.22779    0.029
 5031.00    1.21408   1.25172    0.029
 5032.00    1.21209   1.28694    0.029
 5033.00    1.20788   1.29423    0.029
 5034.00    1.19307   1.23965    0.029
 5035.00    1.17737   1.16565    0.028
 5036.00    1.15817   1.15084    0.029
 5037.00    1.14633   1.16916    0.029
 5038.00    1.15835   1.14438    0.029
 5039.00    1.16797   1.07092    0.029
 5040.00    1.17099   0.99799    0.028
 5041.00    1.18219   1.00784    0.028
 5042.00    1.21266   1.10931    0.028
 5043.00    1.20779   1.20847    0.028
 5044.00    1.13110   1.26726    0.028
 5045.00    1.08806   1.30341    0.028
 5046.00    1.10456   1.29779    0.028
 5047.00    1.16027   1.23511    0.028
 5048.00    1.27669   1.16373    0.029
 5049.00    1.33791   1.13692    0.029
 5050.00    1.32410   1.14121    0.029
 5051.00    1.31791   1.14910    0.029
 5052.00    1.32085   1.17467    0.029
 5053.00    1.33302   1.21945    0.029
 5054.00    1.35495   1.25429    0.029
 5055.00    1.33528   1.26286    0.029
 5056.00    1.27689   1.26129    0.028
 5057.00    1.26499   1.26871    0.028
 5058.00    1.29122   1.27763    0.029
 5059.00    1.30282   1.28459    0.029
 5060.00    1.30387   1.30104    0.029
 5061.00    1.30514   1.31562    0.029
 5062.00    1.30656   1.29807    0.029
 5063.00    1.25068   1.23035    0.029
 5064.00    1.16305   1.15811    0.029
 5065.00    1.16037   1.15124    0.030
 5066.00    1.19864   1.17941    0.031
 5067.00    1.23904   1.18098    0.030
 5068.00    1.28031   1.17915    0.030
 5069.00    1.26597   1.20746    0.030
 5070.00    1.23183   1.22144    0.030
 5071.00    1.18855   1.19025    0.030
 5072.00    1.14253   1.17327    0.030
 5073.00    1.10683   1.19527    0.030
 5074.00    1.07370   1.20421    0.030
 5075.00    1.09164   1.19598    0.030
 5076.00    1.11992   1.20689    0.030
 5077.00    1.12683   1.20443    0.031
 5078.00    1.13035   1.13397    0.031
 5079.00    1.14707   1.05386    0.031
 5080.00    1.16536   1.05270    0.031
 5081.00    1.15306   1.10217    0.030
 5082.00    1.13829   1.12986    0.029
 5083.00    1.18931   1.14249    0.029
 5084.00    1.24329   1.17430    0.030
 5085.00    1.18831   1.20600    0.029
 5086.00    1.13417   1.21060    0.029
 5087.00    1.18616   1.20633    0.029
 5088.00    1.23677   1.21601    0.029
 5089.00    1.26168   1.22740    0.029
 5090.00    1.28205   1.23058    0.029
 5091.00    1.25184   1.24316    0.029
 5092.00    1.22071   1.26852    0.029
 5093.00    1.18231   1.27994    0.030
 5094.00    1.15585   1.26277    0.030
 5095.00    1.19965   1.22746    0.029
 5096.00    1.23134   1.18318    0.029
 5097.00    1.20645   1.12881    0.029
 5098.00    1.19088   1.08185    0.029
 5099.00    1.21080   1.09108    0.029
 5100.00    1.22256   1.15625    0.029
 5101.00    1.20838   1.21330    0.028
 5102.00    1.18274   1.22412    0.028
 5103.00    1.12624   1.20712    0.028
 5104.00    1.09536   1.19260    0.028
 5105.00    1.12371   1.18233    0.028
 5106.00    1.12932   1.15839    0.029
 5107.00    1.08944   1.13710    0.029
 5108.00    1.08555   1.13552    0.029
 5109.00    1.14434   1.13283    0.029
 5110.00    1.19726   1.14455    0.028
 5111.00    1.24123   1.18228    0.029
 5112.00    1.24719   1.21051    0.029
 5113.00    1.20221   1.22262    0.028
 5114.00    1.22154   1.22977    0.028
 5115.00    1.31674   1.23760    0.028
 5116.00    1.32003   1.25745    0.028
 5117.00    1.22767   1.27647    0.029
 5118.00    1.18779   1.27285    0.029
 5119.00    1.19608   1.24811    0.028
 5120.00    1.23300   1.21622    0.028
 5121.00    1.29308   1.18367    0.028
 5122.00    1.28329   1.13983    0.028
 5123.00    1.22374   1.09880    0.028
 5124.00    1.17797   1.09339    0.028
 5125.00    1.14080   1.11308    0.028
 5126.00    1.14221   1.12499    0.028
 5127.00    1.16469   1.12183    0.028
 5128.00    1.23102   1.11364    0.029
 5129.00    1.31813   1.11815    0.029
 5130.00    1.28689   1.14435    0.029
 5131.00    1.20721   1.17048    0.029
 5132.00    1.18012   1.17796    0.029
 5133.00    1.17141   1.18532    0.028
 5134.00    1.18624   1.21281    0.029
 5135.00    1.20801   1.22126    0.029
 5136.00    1.20914   1.18576    0.029
 5137.00    1.20524   1.14220    0.029
 5138.00    1.11342   1.11040    0.029
 5139.00    1.00425   1.11879    0.029
 5140.00    1.07834   1.15457    0.029
 5141.00    1.18069   1.14061    0.030
 5142.00    1.18330   1.10837    0.029
 5143.00    1.17454   1.13036    0.029
 5144.00    1.17299   1.15717    0.029
 5145.00    1.17199   1.14069    0.029
 5146.00    1.18237   1.11448    0.029
 5147.00    1.19323   1.11264    0.029
 5148.00    1.13822   1.13718    0.029
 5149.00    1.08384   1.15396    0.029
 5150.00    1.07841   1.13910    0.029
 5151.00    1.07405   1.11806    0.030
 5152.00    1.08822   1.10735    0.029
 5153.00    1.10119   1.10430    0.029
 5154.00    1.10138   1.12335    0.030
 5155.00    1.10136   1.16444    0.030
 5156.00    1.09978   1.20763    0.030
 5157.00    1.10861   1.23292    0.030
 5158.00    1.17700   1.23363    0.030
 5159.00    1.23620   1.23176    0.030
 5160.00    1.25352   1.22853    0.030
 5161.00    1.23415   1.20088    0.030
 5162.00    1.07792   1.17341    0.029
 5163.00    0.97643   1.15843    0.029
 5164.00    1.04577   1.10889    0.030
 5165.00    1.06429   1.00470    0.030
 5166.00    0.94821   0.88452    0.029
 5167.00    0.88863   0.82428    0.029
 5168.00    0.95753   0.87134    0.029
 5169.00    0.98036   0.97095    0.029
 5170.00    0.91244   0.99016    0.029
 5171.00    0.86008   0.88971    0.029
 5172.00    0.83440   0.81795    0.029
 5173.00    0.84380   0.90045    0.029
 5174.00    0.90592   1.05341    0.028
 5175.00    0.94665   1.14183    0.029
 5176.00    0.95915   1.16467    0.029
 5177.00    0.99201   1.17625    0.028
 5178.00    1.04855   1.18025    0.027
 5179.00    1.04342   1.16459    0.027
 5180.00    0.97502   1.12711    0.027
 5181.00    0.95516   1.04047    0.027
 5182.00    0.97921   0.89661    0.027
 5183.00    0.96211   0.80905    0.027
 5184.00    0.91219   0.88623    0.027
 5185.00    0.90931   1.04352    0.027
 5186.00    0.93943   1.14450    0.027
 5187.00    1.03117   1.16225    0.027
 5188.00    1.16083   1.16501    0.027
 5189.00    1.19580   1.18939    0.027
 5190.00    1.17988   1.16232    0.000
 5191.00    1.09983   1.07495    0.000
 5192.00    0.98985   1.04255    0.000
 5193.00    1.03055   1.08450    0.000
 5194.00    1.13185   1.10953    0.000
 5195.00    1.15426   1.11070    0.000
 5196.00    1.14959   1.13005    0.000
 5197.00    1.10626   1.15982    0.000
 5198.00    1.05176   1.18925    0.000
 5199.00    1.05570   1.21127    0.000
 5200.00    1.07359   1.21279    0.000
 5201.00    1.03719   1.19783    0.000
 5202.00    0.99035   1.17992    0.000
 5203.00    0.97947   1.13956    0.000
 5204.00    0.97398   1.06747    0.000
 5205.00    0.94769   1.02216    0.000
 5206.00    0.91912   1.02705    0.000
 5207.00    0.96835   1.02391    0.000
 5208.00    1.02320   1.01764    0.000
 5209.00    1.10821   1.05420    0.000
 5210.00    1.19435   1.11652    0.000
 5211.00    1.19076   1.18048    0.029
 5212.00    1.18485   1.22891    0.029
 5213.00    1.11004   1.23510    0.029
 5214.00    1.04447   1.19104    0.029
 5215.00    1.12858   1.13986    0.029
 5216.00    1.20277   1.13269    0.030
 5217.00    1.17603   1.17123    0.029
 5218.00    1.15959   1.22054    0.029
 5219.00    1.21814   1.25015    0.029
 5220.00    1.26390   1.26194    0.029
 5221.00    1.23838   1.26084    0.029
 5222.00    1.20939   1.23586    0.029
 5223.00    1.16496   1.18399    0.030
 5224.00    1.13455   1.11240    0.030
 5225.00    1.15541   1.02832    0.030
 5226.00    1.17385   0.97603    0.030
 5227.00    1.18486   1.02600    0.030
 5228.00    1.21101   1.13599    0.030
 5229.00    1.27655   1.20715    0.030
 5230.00    1.29994   1.23087    0.029
 5231.00    1.22905   1.21065    0.029
 5232.00    1.18640   1.15405    0.029
 5233.00    1.19849   1.12165    0.029
 5234.00    1.21427   1.13745    0.029
 5235.00    1.23626   1.18369    0.029
 5236.00    1.25432   1.23393    0.029
 5237.00    1.26656   1.26081    0.028
 5238.00    1.28610   1.26079    0.028
 5239.00    1.31516   1.25335    0.028
 5240.00    1.28273   1.25584    0.028
 5241.00    1.17978   1.25517    0.028
 5242.00    1.14834   1.24730    0.028
 5243.00    1.18923   1.26089    0.028
 5244.00    1.21443   1.28323    0.027
 5245.00    1.22563   1.25470    0.028
 5246.00    1.24960   1.18506    0.028
 5247.00    1.28359   1.15702    0.028
 5248.00    1.25260   1.16948    0.027
 5249.00    1.17667   1.15637    0.027
 5250.00    1.12670   1.14078    0.027
 5251.00    1.09248   1.16750    0.027
 5252.00    1.11927   1.20193    0.027
 5253.00    1.17835   1.19718    0.027
 5254.00    1.18241   1.16719    0.027
 5255.00    1.16120   1.17839    0.027
 5256.00    1.19557   1.24084    0.027
 5257.00    1.25191   1.29567    0.028
 5258.00    1.23433   1.30974    0.028
 5259.00    1.19185   1.28619    0.028
 5260.00    1.21437   1.23254    0.029
 5261.00    1.25529   1.15744    0.028
 5262.00    1.24685   1.08340    0.029
 5263.00    1.22688   1.02737    0.029
 5264.00    1.17492   0.98766    0.028
 5265.00    1.11696   0.97594    0.028
 5266.00    1.03520   1.02344    0.029
 5267.00    0.94998   1.06775    0.029
 5268.00    0.99383   1.00781    0.029
 5269.00    1.05125   0.92746    0.029
 5270.00    1.06855   0.97461    0.030
 5271.00    1.08312   1.09344    0.031
 5272.00    1.15572   1.15373    0.031
 5273.00    1.23026   1.15126    0.031
 5274.00    1.16783   1.12535    0.030
 5275.00    1.10939   1.12337    0.030
 5276.00    1.18342   1.18747    0.030
 5277.00    1.24775   1.26523    0.030
 5278.00    1.16439   1.28620    0.030
 5279.00    1.09668   1.25415    0.030
 5280.00    1.18158   1.20944    0.030
 5281.00    1.25314   1.17531    0.030
 5282.00    1.23073   1.14671    0.030
 5283.00    1.21773   1.13529    0.029
 5284.00    1.25570   1.18430    0.029
 5285.00    1.28215   1.27194    0.029
 5286.00    1.25850   1.32137    0.029
 5287.00    1.25154   1.31545    0.029
 5288.00    1.30429   1.30188    0.029
 5289.00    1.32682   1.31247    0.029
 5290.00    1.25860   1.32842    0.029
 5291.00    1.21406   1.32150    0.029
 5292.00    1.23004   1.29758    0.029
 5293.00    1.24416   1.28462    0.028
 5294.00    1.25418   1.27791    0.028
 5295.00    1.25053   1.23779    0.028
 5296.00    1.22080   1.15710    0.029
 5297.00    1.19054   1.09752    0.029
 5298.00    1.15938   1.12170    0.028
 5299.00    1.16160   1.18631    0.028
 5300.00    1.21256   1.20928    0.027
 5301.00    1.21679   1.20352    0.027
 5302.00    1.16104   1.22604    0.027
 5303.00    1.15028   1.27893    0.027
 5304.00    1.19041   1.31889    0.027
 5305.00    1.26021   1.31822    0.027
 5306.00    1.35958   1.29103    0.027
 5307.00    1.37135   1.27873    0.027
 5308.00    1.30604   1.29854    0.027
 5309.00    1.23613   1.32246    0.026
 5310.00    1.16266   1.32619    0.027
 5311.00    1.17765   1.31454    0.027
 5312.00    1.25291   1.29664    0.027
 5313.00    1.30919   1.28465    0.027
 5314.00    1.35413   1.27583    0.028
 5315.00    1.36350   1.24992    0.028
 5316.00    1.35433   1.22727    0.027
 5317.00    1.31734   1.23845    0.027
 5318.00    1.26778   1.25944    0.026
 5319.00    1.29869   1.26661    0.026
 5320.00    1.36086   1.26697    0.027
 5321.00    1.34224   1.26104    0.027
 5322.00    1.29691   1.23250    0.027
 5323.00    1.28944   1.18457    0.027
 5324.00    1.29246   1.16806    0.027
 5325.00    1.23670   1.18028    0.028
 5326.00    1.16752   1.13223    0.028
 5327.00    1.12295   1.01642    0.028
 5328.00    1.08287   0.97697    0.028
 5329.00    1.08254   1.07336    0.028
 5330.00    1.08779   1.18933    0.028
 5331.00    1.11786   1.23074    0.028
 5332.00    1.15044   1.22541    0.029
 5333.00    1.16140   1.23987    0.029
 5334.00    1.17097   1.27243    0.028
 5335.00    1.11897   1.28034    0.028
 5336.00    1.06552   1.26486    0.028
 5337.00    1.16807   1.25374    0.028
 5338.00    1.26579   1.22847    0.027
 5339.00    1.22577   1.16837    0.028
 5340.00    1.18427   1.13432    0.029
 5341.00    1.12149   1.17606    0.028
 5342.00    1.07624   1.23853    0.028
 5343.00    1.19498   1.26465    0.028
 5344.00    1.29414   1.25099    0.028
 5345.00    1.25978   1.22636    0.027
 5346.00    1.23068   1.22376    0.027
 5347.00    1.22933   1.21842    0.027
 5348.00    1.22957   1.19354    0.027
 5349.00    1.23655   1.19547    0.027
 5350.00    1.25344   1.24200    0.026
 5351.00    1.30508   1.28520    0.027
 5352.00    1.32273   1.29568    0.027
 5353.00    1.24020   1.30552    0.026
 5354.00    1.21702   1.33308    0.026
 5355.00    1.34296   1.35228    0.026
 5356.00    1.40900   1.35473    0.026
 5357.00    1.34544   1.35339    0.026
 5358.00    1.31066   1.35215    0.026
 5359.00    1.32998   1.34381    0.025
 5360.00    1.32479   1.31712    0.025
 5361.00    1.27940   1.27945    0.025
 5362.00    1.22948   1.25750    0.026
 5363.00    1.17306   1.24857    0.026
 5364.00    1.15966   1.23367    0.026
 5365.00    1.20068   1.22741    0.026
 5366.00    1.23813   1.23183    0.026
 5367.00    1.27158   1.23099    0.026
 5368.00    1.26975   1.20676   -2.000
 5369.00    1.23322   1.14563   -2.000
 5370.00    1.22106   1.08728   -2.000
 5371.00    1.23003   1.10123   -2.000
 5372.00    1.22330   1.18811   -2.000
 5373.00    1.20459   1.27097   -2.000
 5374.00    1.18177   1.31005   -2.000
 5375.00    1.15620   1.31112   -2.000
 5376.00    1.17148   1.29400   -2.000
 5377.00    1.21079   1.28923   -2.000
 5378.00    1.21382   1.29490   -2.000
 5379.00    1.19826   1.28437   -2.000
 5380.00    1.22578   1.26447   -2.000
 5381.00    1.27245   1.25177   -2.000
 5382.00    1.28863   1.24004   -2.000
 5383.00    1.29318   1.24413    0.027
 5384.00    1.33336   1.27258    0.027
 5385.00    1.38509   1.29192    0.028
 5386.00    1.39401   1.28903    0.028
 5387.00    1.39131   1.27581    0.027
 5388.00    1.31542   1.25122    0.027
 5389.00    1.22323   1.22133    0.027
 5390.00    1.28001   1.20367    0.027
 5391.00    1.36325   1.19938    0.027
 5392.00    1.29801   1.19898    0.027
 5393.00    1.21262   1.20138    0.027
 5394.00    1.11198   1.20336    0.027
 5395.00    1.00986   1.17412    0.027
 5396.00    1.11631   1.12158    0.027
 5397.00    1.23531   1.12396    0.027
 5398.00    1.18659   1.18283    0.027
 5399.00    1.13396   1.21845    0.027
 5400.00    1.15828   1.22380    0.026
 5401.00    1.18235   1.23499    0.026
 5402.00    1.19995   1.22366    0.026
 5403.00    1.21313   1.15878    0.026
 5404.00    1.16627   1.08221    0.026
 5405.00    1.12691   1.05860    0.025
 5406.00    1.15489   1.10394    0.026
 5407.00    1.17706   1.16040    0.026
 5408.00    1.16076   1.16268    0.025
 5409.00    1.14724   1.13354    0.025
 5410.00    1.14804   1.14832    0.025
 5411.00    1.14458   1.20856    0.025
 5412.00    1.12346   1.25110    0.025
 5413.00    1.12515   1.24915    0.025
 5414.00    1.20520   1.23666    0.025
 5415.00    1.26694   1.25418    0.025
 5416.00    1.27566   1.28714    0.025
 5417.00    1.26661   1.29584    0.025
 5418.00    1.21363   1.27625    0.025
 5419.00    1.18857   1.24828    0.025
 5420.00    1.22294   1.23737    0.025
 5421.00    1.24642   1.25252    0.025
 5422.00    1.24973   1.24949    0.025
 5423.00    1.25029   1.21017    0.026
 5424.00    1.24641   1.20055    0.025
 5425.00    1.23070   1.24963    0.025
 5426.00    1.19820   1.30153    0.025
 5427.00    1.19180   1.28787    0.025
 5428.00    1.21795   1.20062    0.025
 5429.00    1.21998   1.14081    0.025
 5430.00    1.19550   1.17508    0.025
 5431.00    1.14908   1.21513    0.025
 5432.00    1.08137   1.19598    0.025
 5433.00    1.08154   1.15636    0.025
 5434.00    1.13974   1.14016    0.026
 5435.00    1.19464   1.15779    0.026
 5436.00    1.24706   1.19998    0.026
 5437.00    1.27229   1.25485    0.026
 5438.00    1.27954   1.30150    0.026
 5439.00    1.26883   1.32512    0.026
 5440.00    1.24771   1.32947    0.026
 5441.00    1.23822   1.32787    0.026
 5442.00    1.23459   1.32525    0.026
 5443.00    1.25304   1.30351    0.026
 5444.00    1.28113   1.24597    0.026
 5445.00    1.29651   1.16293    0.026
 5446.00    1.30712   1.11211    0.025
 5447.00    1.32810   1.14798    0.025
 5448.00    1.35238   1.22607    0.025
 5449.00    1.31381   1.27426    0.025
 5450.00    1.25853   1.28239    0.025
 5451.00    1.23026   1.27269    0.025
 5452.00    1.20786   1.25453    0.025
 5453.00    1.21405   1.21265    0.025
 5454.00    1.22518   1.14578    0.025
 5455.00    1.21407   1.11804    0.025
 5456.00    1.20005   1.17319    0.025
 5457.00    1.20671   1.25165    0.025
 5458.00    1.21528   1.28830    0.024
 5459.00    1.24890   1.27986    0.024
 5460.00    1.28393   1.25255    0.025
 5461.00    1.31415   1.21422    0.025
 5462.00    1.34333   1.17514    0.024
 5463.00    1.27453   1.17880    0.024
 5464.00    1.20728   1.21945    0.024
 5465.00    1.17662   1.23997    0.024
 5466.00    1.15166   1.24110    0.025
 5467.00    1.20007   1.25116    0.025
 5468.00    1.24196   1.25507    0.024
 5469.00    1.22739   1.23891    0.025
 5470.00    1.21120   1.22736    0.025
 5471.00    1.18454   1.22651    0.025
 5472.00    1.16455   1.21030    0.024
 5473.00    1.17801   1.19347    0.024
 5474.00    1.19329   1.18351    0.024
 5475.00    1.21591   1.13718    0.024
 5476.00    1.24196   1.09003    0.024
 5477.00    1.27956   1.12308    0.024
 5478.00    1.30366   1.19818   -2.000
 5479.00    1.28943   1.21855   -2.000
 5480.00    1.27791   1.17862   -2.000
 5481.00    1.27302   1.15535   -2.000
 5482.00    1.26970   1.18033   -2.000
 5483.00    1.26971   1.22711   -2.000
 5484.00    1.22471   1.26736   -2.000
 5485.00    1.09777   1.26982   -2.000
 5486.00    1.02692   1.22852   -2.000
 5487.00    1.04537   1.19559   -2.000
 5488.00    1.11335   1.20368   -2.000
 5489.00    1.25049   1.22086   -2.000
 5490.00    1.32901   1.23436   -2.000
 5491.00    1.33543   1.24481   -2.000
 5492.00    1.31147   1.23431   -2.000
 5493.00    1.25458   1.22087   -2.000
 5494.00    1.24844   1.23180   -2.000
 5495.00    1.29081   1.23793   -2.000
 5496.00    1.28905   1.21396   -2.000
 5497.00    1.25011   1.20784   -2.000
 5498.00    1.21806   1.24496   -2.000
 5499.00    1.19114   1.26425   -2.000
 5500.00    1.20902   1.23117   -2.000
 5501.00    1.25611   1.19302   -2.000
 5502.00    1.29693   1.19047    0.024
 5503.00    1.33417   1.20863    0.024
 5504.00    1.30451   1.21111    0.024
 5505.00    1.24161   1.18340    0.024
 5506.00    1.21737   1.17059    0.024
 5507.00    1.20975   1.20030    0.024
 5508.00    1.23075   1.22655    0.024
 5509.00    1.26229   1.22447    0.024
 5510.00    1.23561   1.20508    0.023
 5511.00    1.19075   1.17259    0.023
 5512.00    1.16566   1.15061    0.023
 5513.00    1.14570   1.15714    0.023
 5514.00    1.15542   1.17978    0.023
 5515.00    1.17144   1.20216    0.024
 5516.00    1.20241   1.22291    0.024
 5517.00    1.23590   1.25265    0.024
 5518.00    1.27685   1.27730    0.024
 5519.00    1.31874   1.27843    0.024
 5520.00    1.31119   1.26785    0.024
 5521.00    1.29928   1.26229    0.024
 5522.00    1.25058   1.26307    0.024
 5523.00    1.19997   1.26150    0.025
 5524.00    1.22054   1.24734    0.024
 5525.00    1.24174   1.22107    0.024
 5526.00    1.20948   1.18199    0.024
 5527.00    1.17969   1.14261    0.024
 5528.00    1.20336   1.14722    0.024
 5529.00    1.22575   1.20016    0.025
 5530.00    1.23260   1.24419    0.025
 5531.00    1.23653   1.25028    0.025
 5532.00    1.21604   1.23857    0.025
 5533.00    1.20689   1.22180    0.024
 5534.00    1.26831   1.20337    0.025
 5535.00    1.31126   1.20705    0.025
 5536.00    1.26397   1.22623    0.025
 5537.00    1.21975   1.23437    0.025
 5538.00    1.18774   1.24273    0.024
 5539.00    1.15731   1.26343    0.024
 5540.00    1.13212   1.28043    0.024
 5541.00    1.12685   1.27312    0.025
 5542.00    1.17712   1.24564    0.024
 5543.00    1.21492   1.22925    0.024
 5544.00    1.22296   1.23154    0.024
 5545.00    1.23239   1.23241    0.024
 5546.00    1.24465   1.23985    0.023
 5547.00    1.24138   1.26656    0.023
 5548.00    1.21028   1.28966    0.023
 5549.00    1.20658   1.29611    0.023
 5550.00    1.24585   1.29405    0.023
 5551.00    1.26871   1.28435    0.023
 5552.00    1.26898   1.26390    0.023
 5553.00    1.25942   1.24133    0.023
 5554.00    1.23795   1.23517    0.023
 5555.00    1.21616   1.24588    0.023
 5556.00    1.19401   1.25099    0.023
 5557.00    1.17340   1.24693    0.023
 5558.00    1.15421   1.24862    0.023
 5559.00    1.17163   1.25167    0.024
 5560.00    1.21946   1.24632    0.023
 5561.00    1.23559   1.23024    0.023
 5562.00    1.22851   1.21370    0.023
 5563.00    1.22176   1.21404    0.023
 5564.00    1.21522   1.21572    0.023
 5565.00    1.22332   1.20419    0.023
 5566.00    1.23965   1.19965    0.023
 5567.00    1.20847   1.20524    0.023
 5568.00    1.15407   1.20110    0.023
 5569.00    1.13633   1.20226    0.023
 5570.00    1.13409   1.22305    0.023
 5571.00    1.16393   1.21748    0.023
 5572.00    1.20538   1.19072    0.024
 5573.00    1.21877   1.20453    0.024
 5574.00    1.22359   1.23460    0.024
 5575.00    1.16745   1.23653    0.024
 5576.00    1.09580   1.23705    0.024
 5577.00    1.11101   1.24428    0.024
 5578.00    1.14421   1.24631    0.024
 5579.00    1.20989   1.25308    0.024
 5580.00    1.28088   1.25247    0.024
 5581.00    1.20826   1.23826    0.024
 5582.00    1.11810   1.23412    0.024
 5583.00    1.14083   1.23535    0.024
 5584.00    1.17305   1.21754    0.024
 5585.00    1.18652   1.17276    0.023
 5586.00    1.19907   1.11874    0.023
 5587.00    1.11500   1.08857    0.023
 5588.00    1.03118   1.09254    0.023
 5589.00    1.04800   1.12314    0.023
 5590.00    1.06526   1.16139    0.023
 5591.00    1.09139   1.18155    0.023
 5592.00    1.11725   1.17880    0.023
 5593.00    1.13996   1.16665    0.024
 5594.00    1.16050   1.18114    0.024
 5595.00    1.16359   1.22894    0.024
 5596.00    1.15591   1.24719    0.023
 5597.00    1.08313   1.21008    0.023
 5598.00    1.01839   1.17564    0.023
 5599.00    0.99195   1.16838    0.023
 5600.00    0.98281   1.15567    0.023
 5601.00    1.04090   1.13454    0.023
 5602.00    1.09324   1.13474    0.023
 5603.00    1.12695   1.17749    0.023
 5604.00    1.16547   1.23715    0.023
 5605.00    1.21714   1.27597    0.023
 5606.00    1.25498   1.28837    0.023
 5607.00    1.26035   1.28544    0.024
 5608.00    1.24632   1.27870    0.024
 5609.00    1.19295   1.27483    0.024
 5610.00    1.14491   1.27977    0.024
 5611.00    1.10630   1.29114    0.023
 5612.00    1.09264   1.28959    0.023
 5613.00    1.11754   1.23993    0.023
 5614.00    1.13257   1.14990    0.023
 5615.00    1.13421   1.10774    0.024
 5616.00    1.13330   1.15036    0.024
 5617.00    1.12938   1.20085    0.023
 5618.00    1.13744   1.20992    0.023
 5619.00    1.15813   1.20595    0.023
 5620.00    1.15467   1.21996    0.024
 5621.00    1.12875   1.24108    0.024
 5622.00    1.13575   1.23109    0.024
 5623.00    1.16973   1.17853    0.024
 5624.00    1.18927   1.13863    0.024
 5625.00    1.19840   1.15520    0.024
 5626.00    1.19402   1.19360    0.024
 5627.00    1.18109   1.21834    0.023
 5628.00    1.19663   1.24005    0.023
 5629.00    1.22792   1.26205    0.023
 5630.00    1.22198   1.27255    0.023
 5631.00    1.19813   1.26947    0.022
 5632.00    1.20023   1.25730    0.022
 5633.00    1.21312   1.24066    0.023
 5634.00    1.22616   1.22579    0.022
 5635.00    1.23926   1.20993    0.022
 5636.00    1.18429   1.19170    0.022
 5637.00    1.10890   1.18675    0.021
 5638.00    1.05396   1.20109    0.022
 5639.00    1.00411   1.20771    0.022
 5640.00    1.00791   1.19116    0.022
 5641.00    1.02254   1.18233    0.021
 5642.00    1.07242   1.19465    0.021
 5643.00    1.12789   1.20734    0.022
 5644.00    1.20838   1.21543    0.022
 5645.00    1.29183   1.22414    0.022
 5646.00    1.26837   1.23406    0.022
 5647.00    1.23637   1.23769    0.022
 5648.00    1.20630   1.22835    0.022
 5649.00    1.17631   1.21885    0.023
 5650.00    1.13568   1.22818    0.023
 5651.00    1.09596   1.24888    0.023
 5652.00    1.10663   1.25406    0.023
 5653.00    1.11672   1.22984    0.023
 5654.00    1.11608   1.20284    0.023
 5655.00    1.11808   1.20508    0.023
 5656.00    1.14935   1.19500    0.023
 5657.00    1.16926   1.13553    0.023
 5658.00    1.10101   1.10236    0.023
 5659.00    1.05033   1.14481    0.023
 5660.00    1.10274   1.18576    0.023
 5661.00    1.14570   1.17540    0.023
 5662.00    1.14477   1.16375    0.023
 5663.00    1.13937   1.18976    0.023
 5664.00    1.11705   1.22488    0.023
 5665.00    1.10184   1.23225    0.022
 5666.00    1.10922   1.21118    0.022
 5667.00    1.11576   1.19216    0.022
 5668.00    1.12009   1.19364    0.022
 5669.00    1.13222   1.20565    0.022
 5670.00    1.16233   1.21877    0.022
 5671.00    1.19979   1.24057    0.022
 5672.00    1.25194   1.26813    0.023
 5673.00    1.28198   1.27725    0.023
 5674.00    1.27359   1.26348    0.023
 5675.00    1.25869   1.25811    0.023
 5676.00    1.23390   1.26958    0.022
 5677.00    1.22797   1.26944    0.022
 5678.00    1.24727   1.25466    0.022
 5679.00    1.23962   1.24733    0.022
 5680.00    1.20022   1.23997    0.022
 5681.00    1.17268   1.21063    0.022
 5682.00    1.15745   1.18412    0.022
 5683.00    1.14112   1.19069    0.022
 5684.00    1.12378   1.21210    0.022
 5685.00    1.12392   1.21281    0.022
 5686.00    1.13817   1.19066    0.022
 5687.00    1.13988   1.17452    0.022
 5688.00    1.13269   1.18591    0.022
 5689.00    1.13534   1.21526    0.022
 5690.00    1.14414   1.23962    0.023
 5691.00    1.16791   1.25763    0.023
 5692.00    1.19985   1.26702    0.022
 5693.00    1.24368   1.26126    0.023
 5694.00    1.29313   1.25311    0.023
 5695.00    1.27674   1.25484    0.023
 5696.00    1.23345   1.25317    0.023
 5697.00    1.19489   1.23239    0.023
 5698.00    1.15799   1.21373    0.023
 5699.00    1.15032   1.20454    0.023
 5700.00    1.15125   1.18491    0.024
 5701.00    1.15640   1.17015    0.024
 5702.00    1.16258   1.18416    0.023
 5703.00    1.18889   1.21024    0.023
 5704.00    1.21918   1.21344    0.023
 5705.00    1.19228   1.18805    0.023
 5706.00    1.15661   1.15990    0.023
 5707.00    1.14456   1.13570    0.022
 5708.00    1.13518   1.11478    0.022
 5709.00    1.16523   1.11718    0.022
 5710.00    1.19826   1.12885    0.022
 5711.00    1.20524   1.13808    0.022
 5712.00    1.21117   1.17151    0.022
 5713.00    1.21782   1.21327    0.022
 5714.00    1.22355   1.23320    0.022
 5715.00    1.19123   1.24267    0.022
 5716.00    1.16181   1.24625    0.022
 5717.00    1.18235   1.24376    0.022
 5718.00    1.20158   1.24952    0.022
 5719.00    1.20691   1.26033    0.022
 5720.00    1.21326   1.27010    0.022
 5721.00    1.22716   1.28264    0.022
 5722.00    1.24547   1.29145    0.022
 5723.00    1.28895   1.29073    0.022
 5724.00    1.32514   1.28451    0.022
 5725.00    1.32829   1.26671    0.022
 5726.00    1.32136   1.23880    0.022
 5727.00    1.27700   1.23361    0.022
 5728.00    1.24896   1.25610    0.022
 5729.00    1.27171   1.26520    0.022
 5730.00    1.28096   1.24161    0.023
 5731.00    1.25453   1.22305    0.023
 5732.00    1.23811   1.23889    0.023
 5733.00    1.24439   1.26593    0.023
 5734.00    1.24946   1.27842    0.023
 5735.00    1.25217   1.27435    0.023
 5736.00    1.25695   1.26442    0.023
 5737.00    1.26526   1.25913    0.023
 5738.00    1.25881   1.25844    0.023
 5739.00    1.23020   1.25918    0.023
 5740.00    1.22038   1.25834    0.000
 5741.00    1.23532   1.25145    0.000
 5742.00    1.23927   1.24366    0.000
 5743.00    1.23046   1.25125    0.000
 5744.00    1.23020   1.27281    0.000
 5745.00    1.23871   1.28379    0.000
 5746.00    1.25261   1.26251    0.000
 5747.00    1.27139   1.22754    0.000
 5748.00    1.25796   1.22406    0.000
 5749.00    1.21887   1.25339    0.000
 5750.00    1.22073   1.26988    0.000
 5751.00    1.25128   1.24562    0.000
 5752.00    1.26984   1.19827    0.000
 5753.00    1.28104   1.16917    0.000
 5754.00    1.27719   1.18791    0.000
 5755.00    1.26528   1.23605    0.000
 5756.00    1.26096   1.27188    0.000
 5757.00    1.26018   1.28326    0.000
 5758.00    1.25630   1.27271    0.000
 5759.00    1.25118   1.24570    0.000
 5760.00    1.24418   1.21245    0.000
 5761.00    1.23654   1.18269    0.000
 5762.00    1.23623   1.17653    0.000
 5763.00    1.23803   1.21268    0.000
 5764.00    1.23819   1.26022    0.000
 5765.00    1.23797   1.28255    0.000
 5766.00    1.22809   1.28622    0.000
 5767.00    1.21637   1.28463    0.000
 5768.00    1.21360   1.27876    0.000
 5769.00    1.21217   1.27187    0.000
 5770.00    1.23894   1.26313    0.000
 5771.00    1.26878   1.25061    0.000
 5772.00    1.26620   1.24486    0.000
 5773.00    1.26129   1.24291    0.000
 5774.00    1.26252   1.24061    0.000
 5775.00    1.26397   1.24841    0.000
 5776.00    1.24085   1.26131    0.000
 5777.00    1.21726   1.26517    0.000
 5778.00    1.18086   1.25121    0.000
 5779.00    1.14735   1.21039    0.000
 5780.00    1.16049   1.15753    0.000
 5781.00    1.17261   1.13512    0.000
 5782.00    1.17447   1.14879    0.000
 5783.00    1.17222   1.15672    0.000
 5784.00    1.14030   1.14300    0.000
 5785.00    1.11804   1.14823    0.000
 5786.00    1.14936   1.18643    0.000
 5787.00    1.17708   1.22140    0.000
 5788.00    1.18875   1.23800    0.000
 5789.00    1.18966   1.23158    0.000
 5790.00    1.15134   1.21175    0.000
 5791.00    1.12541   1.21228   -2.000
 5792.00    1.13731   1.23198   -2.000
 5793.00    1.14194   1.25237   -2.000
 5794.00    1.12769   1.27014   -2.000
 5795.00    1.13828   1.27037   -2.000
 5796.00    1.20430   1.24161   -2.000
 5797.00    1.41518   1.21535   -2.000
 5798.00    1.90626   1.23097   -2.000
 5799.00    2.24873   1.27020   -2.000
 5800.00    2.34047   1.29526   -2.000
 5801.00    2.22910   1.30214   -2.000
 5802.00    1.81747   1.29026   -2.000
 5803.00    1.50751   1.25912   -2.000
 5804.00    1.32967   1.23353   -2.000
 5805.00    1.25159   1.22938   -2.000
 5806.00    1.28773   1.23903   -2.000
 5807.00    1.31959   1.24917   -2.000
 5808.00    1.34713   1.25451   -2.000
 5809.00    1.35052   1.26162   -2.000
 5810.00    1.33241   1.27052   -2.000
 5811.00    1.30156   1.27329    0.000
 5812.00    1.26070   1.27047    0.000
 5813.00    1.23181   1.26147    0.000
 5814.00    1.21118   1.24075    0.000
 5815.00    1.21651   1.21815    0.000
 5816.00    1.23755   1.22070    0.000
 5817.00    1.25262   1.25177    0.000
 5818.00    1.26452   1.28067    0.000
 5819.00    1.27190   1.29148    0.000
 5820.00    1.27720   1.29121    0.000
 5821.00    1.26942   1.28408    0.000
 5822.00    1.25649   1.27481    0.000
 5823.00    1.23539   1.27193    0.000
 5824.00    1.21153   1.27758    0.000
 5825.00    1.23470   1.28174    0.000
 5826.00    1.27114   1.28017    0.000
 5827.00    1.30308   1.27948    0.000
 5828.00    1.33398   1.28436    0.000
 5829.00    1.31921   1.28832    0.000
 5830.00    1.29591   1.28495    0.000
 5831.00    1.29986   1.28115    0.000
 5832.00    1.30775   1.27827    0.000
 5833.00    1.30363   1.26728    0.000
 5834.00    1.29825   1.25645    0.000
 5835.00    1.31319   1.26265    0.000
 5836.00    1.32952   1.27148    0.000
 5837.00    1.31632   1.26425    0.000
 5838.00    1.30214   1.25943    0.000
 5839.00    1.26264   1.27247    0.000
 5840.00    1.22453   1.28886    0.000
 5841.00    1.23055   1.29646    0.000
 5842.00    1.23473   1.29683    0.000
 5843.00    1.21110   1.29050    0.000
 5844.00    1.19283   1.27861    0.000
 5845.00    1.22646   1.26299    0.000
 5846.00    1.25760   1.24691    0.000
 5847.00    1.27128   1.23945    0.000
 5848.00    1.27761   1.24457    0.000
 5849.00    1.24419   1.25272    0.000
 5850.00    1.21613   1.25043    0.000
 5851.00    1.21125   1.23022    0.000
 5852.00    1.20675   1.20184    0.000
 5853.00    1.20361   1.19436    0.000
 5854.00    1.20581   1.21006    0.000
 5855.00    1.22401   1.20950    0.000
 5856.00    1.22875   1.17493    0.000
 5857.00    1.19916   1.14832    0.000
 5858.00    1.17046   1.16380    0.000
 5859.00    1.14373   1.19870    0.000
 5860.00    1.12354   1.22321    0.000
 5861.00    1.11580   1.22281    0.000
 5862.00    1.11699   1.21540    0.000
 5863.00    1.13301   1.22401    0.000
 5864.00    1.15599   1.23494    0.000
 5865.00    1.18911   1.22639    0.000
 5866.00    1.21666   1.21336    0.000
 5867.00    1.23708   1.22268    0.000
 5868.00    1.24155   1.24551    0.000
 5869.00    1.22802   1.26120    0.000
 5870.00    1.23464   1.26399    0.000
 5871.00    1.26132   1.25562    0.000
 5872.00    1.26739   1.24413    0.000
 5873.00    1.25534   1.24470    0.000
 5874.00    1.23471   1.25353    0.000
 5875.00    1.20744   1.25237    0.000
 5876.00    1.21609   1.24237    0.000
 5877.00    1.24917   1.23245    0.000
 5878.00    1.25607   1.21949    0.000
 5879.00    1.24737   1.20242    0.000
 5880.00    1.20607   1.19919    0.000
 5881.00    1.14782   1.21153    0.000
 5882.00    1.12491   1.21317    0.000
 5883.00    1.11792   1.20129    0.000
 5884.00    1.08568   1.19940    0.000
 5885.00    1.04364   1.20634    0.000
 5886.00    1.02311   1.19231    0.000
 5887.00    1.00968   1.12000    0.000
 5888.00    1.00723   0.97241    0.000
 5889.00    1.00782   0.84094    0.000
 5890.00    1.02586   0.85687    0.000
 5891.00    1.04787   0.97461    0.000
 5892.00    1.04964   1.06262    0.000
 5893.00    1.04773   1.07482    0.000
 5894.00    1.01699   0.99921    0.000
 5895.00    0.98222   0.90759    0.000
 5896.00    1.02733   0.93393    0.000
 5897.00    1.08046   1.04572    0.000
 5898.00    1.12998   1.12372    0.000
 5899.00    1.17927   1.15967    0.000
 5900.00    1.18904   1.18680    0.000
 5901.00    1.19759   1.20287    0.021
 5902.00    1.18344   1.20917    0.021
 5903.00    1.16961   1.21225    0.021
 5904.00    1.16486   1.20628    0.021
 5905.00    1.16109   1.19786    0.021
 5906.00    1.17125   1.20277    0.022
 5907.00    1.18166   1.21644    0.022
 5908.00    1.19438   1.22253    0.022
 5909.00    1.20745   1.22278    0.022
 5910.00    1.22284   1.22963    0.022
 5911.00    1.23544   1.23461    0.022
 5912.00    1.23338   1.21669    0.022
 5913.00    1.22538   1.18271    0.021
 5914.00    1.19223   1.16456    0.021
 5915.00    1.17094   1.16895    0.021
 5916.00    1.19113   1.18671    0.021
 5917.00    1.21424   1.20530    0.021
 5918.00    1.24594   1.21678    0.021
 5919.00    1.26535   1.22627    0.021
 5920.00    1.25391   1.22731    0.021
 5921.00    1.23122   1.21757    0.020
 5922.00    1.18425   1.21340    0.020
 5923.00    1.14676   1.21970    0.020
 5924.00    1.12708   1.22850    0.020
 5925.00    1.12106   1.23631    0.020
 5926.00    1.13741   1.23492    0.020
 5927.00    1.14883   1.22085    0.020
 5928.00    1.15318   1.19885    0.020
 5929.00    1.15642   1.18153    0.020
 5930.00    1.15826   1.19216    0.020
 5931.00    1.16985   1.22113    0.021
 5932.00    1.19229   1.23057    0.021
 5933.00    1.20223   1.21054    0.021
 5934.00    1.19991   1.19324    0.021
 5935.00    1.18906   1.20493    0.021
 5936.00    1.17083   1.22530    0.022
 5937.00    1.13776   1.23619    0.022
 5938.00    1.09340   1.24193    0.021
 5939.00    1.07743   1.23356    0.021
 5940.00    1.08049   1.20972    0.021
 5941.00    1.10271   1.19645    0.021
 5942.00    1.13617   1.20374    0.021
 5943.00    1.14467   1.21929    0.021
 5944.00    1.14038   1.23498    0.021
 5945.00    1.12903   1.24498    0.021
 5946.00    1.11454   1.23853    0.020
 5947.00    1.15148   1.21198    0.021
 5948.00    1.20800   1.18761    0.021
 5949.00    1.24619   1.19474    0.021
 5950.00    1.27844   1.21591    0.021
 5951.00    1.25840   1.21040    0.021
 5952.00    1.22419   1.18980    0.021
 5953.00    1.20735   1.19573    0.021
 5954.00    1.19436   1.21565    0.020
 5955.00    1.19933   1.21233    0.020
 5956.00    1.20746   1.19473    0.020
 5957.00    1.20875   1.19170    0.020
 5958.00    1.20910   1.20615    0.020
 5959.00    1.20024   1.22586    0.020
 5960.00    1.19050   1.24153    0.021
 5961.00    1.19233   1.24876    0.020
 5962.00    1.19484   1.24794    0.020
 5963.00    1.18958   1.24313    0.020
 5964.00    1.18397   1.23141    0.021
 5965.00    1.15703   1.21989    0.021
 5966.00    1.13168   1.22535    0.021
 5967.00    1.14671   1.23911    0.021
 5968.00    1.16209   1.24719    0.021
 5969.00    1.18223   1.25335    0.021
 5970.00    1.19944   1.25889    0.021
 5971.00    1.19037   1.25945    0.021
 5972.00    1.18044   1.25653    0.021
 5973.00    1.16476   1.24841    0.021
 5974.00    1.14990   1.22919    0.021
 5975.00    1.13926   1.20419    0.021
 5976.00    1.13004   1.18860    0.021
 5977.00    1.12673   1.18933    0.021
 5978.00    1.12199   1.20367    0.020
 5979.00    1.11232   1.22527    0.020
 5980.00    1.11088   1.23881    0.020
 5981.00    1.13320   1.23281    0.020
 5982.00    1.15643   1.20409    0.020
 5983.00    1.18191   1.16730    0.020
 5984.00    1.19987   1.15927    0.020
 5985.00    1.20188   1.18307    0.020
 5986.00    1.19772   1.20263    0.020
 5987.00    1.18220   1.21146    0.020
 5988.00    1.16567   1.22250    0.020
 5989.00    1.14754   1.22760    0.020
 5990.00    1.13630   1.21603    0.020
 5991.00    1.13481   1.20818    0.020
 5992.00    1.14548   1.22456    0.020
 5993.00    1.17128   1.24614    0.020
 5994.00    1.18027   1.24937    0.020
 5995.00    1.17082   1.23350    0.020
 5996.00    1.17755   1.20802    0.020
 5997.00    1.19995   1.19149    0.021
 5998.00    1.20952   1.19600    0.021
 5999.00    1.20813   1.21246    0.021
 6000.00    1.18711   1.22337    0.021
 6001.00    1.15134   1.21394    0.021
 6002.00    1.12069   1.19744    0.021
 6003.00    1.09343   1.20221    0.021
 6004.00    1.08503   1.21467    0.021
 6005.00    1.08753   1.20827    0.021
 6006.00    1.09562   1.18202    0.021
 6007.00    1.10652   1.15410    0.020
 6008.00    1.14413   1.16127    0.020
 6009.00    1.19338   1.20282    0.020
 6010.00    1.22497   1.22945    0.020
 6011.00    1.24995   1.21689    0.020
 6012.00    1.24067   1.18784    0.020
 6013.00    1.22051   1.18028    0.020
 6014.00    1.19143   1.19322    0.020
 6015.00    1.15998   1.19391    0.021
 6016.00    1.16928   1.18609    0.020
 6017.00    1.18740   1.19160    0.020
 6018.00    1.19360   1.19290    0.020
 6019.00    1.19774   1.17702    0.020
 6020.00    1.15903   1.16742    0.020
 6021.00    1.11472   1.17524    0.020
 6022.00    1.11081   1.18652    0.020
 6023.00    1.11062   1.19160    0.020
 6024.00    1.15663   1.20309    0.020
 6025.00    1.20523   1.21517    0.020
 6026.00    1.22376   1.21457    0.020
 6027.00    1.24145   1.21921    0.021
 6028.00    1.24035   1.23293    0.021
 6029.00    1.23875   1.23843    0.021
 6030.00    1.22589   1.23644    0.021
 6031.00    1.21459   1.24080    0.020
 6032.00    1.22338   1.24976    0.021
 6033.00    1.23154   1.25237    0.021
 6034.00    1.23435   1.24942    0.021
 6035.00    1.23699   1.24854    0.021
 6036.00    1.23852   1.25071    0.021
 6037.00    1.23756   1.25172    0.021
 6038.00    1.22412   1.24618    0.021
 6039.00    1.21292   1.23723    0.021
 6040.00    1.21078   1.23119    0.021
 6041.00    1.21377   1.22798    0.020
 6042.00    1.23402   1.23586    0.020
 6043.00    1.25352   1.25052    0.020
 6044.00    1.27088   1.25701    0.020
 6045.00    1.28752   1.25714    0.020
 6046.00    1.30242   1.25887    0.020
 6047.00    1.31169   1.25877    0.020
 6048.00    1.30919   1.25554    0.020
 6049.00    1.29157   1.25797    0.020
 6050.00    1.24647   1.26179    0.020
 6051.00    1.21662   1.25462    0.020
 6052.00    1.21103   1.23877    0.020
 6053.00    1.21259   1.22783    0.020
 6054.00    1.22414   1.22202    0.020
 6055.00    1.23890   1.21288    0.020
 6056.00    1.25760   1.20957    0.020
 6057.00    1.26463   1.21960    0.021
 6058.00    1.25903   1.23634    0.021
 6059.00    1.24369   1.24891    0.021
 6060.00    1.21905   1.25118    0.021
 6061.00    1.20466   1.24197    0.021
 6062.00    1.19890   1.22643    0.021
 6063.00    1.19847   1.20525    0.021
 6064.00    1.20199   1.17722    0.021
 6065.00    1.21736   1.17570    0.021
 6066.00    1.24042   1.21509    0.021
 6067.00    1.26123   1.25343    0.021
 6068.00    1.28074   1.26686    0.021
 6069.00    1.29295   1.26689    0.021
 6070.00    1.30152   1.26659    0.021
 6071.00    1.28540   1.26916    0.021
 6072.00    1.25869   1.27182    0.020
 6073.00    1.23987   1.27174    0.020
 6074.00    1.22396   1.26817    0.019
 6075.00    1.21552   1.25968    0.019
 6076.00    1.20940   1.24413    0.019
 6077.00    1.20941   1.21890    0.020
 6078.00    1.21100   1.20226    0.020
 6079.00    1.20338   1.20929    0.019
 6080.00    1.19381   1.21307    0.019
 6081.00    1.18630   1.19949    0.019
 6082.00    1.17912   1.19579    0.019
 6083.00    1.14582   1.20472    0.020
 6084.00    1.10923   1.20502    0.020
 6085.00    1.11312   1.20227    0.020
 6086.00    1.12055   1.21053    0.020
 6087.00    1.16789   1.22279    0.020
 6088.00    1.21730   1.21859    0.020
 6089.00    1.23650   1.19814    0.020
 6090.00    1.25490   1.18826    0.020
 6091.00    1.25551   1.19271    0.021
 6092.00    1.25555   1.19747    0.021
 6093.00    1.24343   1.20920    0.021
 6094.00    1.23144   1.23050    0.020
 6095.00    1.22119   1.23789    0.020
 6096.00    1.21063   1.22686    0.020
 6097.00    1.19749   1.22244    0.020
 6098.00    1.18273   1.23397    0.020
 6099.00    1.15792   1.24491    0.020
 6100.00    1.13453   1.22490    0.020
 6101.00    1.11804   1.15875    0.020
 6102.00    1.10685   1.10666    0.020
 6103.00    1.11664   1.13522    0.019
 6104.00    1.12658   1.19696    0.019
 6105.00    1.13701   1.22607    0.019
 6106.00    1.15025   1.22137    0.019
 6107.00    1.17131   1.21124    0.020
 6108.00    1.19294   1.22088    0.019
 6109.00    1.21597   1.23450    0.019
 6110.00    1.23344   1.22623    0.019
 6111.00    1.23949   1.21562    0.019
 6112.00    1.23524   1.22534    0.020
 6113.00    1.21254   1.24307    0.020
 6114.00    1.19301   1.24502    0.020
 6115.00    1.17845   1.22658    0.020
 6116.00    1.16749   1.21718    0.020
 6117.00    1.16149   1.22689    0.020
 6118.00    1.17061   1.22475    0.020
 6119.00    1.19800   1.20110    0.021
 6120.00    1.21582   1.16486    0.021
 6121.00    1.22343   1.12839    0.020
 6122.00    1.22997   1.13686    0.020
 6123.00    1.23551   1.18787    0.020
 6124.00    1.22318   1.21751    0.020
 6125.00    1.19603   1.21409    0.021
 6126.00    1.16774   1.20174    0.020
 6127.00    1.13861   1.18980    0.020
 6128.00    1.13700   1.18885    0.019
 6129.00    1.15304   1.20525    0.019
 6130.00    1.16054   1.22448    0.019
 6131.00    1.16325   1.23374    0.019
 6132.00    1.16320   1.23655    0.019
 6133.00    1.16181   1.22577    0.019
 6134.00    1.16341   1.18643    0.020
 6135.00    1.16626   1.11517    0.020
 6136.00    1.15263   1.04831    0.020
 6137.00    1.13306   1.05949    0.020
 6138.00    1.13411   1.14380    0.020
 6139.00    1.14146   1.20676    0.020
 6140.00    1.15537   1.19708    0.020
 6141.00    1.17096   1.16731    0.020
 6142.00    1.19395   1.18260    0.020
 6143.00    1.21847   1.22244    0.020
 6144.00    1.23137   1.24020    0.020
 6145.00    1.24240   1.23624    0.021
 6146.00    1.21399   1.22427    0.020
 6147.00    1.18079   1.20468    0.020
 6148.00    1.15874   1.18435    0.020
 6149.00    1.13762   1.17624    0.020
 6150.00    1.15347   1.18540    0.020
 6151.00    1.17108   1.20346    0.020
 6152.00    1.18275   1.21558    0.020
 6153.00    1.19353   1.20485    0.020
 6154.00    1.15783   1.18460    0.020
 6155.00    1.12202   1.18258    0.020
 6156.00    1.08399   1.18961    0.020
 6157.00    1.04868   1.19000    0.020
 6158.00    1.04483   1.18618    0.020
 6159.00    1.04500   1.15869    0.020
 6160.00    1.07741   1.08807    0.020
 6161.00    1.10499   1.02008    0.019
 6162.00    1.10349   1.01450    0.019
 6163.00    1.10053   1.06326    0.019
 6164.00    1.09072   1.11493    0.019
 6165.00    1.08543   1.14178    0.019
 6166.00    1.09766   1.15792    0.019
 6167.00    1.10774   1.15395    0.019
 6168.00    1.11085   1.10712    0.020
 6169.00    1.11170   1.06923    0.020
 6170.00    1.10633   1.09760    0.020
 6171.00    1.10224   1.15002    0.020
 6172.00    1.10117   1.16730    0.020
 6173.00    1.10122   1.16486    0.020
 6174.00    1.10354   1.16632    0.020
 6175.00    1.10124   1.16314    0.019
 6176.00    1.09081   1.15897    0.020
 6177.00    1.08564   1.17075    0.020
 6178.00    1.08858   1.18439    0.020
 6179.00    1.09561   1.18230    0.020
 6180.00    1.10818   1.18421    0.020
 6181.00    1.11685   1.19701    0.020
 6182.00    1.12084   1.20218    0.020
 6183.00    1.11920   1.19978    0.020
 6184.00    1.11164   1.19439    0.020
 6185.00    1.11525   1.17644    0.019
 6186.00    1.12922   1.15492    0.019
 6187.00    1.14588   1.14587    0.019
 6188.00    1.16476   1.14712    0.019
 6189.00    1.16324   1.13368    0.019
 6190.00    1.14704   1.09100    0.019
 6191.00    1.12648   1.07347    0.019
 6192.00    1.10317   1.11600    0.019
 6193.00    1.09253   1.16318    0.020
 6194.00    1.08890   1.18095    0.020
 6195.00    1.10885   1.18939    0.020
 6196.00    1.14013   1.19865   -2.000
 6197.00    1.26615   1.19256   -2.000
 6198.00    1.43145   1.16194   -2.000
 6199.00    1.43407   1.13440   -2.000
 6200.00    1.37904   1.14301   -2.000
 6201.00    1.29123   1.17502   -2.000
 6202.00    1.19361   1.19639   -2.000
 6203.00    1.11561   1.19785   -2.000
 6204.00    1.04248   1.19356   -2.000
 6205.00    1.05819   1.19544   -2.000
 6206.00    1.09179   1.19897   -2.000
 6207.00    1.13568   1.19904   -2.000
 6208.00    1.18120   1.19663    0.020
 6209.00    1.16815   1.18945    0.020
 6210.00    1.14824   1.18014    0.020
 6211.00    1.14144   1.16646    0.020
 6212.00    1.13569   1.13446    0.019
 6213.00    1.14942   1.09810    0.019
 6214.00    1.16402   1.08244    0.019
 6215.00    1.16097   1.09146    0.019
 6216.00    1.15777   1.11917    0.019
 6217.00    1.15687   1.13826    0.019
 6218.00    1.15545   1.12460    0.019
 6219.00    1.14442   1.10324    0.019
 6220.00    1.13279   1.10634    0.019
 6221.00    1.11455   1.12840    0.019
 6222.00    1.09817   1.14426    0.019
 6223.00    1.09609   1.14268    0.019
 6224.00    1.09377   1.14188    0.019
 6225.00    1.09008   1.14939    0.019
 6226.00    1.08796   1.15425    0.019
 6227.00    1.09315   1.15255    0.020
 6228.00    1.09652   1.13028    0.020
 6229.00    1.09294   1.08194    0.020
 6230.00    1.09395   1.05002    0.020
 6231.00    1.10944   1.06371    0.020
 6232.00    1.12372   1.09732    0.020
 6233.00    1.13474   1.13818    0.020
 6234.00    1.13487   1.17439    0.019
 6235.00    1.10990   1.18290    0.019
 6236.00    1.08994   1.16476    0.019
 6237.00    1.07995   1.13820    0.019
 6238.00    1.07338   1.11357    0.019
 6239.00    1.07274   1.09763    0.019
 6240.00    1.06936   1.10489    0.019
 6241.00    1.06181   1.11306    0.019
 6242.00    1.06444   1.09454    0.019
 6243.00    1.08069   1.08044    0.019
 6244.00    1.09437   1.08349    0.019
 6245.00    1.10504   1.08512    0.019
 6246.00    1.10823   1.09906    0.018
 6247.00    1.10365   1.13089    0.019
 6248.00    1.09940   1.15452    0.019
 6249.00    1.09544   1.15952    0.019
 6250.00    1.08109   1.14398    0.019
 6251.00    1.05837   1.10635    0.019
 6252.00    1.05251   1.07579    0.019
 6253.00    1.05862   1.07287    0.019
 6254.00    1.08703   1.08267    0.019
 6255.00    1.12932   1.08116    0.020
 6256.00    1.13191   1.06432    0.020
 6257.00    1.11291   1.04665    0.020
 6258.00    1.10147   1.05324    0.020
 6259.00    1.09360   1.08838    0.020
 6260.00    1.13369   1.11732    0.021
 6261.00    1.19331   1.13854    0.023
 6262.00    1.20142   1.16313    0.024
 6263.00    1.19159   1.16478    0.024
 6264.00    1.16858   1.13831    0.024
 6265.00    1.14169   1.12771    0.023
 6266.00    1.16130   1.14534    0.022
 6267.00    1.19221   1.15488    0.021
 6268.00    1.20567   1.14536    0.020
 6269.00    1.21571   1.13702    0.019
 6270.00    1.22110   1.14045    0.019
 6271.00    1.22578   1.15295    0.019
 6272.00    1.21439   1.16415    0.019
 6273.00    1.20119   1.16493    0.019
 6274.00    1.16132   1.16273    0.019
 6275.00    1.11945   1.16440    0.019
 6276.00    1.09975   1.16438    0.019
 6277.00    1.08095   1.16062    0.019
 6278.00    1.09298   1.14829    0.019
 6279.00    1.10532   1.12512    0.019
 6280.00    1.12074   1.11521    0.000
 6281.00    1.13535   1.12811    0.000
 6282.00    1.13623   1.14839    0.000
 6283.00    1.13728   1.16447    0.000
 6284.00    1.14019   1.16615    0.000
 6285.00    1.14463   1.16602    0.000
 6286.00    1.16056   1.17727    0.000
 6287.00    1.17438   1.19232    0.000
 6288.00    1.17630   1.19953    0.000
 6289.00    1.17314   1.18880    0.000
 6290.00    1.14702   1.16884    0.000
 6291.00    1.12683   1.15665    0.000
 6292.00    1.12862   1.15490    0.000
 6293.00    1.12919   1.16342    0.000
 6294.00    1.12599   1.16746    0.000
 6295.00    1.12523   1.14851    0.000
 6296.00    1.13093   1.12267    0.000
 6297.00    1.13602   1.11744    0.000
 6298.00    1.13970   1.13117    0.000
 6299.00    1.14476   1.13677    0.000
 6300.00    1.15252   1.11879    0.000
 6301.00    1.15566   1.10123    0.000
 6302.00    1.15091   1.11272    0.000
 6303.00    1.14567   1.13852    0.000
 6304.00    1.13970   1.14960    0.000
 6305.00    1.13430   1.15423    0.000
 6306.00    1.12965   1.17253    0.000
 6307.00    1.12582   1.19101    0.000
 6308.00    1.12295   1.19041    0.000
 6309.00    1.10944   1.17210    0.000
 6310.00    1.08505   1.15240    0.000
 6311.00    1.06839   1.14703    0.000
 6312.00    1.05867   1.15355    0.000
 6313.00    1.05219   1.14446    0.000
 6314.00    1.04827   1.11928    0.000
 6315.00    1.05211   1.11385    0.000
 6316.00    1.06138   1.11590    0.000
 6317.00    1.07441   1.09641    0.000
 6318.00    1.08975   1.08981    0.000
 6319.00    1.11580   1.11645    0.000
 6320.00    1.14760   1.14180    0.000
 6321.00    1.17739   1.14622    0.019
 6322.00    1.20624   1.14971    0.018
 6323.00    1.19875   1.16631    0.018
 6324.00    1.17670   1.18057    0.018
 6325.00    1.15014   1.18234    0.018
 6326.00    1.12203   1.17548    0.018
 6327.00    1.11598   1.17560    0.018
 6328.00    1.11626   1.18196    0.018
 6329.00    1.13040   1.17545    0.018
 6330.00    1.14783   1.16873    0.019
 6331.00    1.14936   1.17862    0.019
 6332.00    1.14785   1.19221    0.019
 6333.00    1.15352   1.18124    0.019
 6334.00    1.16025   1.13718    0.019
 6335.00    1.16440   1.09959    0.019
 6336.00    1.16827   1.10449    0.019
 6337.00    1.15955   1.13037    0.019
 6338.00    1.14994   1.14502    0.019
 6339.00    1.13777   1.15940    0.019
 6340.00    1.12549   1.17538    0.019
 6341.00    1.12325   1.17094    0.019
 6342.00    1.12171   1.14458    0.019
 6343.00    1.14387   1.12033    0.019
 6344.00    1.16513   1.12342    0.019
 6345.00    1.17210   1.14046    0.019
 6346.00    1.17792   1.14951    0.018
 6347.00    1.17211   1.15994    0.018
 6348.00    1.16730   1.17398    0.018
 6349.00    1.16977   1.18019    0.019
 6350.00    1.17074   1.18207    0.019
 6351.00    1.16348   1.18348    0.019
 6352.00    1.15547   1.17592    0.018
 6353.00    1.14414   1.15335    0.018
 6354.00    1.13460   1.13274    0.018
 6355.00    1.13154   1.13617    0.019
 6356.00    1.12888   1.14297    0.019
 6357.00    1.12740   1.12328    0.019
 6358.00    1.12368   1.09749    0.020
 6359.00    1.11417   1.09174    0.019
 6360.00    1.11107   1.08930    0.019
 6361.00    1.12224   1.07806    0.019
 6362.00    1.13318   1.07668    0.020
 6363.00    1.14371   1.09357    0.020
 6364.00    1.14934   1.11613    0.020
 6365.00    1.14673   1.13409    0.019
 6366.00    1.14450   1.15093    0.019
 6367.00    1.14281   1.16782    0.019
 6368.00    1.14542   1.17149    0.018
 6369.00    1.15360   1.16073    0.018
 6370.00    1.15738   1.15653    0.018
 6371.00    1.15612   1.17229    0.018
 6372.00    1.14316   1.19241    0.018
 6373.00    1.11840   1.19710    0.018
 6374.00    1.10184   1.19239    0.018
 6375.00    1.09255   1.19179    0.018
 6376.00    1.09708   1.18998    0.018
 6377.00    1.11245   1.17568    0.018
 6378.00    1.11944   1.16059    0.018
 6379.00    1.12068   1.15574    0.019
 6380.00    1.11854   1.15735    0.019
 6381.00    1.11436   1.16725    0.019
 6382.00    1.10602   1.17561    0.019
 6383.00    1.09550   1.16980    0.019
 6384.00    1.11252   1.16471    0.019
 6385.00    1.14214   1.17393    0.019
 6386.00    1.15512   1.18541    0.019
 6387.00    1.16155   1.18794    0.019
 6388.00    1.16004   1.18794    0.019
 6389.00    1.15586   1.18978    0.019
 6390.00    1.14542   1.18498    0.019
 6391.00    1.13321   1.15811    0.019
 6392.00    1.13651   1.11426    0.018
 6393.00    1.14341   1.10010    0.018
 6394.00    1.16132   1.13419    0.018
 6395.00    1.18130   1.17624    0.019
 6396.00    1.17565   1.19699    0.019
 6397.00    1.16632   1.19057    0.019
 6398.00    1.14583   1.14658    0.018
 6399.00    1.12418   1.09360    0.018
 6400.00    1.13464   1.10226    0.018
 6401.00    1.14727   1.15851    0.019
 6402.00    1.18616   1.19521    0.019
 6403.00    1.22591   1.20307    0.019
 6404.00    1.22403   1.19793    0.019
 6405.00    1.22206   1.18282    0.019
 6406.00    1.21759   1.15488    0.019
 6407.00    1.21234   1.13319    0.019
 6408.00    1.19552   1.14752    0.019
 6409.00    1.17831   1.16794    0.020
 6410.00    1.15734   1.15324    0.019
 6411.00    1.13834   1.13708    0.019
 6412.00    1.13309   1.14681    0.019
 6413.00    1.12876   1.15754    0.019
 6414.00    1.12941   1.16157    0.019
 6415.00    1.13086   1.16900    0.019
 6416.00    1.13573   1.17272    0.019
 6417.00    1.13645   1.16831    0.019
 6418.00    1.12240   1.15226    0.019
 6419.00    1.11029   1.12268    0.019
 6420.00    1.10395   1.10522    0.018
 6421.00    1.10287   1.12868    0.018
 6422.00    1.11518   1.17441    0.018
 6423.00    1.12417   1.19598    0.018
 6424.00    1.12591   1.19191    0.018
 6425.00    1.12126   1.19167    0.018
 6426.00    1.10447   1.20173    0.018
 6427.00    1.09407   1.20736    0.019
 6428.00    1.09428   1.19064    0.019
 6429.00    1.09486   1.14700    0.019
 6430.00    1.09600   1.11006    0.020
 6431.00    1.09343   1.11668    0.020
 6432.00    1.08613   1.14876    0.019
 6433.00    1.08549   1.17552    0.019
 6434.00    1.09235   1.18986    0.019
 6435.00    1.10051   1.19451    0.019
 6436.00    1.10995   1.18459    0.019
 6437.00    1.10968   1.14761    0.019
 6438.00    1.10088   1.11172    0.019
 6439.00    1.09930   1.12860    0.019
 6440.00    1.10331   1.17792    0.019
 6441.00    1.13087   1.20685    0.019
 6442.00    1.17443   1.21063    0.018
 6443.00    1.20178   1.20832    0.018
 6444.00    1.21950   1.21087    0.018
 6445.00    1.20033   1.21724    0.018
 6446.00    1.16202   1.21580    0.018
 6447.00    1.11917   1.18538    0.018
 6448.00    1.07426   1.11734    0.019
 6449.00    1.05167   1.06342    0.019
 6450.00    1.03772   1.08170    0.019
 6451.00    1.05359   1.13806    0.019
 6452.00    1.07927   1.17847    0.019
 6453.00    1.11612   1.18515    0.019
 6454.00    1.15605   1.15825    0.019
 6455.00    1.16141   1.13013    0.019
 6456.00    1.15894   1.14034    0.019
 6457.00    1.15956   1.17770    0.019
 6458.00    1.16074   1.20688    0.019
 6459.00    1.16652   1.21430    0.019
 6460.00    1.17294   1.18932    0.019
 6461.00    1.15023   1.12952    0.019
 6462.00    1.12460   1.09241    0.018
 6463.00    1.09158   1.11966    0.018
 6464.00    1.05808   1.16431    0.018
 6465.00    1.07134   1.18860    0.018
 6466.00    1.08597   1.19852    0.018
 6467.00    1.10589   1.19864    0.018
 6468.00    1.12537   1.18652    0.018
 6469.00    1.13263   1.17168    0.018
 6470.00    1.14083   1.15759    0.017
 6471.00    1.16227   1.15545    0.018
 6472.00    1.18240   1.17351    0.018
 6473.00    1.19039   1.18204    0.018
 6474.00    1.19507   1.16968    0.019
 6475.00    1.17734   1.16600    0.019
 6476.00    1.15965   1.18004    0.019
 6477.00    1.14215   1.18817    0.019
 6478.00    1.12661   1.18724    0.018
 6479.00    1.11936   1.18171    0.018
 6480.00    1.11195   1.15714    0.019
 6481.00    1.10395   1.12149    0.019
 6482.00    1.09674   1.11126    0.019
 6483.00    1.09184   1.13257    0.019
 6484.00    1.09526   1.15712    0.018
 6485.00    1.11949   1.16957    0.018
 6486.00    1.14539   1.17554    0.018
 6487.00    1.17488   1.17897    0.018
 6488.00    1.18093   1.17306    0.018
 6489.00    1.14312   1.15604    0.018
 6490.00    1.10715   1.13978    0.018
 6491.00    1.07417   1.12624    0.018
 6492.00    1.05287   1.08987    0.018
 6493.00    1.04831   1.02292    0.017
 6494.00    1.04476   0.97589    0.017
 6495.00    1.04247   0.97828    0.017
 6496.00    1.04051   1.00935    0.018
 6497.00    1.03892   1.04602    0.018
 6498.00    1.04328   1.06736    0.018
 6499.00    1.05349   1.08710    0.018
 6500.00    1.06370   1.11536    0.018
 6501.00    1.07390   1.13721    0.018
 6502.00    1.08644   1.14941    0.019
 6503.00    1.10075   1.15696    0.019
 6504.00    1.12735   1.16465    0.019
 6505.00    1.16217   1.17195    0.019
 6506.00    1.18443   1.17053    0.019
 6507.00    1.19934   1.15820    0.019
 6508.00    1.18423   1.15082    0.019
 6509.00    1.15379   1.15858    0.018
 6510.00    1.14132   1.16932    0.018
 6511.00    1.13680   1.17134    0.018
 6512.00    1.14752   1.17017    0.018
 6513.00    1.16402   1.16592    0.018
 6514.00    1.18514   1.15101    0.018
 6515.00    1.20774   1.13374    0.018
 6516.00    1.21046   1.12555    0.017
 6517.00    1.20781   1.11951    0.017
 6518.00    1.20245   1.12048    0.018
 6519.00    1.19648   1.14105    0.018
 6520.00    1.18955   1.16313    0.018
 6521.00    1.18245   1.16984    0.018
 6522.00    1.17247   1.16827    0.018
 6523.00    1.16210   1.17101    0.019
 6524.00    1.16712   1.17253    0.019
 6525.00    1.17360   1.15755    0.018
 6526.00    1.18443   1.13684    0.019
 6527.00    1.19551   1.13619    0.019
 6528.00    1.19909   1.15252    0.000
 6529.00    1.20221   1.16428    0.000
 6530.00    1.16478   1.15975    0.000
 6531.00    1.12771   1.14332    0.000
 6532.00    1.09950   1.13144    0.000
 6533.00    1.07427   1.13760    0.000
 6534.00    1.08898   1.15680    0.000
 6535.00    1.10515   1.16748    0.000
 6536.00    1.13433   1.16106    0.000
 6537.00    1.16304   1.15583    0.000
 6538.00    1.18877   1.16551    0.000
 6539.00    1.20919   1.17690    0.000
 6540.00    1.20250   1.17339    0.000
 6541.00    1.19370   1.15841    0.000
 6542.00    1.17623   1.14439    0.000
 6543.00    1.16375   1.13562    0.000
 6544.00    1.16829   1.11934    0.000
 6545.00    1.17503   1.09265    0.000
 6546.00    1.18808   1.08767    0.000
 6547.00    1.18623   1.11014    0.000
 6548.00    1.14775   1.12996    0.000
 6549.00    1.11641   1.13061    0.000
 6550.00    1.10021   1.11819    0.000
 6551.00    1.09155   1.10777    0.000
 6552.00    1.09680   1.09916    0.000
 6553.00    1.09381   1.08098    0.000
 6554.00    1.07755   1.05824    0.000
 6555.00    1.06516   1.04888    0.000
 6556.00    1.05822   1.05680    0.000
 6557.00    1.05929   1.06307    0.000
 6558.00    1.07032   1.05443    0.000
 6559.00    1.08569   1.02884    0.000
 6560.00    1.10581   0.95532    0.000
 6561.00    1.12460   0.80664    0.000
 6562.00    1.14210   0.70032    0.000
 6563.00    1.14709   0.77057    0.000
 6564.00    1.14143   0.92554    0.000
 6565.00    1.14045   1.02765    0.000
 6566.00    1.14299   1.07123    0.000
 6567.00    1.14442   1.08039    0.000
 6568.00    1.14512   1.06800    0.000
 6569.00    1.14246   1.06473    0.000
 6570.00    1.13785   1.07650    0.000
 6571.00    1.13504   1.07759    0.000
 6572.00    1.13314   1.06459    0.000
 6573.00    1.13505   1.05305    0.000
 6574.00    1.13862   1.05598    0.000
 6575.00    1.12498   1.08316    0.000
 6576.00    1.10492   1.11815    0.000
 6577.00    1.09802   1.13773    0.000
 6578.00    1.09530   1.13752    0.000
 6579.00    1.14582   1.12183    0.000
 6580.00    1.21042   1.10575    0.000
 6581.00    1.23028   1.10894    0.000
 6582.00    1.24047   1.12447    0.000
 6583.00    1.23940   1.13359    0.000
 6584.00    1.23641   1.13118    0.000
 6585.00    1.20073   1.12238    0.000
 6586.00    1.16080   1.12485    0.000
 6587.00    1.13078   1.14031    0.000
 6588.00    1.10167   1.15169    0.000
 6589.00    1.09953   1.15421    0.000
 6590.00    1.09888   1.13963    0.000
 6591.00    1.11775   1.09485    0.000
 6592.00    1.13661   1.04465    0.000
 6593.00    1.11601   1.04269    0.000
 6594.00    1.09593   1.08490    0.000
 6595.00    1.08775   1.11861    0.000
 6596.00    1.07895   1.12277    0.000
 6597.00    1.06219   1.11235    0.000
 6598.00    1.04954   1.11120    0.000
 6599.00    1.07215   1.12958    0.000
 6600.00    1.09294   1.15080    0.000
 6601.00    1.10219   1.15684    0.000
 6602.00    1.10865   1.14911    0.000
 6603.00    1.10126   1.13389    0.000
 6604.00    1.09746   1.11875    0.000
 6605.00    1.10814   1.11237    0.000
 6606.00    1.11746   1.10891    0.000
 6607.00    1.12220   1.09658    0.000
 6608.00    1.12893   1.08185    0.000
 6609.00    1.14127   1.09319    0.018
 6610.00    1.15362   1.12700    0.018
 6611.00    1.16601   1.14555    0.017
 6612.00    1.17287   1.13770    0.018
 6613.00    1.16816   1.13000    0.018
 6614.00    1.16659   1.14196    0.018
 6615.00    1.17069   1.15396    0.018
 6616.00    1.16788   1.15105    0.019
 6617.00    1.15410   1.14616    0.019
 6618.00    1.13877   1.14938    0.019
 6619.00    1.12126   1.15650    0.019
 6620.00    1.11052   1.16015    0.019
 6621.00    1.10807   1.15549    0.019
 6622.00    1.11054   1.13995    0.019
 6623.00    1.11833   1.11574    0.019
 6624.00    1.11905   1.10216    0.018
 6625.00    1.11307   1.11343    0.018
 6626.00    1.10049   1.12868    0.018
 6627.00    1.08239   1.13295    0.018
 6628.00    1.06893   1.13088    0.018
 6629.00    1.05890   1.12601    0.018
 6630.00    1.06877   1.11935    0.018
 6631.00    1.09157   1.10604    0.017
 6632.00    1.12185   1.08275    0.017
 6633.00    1.15639   1.06775    0.018
 6634.00    1.16357   1.08214    0.018
 6635.00    1.15721   1.11134    0.018
 6636.00    1.15186   1.13115    0.018
 6637.00    1.14695   1.13454    0.018
 6638.00    1.13541   1.12551    0.018
 6639.00    1.12144   1.11996    0.019
 6640.00    1.10515   1.12868    0.018
 6641.00    1.08813   1.12922    0.018
 6642.00    1.09972   1.10524    0.018
 6643.00    1.11872   1.09013    0.019
 6644.00    1.13080   1.10503    0.018
 6645.00    1.14142   1.12192    0.018
 6646.00    1.14247   1.12281    0.018
 6647.00    1.14193   1.12118    0.018
 6648.00    1.15202   1.12730    0.018
 6649.00    1.16346   1.13156    0.018
 6650.00    1.14598   1.12704    0.018
 6651.00    1.12598   1.12137    0.017
 6652.00    1.07862   1.11964    0.018
 6653.00    1.02986   1.12125    0.018
 6654.00    1.02320   1.12451    0.017
 6655.00    1.01755   1.12378    0.017
 6656.00    1.03009   1.12136    0.018
 6657.00    1.04235   1.12349    0.018
 6658.00    1.04874   1.12420    0.018
 6659.00    1.05360   1.11833    0.018
 6660.00    1.04016   1.11013    0.018
 6661.00    1.02852   1.09560    0.018
 6662.00    1.03165   1.07220    0.018
 6663.00    1.03565   1.06661    0.018
 6664.00    1.04506   1.08402    0.018
 6665.00    1.05496   1.09488    0.018
 6666.00    1.06725   1.09352    0.019
 6667.00    1.07659   1.09504    0.019
 6668.00    1.07429   1.10759    0.018
 6669.00    1.07686   1.12337    0.018
 6670.00    1.09541   1.13089    0.018
 6671.00    1.10748   1.12979    0.018
 6672.00    1.10157   1.12800    0.018
 6673.00    1.09545   1.12959    0.018
 6674.00    1.08888   1.13193    0.018
 6675.00    1.07837   1.12156    0.018
 6676.00    1.05979   1.08331    0.018
 6677.00    1.05816   1.04352    0.018
 6678.00    1.08684   1.05041    0.018
 6679.00    1.10559   1.08569    0.018
 6680.00    1.10883   1.10339    0.018
 6681.00    1.10132   1.10741    0.018
 6682.00    1.07906   1.11333    0.018
 6683.00    1.07594   1.12037    0.018
 6684.00    1.09594   1.12322    0.018
 6685.00    1.10856   1.12235    0.018
 6686.00    1.11333   1.11852    0.019
 6687.00    1.11427   1.11432    0.018
 6688.00    1.11160   1.11621    0.018
 6689.00    1.10969   1.12092    0.018
 6690.00    1.10839   1.12250    0.018
 6691.00    1.11886   1.12123    0.018
 6692.00    1.13791   1.12085    0.018
 6693.00    1.13106   1.11825    0.018
 6694.00    1.10763   1.10465    0.018
 6695.00    1.09329   1.08308    0.018
 6696.00    1.08405   1.07421    0.000
 6697.00    1.07301   1.08185    0.000
 6698.00    1.06110   1.09607    0.000
 6699.00    1.04514   1.11272    0.000
 6700.00    1.02747   1.12162    0.000
 6701.00    1.02037   1.11746    0.000
 6702.00    1.01708   1.10353    0.000
 6703.00    1.02044   1.08984    0.000
 6704.00    1.02582   1.08926    0.000
 6705.00    1.03926   1.10056    0.000
 6706.00    1.05474   1.10937    0.000
 6707.00    1.06973   1.11115    0.000
 6708.00    1.08462   1.10898    0.000
 6709.00    1.08857   1.10238    0.000
 6710.00    1.09075   1.09985    0.000
 6711.00    1.08499   1.10020    0.000
 6712.00    1.07828   1.09362    0.000
 6713.00    1.09456   1.08293    0.000
 6714.00    1.11274   1.07095    0.000
 6715.00    1.13845   1.05428    0.000
 6716.00    1.16452   1.03559    0.000
 6717.00    1.17372   1.03649    0.000
 6718.00    1.18244   1.06497    0.000
 6719.00    1.17784   1.09035    0.000
 6720.00    1.17204   1.09350    0.000
 6721.00    1.14287   1.08970    0.000
 6722.00    1.11531   1.09668    0.000
 6723.00    1.10611   1.10514    0.000
 6724.00    1.09951   1.09979    0.000
 6725.00    1.11361   1.08751    0.000
 6726.00    1.12286   1.08628    0.000
 6727.00    1.10304   1.09511    0.000
 6728.00    1.08330   1.10312    0.000
 6729.00    1.06389   1.10902    0.000
 6730.00    1.05103   1.11133    0.000
 6731.00    1.06342   1.10692    0.000
 6732.00    1.07221   1.09925    0.000
 6733.00    1.06937   1.09670    0.000
 6734.00    1.06723   1.10147    0.000
 6735.00    1.06700   1.10718    0.000
 6736.00    1.06594   1.10201    0.000
 6737.00    1.06291   1.08616    0.000
 6738.00    1.06244   1.07574    0.000
 6739.00    1.06710   1.08072    0.000
 6740.00    1.06813   1.09055    0.000
 6741.00    1.06277   1.08732    0.000
 6742.00    1.05352   1.07737    0.000
 6743.00    1.03828   1.07948    0.000
 6744.00    1.03500   1.08741    0.000
 6745.00    1.04790   1.08747    0.000
 6746.00    1.05255   1.08240    0.000
 6747.00    1.04739   1.07637    0.000
 6748.00    1.04990   1.06924    0.000
 6749.00    1.06047   1.06493    0.000
 6750.00    1.06671   1.07072    0.000
 6751.00    1.06892   1.07425    0.000
 6752.00    1.08759   1.07002    0.000
 6753.00    1.11969   1.07595    0.020
 6754.00    1.12067   1.08674    0.020
 6755.00    1.09930   1.09346    0.020
 6756.00    1.06325   1.10089    0.020
 6757.00    1.01795   1.10884    0.021
 6758.00    0.99144   1.11521    0.021
 6759.00    0.97529   1.11833    0.020
 6760.00    1.03363   1.11616    0.021
 6761.00    1.12767   1.11057    0.021
 6762.00    1.20102   1.10981    0.022
 6763.00    1.26582   1.11126    0.022
 6764.00    1.27330   1.10719    0.021
 6765.00    1.26050   1.09271    0.021
 6766.00    1.27377   1.07372    0.021
 6767.00    1.29482   1.06882    0.021
 6768.00    1.27230   1.08047    0.021
 6769.00    1.23899   1.08606    0.021
 6770.00    1.19775   1.07911    0.021
 6771.00    1.15492   1.07926    0.021
 6772.00    1.14433   1.09292    0.020
 6773.00    1.13880   1.10931    0.020
 6774.00    1.14885   1.11926    0.020
 6775.00    1.16073   1.12238    0.020
 6776.00    1.12871   1.12013    0.020
 6777.00    1.09323   1.11986    0.020
 6778.00    1.12620   1.12589    0.020
 6779.00    1.16214   1.12754    0.020
 6780.00    1.14522   1.11849    0.020
 6781.00    1.12691   1.09924    0.020
 6782.00    1.06958   1.07484    0.020
 6783.00    1.01713   1.05753    0.019
 6784.00    1.05295   1.05564    0.019
 6785.00    1.08704   1.06416    0.019
 6786.00    1.10227   1.07894    0.019
 6787.00    1.11443   1.09473    0.019
 6788.00    1.10302   1.09960    0.020
 6789.00    1.09259   1.09780    0.020
 6790.00    1.08793   1.09971    0.020
 6791.00    1.08352   1.09855    0.021
 6792.00    1.08027   1.08784    0.020
 6793.00    1.08101   1.07886    0.020
 6794.00    1.09685   1.07923    0.020
 6795.00    1.10143   1.08222    0.020
 6796.00    1.07045   1.08733    0.020
 6797.00    1.05698   1.09165    0.019
 6798.00    1.09041   1.09402    0.019
 6799.00    1.11510   1.09781    0.019
 6800.00    1.11971   1.10300    0.019
 6801.00    1.11560   1.10606    0.019
 6802.00    1.09418   1.10149    0.019
 6803.00    1.08017   1.09489    0.019
 6804.00    1.07903   1.09649    0.019
 6805.00    1.08101   1.09705    0.019
 6806.00    1.08773   1.09306    0.019
 6807.00    1.10080   1.09516    0.019
 6808.00    1.12231   1.09502    0.019
 6809.00    1.13391   1.08846    0.019
 6810.00    1.13386   1.08990    0.020
 6811.00    1.14591   1.09702    0.020
 6812.00    1.17050   1.09722    0.020
 6813.00    1.18092   1.08717    0.021
 6814.00    1.17842   1.07861    0.021
 6815.00    1.13165   1.08758    0.021
 6816.00    1.04926   1.10453    0.020
 6817.00    1.01734   1.10906    0.020
 6818.00    1.02116   1.09946    0.019
 6819.00    1.05416   1.08826    0.019
 6820.00    1.10528   1.08977    0.019
 6821.00    1.14207   1.10282    0.018
 6822.00    1.17107   1.11404    0.018
 6823.00    1.17376   1.11746    0.018
 6824.00    1.16403   1.11661    0.018
 6825.00    1.14965   1.11346    0.018
 6826.00    1.13339   1.10105    0.018
 6827.00    1.12318   1.08282    0.019
 6828.00    1.11507   1.07847    0.019
 6829.00    1.14423   1.09255    0.020
 6830.00    1.18429   1.10660    0.020
 6831.00    1.17032   1.10709    0.020
 6832.00    1.14326   1.10210    0.020
 6833.00    1.13137   1.10484    0.020
 6834.00    1.12245   1.11185    0.019
 6835.00    1.11508   1.11072    0.020
 6836.00    1.10795   1.10145    0.020
 6837.00    1.12445   1.08906    0.020
 6838.00    1.14360   1.07320    0.021
 6839.00    1.14350   1.05647    0.021
 6840.00    1.14196   1.04047    0.020
 6841.00    1.08341   1.03403    0.020
 6842.00    1.02260   1.04568    0.019
 6843.00    1.05507   1.06915    0.019
 6844.00    1.08855   1.08992    0.018
 6845.00    1.13683   1.09896    0.018
 6846.00    1.18119   1.10040    0.018
 6847.00    1.15923   1.10135    0.018
 6848.00    1.13786   1.10030    0.018
 6849.00    1.12271   1.09756    0.019
 6850.00    1.10600   1.09694    0.019
 6851.00    1.07768   1.09960    0.019
 6852.00    1.05937   1.09993    0.019
 6853.00    1.09776   1.08447    0.019
 6854.00    1.13085   1.05948    0.019
 6855.00    1.14004   1.05297    0.019
 6856.00    1.14640   1.06298    0.019
 6857.00    1.14227   1.07095    0.019
 6858.00    1.13227   1.07676    0.019
 6859.00    1.10410   1.07317    0.019
 6860.00    1.08029   1.05752    0.019
 6861.00    1.06801   1.05363    0.019
 6862.00    1.05676   1.07449    0.019
 6863.00    1.04786   1.09912    0.019
 6864.00    1.04228   1.10491    0.019
 6865.00    1.04319   1.09290    0.019
 6866.00    1.03960   1.07198    0.019
 6867.00    1.02833   1.05595    0.019
 6868.00    1.02839   1.06311    0.019
 6869.00    1.04539   1.08105    0.019
 6870.00    1.04671   1.08278    0.019
 6871.00    1.02742   1.07130    0.019
 6872.00    1.03092   1.06909    0.019
 6873.00    1.06080   1.07528    0.019
 6874.00    1.07889   1.07691    0.019
 6875.00    1.08495   1.07821    0.019
 6876.00    1.10407   1.08765    0.019
 6877.00    1.13496   1.09872    0.019
 6878.00    1.12901   1.10127    0.019
 6879.00    1.09384   1.09533    0.019
 6880.00    1.07031   1.08159    0.019
 6881.00    1.05489   1.06477    0.018
 6882.00    1.04873   1.06044    0.018
 6883.00    1.04824   1.07415    0.018
 6884.00    1.03837   1.08611    0.018
 6885.00    1.02349   1.08534    0.018
 6886.00    1.01369   1.09028    0.018
 6887.00    1.00624   1.10223    0.018
 6888.00    1.01113   1.10840    0.018
 6889.00    1.02096   1.11293    0.018
 6890.00    1.05517   1.11795    0.019
 6891.00    1.09769   1.11474    0.019
 6892.00    1.10276   1.10796    0.019
 6893.00    1.09708   1.10517    0.019
 6894.00    1.09417   1.09988    0.019
 6895.00    1.09191   1.09478    0.020
 6896.00    1.08441   1.09947    0.019
 6897.00    1.07592   1.10822    0.019
 6898.00    1.09562   1.10713    0.019
 6899.00    1.11948   1.09852    0.019
 6900.00    1.10566   1.09923    0.019
 6901.00    1.08778   1.10918    0.019
 6902.00    1.06800   1.11349    0.019
 6903.00    1.04808   1.10911    0.019
 6904.00    1.03817   1.10517    0.018
 6905.00    1.02862   1.10799    0.018
 6906.00    1.04288   1.11541    0.018
 6907.00    1.05663   1.11929    0.018
 6908.00    1.04978   1.12095    0.018
 6909.00    1.04319   1.11996    0.018
 6910.00    1.04082   1.11284    0.018
 6911.00    1.03992   1.10372    0.019
 6912.00    1.05379   1.09245    0.019
 6913.00    1.06576   1.07964    0.019
 6914.00    1.06403   1.07914    0.019
 6915.00    1.06288   1.08524    0.020
 6916.00    1.06486   1.08598    0.019
 6917.00    1.06446   1.09085    0.019
 6918.00    1.05351   1.10175    0.019
 6919.00    1.04818   1.11198    0.019
 6920.00    1.06318   1.11906    0.019
 6921.00    1.07277   1.12016    0.019
 6922.00    1.06593   1.10915    0.019
 6923.00    1.05658   1.08582    0.019
 6924.00    1.04078   1.06694    0.018
 6925.00    1.03013   1.06714    0.018
 6926.00    1.03095   1.08323    0.018
 6927.00    1.03017   1.09853    0.018
 6928.00    1.02633   1.10452    0.018
 6929.00    1.02590   1.10569    0.019
 6930.00    1.03119   1.10356    0.019
 6931.00    1.04406   1.09506    0.019
 6932.00    1.06809   1.08308    0.019
 6933.00    1.07872   1.08481    0.020
 6934.00    1.07200   1.09867    0.020
 6935.00    1.06923   1.10485    0.020
 6936.00    1.07099   1.10209    0.020
 6937.00    1.08163   1.10024    0.020
 6938.00    1.10120   1.10490    0.020
 6939.00    1.12339   1.11389    0.020
 6940.00    1.14791   1.11935    0.020
 6941.00    1.15152   1.11313    0.019
 6942.00    1.13879   1.09793    0.019
 6943.00    1.11941   1.07771    0.019
 6944.00    1.09547   1.06068    0.018
 6945.00    1.08977   1.06660    0.018
 6946.00    1.09507   1.08913    0.018
 6947.00    1.11431   1.10516    0.019
 6948.00    1.14087   1.11147    0.019
 6949.00    1.11172   1.10674    0.019
 6950.00    1.05716   1.09012    0.019
 6951.00    1.03472   1.07902    0.019
 6952.00    1.02490   1.07737    0.019
 6953.00    1.01784   1.07787    0.019
 6954.00    1.01170   1.08386    0.020
 6955.00    1.00938   1.09653    0.020
 6956.00    1.00812   1.10622    0.020
 6957.00    1.03733   1.10777    0.020
 6958.00    1.07358   1.10642    0.020
 6959.00    1.10121   1.10617    0.020
 6960.00    1.12724   1.10950    0.019
 6961.00    1.12071   1.11364    0.019
 6962.00    1.10952   1.11653    0.019
 6963.00    1.09675   1.11706    0.019
 6964.00    1.08381   1.10897    0.018
 6965.00    1.08375   1.09976    0.019
 6966.00    1.08456   1.10667    0.019
 6967.00    1.06994   1.12272    0.019
 6968.00    1.05483   1.12779    0.019
 6969.00    1.05129   1.11868    0.019
 6970.00    1.04889   1.10654    0.019
 6971.00    1.08165   1.10811    0.020
 6972.00    1.10867   1.11980    0.020
 6973.00    1.05031   1.11791    0.020
 6974.00    0.99841   1.10127    0.020
 6975.00    1.00856   1.08290    0.020
 6976.00    1.02384   1.05884    0.020
 6977.00    1.07477   1.02451    0.020
 6978.00    1.11782   1.01034    0.020
 6979.00    1.11858   1.03873    0.020
 6980.00    1.11583   1.07935    0.020
 6981.00    1.09791   1.10558    0.020
 6982.00    1.08293   1.11939    0.020
 6983.00    1.07837   1.12398    0.019
 6984.00    1.08131   1.12254    0.019
 6985.00    1.10660   1.12043    0.019
 6986.00    1.11718   1.11849    0.019
 6987.00    1.09038   1.11110    0.019
 6988.00    1.06596   1.09941    0.019
 6989.00    1.04674   1.09709    0.019
 6990.00    1.03493   1.10789    0.019
 6991.00    1.03715   1.12001    0.019
 6992.00    1.03797   1.12191    0.019
 6993.00    1.03647   1.11457    0.020
 6994.00    1.03919   1.11065    0.020
 6995.00    1.04802   1.11400    0.020
 6996.00    1.05177   1.11661    0.020
 6997.00    1.04905   1.10837    0.020
 6998.00    1.05342   1.08650    0.020
 6999.00    1.06577   1.07082    0.020
 7000.00    1.07884   1.07958    0.020
 7001.00    1.09261   1.09918    0.020
 7002.00    1.09778   1.10149    0.020
 7003.00    1.09541   1.08517    0.019
 7004.00    1.08706   1.07204    0.019
 7005.00    1.07409   1.07242    0.019
 7006.00    1.07060   1.08136    0.019
 7007.00    1.07354   1.09326    0.019
 7008.00    1.05726   1.10453    0.019
 7009.00    1.02958   1.10620    0.019
 7010.00    1.02874   1.09818    0.019
 7011.00    1.04181   1.09563    0.020
 7012.00    1.03462   1.10280    0.020
 7013.00    1.01835   1.10275    0.020
 7014.00    1.04362   1.07632    0.020
 7015.00    1.08493   1.03571    0.021
 7016.00    1.05776   1.02955    0.020
 7017.00    1.00813   1.06796    0.020
 7018.00    1.01607   1.10608    0.020
 7019.00    1.03987   1.12220    0.020
 7020.00    1.02866   1.12404    0.020
 7021.00    1.00953   1.11063    0.020
 7022.00    1.02223   1.08156    0.020
 7023.00    1.04068   1.05881    0.020
 7024.00    1.04371   1.06188    0.020
 7025.00    1.04460   1.08102    0.019
 7026.00    1.04777   1.09370    0.020
 7027.00    1.05117   1.09856    0.020
 7028.00    1.04593   1.10324    0.020
 7029.00    1.04015   1.10868    0.020
 7030.00    1.05278   1.11041    0.020
 7031.00    1.06578   1.10640    0.020
 7032.00    1.04115   1.10180    0.021
 7033.00    1.01863   1.09972    0.021
 7034.00    1.05431   1.10285    0.021
 7035.00    1.08546   1.11202    0.021
 7036.00    1.05293   1.10367    0.021
 7037.00    1.02348   1.07260    0.021
 7038.00    1.02249   1.06599    0.021
 7039.00    1.02043   1.10190    0.021
 7040.00    1.01111   1.14136    0.021
 7041.00    1.01054   1.15903    0.020
 7042.00    1.05569   1.15693    0.020
 7043.00    1.09032   1.13966    0.020
 7044.00    1.08062   1.12085    0.020
 7045.00    1.06451   1.12084    0.020
 7046.00    1.02611   1.13663    0.020
 7047.00    1.00911   1.15282    0.020
 7048.00    1.05474   1.15889    0.020
 7049.00    1.08369   1.15320    0.020
 7050.00    1.07099   1.13742   -2.000
 7051.00    1.05515   1.10678   -2.000
 7052.00    1.03254   1.07164   -2.000
 7053.00    1.03573   1.05177   -2.000
 7054.00    1.08711   1.05056   -2.000
 7055.00    1.11978   1.06411   -2.000
 7056.00    1.12193   1.08096   -2.000
 7057.00    1.11887   1.08416   -2.000
 7058.00    1.10834   1.06653   -2.000
 7059.00    1.10603   1.04436   -2.000
 7060.00    1.11406   1.04056   -2.000
 7061.00    1.12242   1.05140   -2.000
 7062.00    1.13115   1.06249   -2.000
 7063.00    1.15604   1.07426   -2.000
 7064.00    1.19674   1.07814   -2.000
 7065.00    1.19092   1.06319   -2.000
 7066.00    1.14498   1.03856   -2.000
 7067.00    1.08425   1.01863   -2.000
 7068.00    1.01227   1.02126   -2.000
 7069.00    1.00915   1.04898   -2.000
 7070.00    1.05200   1.07452   -2.000
 7071.00    1.15960   1.08210   -2.000
 7072.00    1.30507   1.08258   -2.000
 7073.00    1.29231   1.08325   -2.000
 7074.00    1.19889   1.08142   -2.000
 7075.00    1.18344   1.07837   -2.000
 7076.00    1.20240   1.07942   -2.000
 7077.00    1.19493   1.08447   -2.000
 7078.00    1.17744   1.08840   -2.000
 7079.00    1.14656   1.09370   -2.000
 7080.00    1.11138   1.09820   -2.000
 7081.00    1.12361   1.08838   -2.000
 7082.00    1.14861   1.05893   -2.000
 7083.00    1.14597   1.02194   -2.000
 7084.00    1.13724   1.00535   -2.000
 7085.00    1.09025   1.01703   -2.000
 7086.00    1.03652   1.02536   -2.000
 7087.00    1.03163   1.01817   -2.000
 7088.00    1.03327   1.01019   -2.000
 7089.00    1.03229   1.00399   -2.000
 7090.00    1.03105   1.00460   -2.000
 7091.00    1.07419   1.01101   -2.000
 7092.00    1.11992   1.01202   -2.000
 7093.00    1.10045   1.01307   -2.000
 7094.00    1.07931   1.01414   -2.000
 7095.00    1.04871   1.01427   -2.000
 7096.00    1.02066   1.01678   -2.000
 7097.00    1.05603   1.02378   -2.000
 7098.00    1.08678   1.03667   -2.000
 7099.00    1.05615   1.04322   -2.000
 7100.00    1.02533   1.03944   -2.000
 7101.00    0.99285   1.02956   -2.000
 7102.00    0.96505   1.02543   -2.000
 7103.00    0.96783   1.03470   -2.000
 7104.00    0.97642   1.04700   -2.000
 7105.00    1.01460   1.04457   -2.000
 7106.00    1.04497   1.03242   -2.000
 7107.00    1.04320   1.02846   -2.000
 7108.00    1.04226   1.03197   -2.000
 7109.00    1.04413   1.02515   -2.000
 7110.00    1.03883   1.00931   -2.000
 7111.00    1.01292   1.00464   -2.000
 7112.00    1.00119   1.01689   -2.000
 7113.00    1.02426   1.03056   -2.000
 7114.00    1.04842   1.03602   -2.000
 7115.00    1.07488   1.03885   -2.000
 7116.00    1.11765   1.04028   -2.000
 7117.00    1.19044   1.03838   -2.000
 7118.00    1.18393   1.03579   -2.000
 7119.00    1.05002   1.03341   -2.000
 7120.00    1.00938   1.02807   -2.000
 7121.00    1.10020   1.01917   -2.000
 7122.00    1.14168   1.02308   -2.000
 7123.00    1.12197   1.03506   -2.000
 7124.00    1.09157   1.02972   -2.000
 7125.00    1.04947   1.01263   -2.000
 7126.00    1.06147   1.00660   -2.000
 7127.00    1.12562   1.01265   -2.000
 7128.00    1.07770   1.01064   -2.000
 7129.00    0.93447   0.99059   -2.000
 7130.00    0.88970   0.97423   -2.000
 7131.00    0.91866   0.98324   -2.000
 7132.00    0.96547   1.00368   -2.000
 7133.00    1.02402   1.02129   -2.000
 7134.00    0.99246   1.03014   -2.000
 7135.00    0.90900   1.03263   -2.000
 7136.00    0.95692   1.03828   -2.000
 7137.00    1.07076   1.03617   -2.000
 7138.00    1.12375   1.02282   -2.000
 7139.00    1.15031   1.01928   -2.000
 7140.00    1.12195   1.03075   -2.000
 7141.00    1.07313   1.03673   -2.000
 7142.00    1.01218   1.03364   -2.000
 7143.00    0.94739   1.03178   -2.000
 7144.00    0.95547   1.03045   -2.000
 7145.00    0.98277   1.02933   -2.000
 7146.00    1.00340   1.01585   -2.000
 7147.00    1.02258   0.98929   -2.000
 7148.00    1.04787   0.98528   -2.000
 7149.00    1.07419   1.00525   -2.000
 7150.00    1.05287   1.02238   -2.000
 7151.00    1.02538   1.03723   -2.000
 7152.00    1.00244   1.05119   -2.000
 7153.00    0.97991   1.05013   -2.000
 7154.00    1.03026   1.03664   -2.000
 7155.00    1.08461   1.03607   -2.000
 7156.00    1.07883   1.05283   -2.000
 7157.00    1.07143   1.05696   -2.000
 7158.00    1.03136   1.04288   -2.000
 7159.00    0.99675   1.03082   -2.000
 7160.00    1.08589   1.03335   -2.000
 7161.00    1.16928   1.04311   -2.000
 7162.00    1.18027   1.03582   -2.000
 7163.00    1.18443   1.00146   -2.000
 7164.00    1.13022   0.97331   -2.000
 7165.00    1.06796   0.98611   -2.000
 7166.00    0.95471   1.02310   -2.000
 7167.00    0.89319   1.04921   -2.000
 7168.00    1.08853   1.05262   -2.000
 7169.00    1.25066   1.04731   -2.000
 7170.00    1.27912   1.04970   -2.000
 7171.00    1.25537   1.06059   -2.000
 7172.00    1.05720   1.06814   -2.000
 7173.00    0.92699   1.06429   -2.000
 7174.00    0.98853   1.04896   -2.000
 7175.00    1.04305   1.03159   -2.000
 7176.00    1.08063   1.03302   -2.000
 7177.00    1.11268   1.05011   -2.000
 7178.00    1.13320   1.04980   -2.000
 7179.00    1.12434   1.02225   -2.000
 7180.00    1.06227   0.99573   -2.000
 7181.00    1.02522   1.00105   -2.000
 7182.00    1.02779   1.03449   -2.000
 7183.00    1.02005   1.05789   -2.000
 7184.00    0.99800   1.05501   -2.000
 7185.00    0.96200   1.03439   -2.000
 7186.00    0.90893   1.00180   -2.000
 7187.00    0.92375   0.98279   -2.000
 7188.00    1.01174   0.98872   -2.000
 7189.00    1.03454   1.00711   -2.000
 7190.00    0.99535   1.02556   -2.000
 7191.00    0.95035   1.02656   -2.000
 7192.00    0.90049   1.01669   -2.000
 7193.00    0.91224   1.01838   -2.000
 7194.00    0.96948   1.03328   -2.000
 7195.00    1.02034   1.03713   -2.000
 7196.00    1.06706   1.02565   -2.000
 7197.00    1.03446   1.02558   -2.000
 7198.00    0.95687   1.03882   -2.000
 7199.00    0.96841   1.04537   -2.000
 7200.00    1.02398   1.03690   -2.000
 7201.00    1.07215   1.02464   -2.000
 7202.00    1.11717   1.03146   -2.000
 7203.00    1.07854   1.05362   -2.000
 7204.00    1.00931   1.06171   -2.000
 7205.00    0.91611   1.03506   -2.000
 7206.00    0.81548   0.98932   -2.000
 7207.00    0.83857   0.97274   -2.000
 7208.00    0.89358   0.99217   -2.000
 7209.00    0.90641   1.02406   -2.000
 7210.00    0.91035   1.05240   -2.000
 7211.00    0.93654   1.05682   -2.000
 7212.00    0.96643   1.04131   -2.000
 7213.00    0.98787   1.02692   -2.000
 7214.00    1.00826   1.02222   -2.000
 7215.00    0.99952   1.02772   -2.000
 7216.00    0.98826   1.04345   -2.000
 7217.00    1.01488   1.05871   -2.000
 7218.00    1.04343   1.05815   -2.000
