###################################################################
## OUTPUT of StarlightChains_v04.for    [Cid@UFSC - 01/Apr/2007] ##
###################################################################

## Some input info
KUG0210-078._46_40.txt                   [arq_obs]
Base.CB07.vall.4m                        [arq_base]
Masks.EmLines.NEW.gm                     [arq_masks]
StCv04.C11.config                        [arq_config]
   66                                    [N_base]
    0                                    [N_YAV_components = # of components with extra extinction!]
    0                                    [i_FitPowerLaw (1/0 = Yes/No)]
-9.99                                    [alpha_PowerLaw]
CCM                                      [red_law_option]
 1.458241                                [q_norm = A(l_norm)/A(V)]

## (Re)Sampling Parameters
 3741.00                                 [l_ini (A)]
 7218.00                                 [l_fin (A)]
    1.00                                 [dl    (A)]     (OBS: dl_cushion =    50.00 A)

## Normalization info
 4020.00                                 [l_norm (A) - for base]
 4010.00                                 [llow_norm (A) - window for f_obs]
 4060.00                                 [lupp_norm (A) - window for f_obs]
1.113627E-17                             [fobs_norm (in input units)]

## S/N
 3691.00                                 [llow_SN (A) - window for S/N]
 7268.00                                 [lupp_SN (A) - window for S/N]
   3.066                                 [S/N in S/N window]
   4.800                                 [S/N in norm. window]
   0.009                                 [S/N_err in S/N window]
   0.014                                 [S/N_err in norm. window]
  1.0000                                 [fscale_chi2]

## etc...
    -2007891                             [idum_orig]
  2399                                   [NOl_eff]
  2351                                   [Nl_eff]
    48    NSIGMA                         [Ntot_cliped & clip_method]
  6008660                                [Nglobal_steps]
   7                                     [N_chains]
  40                                     [NEX0s_base = N_base in EX0s-fits]
 0   0   1       48   2.0   3.290E+03    [Clip-Bug, RC-Crash & Burn-In warning-flags, n_censored_weights, wei_nsig_threshold & wei_limit]
    51     50.430     49.586      0.844  [idt_all, wdt_TotTime, wdt_UsrTime & wdt_SysTime (sec)]

## Synthesis Results - Best model ##

 1.18600E-05                             [chi2/Nl_eff]
    24.83634                             [adev (%)]

    95.88317                             [sum-of-x (%)]
 5.77563E-18                             [Flux_tot (units of input spectrum!)]
 2.99320E-14                             [Mini_tot (???)]
 1.77778E-14                             [Mcor_tot (???)]

  21.87                                  [v0_min  (km/s)]
 249.68                                  [vd_min  (km/s)]
-0.4575                                  [AV_min  (mag)]
 0.0000                                  [YAV_min (mag)]

# j     x_j(%)      Mini_j(%)     Mcor_j(%)     age_j(yr)     Z_j      (L/M)_j    YAV?  Mstars   component_j        a/Fe...       SSP_chi2r SSP_adev(%)   SSP_AV   SSP_x(%)
  1      0.0289     5.3090E-04    8.9387E-04    1.000000E+06  0.00400  1.094E-02    0   1.0000   age020_m42            0.0000     1.4740E-05    28.7230   2.3674    75.7866
  2      0.0000     0.0000E+00    0.0000E+00    3.160000E+06  0.00400  4.007E-02    0   0.9999   age045_m42            0.0000     1.3450E-05    27.3546   1.6201    81.3967
  3      0.0000     0.0000E+00    0.0000E+00    5.010000E+06  0.00400  2.539E-02    0   0.9488   age055_m42            0.0000     1.4117E-05    28.0153   1.9586    78.9915
  4      0.0000     0.0000E+00    0.0000E+00    6.610000E+06  0.00400  2.620E-02    0   0.9220   age061_m42            0.0000     1.3516E-05    27.3156   1.5594    81.2500
  5      0.0000     0.0000E+00    0.0000E+00    1.000000E+07  0.00400  1.322E-02    0   0.8862   age070_m42            0.0000     1.3793E-05    28.2341   1.3401    81.6220
  6      0.0000     0.0000E+00    0.0000E+00    1.445000E+07  0.00400  7.883E-03    0   0.8571   age078_m42            0.0000     1.4156E-05    28.5751   1.6667    79.5769
  7      0.0000     0.0000E+00    0.0000E+00    2.512000E+07  0.00400  5.251E-03    0   0.8174   age090_m42            0.0000     1.3744E-05    28.3354   1.2187    81.9043
  8      0.0000     0.0000E+00    0.0000E+00    4.000000E+07  0.00400  3.649E-03    0   0.7851   age104_m42            0.0000     1.3461E-05    27.9293   0.9787    82.8988
  9      0.0000     0.0000E+00    0.0000E+00    5.500000E+07  0.00400  3.098E-03    0   0.7629   age110_m42            0.0000     1.3204E-05    27.1806   1.0998    83.5853
 10      0.0011     1.0132E-04    1.2295E-04    1.015200E+08  0.00400  2.228E-03    0   0.7207   age116_m42            0.0000     1.3039E-05    26.6581   1.1030    84.0959
 11      0.0000     0.0000E+00    0.0000E+00    2.861200E+08  0.00400  1.093E-03    0   0.6648   age125_m42            0.0000     1.2688E-05    26.5282   0.5448    86.3360
 12      0.0000     0.0000E+00    0.0000E+00    5.088000E+08  0.00400  6.597E-04    0   0.6365   age130_m42            0.0000     1.2368E-05    25.6536   0.4946    88.0294
 13      0.0000     0.0000E+00    0.0000E+00    1.434000E+09  0.00400  2.132E-04    0   0.5798   age139_m42            0.0000     1.1790E-05    24.8889  -0.5207    90.9404
 14      0.0000     0.0000E+00    0.0000E+00    4.250000E+09  0.00400  5.895E-05    0   0.5377   age158_m42            0.0000     1.2081E-05    25.0204  -1.0000    88.4662
 15      0.0000     0.0000E+00    0.0000E+00    7.500000E+09  0.00400  3.510E-05    0   0.5212   age171_m42            0.0000     1.2412E-05    25.6301  -1.0000    84.9078
 16      0.0000     0.0000E+00    0.0000E+00    1.300000E+10  0.00400  2.005E-05    0   0.5034   age193_m42            0.0000     1.3089E-05    27.2186  -1.0000    81.5997
 17      0.0000     0.0000E+00    0.0000E+00    1.800000E+10  0.00400  1.525E-05    0   0.4967   age213_m42            0.0000     1.3216E-05    27.6079  -1.0000    80.7829
 18      0.0000     0.0000E+00    0.0000E+00    1.000000E+06  0.00800  1.238E-02    0   1.0000   age020_m52            0.0000     1.4779E-05    28.7489   2.3643    75.9147
 19      1.6819     1.1011E-02    1.8475E-02    3.160000E+06  0.00800  3.074E-02    0   0.9966   age045_m52            0.0000     1.4754E-05    28.6690   2.2861    76.5861
 20      0.0000     0.0000E+00    0.0000E+00    5.010000E+06  0.00800  2.668E-02    0   0.9443   age055_m52            0.0000     1.4359E-05    28.2648   2.0481    78.1359
 21      0.0000     0.0000E+00    0.0000E+00    6.610000E+06  0.00800  2.136E-02    0   0.9177   age061_m52            0.0000     1.3605E-05    28.1088   0.8212    83.1127
 22      0.0000     0.0000E+00    0.0000E+00    1.000000E+07  0.00800  1.215E-02    0   0.8827   age070_m52            0.0000     1.4131E-05    28.8734   1.5374    81.0323
 23      0.0000     0.0000E+00    0.0000E+00    1.445000E+07  0.00800  8.717E-03    0   0.8552   age078_m52            0.0000     1.4048E-05    28.4713   1.6297    80.7094
 24      0.0029     1.0336E-04    1.4204E-04    2.512000E+07  0.00800  5.592E-03    0   0.8162   age090_m52            0.0000     1.3729E-05    28.3850   1.2853    82.8028
 25      0.0000     0.0000E+00    0.0000E+00    4.000000E+07  0.00800  3.896E-03    0   0.7841   age104_m52            0.0000     1.3408E-05    27.8343   1.1775    83.8718
 26      0.0000     0.0000E+00    0.0000E+00    1.015200E+08  0.00800  2.148E-03    0   0.7226   age116_m52            0.0000     1.3059E-05    26.9784   1.0857    84.3971
 27      6.5644     1.3310E+00    1.4977E+00    2.861200E+08  0.00800  9.925E-04    0   0.6683   age125_m52            0.0000     1.2391E-05    25.6744   0.5617    88.7512
 28     11.0574     7.0844E+00    7.3214E+00    9.047900E+08  0.00800  3.141E-04    0   0.6138   age135_m52            0.0000     1.1665E-05    24.4599  -0.3282    94.8483
 29      8.8841     1.0401E+01    1.0249E+01    1.434000E+09  0.00800  1.719E-04    0   0.5853   age139_m52            0.0000     1.1813E-05    24.8063  -0.9091    92.8653
 30      0.5231     1.3371E+00    1.2607E+00    2.500000E+09  0.00800  7.872E-05    0   0.5600   age150_m52            0.0000     1.2327E-05    25.2219  -1.0000    87.7167
 31      0.0000     0.0000E+00    0.0000E+00    4.250000E+09  0.00800  4.336E-05    0   0.5426   age158_m52            0.0000     1.2502E-05    25.3975  -1.0000    86.6472
 32      0.0000     0.0000E+00    0.0000E+00    6.250000E+09  0.00800  3.159E-05    0   0.5319   age166_m52            0.0000     1.3430E-05    27.1822  -1.0000    83.0020
 33      0.0000     0.0000E+00    0.0000E+00    1.300000E+10  0.00800  1.361E-05    0   0.5073   age193_m52            0.0000     1.7352E-05    33.8804  -1.0000    72.8742
 34      0.0000     0.0000E+00    0.0000E+00    1.800000E+10  0.00800  9.886E-06    0   0.4990   age213_m52            0.0000     1.8947E-05    35.1270  -1.0000    70.1422
 35      0.0000     0.0000E+00    0.0000E+00    1.000000E+06  0.02000  1.544E-02    0   1.0000   age020_m62            0.0000     1.4849E-05    28.8041   2.3615    76.0566
 36      0.0000     0.0000E+00    0.0000E+00    3.160000E+06  0.02000  3.762E-02    0   0.9858   age045_m62            0.0000     1.4910E-05    28.8048   2.3008    76.7121
 37      0.0000     0.0000E+00    0.0000E+00    5.010000E+06  0.02000  3.296E-02    0   0.9342   age055_m62            0.0000     1.3936E-05    27.6996   1.9120    80.0903
 38      0.0000     0.0000E+00    0.0000E+00    8.710000E+06  0.02000  1.154E-02    0   0.8861   age067_m62            0.0000     1.5368E-05    32.1107   1.0962    81.0067
 39      0.0000     0.0000E+00    0.0000E+00    1.445000E+07  0.02000  7.663E-03    0   0.8472   age078_m62            0.0000     1.4230E-05    29.6406   1.2091    82.3591
 40      0.1605     7.1272E-03    9.7187E-03    2.512000E+07  0.02000  4.532E-03    0   0.8099   age090_m62            0.0000     1.4268E-05    29.7573   1.2136    81.8144
 41      0.0588     4.3315E-03    5.5390E-03    5.500000E+07  0.02000  2.733E-03    0   0.7595   age110_m62            0.0000     1.3576E-05    27.9690   1.1684    83.0640
 42      0.0000     0.0000E+00    0.0000E+00    1.609000E+08  0.02000  1.369E-03    0   0.6985   age120_m62            0.0000     1.2908E-05    26.4290   0.9601    86.4036
 43      2.4382     5.4441E-01    6.1541E-01    2.861200E+08  0.02000  9.013E-04    0   0.6714   age125_m62            0.0000     1.2422E-05    25.4210   0.6741    89.8232
 44      0.9602     3.8432E-01    4.1729E-01    5.088000E+08  0.02000  5.028E-04    0   0.6449   age130_m62            0.0000     1.1795E-05    24.3586   0.2123    94.4223
 45      6.7011     5.5541E+00    5.7782E+00    9.047900E+08  0.02000  2.428E-04    0   0.6179   age135_m62            0.0000     1.1742E-05    24.4295  -0.4183    94.9462
 46      0.0000     0.0000E+00    0.0000E+00    1.434000E+09  0.02000  1.263E-04    0   0.5908   age139_m62            0.0000     1.2051E-05    24.6311  -0.8758    93.8256
 47      0.0000     0.0000E+00    0.0000E+00    2.500000E+09  0.02000  5.985E-05    0   0.5673   age150_m62            0.0000     1.2764E-05    25.1347  -1.0000    88.5489
 48      0.0351     2.1613E-01    1.9898E-01    4.250000E+09  0.02000  3.271E-05    0   0.5468   age158_m62            0.0000     1.4604E-05    28.0595  -1.0000    81.9702
 49      0.0000     0.0000E+00    0.0000E+00    1.000000E+10  0.02000  1.360E-05    0   0.5167   age181_m62            0.0000     1.8272E-05    32.7619  -1.0000    74.1657
 50      0.0000     0.0000E+00    0.0000E+00    1.800000E+10  0.02000  7.124E-06    0   0.5013   age213_m62            0.0000     2.1331E-05    35.4146  -1.0000    68.8194
 51      0.0000     0.0000E+00    0.0000E+00    1.000000E+06  0.05000  2.592E-02    0   0.9998   age020_m72            0.0000     1.5039E-05    28.9968   2.3606    75.9216
 52      0.0000     0.0000E+00    0.0000E+00    3.160000E+06  0.05000  4.845E-02    0   0.9577   age045_m72            0.0000     1.4562E-05    28.3785   2.1774    77.8139
 53      0.0000     0.0000E+00    0.0000E+00    5.010000E+06  0.05000  3.072E-02    0   0.9147   age055_m72            0.0000     1.4567E-05    29.3920   1.7641    79.7910
 54      0.0000     0.0000E+00    0.0000E+00    6.610000E+06  0.05000  1.455E-02    0   0.8877   age061_m72            0.0000     1.6068E-05    33.8309   1.1693    80.8714
 55      0.0000     0.0000E+00    0.0000E+00    1.000000E+07  0.05000  9.074E-03    0   0.8524   age070_m72            0.0000     1.4650E-05    29.7794   1.9394    79.5602
 56      0.0000     0.0000E+00    0.0000E+00    2.512000E+07  0.05000  4.250E-03    0   0.7902   age090_m72            0.0000     1.4088E-05    28.9720   1.6444    81.0163
 57      0.0000     0.0000E+00    0.0000E+00    4.000000E+07  0.05000  3.087E-03    0   0.7618   age104_m72            0.0000     1.3909E-05    28.8150   1.4251    82.1774
 58      0.0000     2.4903E-07    2.9752E-07    1.015200E+08  0.05000  1.700E-03    0   0.7096   age116_m72            0.0000     1.3096E-05    26.9849   1.1264    85.4630
 59      0.2188     5.9633E-02    6.6597E-02    2.861200E+08  0.05000  7.384E-04    0   0.6633   age125_m72            0.0000     1.2174E-05    24.8234   0.5008    92.0835
 60     36.9286     1.9460E+01    2.0877E+01    5.088000E+08  0.05000  3.819E-04    0   0.6372   age130_m72            0.0000     1.1848E-05    24.4108  -0.0641    95.4782
 61     11.1884     1.3434E+01    1.3820E+01    9.047900E+08  0.05000  1.676E-04    0   0.6110   age135_m72            0.0000     1.2224E-05    24.7300  -0.8347    95.5611
 62      0.0000     0.0000E+00    0.0000E+00    1.434000E+09  0.05000  8.837E-05    0   0.5874   age139_m72            0.0000     1.2909E-05    25.0897  -1.0000    89.8849
 63      8.4497     4.0171E+01    3.7862E+01    2.500000E+09  0.05000  4.233E-05    0   0.5598   age150_m72            0.0000     1.4879E-05    27.9419  -1.0000    82.7150
 64      0.0000     0.0000E+00    0.0000E+00    6.250000E+09  0.05000  1.435E-05    0   0.5249   age166_m72            0.0000     1.9533E-05    34.1521  -1.0000    71.7023
 65      0.0000     0.0000E+00    0.0000E+00    1.300000E+10  0.05000  6.513E-06    0   0.5036   age193_m72            0.0000     2.3842E-05    37.5979  -1.0000    65.8584
 66      0.0000     0.0000E+00    0.0000E+00    1.800000E+10  0.05000  4.527E-06    0   0.4945   age213_m72            0.0000     2.6677E-05    39.4242  -1.0000    61.9303


## Synthesis Results - Average & Chains ##

# j      x_j: min, <> & last-chain-values for 1 ...  7 chains
  1      0.0289     18.9699     32.0693     25.3272     29.5844     28.4244     26.0441     21.7404     16.0132
  2      0.0000      0.7799      0.0855      0.5770      0.0713      0.0487      0.5608      0.2272      1.6897
  3      0.0000      0.6627      0.0000      1.9417      0.0259      0.0000      0.0000      0.3361      0.0000
  4      0.0000      0.8112      0.0000      0.5880      0.0000      0.0000      0.3854      0.0135      0.1268
  5      0.0000      0.7473      0.0636      0.1460      0.3468      0.0000      0.6807      1.3952      0.4924
  6      0.0000      0.7550      0.0000      0.7715      0.0000      0.3133      0.2131      0.3902      0.6385
  7      0.0000      0.4795      0.2912      0.3080      0.2226      0.2703      0.0071      0.3438      0.0000
  8      0.0000      0.5468      0.1931      0.3765      0.5619      0.2385      0.4226      0.9995      0.7625
  9      0.0000      0.6954      0.0000      0.2658      0.6527      1.0147      0.5251      1.0089      0.1251
 10      0.0011      0.7834      0.0000      1.4467      0.0000      0.0704      0.0175      0.7643      3.5613
 11      0.0000      0.5354      0.0729      0.5756      0.0000      0.2917      0.4238      0.0000      0.4179
 12      0.0000      0.4499      0.0000      0.0000      0.3108      0.5096      0.5868      0.0649      0.0000
 13      0.0000      1.3633      1.1134      1.3025      2.4347      1.8659      2.8949      0.8696      0.0000
 14      0.0000      0.8869      0.1781      0.2239      0.0000      0.1329      1.6159      0.0000      0.0000
 15      0.0000      0.4820      0.0000      0.0000      0.1398      0.2877      0.1077      0.7431      0.1862
 16      0.0000      0.7723      0.0000      0.2937      0.0000      1.2272      0.3494      0.3248      0.0000
 17      0.0000      0.7567      0.2009      0.0000      0.5169      1.2369      0.2790      0.0000      0.1368
 18      0.0000     18.7532     32.8059     25.1350     30.2374     28.0672     25.4079     21.1436     20.0694
 19      1.6819      0.5416      0.0000      0.7998      0.0552      0.2578      0.0541      0.0000      0.6784
 20      0.0000      0.5413      0.0000      0.8337      0.1183      0.2995      0.1478      0.0000      1.0077
 21      0.0000      0.5239      0.0000      0.2557      0.0488      0.0000      0.1421      0.0000      0.0000
 22      0.0000      0.7033      0.0441      1.3158      0.0000      0.4398      0.2500      1.8456      0.4436
 23      0.0000      0.5150      0.0022      0.0000      0.0229      0.4521      0.6858      0.5869      0.8835
 24      0.0029      0.5925      0.3787      0.0588      0.0000      0.5920      0.0594      0.4753      0.8251
 25      0.0000      0.6634      0.0199      0.0000      0.0000      0.0000      0.9451      0.0000      1.2956
 26      0.0000      0.6572      0.0204      0.5875      0.0000      0.4301      0.6986      0.0290      0.3538
 27      6.5644      0.5966      0.0270      0.0462      0.0551      0.2396      0.6320      0.0000      0.8218
 28     11.0574      0.6885      0.0000      1.0459      0.0786      0.2310      0.2202      0.6633      1.0418
 29      8.8841      0.6110      0.0000      0.1954      0.4406      0.0000      0.2143      0.0000      0.7420
 30      0.5231      0.7164      0.2290      0.0000      0.7118      0.0000      0.0000      0.9540      0.7018
 31      0.0000      0.5357      0.0000      0.0515      0.0548      0.0878      0.2777      0.3621      1.4811
 32      0.0000      0.7240      0.3413      0.2704      0.3783      0.3284      0.8129      0.1055      0.0994
 33      0.0000      0.8076      0.0472      0.7442      0.5669      0.1250      1.1859      0.0738      0.1454
 34      0.0000      0.5326      0.4609      0.6151      0.1776      0.0000      0.0000      0.5291      0.0000
 35      0.0000      0.6343      0.2576      0.0000      0.0378      0.0272      0.4711      2.3890      0.0000
 36      0.0000      0.7204      0.1816      0.3479      0.2382      0.3102      0.0000      1.4550      0.3816
 37      0.0000      0.5635      0.2700      0.3532      0.2818      0.1141      0.2591      0.8399      1.0948
 38      0.0000      0.6257      0.0300      0.0000      0.5965      0.1898      0.0912      0.0373      0.0000
 39      0.0000      0.5110      0.0950      0.0726      0.0000      0.0000      0.1596      0.4129      1.4326
 40      0.1605      0.5853      0.2683      0.0699      0.1595      0.6421      0.0000      2.2639      0.7689
 41      0.0588      0.7129      0.1723      0.0000      0.6244      0.3366      0.3631      1.5172      2.3233
 42      0.0000      0.6104      0.0048      0.1190      0.0000      0.1553      0.5302      0.0442      0.3075
 43      2.4382      0.6621      0.0880      0.5050      0.1665      0.1675      0.0049      0.6028      2.4168
 44      0.9602     10.4079     17.3886     13.7055     16.0581     13.7649     15.3263     13.0366     10.5127
 45      6.7011      0.8077      0.0000      0.4274      0.0435      0.2662      0.3397      0.8086      1.1106
 46      0.0000      0.6986      0.1078      0.1539      0.2912      0.1287      0.1430      0.2041      0.0000
 47      0.0000      0.5444      0.2400      0.0728      0.0000      0.2754      0.1626      0.1520      0.0000
 48      0.0351      0.5349      0.0000      0.0000      0.0000      0.1787      0.1369      1.2374      0.9019
 49      0.0000      0.5421      0.0000      0.1297      0.0000      0.1090      0.1017      0.0272      0.0310
 50      0.0000      0.5604      0.0424      0.0585      0.9553      0.0253      0.0000      0.7849      0.0000
 51      0.0000      0.6180      0.0639      0.7295      0.0000      0.4578      0.2272      0.4412      0.0531
 52      0.0000      0.7652      0.1116      0.2854      0.0000      0.2217      0.1326      0.0000      0.9976
 53      0.0000      0.4343      0.1379      0.2776      0.1960      0.6141      0.0000      1.4822      0.0000
 54      0.0000      0.9743      0.0000      1.2597      0.2917      0.4174      0.0000      0.0000      1.7676
 55      0.0000      0.6263      0.0000      0.5215      0.2260      0.0000      0.4210      0.8570      0.7289
 56      0.0000      0.5439      0.2453      0.3056      0.0811      0.4693      0.2544      0.0000      0.4892
 57      0.0000      0.5877      0.0851      0.2245      0.2523      0.2561      0.5450      0.0000      0.9988
 58      0.0000      0.9459      0.0222      0.7364      0.1616      0.3874      0.0000      0.7540      2.0328
 59      0.2188      0.6081      0.0000      0.3928      0.0088      0.2000      0.5781      0.4508      0.5557
 60     36.9286      0.5063      0.0719      0.5552      0.2359      0.8237      0.1399      0.4239      0.4366
 61     11.1884      0.5677      0.6579      0.0000      0.0084      0.2484      0.4355      0.1443      2.0700
 62      0.0000      0.6916      0.0000      0.2486      0.0000      0.2466      0.9543      1.3822      0.6378
 63      8.4497      0.6210      0.2804      0.4358      0.1280      1.1021      0.4251      0.5359      0.9260
 64      0.0000      0.7290      0.0000      1.1159      0.3151      0.0000      0.0954      0.0000      0.8738
 65      0.0000      0.6743      0.2664      0.1301      0.0459      0.0539      0.3066      0.0000      0.0280
 66      0.0000      0.7230      0.0000      0.0159      0.5197      0.0000      0.0007      0.1069      0.1200

# j      m_j: min, <> & last-chain-values for 1 ...  7 chains
  1  8.9387E-04  4.1072E-01  2.8029E+00  1.3072E+00  1.1311E+00  1.6879E+00  1.3061E+00  9.9319E-01  9.2725E-01
  2  0.0000E+00  4.6097E-03  2.0402E-03  8.1293E-03  7.4469E-04  7.8903E-04  7.6782E-03  2.8330E-03  2.6711E-02
  3  0.0000E+00  5.8661E-03  0.0000E+00  4.0968E-02  4.0417E-04  0.0000E+00  0.0000E+00  6.2774E-03  0.0000E+00
  4  0.0000E+00  6.7616E-03  0.0000E+00  1.1683E-02  0.0000E+00  0.0000E+00  7.4416E-03  2.3788E-04  2.8271E-03
  5  0.0000E+00  1.1866E-02  4.0742E-03  5.5258E-03  9.7246E-03  0.0000E+00  2.5033E-02  4.6742E-02  2.0911E-02
  6  0.0000E+00  1.9445E-02  0.0000E+00  4.7363E-02  0.0000E+00  2.2127E-02  1.2709E-02  2.1203E-02  4.3978E-02
  7  0.0000E+00  1.7679E-02  4.3344E-02  2.7067E-02  1.4497E-02  2.7336E-02  6.0829E-04  2.6745E-02  0.0000E+00
  8  0.0000E+00  2.7867E-02  3.9729E-02  4.5739E-02  5.0570E-02  3.3341E-02  4.9879E-02  1.0748E-01  1.0393E-01
  9  0.0000E+00  4.0563E-02  0.0000E+00  3.6963E-02  6.7230E-02  1.6233E-01  7.0943E-02  1.2418E-01  1.9514E-02
 10  1.2295E-04  6.0024E-02  0.0000E+00  2.6423E-01  0.0000E+00  1.4794E-02  3.1100E-03  1.2357E-01  7.2976E-01
 11  0.0000E+00  7.7127E-02  4.2400E-02  1.9769E-01  0.0000E+00  1.1525E-01  1.4143E-01  0.0000E+00  1.6103E-01
 12  0.0000E+00  1.0283E-01  0.0000E+00  0.0000E+00  1.2541E-01  3.1940E-01  3.1062E-01  3.1318E-02  0.0000E+00
 13  0.0000E+00  8.7817E-01  2.8951E+00  2.0000E+00  2.7696E+00  3.2964E+00  4.3192E+00  1.1819E+00  0.0000E+00
 14  0.0000E+00  1.9161E+00  1.5533E+00  1.1531E+00  0.0000E+00  7.8743E-01  8.0863E+00  0.0000E+00  0.0000E+00
 15  0.0000E+00  1.6951E+00  0.0000E+00  0.0000E+00  8.6817E-01  2.7750E+00  8.7776E-01  5.5149E+00  1.7514E+00
 16  0.0000E+00  4.5929E+00  0.0000E+00  4.1634E+00  0.0000E+00  2.0016E+01  4.8131E+00  4.0762E+00  0.0000E+00
 17  0.0000E+00  5.8374E+00  6.2567E+00  0.0000E+00  7.0420E+00  2.6171E+01  4.9853E+00  0.0000E+00  2.8220E+00
 18  0.0000E+00  3.5880E-01  2.5337E+00  1.1464E+00  1.0216E+00  1.4728E+00  1.1260E+00  8.5357E-01  1.0270E+00
 19  1.8475E-02  4.1587E-03  0.0000E+00  1.4640E-02  7.4922E-04  5.4297E-03  9.6213E-04  0.0000E+00  1.3932E-02
 20  0.0000E+00  4.5380E-03  0.0000E+00  1.6660E-02  1.7514E-03  6.8868E-03  2.8693E-03  0.0000E+00  2.2594E-02
 21  0.0000E+00  5.3310E-03  0.0000E+00  6.2036E-03  8.7727E-04  0.0000E+00  3.3484E-03  0.0000E+00  0.0000E+00
 22  0.0000E+00  1.2103E-02  3.0647E-03  5.3973E-02  0.0000E+00  2.0756E-02  9.9635E-03  6.7011E-02  2.0417E-02
 23  0.0000E+00  1.1967E-02  2.0357E-04  0.0000E+00  9.4016E-04  2.8811E-02  3.6911E-02  2.8777E-02  5.4912E-02
 24  1.4204E-04  2.0485E-02  5.2851E-02  4.8436E-03  0.0000E+00  5.6130E-02  4.7590E-03  3.4673E-02  7.6291E-02
 25  0.0000E+00  3.1624E-02  3.8231E-03  0.0000E+00  0.0000E+00  0.0000E+00  1.0436E-01  0.0000E+00  1.6518E-01
 26  0.0000E+00  5.2363E-02  6.5593E-03  1.1159E-01  0.0000E+00  9.3988E-02  1.2894E-01  4.8718E-03  7.5405E-02
 27  1.4977E+00  9.5160E-02  1.7399E-02  1.7580E-02  1.5511E-02  1.0481E-01  2.3346E-01  0.0000E+00  3.5054E-01
 28  7.3214E+00  3.1866E-01  0.0000E+00  1.1540E+00  6.4274E-02  2.9324E-01  2.3608E-01  6.4779E-01  1.2897E+00
 29  1.0249E+01  4.9278E-01  0.0000E+00  3.7559E-01  6.2757E-01  0.0000E+00  4.0040E-01  0.0000E+00  1.6005E+00
 30  1.2607E+00  1.2071E+00  1.5574E+00  0.0000E+00  2.1180E+00  0.0000E+00  0.0000E+00  3.3920E+00  3.1627E+00
 31  0.0000E+00  1.5879E+00  0.0000E+00  3.6413E-01  2.8683E-01  7.1344E-01  1.9063E+00  2.2648E+00  1.1741E+01
 32  0.0000E+00  2.8876E+00  5.4948E+00  2.5709E+00  2.6641E+00  3.5924E+00  7.5096E+00  8.8768E-01  1.0608E+00
 33  0.0000E+00  7.1305E+00  1.6808E+00  1.5663E+01  8.8393E+00  3.0269E+00  2.4252E+01  1.3747E+00  3.4326E+00
 34  0.0000E+00  6.3679E+00  2.2245E+01  1.7530E+01  3.7503E+00  0.0000E+00  0.0000E+00  1.3349E+01  0.0000E+00
 35  0.0000E+00  9.7314E-03  1.5955E-02  0.0000E+00  1.0242E-03  1.1464E-03  1.6738E-02  7.7329E-02  0.0000E+00
 36  0.0000E+00  4.4713E-03  4.5506E-03  5.1472E-03  2.6111E-03  5.2807E-03  0.0000E+00  1.9055E-02  6.3339E-03
 37  0.0000E+00  3.7828E-03  7.3165E-03  5.6527E-03  3.3407E-03  2.1012E-03  4.0290E-03  1.1898E-02  1.9657E-02
 38  0.0000E+00  1.1381E-02  2.2043E-03  0.0000E+00  1.9157E-02  9.4687E-03  3.8431E-03  1.4308E-03  0.0000E+00
 39  0.0000E+00  1.3381E-02  1.0047E-02  4.5322E-03  0.0000E+00  0.0000E+00  9.6825E-03  2.2817E-02  1.0033E-01
 40  9.7187E-03  2.4774E-02  4.5851E-02  7.0534E-03  1.1926E-02  7.4545E-02  0.0000E+00  2.0220E-01  8.7045E-02
 41  5.5390E-03  4.6928E-02  4.5786E-02  0.0000E+00  7.2580E-02  6.0765E-02  5.5367E-02  2.1073E-01  4.0900E-01
 42  0.0000E+00  7.3766E-02  2.3648E-03  3.4282E-02  0.0000E+00  5.1481E-02  1.4841E-01  1.1260E-02  9.9376E-02
 43  6.1541E-01  1.1682E-01  6.2656E-02  2.1243E-01  5.1876E-02  8.1064E-02  1.9980E-03  2.2441E-01  1.1405E+00
 44  4.1729E-01  3.1619E+00  2.1325E+01  9.9256E+00  8.6152E+00  1.1469E+01  1.0785E+01  8.3569E+00  8.5418E+00
 45  5.7782E+00  4.8686E-01  0.0000E+00  6.1414E-01  4.6271E-02  4.4004E-01  4.7436E-01  1.0285E+00  1.7905E+00
 46  0.0000E+00  7.7402E-01  4.8211E-01  4.0650E-01  5.6987E-01  3.9098E-01  3.6699E-01  4.7727E-01  0.0000E+00
 47  0.0000E+00  1.2222E+00  2.1748E+00  3.8988E-01  0.0000E+00  1.6955E+00  8.4570E-01  7.2024E-01  0.0000E+00
 48  1.9898E-01  2.1178E+00  0.0000E+00  0.0000E+00  0.0000E+00  1.9405E+00  1.2557E+00  1.0338E+01  9.5504E+00
 49  0.0000E+00  4.8788E+00  0.0000E+00  2.7823E+00  0.0000E+00  2.6905E+00  2.1201E+00  5.1653E-01  7.4701E-01
 50  0.0000E+00  9.3410E+00  2.8540E+00  2.3226E+00  2.8117E+01  1.1578E+00  0.0000E+00  2.7603E+01  0.0000E+00
 51  0.0000E+00  5.6464E-03  2.3565E-03  1.5888E-02  0.0000E+00  1.1471E-02  4.8076E-03  8.5045E-03  1.2985E-03
 52  0.0000E+00  3.5829E-03  2.1100E-03  3.1853E-03  0.0000E+00  2.8474E-03  1.4376E-03  0.0000E+00  1.2492E-02
 53  0.0000E+00  3.0631E-03  3.9267E-03  4.6669E-03  2.4415E-03  1.1879E-02  0.0000E+00  2.2057E-02  0.0000E+00
 54  0.0000E+00  1.4080E-02  0.0000E+00  4.3395E-02  7.4446E-03  1.6544E-02  0.0000E+00  0.0000E+00  6.8316E-02
 55  0.0000E+00  1.3936E-02  0.0000E+00  2.7661E-02  8.8809E-03  0.0000E+00  2.1699E-02  4.0236E-02  4.3377E-02
 56  0.0000E+00  2.3955E-02  4.3613E-02  3.2086E-02  6.3038E-03  5.6689E-02  2.5950E-02  0.0000E+00  5.7615E-02
 57  0.0000E+00  3.4355E-02  2.0079E-02  3.1284E-02  2.6040E-02  4.1052E-02  7.3786E-02  0.0000E+00  1.5614E-01
 58  2.9752E-07  9.3524E-02  8.8634E-03  1.7355E-01  2.8210E-02  1.0506E-01  0.0000E+00  1.5729E-01  5.3751E-01
 59  6.6597E-02  1.2938E-01  0.0000E+00  1.9923E-01  3.3165E-03  1.1672E-01  2.8491E-01  2.0240E-01  3.1620E-01
 60  2.0877E+01  2.0010E-01  1.1469E-01  5.2307E-01  1.6463E-01  8.9276E-01  1.2810E-01  3.5347E-01  4.6146E-01
 61  1.3820E+01  4.9020E-01  2.2934E+00  0.0000E+00  1.2761E-02  5.8838E-01  8.7096E-01  2.6285E-01  4.7805E+00
 62  0.0000E+00  1.0889E+00  0.0000E+00  9.3286E-01  0.0000E+00  1.0647E+00  3.4802E+00  4.5918E+00  2.6858E+00
 63  3.7862E+01  1.9453E+00  3.5455E+00  3.2542E+00  7.0796E-01  9.4681E+00  3.0842E+00  3.5417E+00  7.7579E+00
 64  0.0000E+00  6.3164E+00  0.0000E+00  2.3048E+01  4.8206E+00  0.0000E+00  1.9141E+00  0.0000E+00  2.0248E+01
 65  0.0000E+00  1.2349E+01  1.9697E+01  5.6791E+00  1.4847E+00  2.7086E+00  1.3005E+01  0.0000E+00  1.3729E+00
 66  0.0000E+00  1.8707E+01  0.0000E+00  9.8373E-01  2.3745E+01  0.0000E+00  4.4502E-02  5.8368E+00  8.3053E+00

# AV, chi2 & Mass for <> & i_chain = 1 ...  7 solutions
AV      -0.4575      1.1640      1.2548      1.0527      1.0123      1.0424      0.8881      1.0405      1.0169
chi2 1.1860E-05  1.8942E-05  1.4970E-05  1.4590E-05  1.4759E-05  1.4730E-05  1.4337E-05  1.4399E-05  1.4284E-05
Mass 1.7778E-14  2.2451E-13  6.2824E-14  8.1095E-14  1.0369E-13  6.9520E-14  6.6905E-14  9.0129E-14  6.8893E-14
  21.87                                  [v0_min (km/s) before EX0s...]
 249.68                                  [vd_min (km/s) before EX0s...]


## Synthetic spectrum (Best Model) ##l_obs f_obs f_syn wei
 3478    [Nl_obs]
 3741.00   -0.13313   0.49347    0.000
 3742.00   -0.05359   0.49721    0.000
 3743.00    0.14109   0.49275    0.000
 3744.00    0.29329   0.48043    0.000
 3745.00    0.42075   0.46254   -1.000
 3746.00    0.96531   0.44254   -1.000
 3747.00    1.72168   0.42300   -1.000
 3748.00    1.38189   0.40782   -1.000
 3749.00    0.56009   0.40157   -1.000
 3750.00    0.53102   0.40619   -1.000
 3751.00    0.80125   0.41976   -1.000
 3752.00    0.73435   0.43918   -1.000
 3753.00    0.55941   0.46299   -1.000
 3754.00    0.32876   0.48845   -1.000
 3755.00    0.08318   0.51027   -1.000
 3756.00    0.58676   0.52446   -1.000
 3757.00    1.25478   0.53239   -1.000
 3758.00    1.28496   0.53772   -1.000
 3759.00    1.20380   0.54114   -1.000
 3760.00    0.73720   0.54176   -1.000
 3761.00    0.21940   0.54032   -1.000
 3762.00    0.00300   0.53801   -1.000
 3763.00   -0.18509   0.53474    0.000
 3764.00    0.28486   0.52877   -1.000
 3765.00    0.79277   0.51813   -1.000
 3766.00    0.26445   0.50435   -1.000
 3767.00   -0.27987   0.49042    0.000
 3768.00    0.21903   0.47735   -1.000
 3769.00    0.72194   0.46652   -1.000
 3770.00    1.32238   0.46187   -1.000
 3771.00    1.83009   0.46628   -1.000
 3772.00    1.12256   0.47808   -1.000
 3773.00    0.44052   0.49466   -1.000
 3774.00   -0.01773   0.51589    0.000
 3775.00   -0.37790   0.54183    0.000
 3776.00   -0.10208   0.56988    0.000
 3777.00    0.18754   0.59678   -1.000
 3778.00    0.54699   0.62191   -1.000
 3779.00    0.79650   0.64486   -1.000
 3780.00    0.59598   0.66337   -1.000
 3781.00    0.33321   0.67606   -1.000
 3782.00   -0.14074   0.68354    0.000
 3783.00   -0.41863   0.68599    0.000
 3784.00   -0.13580   0.68122    0.000
 3785.00    0.12590   0.66917    0.037
 3786.00    0.33595   0.65409    0.037
 3787.00    0.36112   0.63801    0.036
 3788.00   -0.00342   0.62015    0.000
 3789.00   -0.15544   0.60094    0.000
 3790.00    0.08181   0.58176    0.034
 3791.00    0.04739   0.56198    0.034
 3792.00   -0.42193   0.53970    0.000
 3793.00   -0.63692   0.51552    0.000
 3794.00   -0.49467   0.49186    0.000
 3795.00   -0.34705   0.47000    0.000
 3796.00   -0.19278   0.45072    0.000
 3797.00   -0.16832   0.43799    0.000
 3798.00   -0.28526   0.43654    0.000
 3799.00    0.02676   0.44676    0.032
 3800.00    0.75101   0.46537    0.033
 3801.00    1.01201   0.49023    0.033
 3802.00    0.88045   0.52025    0.033
 3803.00    0.34026   0.55207    0.033
 3804.00   -0.50484   0.58154    0.000
 3805.00   -0.69356   0.60664    0.000
 3806.00   -0.45197   0.62830    0.000
 3807.00   -0.15843   0.64791    0.000
 3808.00    0.16491   0.66450    0.032
 3809.00    0.23066   0.67673    0.032
 3810.00    0.16764   0.68442    0.032
 3811.00    0.15426   0.68752    0.032
 3812.00    0.16234   0.68628    0.033
 3813.00    0.01894   0.68220    0.033
 3814.00   -0.18065   0.67659    0.000
 3815.00   -0.03775   0.67091    0.000
 3816.00    0.21281   0.66690    0.032
 3817.00    0.25233   0.66369    0.032
 3818.00    0.23649   0.65900    0.032
 3819.00    0.32152   0.65262    0.032
 3820.00    0.42816   0.64685    0.031
 3821.00   -0.13699   0.64118    0.000
 3822.00   -0.81615   0.63100    0.000
 3823.00   -0.11159   0.61526    0.000
 3824.00    0.77053   0.59839    0.032
 3825.00    1.08759   0.58249    0.032
 3826.00    1.35394   0.56498    0.032
 3827.00    0.87393   0.54431    0.031
 3828.00    0.35382   0.52231    0.030
 3829.00    0.04334   0.50048    0.030
 3830.00   -0.25776   0.47755    0.000
 3831.00   -0.12249   0.45281    0.000
 3832.00    0.01118   0.42884    0.030
 3833.00    0.10928   0.40814    0.030
 3834.00    0.20650   0.39237    0.030
 3835.00    0.29273   0.38376    0.030
 3836.00    0.39268   0.38376    0.030
 3837.00    0.60869   0.39221    0.030
 3838.00    0.77452   0.40852    0.031
 3839.00    0.62471   0.43170    0.030
 3840.00    0.52390   0.46051    0.030
 3841.00    0.66486   0.49289    0.030
 3842.00    0.75156   0.52553    0.030
 3843.00    0.62100   0.55645    0.030
 3844.00    0.42138   0.58460    0.030
 3845.00   -0.00782   0.61000    0.000
 3846.00   -0.22624   0.63298    0.000
 3847.00    0.14723   0.65205    0.000
 3848.00    0.43840   0.66597    0.000
 3849.00    0.53186   0.67734    0.000
 3850.00    0.41595   0.68913    0.000
 3851.00   -0.13418   0.69957    0.000
 3852.00   -0.34425   0.70614    0.000
 3853.00    0.05902   0.70999    0.000
 3854.00    0.39563   0.71242    0.000
 3855.00    0.62713   0.71399    0.000
 3856.00    0.63971   0.71557    0.000
 3857.00    0.34923   0.71603    0.000
 3858.00    0.30572   0.71572    0.000
 3859.00    0.56315   0.71830    0.000
 3860.00    0.61311   0.72495    0.000
 3861.00    0.44021   0.73249    0.000
 3862.00    0.45129   0.73898    0.000
 3863.00    0.63669   0.74539    0.000
 3864.00    0.66473   0.75132    0.000
 3865.00    0.56130   0.75498    0.000
 3866.00    0.45550   0.75576    0.000
 3867.00    0.34795   0.75387    0.000
 3868.00    0.33950   0.74941    0.000
 3869.00    0.39507   0.74247    0.000
 3870.00    0.36682   0.73338    0.000
 3871.00    0.29120   0.72258    0.000
 3872.00    0.40428   0.71219    0.000
 3873.00    0.61020   0.70362    0.000
 3874.00    0.45047   0.69580    0.000
 3875.00    0.13525   0.68690    0.000
 3876.00    0.20123   0.67578    0.000
 3877.00    0.40606   0.66311    0.000
 3878.00    0.59212   0.65144    0.000
 3879.00    0.77240   0.63942    0.000
 3880.00    0.64497   0.62243    0.000
 3881.00    0.43854   0.60117    0.027
 3882.00    0.58599   0.58014    0.027
 3883.00    0.80743   0.55882    0.027
 3884.00    0.51358   0.53336    0.028
 3885.00    0.13475   0.50578    0.028
 3886.00    0.43367   0.48183    0.028
 3887.00    0.81652   0.46314    0.028
 3888.00    0.59749   0.45013    0.028
 3889.00    0.32696   0.44617    0.028
 3890.00    0.04969   0.45284    0.028
 3891.00   -0.22791   0.46765    0.000
 3892.00    0.14474   0.48765    0.028
 3893.00    0.51913   0.51118    0.027
 3894.00    0.31812   0.53642    0.027
 3895.00    0.11711   0.56183    0.027
 3896.00   -0.08376   0.58600    0.000
 3897.00   -0.22991   0.60684    0.000
 3898.00    0.27103   0.62451    0.026
 3899.00    0.67913   0.64149    0.025
 3900.00    0.33091   0.65834    0.025
 3901.00    0.04769   0.67185    0.024
 3902.00    0.16156   0.68204    0.023
 3903.00    0.28990   0.69262    0.023
 3904.00    0.48782   0.70332    0.023
 3905.00    0.65852   0.71307    0.022
 3906.00    0.72261   0.72453    0.022
 3907.00    0.72312   0.73871    0.023
 3908.00    0.51644   0.75276    0.023
 3909.00    0.39671   0.76537    0.023
 3910.00    0.51677   0.77747    0.024
 3911.00    0.60963   0.78710    0.024
 3912.00    0.63822   0.79144    0.024
 3913.00    0.69977   0.79167    0.025
 3914.00    0.82858   0.78989    0.025
 3915.00    0.82474   0.78528    0.025
 3916.00    0.58533   0.77849    0.026
 3917.00    0.35044   0.77182    0.026
 3918.00    0.12260   0.76593    0.026
 3919.00    0.13851   0.76040    0.026
 3920.00    0.48699   0.75559    0.026
 3921.00    0.77401   0.75151    0.026
 3922.00    0.98718   0.74680    0.026
 3923.00    0.96573   0.73993    0.026
 3924.00    0.69578   0.72874    0.027
 3925.00    0.58339   0.71210    0.027
 3926.00    0.61818   0.68958    0.027
 3927.00    0.54142   0.66029    0.027
 3928.00    0.37278   0.62460    0.027
 3929.00    0.40724   0.58522    0.027
 3930.00    0.58891   0.54582    0.027
 3931.00    0.70556   0.50907    0.027
 3932.00    0.78083   0.47835    0.027
 3933.00    0.60267   0.45917    0.027
 3934.00    0.28347   0.45547    0.027
 3935.00    0.32133   0.46617    0.027
 3936.00    0.53204   0.48776    0.027
 3937.00    0.36037   0.51805    0.027
 3938.00    0.02885   0.55473    0.027
 3939.00    0.11985   0.59237    0.027
 3940.00    0.36200   0.62597    0.027
 3941.00    0.49493   0.65430    0.027
 3942.00    0.59485   0.67703    0.027
 3943.00    0.74321   0.69410    0.026
 3944.00    0.90373   0.70819    0.026
 3945.00    0.86969   0.72075    0.027
 3946.00    0.79596   0.72927    0.027
 3947.00    0.73932   0.73380    0.027
 3948.00    0.68541   0.73859    0.026
 3949.00    0.60454   0.74439    0.026
 3950.00    0.52046   0.74680    0.026
 3951.00    0.98640   0.74465    0.026
 3952.00    1.49714   0.74240    0.026
 3953.00    1.44517   0.74167    0.026
 3954.00    1.36734   0.73752    0.026
 3955.00    1.40842   0.72744    0.026
 3956.00    1.44932   0.71535    0.026
 3957.00    1.40116   0.70334    0.026
 3958.00    1.32957   0.68768    0.026
 3959.00    0.81430   0.66522    0.026
 3960.00    0.34737   0.63737    0.000
 3961.00    0.42514   0.60674    0.000
 3962.00    0.47798   0.57300    0.000
 3963.00    0.33490   0.53445    0.000
 3964.00    0.21110   0.49232    0.000
 3965.00    0.20164   0.45044    0.000
 3966.00    0.26447   0.41175    0.000
 3967.00    0.66670   0.37836    0.000
 3968.00    0.99213   0.35342    0.000
 3969.00    1.02321   0.34041    0.000
 3970.00    1.00232   0.34097    0.000
 3971.00    0.81530   0.35432    0.000
 3972.00    0.70460   0.37871    0.000
 3973.00    0.80060   0.41248    0.000
 3974.00    0.89858   0.45292    0.000
 3975.00    1.00116   0.49567    0.000
 3976.00    1.02481   0.53736    0.000
 3977.00    0.88990   0.57707    0.000
 3978.00    0.88816   0.61405    0.000
 3979.00    1.11934   0.64658    0.000
 3980.00    1.15759   0.67338    0.000
 3981.00    0.90048   0.69532    0.026
 3982.00    0.73020   0.71460    0.026
 3983.00    0.67668   0.73214    0.026
 3984.00    0.55169   0.74726    0.026
 3985.00    0.34205   0.76011    0.026
 3986.00    0.33458   0.77300    0.026
 3987.00    0.53822   0.78679    0.026
 3988.00    0.55871   0.79903    0.025
 3989.00    0.41050   0.80872    0.025
 3990.00    0.47710   0.81780    0.025
 3991.00    0.71811   0.82648    0.025
 3992.00    0.85359   0.83237    0.025
 3993.00    0.91368   0.83529    0.024
 3994.00    1.13056   0.83748    0.024
 3995.00    1.44574   0.83932    0.025
 3996.00    1.39612   0.83987    0.025
 3997.00    1.14659   0.84084    0.024
 3998.00    1.09061   0.84483    0.024
 3999.00    1.12682   0.84978    0.024
 4000.00    1.10996   0.85245    0.024
 4001.00    1.07127   0.85491    0.024
 4002.00    1.01552   0.85911    0.024
 4003.00    0.95377   0.86098    0.024
 4004.00    0.81281   0.85849    0.024
 4005.00    0.64839   0.85762    0.023
 4006.00    0.72143   0.86165    0.023
 4007.00    0.85282   0.86635    0.024
 4008.00    0.81076   0.87007    0.023
 4009.00    0.73422   0.87631    0.023
 4010.00    0.77099   0.88513    0.023
 4011.00    0.82537   0.89247    0.023
 4012.00    0.70437   0.89740    0.024
 4013.00    0.56321   0.90173    0.024
 4014.00    0.63589   0.90649    0.024
 4015.00    0.72510   0.91049    0.024
 4016.00    1.06304   0.91271    0.024
 4017.00    1.41146   0.91497    0.025
 4018.00    1.45632   0.91873    0.025
 4019.00    1.48879   0.92098    0.025
 4020.00    1.09961   0.91991    0.024
 4021.00    0.74084   0.91882    0.024
 4022.00    0.91821   0.91863    0.024
 4023.00    1.08634   0.91608    0.024
 4024.00    1.15499   0.91185    0.024
 4025.00    1.20663   0.90895    0.025
 4026.00    1.12912   0.90565    0.024
 4027.00    1.04057   0.89956    0.024
 4028.00    0.88827   0.89160    0.024
 4029.00    0.78858   0.88261    0.024
 4030.00    0.93005   0.87344    0.024
 4031.00    0.98578   0.86627    0.024
 4032.00    0.71990   0.86217    0.023
 4033.00    0.59923   0.86184    0.023
 4034.00    0.93377   0.86668    0.023
 4035.00    1.13002   0.87621    0.023
 4036.00    0.95836   0.88758    0.023
 4037.00    0.90077   0.89861    0.023
 4038.00    1.10367   0.90736    0.023
 4039.00    1.22570   0.91157    0.024
 4040.00    1.18787   0.91066    0.024
 4041.00    1.23773   0.90657    0.024
 4042.00    1.43866   0.90015    0.024
 4043.00    1.37132   0.89017    0.024
 4044.00    0.89929   0.87858    0.024
 4045.00    0.70350   0.87178    0.024
 4046.00    0.87388   0.87169    0.024
 4047.00    0.93007   0.87259    0.024
 4048.00    0.85294   0.87288    0.024
 4049.00    0.93635   0.87705    0.024
 4050.00    1.18505   0.88376    0.024
 4051.00    1.10802   0.88635    0.024
 4052.00    0.73519   0.88440    0.023
 4053.00    0.72320   0.88129    0.023
 4054.00    1.00000   0.87782    0.023
 4055.00    1.14912   0.87393    0.023
 4056.00    1.20832   0.86948    0.023
 4057.00    1.21723   0.86494    0.024
 4058.00    1.19508   0.86207    0.024
 4059.00    1.25154   0.86073    0.024
 4060.00    1.35042   0.85843    0.023
 4061.00    1.23082   0.85391    0.023
 4062.00    1.00882   0.84838    0.023
 4063.00    1.06301   0.84512    0.023
 4064.00    1.22880   0.84513    0.023
 4065.00    1.18968   0.84392    0.023
 4066.00    1.07991   0.84073    0.023
 4067.00    1.13269   0.84165    0.023
 4068.00    1.23266   0.84675    0.023
 4069.00    1.10104   0.84769    0.023
 4070.00    0.91378   0.84296    0.023
 4071.00    0.82672   0.83902    0.023
 4072.00    0.75907   0.83655    0.023
 4073.00    0.86716   0.83016    0.023
 4074.00    1.00173   0.82024    0.023
 4075.00    0.92641   0.81156    0.023
 4076.00    0.82788   0.80547    0.023
 4077.00    1.17037   0.80172    0.023
 4078.00    1.54516   0.80096    0.023
 4079.00    1.29467   0.80271    0.023
 4080.00    1.02024   0.80642    0.023
 4081.00    0.88270   0.81165    0.023
 4082.00    0.76043   0.81672    0.023
 4083.00    1.18515   0.82038    0.023
 4084.00    1.56574   0.82236    0.023
 4085.00    1.21901   0.82256    0.023
 4086.00    0.88732   0.82175    0.023
 4087.00    0.71049   0.82026    0.023
 4088.00    0.58219   0.81685    0.023
 4089.00    0.81007   0.81123    0.023
 4090.00    1.03089   0.80318    0.023
 4091.00    1.21222   0.79122    0.023
 4092.00    1.35865   0.77519    0.000
 4093.00    1.34892   0.75560    0.000
 4094.00    1.29188   0.73152    0.000
 4095.00    1.06106   0.70352    0.000
 4096.00    0.93089   0.67381    0.000
 4097.00    1.11026   0.64328    0.000
 4098.00    1.25137   0.61303    0.000
 4099.00    1.29251   0.58549    0.000
 4100.00    1.29316   0.56272    0.000
 4101.00    1.20286   0.54818    0.000
 4102.00    1.14368   0.54424    0.000
 4103.00    1.14506   0.54899    0.000
 4104.00    1.10941   0.56094    0.000
 4105.00    1.01095   0.58052    0.000
 4106.00    0.94035   0.60505    0.000
 4107.00    0.91116   0.63043    0.000
 4108.00    0.91262   0.65509    0.000
 4109.00    0.95413   0.67856    0.000
 4110.00    0.93626   0.70022    0.000
 4111.00    0.85007   0.72031    0.000
 4112.00    0.84586   0.73906    0.000
 4113.00    0.92489   0.75574    0.022
 4114.00    1.04355   0.77008    0.022
 4115.00    1.19768   0.78285    0.022
 4116.00    1.17655   0.79334    0.022
 4117.00    1.01714   0.79960    0.022
 4118.00    0.92941   0.80316    0.031
 4119.00    0.89140   0.80726    0.112
 4120.00    0.93312   0.81057   -1.000
 4121.00    1.02335   0.81138   -1.000
 4122.00    1.03176   0.81237   -1.000
 4123.00    0.99670   0.81523   -1.000
 4124.00    0.98695   0.81718   -1.000
 4125.00    0.98888   0.81675   -1.000
 4126.00    1.14380   0.81505   -1.000
 4127.00    1.35947   0.81262   -1.000
 4128.00    1.32911   0.80984   -1.000
 4129.00    1.21548   0.80711   -1.000
 4130.00    1.08097   0.80467    0.054
 4131.00    0.94051   0.80390    0.024
 4132.00    0.87104   0.80703    0.022
 4133.00    0.81824   0.81334    0.022
 4134.00    1.11860   0.82194    0.022
 4135.00    1.48561   0.83250    0.022
 4136.00    1.39903   0.84323    0.022
 4137.00    1.24621   0.85306    0.022
 4138.00    1.08323   0.86087    0.022
 4139.00    0.91916   0.86471    0.022
 4140.00    0.92936   0.86459    0.022
 4141.00    0.95162   0.86167    0.022
 4142.00    0.88396   0.85597    0.022
 4143.00    0.81319   0.85044    0.022
 4144.00    1.10326   0.84767    0.022
 4145.00    1.38044   0.84527    0.023
 4146.00    1.20821   0.84332    0.022
 4147.00    1.03084   0.84430    0.022
 4148.00    0.77411   0.84597    0.022
 4149.00    0.54490   0.84570    0.022
 4150.00    0.58686   0.84487    0.022
 4151.00    0.65352   0.84373    0.022
 4152.00    0.89541   0.84103    0.022
 4153.00    1.09353   0.83787    0.023
 4154.00    1.05270   0.83663    0.022
 4155.00    1.03948   0.83677    0.022
 4156.00    1.14691   0.83756    0.022
 4157.00    1.15645   0.84047    0.022
 4158.00    0.81385   0.84615    0.022
 4159.00    0.66885   0.85223    0.021
 4160.00    1.12008   0.85760    0.022
 4161.00    1.30839   0.86422    0.022
 4162.00    0.82153   0.87032    0.022
 4163.00    0.54493   0.87315    0.021
 4164.00    0.73278   0.87453    0.022
 4165.00    0.88805   0.87513    0.022
 4166.00    0.98092   0.87210    0.022
 4167.00    1.07481   0.86614    0.022
 4168.00    1.17039   0.85964    0.022
 4169.00    1.11930   0.85095    0.022
 4170.00    0.85338   0.83953    0.021
 4171.00    0.62013   0.82810    0.021
 4172.00    0.42895   0.81829    0.021
 4173.00    0.43829   0.80997    0.021
 4174.00    0.67518   0.80360    0.021
 4175.00    0.81043   0.80014    0.021
 4176.00    0.84397   0.79952    0.021
 4177.00    0.86730   0.80092    0.021
 4178.00    0.88164   0.80444    0.021
 4179.00    0.85876   0.80983    0.021
 4180.00    0.80693   0.81481    0.021
 4181.00    0.80263   0.81927    0.021
 4182.00    0.83084   0.82432    0.021
 4183.00    0.79955   0.82864    0.021
 4184.00    0.73259   0.83234    0.021
 4185.00    0.63172   0.83593    0.021
 4186.00    0.51312   0.83781    0.021
 4187.00    0.66378   0.83971    0.021
 4188.00    0.93656   0.84459    0.021
 4189.00    1.11220   0.84933    0.021
 4190.00    1.24993   0.85101    0.021
 4191.00    1.09787   0.85329    0.021
 4192.00    0.84955   0.85706    0.020
 4193.00    0.66037   0.85687    0.020
 4194.00    0.48767   0.85116    0.020
 4195.00    0.39503   0.84519    0.020
 4196.00    0.32076   0.83985    0.021
 4197.00    0.41221   0.83071    0.021
 4198.00    0.53411   0.82115    0.021
 4199.00    0.76970   0.81705    0.021
 4200.00    1.02138   0.81463    0.021
 4201.00    0.92114   0.81191    0.020
 4202.00    0.78503   0.81435    0.020
 4203.00    0.86215   0.82069    0.020
 4204.00    0.95315   0.82609    0.020
 4205.00    0.88307   0.83255    0.020
 4206.00    0.80817   0.84128    0.020
 4207.00    0.82161   0.84900    0.020
 4208.00    0.83503   0.85468    0.020
 4209.00    0.84794   0.85958    0.020
 4210.00    0.86548   0.86327    0.020
 4211.00    0.95038   0.86451    0.021
 4212.00    1.02938   0.86415    0.021
 4213.00    1.05262   0.86359    0.021
 4214.00    1.03181   0.86181    0.020
 4215.00    0.70817   0.85983    0.021
 4216.00    0.46177   0.86058    0.021
 4217.00    0.62593   0.86203    0.021
 4218.00    0.79237   0.86110    0.021
 4219.00    0.96852   0.85987    0.021
 4220.00    1.04774   0.85838    0.021
 4221.00    0.78539   0.85199    0.021
 4222.00    0.63057   0.84080    0.021
 4223.00    0.79419   0.82898    0.021
 4224.00    0.83884   0.81777    0.021
 4225.00    0.58324   0.80628    0.021
 4226.00    0.51252   0.79803    0.021
 4227.00    0.84354   0.79762    0.021
 4228.00    1.00353   0.80151    0.021
 4229.00    0.84099   0.80632    0.020
 4230.00    0.77083   0.81481    0.020
 4231.00    0.85277   0.82392    0.019
 4232.00    0.90004   0.82817    0.019
 4233.00    0.89728   0.83129    0.020
 4234.00    0.82990   0.83412    0.020
 4235.00    0.68047   0.83303    0.019
 4236.00    0.64911   0.83254    0.019
 4237.00    0.74982   0.83559    0.019
 4238.00    0.87530   0.83781    0.019
 4239.00    1.02519   0.84079    0.019
 4240.00    1.12125   0.84790    0.019
 4241.00    1.17045   0.85399    0.019
 4242.00    1.06957   0.85698    0.019
 4243.00    0.85362   0.86052    0.020
 4244.00    0.73033   0.86289    0.020
 4245.00    0.66950   0.86042    0.020
 4246.00    0.73796   0.85498    0.020
 4247.00    0.88277   0.85053    0.020
 4248.00    0.90046   0.84609    0.020
 4249.00    0.85270   0.83930    0.020
 4250.00    0.76742   0.83381    0.020
 4251.00    0.66539   0.83294    0.020
 4252.00    0.72377   0.83305    0.020
 4253.00    0.84364   0.83181    0.020
 4254.00    0.80039   0.83256    0.020
 4255.00    0.70397   0.83561    0.019
 4256.00    0.44036   0.83665    0.019
 4257.00    0.13111   0.83604    0.019
 4258.00    0.32809   0.83741    0.019
 4259.00    0.63853   0.83955    0.020
 4260.00    0.86246   0.84125    0.020
 4261.00    1.07093   0.84547    0.020
 4262.00    0.96976   0.85208    0.020
 4263.00    0.82623   0.85754    0.020
 4264.00    0.72491   0.86194    0.020
 4265.00    0.62772   0.86561    0.020
 4266.00    0.77275   0.86457    0.020
 4267.00    0.93259   0.85772    0.020
 4268.00    0.91596   0.84888    0.020
 4269.00    0.89359   0.83864    0.020
 4270.00    0.68069   0.82491    0.019
 4271.00    0.47928   0.81258    0.019
 4272.00    0.58140   0.80663    0.019
 4273.00    0.68614   0.80345    0.019
 4274.00    0.82686   0.80257    0.019
 4275.00    0.95337   0.80801    0.019
 4276.00    0.95075   0.81660    0.020
 4277.00    0.94910   0.82395    0.020
 4278.00    0.95395   0.83081    0.020
 4279.00    0.96796   0.83675    0.020
 4280.00    1.02934   0.83983    0.020
 4281.00    1.00077   0.83944    0.020
 4282.00    0.59672   0.83653   -2.000
 4283.00    0.33437   0.83234   -2.000
 4284.00    0.56124   0.82633   -2.000
 4285.00    0.75321   0.81790   -2.000
 4286.00    0.84376   0.80927   -2.000
 4287.00    0.86954   0.80203   -2.000
 4288.00    0.73470   0.79454   -2.000
 4289.00    0.74711   0.78741   -2.000
 4290.00    1.07431   0.78337   -2.000
 4291.00    1.20816   0.78190   -2.000
 4292.00    0.98300   0.78009   -2.000
 4293.00    0.88231   0.77782   -2.000
 4294.00    0.98346   0.77595   -2.000
 4295.00    0.86708   0.77113   -2.000
 4296.00    0.44123   0.76269   -2.000
 4297.00    0.25765   0.75345   -2.000
 4298.00    0.37727   0.74185    0.020
 4299.00    0.58585   0.72905    0.020
 4300.00    0.89255   0.71932    0.020
 4301.00    0.97691   0.71067    0.020
 4302.00    0.84492   0.70297    0.020
 4303.00    0.81665   0.69985    0.020
 4304.00    0.87736   0.69864    0.020
 4305.00    0.81457   0.69754    0.021
 4306.00    0.65844   0.69921    0.021
 4307.00    0.50982   0.70250    0.021
 4308.00    0.36618   0.70627    0.020
 4309.00    0.47368   0.71265    0.020
 4310.00    0.72722   0.72109    0.020
 4311.00    0.69044   0.73096    0.020
 4312.00    0.50652   0.74385    0.020
 4313.00    0.47198   0.75755    0.020
 4314.00    0.50299   0.77073    0.020
 4315.00    0.48855   0.78511    0.020
 4316.00    0.45700   0.79767    0.020
 4317.00    0.44327   0.80570    0.020
 4318.00    0.43524   0.81137    0.021
 4319.00    0.43616   0.81297    0.020
 4320.00    0.43947   0.80786    0.020
 4321.00    0.55743   0.79886    0.020
 4322.00    0.70049   0.78799    0.020
 4323.00    0.71077   0.77527    0.020
 4324.00    0.69794   0.76247    0.020
 4325.00    0.84065   0.75197    0.020
 4326.00    1.00394   0.74464    0.020
 4327.00    0.78991   0.74043    0.020
 4328.00    0.54063   0.73848    0.020
 4329.00    0.53453   0.73691    0.020
 4330.00    0.54233   0.73470    0.000
 4331.00    0.69001   0.73072    0.000
 4332.00    0.83911   0.72182    0.000
 4333.00    0.77918   0.70681    0.000
 4334.00    0.72860   0.68831    0.000
 4335.00    0.90278   0.66587    0.000
 4336.00    1.06305   0.63778    0.000
 4337.00    1.04224   0.60988    0.000
 4338.00    1.04221   0.58675    0.000
 4339.00    1.22377   0.56614    0.000
 4340.00    1.38392   0.55190    0.000
 4341.00    1.40580   0.55014    0.000
 4342.00    1.35154   0.55683    0.000
 4343.00    0.91310   0.56887    0.000
 4344.00    0.55844   0.58918    0.000
 4345.00    0.54571   0.61415    0.000
 4346.00    0.55910   0.63723    0.000
 4347.00    0.66079   0.65834    0.000
 4348.00    0.72695   0.67833    0.000
 4349.00    0.69168   0.69489    0.000
 4350.00    0.65698   0.70665    0.000
 4351.00    0.62362   0.71638    0.020
 4352.00    0.62900   0.72727    0.020
 4353.00    0.71585   0.73786    0.020
 4354.00    0.85973   0.74735    0.020
 4355.00    1.10787   0.75895    0.020
 4356.00    1.15537   0.77256    0.019
 4357.00    0.88232   0.78489    0.019
 4358.00    0.71733   0.79617    0.024
 4359.00    0.70385   0.80809    0.067
 4360.00    0.72022   0.81950   -1.000
 4361.00    0.77340   0.82896   -1.000
 4362.00    0.75746   0.83693   -1.000
 4363.00    0.66634   0.84365   -1.000
 4364.00    0.59825   0.84837   -1.000
 4365.00    0.55227   0.85045   -1.000
 4366.00    0.55531   0.84967    0.071
 4367.00    0.59982   0.84715    0.025
 4368.00    0.55396   0.84394    0.020
 4369.00    0.44077   0.83932    0.019
 4370.00    0.48658   0.83374    0.019
 4371.00    0.63642   0.82942    0.019
 4372.00    0.64425   0.82632    0.019
 4373.00    0.57074   0.82321    0.019
 4374.00    0.63858   0.82133    0.019
 4375.00    0.77694   0.82143    0.019
 4376.00    0.79166   0.82168    0.019
 4377.00    0.75304   0.82141    0.019
 4378.00    0.64205   0.82022    0.019
 4379.00    0.50427   0.81624    0.019
 4380.00    0.51761   0.80959    0.019
 4381.00    0.57834   0.80132    0.019
 4382.00    0.61627   0.79112    0.019
 4383.00    0.64825   0.78085    0.019
 4384.00    0.76762   0.77395    0.019
 4385.00    0.90567   0.77092    0.018
 4386.00    0.91026   0.77060    0.018
 4387.00    0.89229   0.77390    0.018
 4388.00    0.87392   0.78121    0.018
 4389.00    0.85551   0.78940    0.018
 4390.00    0.84789   0.79639    0.019
 4391.00    0.84124   0.80362    0.019
 4392.00    0.93228   0.81085    0.019
 4393.00    1.02851   0.81568    0.019
 4394.00    1.01167   0.81889    0.019
 4395.00    0.99341   0.82284    0.019
 4396.00    1.04015   0.82554    0.019
 4397.00    1.08061   0.82554    0.019
 4398.00    0.98304   0.82580    0.019
 4399.00    0.87427   0.82540    0.019
 4400.00    0.62720   0.82182    0.019
 4401.00    0.43516   0.81857    0.019
 4402.00    0.70598   0.81665    0.019
 4403.00    0.93856   0.81285    0.019
 4404.00    0.93149   0.80975    0.019
 4405.00    0.90078   0.81079    0.019
 4406.00    0.75385   0.81260    0.019
 4407.00    0.65050   0.81394    0.019
 4408.00    0.72112   0.81855    0.019
 4409.00    0.76053   0.82505    0.019
 4410.00    0.69645   0.82867    0.019
 4411.00    0.66221   0.83106    0.019
 4412.00    0.71156   0.83435    0.019
 4413.00    0.77546   0.83460    0.019
 4414.00    0.87423   0.83194    0.019
 4415.00    0.91564   0.83126    0.019
 4416.00    0.83835   0.83127    0.019
 4417.00    0.75717   0.83039    0.019
 4418.00    0.66898   0.83192    0.019
 4419.00    0.64362   0.83548    0.019
 4420.00    0.71714   0.83834    0.019
 4421.00    0.82358   0.84087    0.019
 4422.00    0.97553   0.84348    0.020
 4423.00    0.98667   0.84516    0.020
 4424.00    0.82655   0.84569    0.019
 4425.00    0.75822   0.84572    0.019
 4426.00    0.78830   0.84492    0.019
 4427.00    0.74100   0.84375    0.019
 4428.00    0.62052   0.84259    0.019
 4429.00    0.56453   0.83995    0.020
 4430.00    0.56231   0.83702    0.020
 4431.00    0.53269   0.83513    0.020
 4432.00    0.48295   0.83275    0.020
 4433.00    0.60305   0.83090    0.020
 4434.00    0.83266   0.83096    0.020
 4435.00    0.88634   0.83221    0.020
 4436.00    0.84079   0.83443    0.020
 4437.00    0.92550   0.83700    0.020
 4438.00    1.07416   0.83948    0.020
 4439.00    1.04196   0.84117    0.020
 4440.00    0.93301   0.84115    0.020
 4441.00    1.11631   0.84059    0.020
 4442.00    1.40582   0.83978    0.020
 4443.00    1.02219   0.83847    0.020
 4444.00    0.43156   0.83916    0.020
 4445.00    0.43780   0.84144    0.020
 4446.00    0.59685   0.84289    0.020
 4447.00    0.73639   0.84526    0.020
 4448.00    0.87186   0.84798    0.020
 4449.00    0.68626   0.84727    0.021
 4450.00    0.44791   0.84447    0.021
 4451.00    0.67655   0.84068    0.020
 4452.00    0.96277   0.83425    0.020
 4453.00    0.89060   0.82616    0.020
 4454.00    0.78796   0.81764    0.020
 4455.00    0.64366   0.80956    0.020
 4456.00    0.49731   0.80296    0.020
 4457.00    0.67896   0.79694    0.020
 4458.00    0.86553   0.79251    0.020
 4459.00    1.03371   0.79168    0.020
 4460.00    1.18300   0.79180    0.019
 4461.00    0.94955   0.79216    0.000
 4462.00    0.73976   0.79564    0.000
 4463.00    0.80788   0.79977    0.000
 4464.00    0.86545   0.80242    0.000
 4465.00    0.83746   0.80617    0.000
 4466.00    0.80277   0.81040    0.000
 4467.00    0.72735   0.81355    0.000
 4468.00    0.65382   0.81701    0.000
 4469.00    0.58941   0.82190    0.000
 4470.00    0.61435   0.82779    0.000
 4471.00    0.98828   0.83397    0.000
 4472.00    1.17208   0.84089    0.000
 4473.00    0.73767   0.84836    0.000
 4474.00    0.44269   0.85406    0.000
 4475.00    0.53131   0.85735    0.000
 4476.00    0.61221   0.85895    0.000
 4477.00    0.67489   0.85746    0.000
 4478.00    0.68570   0.85301    0.000
 4479.00    0.59087   0.84810    0.000
 4480.00    0.59387   0.84290    0.000
 4481.00    0.77029   0.83820    0.000
 4482.00    0.88921   0.83632    0.019
 4483.00    0.91893   0.83645    0.020
 4484.00    0.85390   0.83756    0.020
 4485.00    0.65984   0.84019    0.020
 4486.00    0.61615   0.84278    0.020
 4487.00    0.75276   0.84369    0.020
 4488.00    0.81400   0.84364    0.020
 4489.00    0.79556   0.84305    0.020
 4490.00    0.80540   0.84126    0.020
 4491.00    0.84161   0.83956    0.020
 4492.00    0.84071   0.83919    0.020
 4493.00    0.80930   0.83905    0.020
 4494.00    0.82142   0.84003    0.019
 4495.00    0.86504   0.84300    0.019
 4496.00    0.79673   0.84640    0.019
 4497.00    0.65731   0.85056    0.019
 4498.00    0.67911   0.85620    0.019
 4499.00    0.79045   0.86243    0.019
 4500.00    0.72355   0.86843    0.019
 4501.00    0.57054   0.87475    0.019
 4502.00    0.72703   0.88170    0.019
 4503.00    1.01264   0.88730    0.019
 4504.00    0.96327   0.89157    0.019
 4505.00    0.79436   0.89564    0.019
 4506.00    0.79232   0.89783    0.019
 4507.00    0.84059   0.89789    0.019
 4508.00    0.82332   0.89708    0.019
 4509.00    0.78963   0.89527    0.019
 4510.00    0.91418   0.89201    0.019
 4511.00    1.07091   0.88776    0.019
 4512.00    0.82585   0.88363    0.019
 4513.00    0.51670   0.87912    0.019
 4514.00    0.38866   0.87386    0.019
 4515.00    0.28215   0.86968    0.019
 4516.00    0.39982   0.86596    0.019
 4517.00    0.53564   0.86192    0.019
 4518.00    0.68253   0.85881    0.019
 4519.00    0.82992   0.85540    0.019
 4520.00    0.87693   0.85147    0.019
 4521.00    0.92261   0.84695    0.019
 4522.00    0.96360   0.84068    0.018
 4523.00    0.99061   0.83430    0.018
 4524.00    0.75527   0.82686    0.018
 4525.00    0.53307   0.81806    0.018
 4526.00    0.45819   0.81081    0.018
 4527.00    0.40499   0.80377    0.018
 4528.00    0.52149   0.79736    0.018
 4529.00    0.61666   0.79381    0.018
 4530.00    0.58567   0.79151    0.018
 4531.00    0.57487   0.79123    0.018
 4532.00    0.65855   0.79360    0.018
 4533.00    0.73696   0.79716    0.018
 4534.00    0.79522   0.80270    0.018
 4535.00    0.81976   0.80954    0.018
 4536.00    0.73678   0.81677    0.018
 4537.00    0.62861   0.82417    0.018
 4538.00    0.45237   0.83056    0.018
 4539.00    0.39413   0.83608    0.018
 4540.00    0.60929   0.83967    0.018
 4541.00    0.74907   0.84103    0.018
 4542.00    0.73774   0.84147    0.018
 4543.00    0.68803   0.83976    0.018
 4544.00    0.57134   0.83649    0.018
 4545.00    0.55534   0.83292    0.018
 4546.00    0.69321   0.82801    0.018
 4547.00    0.75637   0.82302    0.018
 4548.00    0.71922   0.81811    0.018
 4549.00    0.72763   0.81317    0.018
 4550.00    0.78988   0.81016    0.000
 4551.00    0.81553   0.80751    0.000
 4552.00    0.80302   0.80584    0.000
 4553.00    0.82822   0.80734    0.000
 4554.00    0.88810   0.80930    0.000
 4555.00    0.93945   0.81236    0.000
 4556.00    0.98390   0.81814    0.000
 4557.00    0.97877   0.82368    0.000
 4558.00    0.93829   0.82913    0.000
 4559.00    0.86789   0.83514    0.000
 4560.00    0.77877   0.83934    0.000
 4561.00    0.74997   0.84233    0.000
 4562.00    0.75418   0.84446    0.000
 4563.00    0.80839   0.84524    0.000
 4564.00    0.88639   0.84598    0.000
 4565.00    0.77402   0.84636    0.000
 4566.00    0.58356   0.84715    0.000
 4567.00    0.62252   0.84863    0.000
 4568.00    0.74187   0.84932    0.000
 4569.00    0.84449   0.85083    0.000
 4570.00    0.94217   0.85196    0.000
 4571.00    0.88626   0.85145    0.000
 4572.00    0.79273   0.85208    0.000
 4573.00    0.63871   0.85171    0.000
 4574.00    0.47270   0.84947    0.000
 4575.00    0.62726   0.84815    0.000
 4576.00    0.83144   0.84540    0.000
 4577.00    0.77466   0.84062    0.000
 4578.00    0.68802   0.83608    0.000
 4579.00    0.84643   0.83065    0.000
 4580.00    1.02367   0.82463    0.000
 4581.00    1.06428   0.81985    0.000
 4582.00    1.09919   0.81577    0.000
 4583.00    0.88516   0.81306    0.000
 4584.00    0.67385   0.81270    0.000
 4585.00    0.67189   0.81318    0.000
 4586.00    0.66809   0.81473    0.000
 4587.00    0.63219   0.81765    0.000
 4588.00    0.61367   0.81984    0.000
 4589.00    0.78116   0.82160    0.000
 4590.00    0.92160   0.82329    0.000
 4591.00    0.85766   0.82356    0.000
 4592.00    0.79417   0.82343    0.000
 4593.00    0.73320   0.82344    0.000
 4594.00    0.70228   0.82259    0.000
 4595.00    0.80869   0.82241    0.000
 4596.00    0.91539   0.82292    0.000
 4597.00    1.02316   0.82273    0.000
 4598.00    1.11585   0.82364    0.000
 4599.00    1.16140   0.82489    0.000
 4600.00    1.11811   0.82564    0.000
 4601.00    0.83901   0.82770    0.000
 4602.00    0.62879   0.82982    0.000
 4603.00    0.57550   0.83226    0.000
 4604.00    0.63989   0.83599    0.000
 4605.00    0.93643   0.83984    0.000
 4606.00    1.05455   0.84413    0.000
 4607.00    0.86587   0.84845    0.000
 4608.00    0.70084   0.85248    0.000
 4609.00    0.57139   0.85578    0.000
 4610.00    0.57356   0.85755    0.000
 4611.00    0.74987   0.85895    0.000
 4612.00    0.83911   0.85890    0.000
 4613.00    0.82689   0.85737    0.000
 4614.00    0.81749   0.85665    0.000
 4615.00    0.81099   0.85475    0.000
 4616.00    0.80288   0.85258    0.000
 4617.00    0.79330   0.85229    0.000
 4618.00    0.80889   0.85102    0.000
 4619.00    0.84459   0.85033    0.000
 4620.00    0.85466   0.85155    0.000
 4621.00    0.84672   0.85150    0.000
 4622.00    0.83339   0.85172    0.000
 4623.00    0.81676   0.85297    0.000
 4624.00    0.75934   0.85260    0.000
 4625.00    0.67997   0.85172    0.000
 4626.00    0.69465   0.85127    0.000
 4627.00    0.75333   0.84976    0.000
 4628.00    0.83523   0.84755    0.000
 4629.00    0.92649   0.84580    0.000
 4630.00    0.95415   0.84395    0.000
 4631.00    0.95992   0.84115    0.000
 4632.00    0.95394   0.83858    0.000
 4633.00    0.94457   0.83656    0.000
 4634.00    0.89205   0.83353    0.000
 4635.00    0.82920   0.83069    0.000
 4636.00    0.67130   0.82866    0.000
 4637.00    0.49503   0.82638    0.000
 4638.00    0.54247   0.82471    0.000
 4639.00    0.62350   0.82305    0.000
 4640.00    0.60438   0.82124    0.000
 4641.00    0.57425   0.81998    0.000
 4642.00    0.72227   0.81737    0.000
 4643.00    0.88324   0.81431    0.000
 4644.00    0.77505   0.81186    0.000
 4645.00    0.65669   0.80820    0.000
 4646.00    0.68988   0.80536    0.000
 4647.00    0.72268   0.80432    0.000
 4648.00    0.71283   0.80321    0.000
 4649.00    0.71561   0.80394    0.000
 4650.00    0.92469   0.80631    0.000
 4651.00    1.11851   0.80837    0.000
 4652.00    1.15625   0.81166    0.000
 4653.00    1.15099   0.81482    0.000
 4654.00    0.83148   0.81735    0.000
 4655.00    0.57784   0.82091    0.000
 4656.00    0.69244   0.82345    0.000
 4657.00    0.79096   0.82550    0.000
 4658.00    0.81769   0.82790    0.000
 4659.00    0.83941   0.82830    0.000
 4660.00    0.84275   0.82710    0.000
 4661.00    0.82319   0.82439    0.000
 4662.00    0.73331   0.81912    0.000
 4663.00    0.65499   0.81206    0.000
 4664.00    0.60679   0.80421    0.000
 4665.00    0.63638   0.79599    0.000
 4666.00    0.84030   0.78845    0.000
 4667.00    0.97165   0.78344    0.000
 4668.00    0.96205   0.78076    0.000
 4669.00    0.96303   0.78019    0.000
 4670.00    0.98193   0.78319    0.000
 4671.00    0.93653   0.78798    0.000
 4672.00    0.79573   0.79277    0.000
 4673.00    0.72622   0.79872    0.000
 4674.00    0.74971   0.80417    0.000
 4675.00    0.78265   0.80774    0.000
 4676.00    0.82646   0.81044    0.000
 4677.00    0.84434   0.81166    0.000
 4678.00    0.83595   0.81161    0.000
 4679.00    0.88017   0.81122    0.000
 4680.00    0.97141   0.81041    0.000
 4681.00    0.94489   0.80978    0.000
 4682.00    0.82564   0.80993    0.000
 4683.00    0.61029   0.81025    0.000
 4684.00    0.32839   0.81059    0.000
 4685.00    0.27680   0.81166    0.000
 4686.00    0.36508   0.81261    0.000
 4687.00    0.53468   0.81276    0.000
 4688.00    0.74737   0.81315    0.000
 4689.00    0.88321   0.81343    0.000
 4690.00    0.98368   0.81304    0.000
 4691.00    0.95362   0.81297    0.000
 4692.00    0.87184   0.81288    0.000
 4693.00    0.83034   0.81210    0.000
 4694.00    0.80245   0.81132    0.000
 4695.00    0.75939   0.80994    0.000
 4696.00    0.71202   0.80732    0.000
 4697.00    0.72286   0.80402    0.000
 4698.00    0.74733   0.80032    0.000
 4699.00    0.66681   0.79615    0.000
 4700.00    0.56653   0.79151    0.000
 4701.00    0.68156   0.78755    0.000
 4702.00    0.82790   0.78464    0.000
 4703.00    0.99864   0.78224    0.000
 4704.00    1.17195   0.78078    0.000
 4705.00    0.99606   0.78036    0.000
 4706.00    0.79618   0.78085    0.000
 4707.00    0.68144   0.78218    0.000
 4708.00    0.56959   0.78362    0.000
 4709.00    0.69810   0.78553    0.000
 4710.00    0.82431   0.78852    0.000
 4711.00    0.86371   0.79130    0.000
 4712.00    0.90915   0.79429    0.000
 4713.00    1.04712   0.79834    0.000
 4714.00    1.14466   0.80223    0.000
 4715.00    0.84573   0.80657    0.000
 4716.00    0.59768   0.81125    0.000
 4717.00    0.70943   0.81569    0.000
 4718.00    0.79099   0.82060    0.000
 4719.00    0.70828   0.82456    0.000
 4720.00    0.64333   0.82718    0.000
 4721.00    0.65580   0.82908    0.000
 4722.00    0.64720   0.82934    0.000
 4723.00    0.56307   0.82782    0.000
 4724.00    0.55209   0.82455    0.000
 4725.00    0.76132   0.81990    0.000
 4726.00    0.91535   0.81467    0.000
 4727.00    0.92795   0.80870    0.000
 4728.00    0.89176   0.80290    0.000
 4729.00    0.74805   0.79810    0.000
 4730.00    0.69075   0.79405    0.000
 4731.00    0.79863   0.79201    0.000
 4732.00    0.83246   0.79193    0.000
 4733.00    0.74277   0.79207    0.000
 4734.00    0.72176   0.79391    0.000
 4735.00    0.80116   0.79686    0.000
 4736.00    0.87196   0.79903    0.000
 4737.00    0.93171   0.80229    0.000
 4738.00    1.00160   0.80510    0.000
 4739.00    1.08296   0.80686    0.000
 4740.00    1.01608   0.81006    0.000
 4741.00    0.80110   0.81256    0.000
 4742.00    0.68937   0.81380    0.000
 4743.00    0.66862   0.81587    0.000
 4744.00    0.68948   0.81764    0.000
 4745.00    0.74264   0.81867    0.000
 4746.00    0.82886   0.81941    0.000
 4747.00    0.93764   0.81935    0.000
 4748.00    0.94966   0.81901    0.000
 4749.00    0.90378   0.81815    0.000
 4750.00    1.00636   0.81598    0.000
 4751.00    1.18644   0.81355    0.000
 4752.00    1.20725   0.81122    0.000
 4753.00    1.15596   0.80821    0.000
 4754.00    0.93840   0.80525    0.000
 4755.00    0.65609   0.80270    0.000
 4756.00    0.71577   0.80004    0.000
 4757.00    0.88877   0.79776    0.000
 4758.00    0.73556   0.79518    0.000
 4759.00    0.49166   0.79217    0.000
 4760.00    0.54936   0.78906    0.000
 4761.00    0.67604   0.78541    0.020
 4762.00    0.52599   0.78184    0.020
 4763.00    0.32524   0.77856    0.020
 4764.00    0.32717   0.77570    0.019
 4765.00    0.35764   0.77427    0.019
 4766.00    0.46441   0.77453    0.020
 4767.00    0.57892   0.77593    0.020
 4768.00    0.68337   0.77852    0.019
 4769.00    0.78717   0.78249    0.018
 4770.00    0.89946   0.78671    0.018
 4771.00    1.01214   0.79132    0.018
 4772.00    1.18838   0.79611    0.018
 4773.00    1.34917   0.79974    0.018
 4774.00    1.06209   0.80315    0.018
 4775.00    0.78706   0.80623    0.018
 4776.00    0.68601   0.80820    0.018
 4777.00    0.60574   0.80894    0.018
 4778.00    0.72104   0.80856    0.018
 4779.00    0.81644   0.80769    0.018
 4780.00    0.77557   0.80554    0.017
 4781.00    0.71288   0.80253    0.017
 4782.00    0.53464   0.79951    0.017
 4783.00    0.40913   0.79616    0.016
 4784.00    0.50815   0.79345    0.017
 4785.00    0.59648   0.79069    0.017
 4786.00    0.64721   0.78882    0.017
 4787.00    0.68675   0.78908    0.017
 4788.00    0.69324   0.78907    0.017
 4789.00    0.71475   0.79039    0.017
 4790.00    0.77411   0.79383    0.017
 4791.00    0.78891   0.79671    0.017
 4792.00    0.70710   0.80008    0.017
 4793.00    0.66730   0.80382    0.017
 4794.00    0.70656   0.80627    0.018
 4795.00    0.76966   0.80802    0.018
 4796.00    0.87195   0.80900    0.017
 4797.00    0.97357   0.80854    0.017
 4798.00    1.07426   0.80714    0.018
 4799.00    1.11853   0.80537    0.018
 4800.00    1.09133   0.80335    0.018
 4801.00    1.00894   0.80101    0.018
 4802.00    0.86491   0.79862    0.018
 4803.00    0.72927   0.79688    0.018
 4804.00    0.60190   0.79507    0.017
 4805.00    0.53868   0.79323    0.017
 4806.00    0.53120   0.79170    0.018
 4807.00    0.62556   0.79014    0.018
 4808.00    0.79787   0.78978    0.017
 4809.00    0.86168   0.78989    0.017
 4810.00    0.85252   0.79013    0.017
 4811.00    0.87804   0.79160    0.017
 4812.00    0.92400   0.79346    0.017
 4813.00    0.81575   0.79548    0.017
 4814.00    0.62827   0.79764    0.017
 4815.00    0.71812   0.79952    0.017
 4816.00    0.93144   0.80115    0.017
 4817.00    0.91326   0.80151    0.018
 4818.00    0.80651   0.80100    0.018
 4819.00    0.67681   0.79974    0.018
 4820.00    0.53964   0.79656    0.017
 4821.00    0.59417   0.79299    0.017
 4822.00    0.70089   0.78903    0.017
 4823.00    0.85483   0.78459    0.017
 4824.00    1.01932   0.78120    0.018
 4825.00    0.82628   0.77725    0.018
 4826.00    0.56951   0.77398    0.017
 4827.00    0.54987   0.77295    0.017
 4828.00    0.56253   0.77151    0.018
 4829.00    0.57076   0.76997    0.017
 4830.00    0.57855   0.76891    0.016
 4831.00    0.65793   0.76767    0.017
 4832.00    0.74165   0.76682    0.017
 4833.00    0.88423   0.76529    0.017
 4834.00    1.02689   0.76323    0.017
 4835.00    0.90650   0.76157    0.017
 4836.00    0.79061   0.75950    0.017
 4837.00    0.79220   0.75663    0.017
 4838.00    0.79350   0.75353    0.017
 4839.00    0.79093   0.75065    0.017
 4840.00    0.78942   0.74736    0.017
 4841.00    0.79748   0.74378    0.017
 4842.00    0.80465   0.74021    0.017
 4843.00    0.80584   0.73695    0.017
 4844.00    0.80477   0.73352    0.017
 4845.00    0.79199   0.72863    0.017
 4846.00    0.79569   0.72364    0.017
 4847.00    0.86796   0.71853    0.017
 4848.00    0.90452   0.71166    0.000
 4849.00    0.81812   0.70350    0.000
 4850.00    0.72998   0.69393    0.000
 4851.00    0.63683   0.68287    0.000
 4852.00    0.61872   0.67061    0.000
 4853.00    0.78629   0.65629    0.000
 4854.00    0.97807   0.64017    0.000
 4855.00    1.22146   0.62310    0.000
 4856.00    1.47305   0.60524    0.000
 4857.00    1.73983   0.58668    0.000
 4858.00    1.96384   0.56932    0.000
 4859.00    2.11864   0.55566    0.000
 4860.00    2.14211   0.54508    0.000
 4861.00    1.97912   0.53822    0.000
 4862.00    1.75003   0.53659    0.000
 4863.00    1.43837   0.53923    0.000
 4864.00    1.18229   0.54737    0.000
 4865.00    0.98741   0.55951    0.000
 4866.00    0.84615   0.57245    0.000
 4867.00    0.75697   0.58628    0.000
 4868.00    0.74421   0.59966    0.000
 4869.00    0.79688   0.61213    0.000
 4870.00    0.82028   0.62366    0.000
 4871.00    0.82159   0.63427    0.000
 4872.00    0.79283   0.64402    0.000
 4873.00    0.74414   0.65262    0.000
 4874.00    0.77150   0.66183    0.000
 4875.00    0.84300   0.67158    0.017
 4876.00    0.74619   0.68106    0.016
 4877.00    0.56424   0.68953    0.016
 4878.00    0.48969   0.69670    0.016
 4879.00    0.46216   0.70326    0.016
 4880.00    0.53098   0.70792    0.016
 4881.00    0.63601   0.71136    0.016
 4882.00    0.80161   0.71329    0.016
 4883.00    0.98653   0.71273    0.016
 4884.00    1.00192   0.71203    0.016
 4885.00    0.97213   0.71129    0.016
 4886.00    0.87772   0.71035    0.016
 4887.00    0.76922   0.70985    0.016
 4888.00    0.77885   0.70979    0.016
 4889.00    0.80897   0.71249    0.016
 4890.00    0.70534   0.71683    0.016
 4891.00    0.58409   0.72234    0.016
 4892.00    0.48788   0.72947    0.016
 4893.00    0.39400   0.73624    0.016
 4894.00    0.49268   0.74474    0.016
 4895.00    0.60227   0.75347    0.016
 4896.00    0.60875   0.75949    0.016
 4897.00    0.61393   0.76427    0.016
 4898.00    0.73471   0.76761    0.017
 4899.00    0.85000   0.76915    0.017
 4900.00    0.83495   0.76976    0.017
 4901.00    0.82250   0.76902    0.017
 4902.00    0.84359   0.76768    0.017
 4903.00    0.84959   0.76738    0.017
 4904.00    0.72427   0.76649    0.017
 4905.00    0.62168   0.76475    0.017
 4906.00    0.66533   0.76319    0.017
 4907.00    0.70906   0.76161    0.017
 4908.00    0.75318   0.76023    0.016
 4909.00    0.80741   0.75836    0.016
 4910.00    0.90275   0.75613    0.016
 4911.00    0.96129   0.75411    0.017
 4912.00    0.89564   0.75181    0.017
 4913.00    0.80085   0.74950    0.017
 4914.00    0.62315   0.74695    0.017
 4915.00    0.49952   0.74284    0.017
 4916.00    0.50744   0.73749    0.017
 4917.00    0.56850   0.73173    0.017
 4918.00    0.74111   0.72587    0.017
 4919.00    0.86552   0.72078    0.017
 4920.00    0.90200   0.71620    0.017
 4921.00    0.85685   0.71324    0.017
 4922.00    0.68150   0.71346    0.017
 4923.00    0.63250   0.71691    0.017
 4924.00    0.76031   0.72281    0.017
 4925.00    0.81813   0.72948    0.017
 4926.00    0.78975   0.73639    0.016
 4927.00    0.80627   0.74360    0.016
 4928.00    0.87154   0.75076    0.017
 4929.00    0.87173   0.75569    0.017
 4930.00    0.80960   0.75742    0.017
 4931.00    0.75758   0.75778    0.017
 4932.00    0.71410   0.75664    0.017
 4933.00    0.69630   0.75397    0.017
 4934.00    0.69760   0.75069    0.017
 4935.00    0.79458   0.74618    0.017
 4936.00    0.95406   0.74252    0.017
 4937.00    0.90322   0.74207    0.017
 4938.00    0.73216   0.74266    0.017
 4939.00    0.71087   0.74371    0.017
 4940.00    0.76414   0.74633    0.000
 4941.00    0.68449   0.75030    0.000
 4942.00    0.54759   0.75577    0.000
 4943.00    0.49749   0.76155    0.000
 4944.00    0.47944   0.76617    0.000
 4945.00    0.72286   0.77029    0.000
 4946.00    1.04807   0.77386    0.000
 4947.00    0.97218   0.77595    0.000
 4948.00    0.79163   0.77695    0.000
 4949.00    0.77449   0.77681    0.000
 4950.00    0.79216   0.77539    0.000
 4951.00    0.74430   0.77265    0.000
 4952.00    0.68540   0.76885    0.000
 4953.00    0.81424   0.76441    0.000
 4954.00    0.96697   0.75823    0.000
 4955.00    0.84506   0.75279    0.000
 4956.00    0.69879   0.74917    0.000
 4957.00    0.86563   0.74622    0.000
 4958.00    1.04899   0.74465    0.000
 4959.00    0.90969   0.74278    0.000
 4960.00    0.76538   0.74320    0.000
 4961.00    0.71129   0.74631    0.000
 4962.00    0.66308   0.74803    0.000
 4963.00    0.74259   0.74908    0.000
 4964.00    0.81707   0.74948    0.000
 4965.00    0.82975   0.74961    0.000
 4966.00    0.82846   0.75022    0.000
 4967.00    0.71025   0.74959    0.000
 4968.00    0.60089   0.74931    0.000
 4969.00    0.54683   0.75011    0.000
 4970.00    0.54429   0.75079    0.000
 4971.00    0.79435   0.75223    0.000
 4972.00    0.96820   0.75313    0.000
 4973.00    0.83868   0.75345    0.000
 4974.00    0.76038   0.75331    0.000
 4975.00    0.85150   0.75105    0.000
 4976.00    0.86212   0.74767    0.000
 4977.00    0.64769   0.74283    0.000
 4978.00    0.53054   0.73635    0.000
 4979.00    0.64609   0.72900    0.000
 4980.00    0.73156   0.72116    0.000
 4981.00    0.75493   0.71453    0.000
 4982.00    0.78186   0.70941    0.000
 4983.00    0.81518   0.70584    0.000
 4984.00    0.82656   0.70427    0.000
 4985.00    0.80347   0.70444    0.000
 4986.00    0.79245   0.70702    0.000
 4987.00    0.79808   0.71092    0.000
 4988.00    0.79847   0.71487    0.000
 4989.00    0.79250   0.71974    0.000
 4990.00    0.78622   0.72344    0.000
 4991.00    0.77958   0.72605    0.000
 4992.00    0.78912   0.72858    0.000
 4993.00    0.81391   0.72931    0.000
 4994.00    0.82319   0.72987    0.000
 4995.00    0.81955   0.72922    0.000
 4996.00    0.79879   0.72648    0.000
 4997.00    0.76548   0.72373    0.000
 4998.00    0.73668   0.71974    0.000
 4999.00    0.71080   0.71514    0.000
 5000.00    0.77766   0.71073    0.000
 5001.00    0.89674   0.70550    0.000
 5002.00    1.07047   0.70048    0.000
 5003.00    1.27097   0.69610    0.000
 5004.00    1.38082   0.69289    0.000
 5005.00    1.45227   0.69140    0.000
 5006.00    1.37344   0.69011    0.000
 5007.00    1.24013   0.68877    0.000
 5008.00    0.98928   0.68769    0.000
 5009.00    0.70237   0.68665    0.000
 5010.00    0.62093   0.68609    0.000
 5011.00    0.59195   0.68450    0.000
 5012.00    0.74870   0.68229    0.000
 5013.00    0.94404   0.68020    0.000
 5014.00    0.87123   0.67719    0.000
 5015.00    0.75452   0.67486    0.000
 5016.00    0.74933   0.67372    0.000
 5017.00    0.75784   0.67376    0.000
 5018.00    0.62251   0.67502    0.000
 5019.00    0.47501   0.67610    0.000
 5020.00    0.56216   0.67821    0.000
 5021.00    0.66078   0.68219    0.000
 5022.00    0.76239   0.68652    0.000
 5023.00    0.86207   0.69106    0.000
 5024.00    0.84139   0.69453    0.000
 5025.00    0.82381   0.69842    0.000
 5026.00    0.86858   0.70328    0.000
 5027.00    0.90322   0.70681    0.000
 5028.00    0.81958   0.71012    0.000
 5029.00    0.72438   0.71261    0.016
 5030.00    0.53582   0.71466    0.016
 5031.00    0.38838   0.71663    0.016
 5032.00    0.49030   0.71615    0.016
 5033.00    0.60216   0.71425    0.017
 5034.00    0.76155   0.71225    0.016
 5035.00    0.87620   0.70881    0.016
 5036.00    0.81661   0.70427    0.016
 5037.00    0.77251   0.69876    0.016
 5038.00    0.77869   0.69297    0.017
 5039.00    0.76915   0.69024    0.017
 5040.00    0.71643   0.68907    0.017
 5041.00    0.64119   0.68849    0.016
 5042.00    0.51297   0.68984    0.016
 5043.00    0.49435   0.69199    0.016
 5044.00    0.69853   0.69589    0.016
 5045.00    0.79314   0.70018    0.016
 5046.00    0.69388   0.70318    0.016
 5047.00    0.68680   0.70594    0.016
 5048.00    0.82241   0.70765    0.016
 5049.00    0.79320   0.70856    0.016
 5050.00    0.53993   0.70942    0.016
 5051.00    0.47285   0.71032    0.017
 5052.00    0.62864   0.71201    0.017
 5053.00    0.71610   0.71420    0.017
 5054.00    0.73145   0.71699    0.017
 5055.00    0.69815   0.72074    0.017
 5056.00    0.61957   0.72433    0.016
 5057.00    0.65041   0.72763    0.016
 5058.00    0.77104   0.73035    0.016
 5059.00    0.76439   0.73196    0.016
 5060.00    0.66580   0.73261    0.016
 5061.00    0.67113   0.73128    0.016
 5062.00    0.74235   0.72874    0.016
 5063.00    0.70091   0.72613    0.016
 5064.00    0.59700   0.72234    0.016
 5065.00    0.64081   0.71816    0.016
 5066.00    0.75585   0.71379    0.016
 5067.00    0.69881   0.71001    0.016
 5068.00    0.57013   0.70736    0.016
 5069.00    0.67191   0.70447    0.016
 5070.00    0.85575   0.70238    0.016
 5071.00    0.80078   0.70064    0.016
 5072.00    0.67399   0.69884    0.016
 5073.00    0.67255   0.69705    0.016
 5074.00    0.70242   0.69465    0.016
 5075.00    0.65848   0.69227    0.016
 5076.00    0.59960   0.68895    0.016
 5077.00    0.56867   0.68547    0.016
 5078.00    0.54218   0.68287    0.016
 5079.00    0.57575   0.68080    0.016
 5080.00    0.61642   0.67923    0.015
 5081.00    0.55121   0.67814    0.015
 5082.00    0.47747   0.67880    0.015
 5083.00    0.46755   0.68112    0.015
 5084.00    0.46049   0.68437    0.015
 5085.00    0.60116   0.68818    0.015
 5086.00    0.74254   0.69256    0.014
 5087.00    0.83225   0.69713    0.015
 5088.00    0.91295   0.70126    0.015
 5089.00    0.82608   0.70481    0.015
 5090.00    0.73639   0.70757    0.015
 5091.00    0.61527   0.70929    0.015
 5092.00    0.51392   0.70966    0.015
 5093.00    0.56660   0.70866    0.015
 5094.00    0.62458   0.70658    0.015
 5095.00    0.71378   0.70360    0.015
 5096.00    0.78572   0.69980    0.015
 5097.00    0.77705   0.69625    0.015
 5098.00    0.75607   0.69312    0.015
 5099.00    0.68817   0.69032    0.015
 5100.00    0.63769   0.68825    0.015
 5101.00    0.64268   0.68680    0.015
 5102.00    0.63399   0.68647    0.015
 5103.00    0.58840   0.68689    0.015
 5104.00    0.56622   0.68701    0.015
 5105.00    0.59816   0.68715    0.015
 5106.00    0.59962   0.68746    0.015
 5107.00    0.54010   0.68747    0.015
 5108.00    0.49146   0.68830    0.015
 5109.00    0.46178   0.68937    0.015
 5110.00    0.43970   0.69078    0.015
 5111.00    0.42922   0.69320    0.015
 5112.00    0.43801   0.69546    0.015
 5113.00    0.47259   0.69836    0.016
 5114.00    0.52953   0.70143    0.016
 5115.00    0.61282   0.70348    0.016
 5116.00    0.68648   0.70487    0.016
 5117.00    0.75011   0.70486    0.016
 5118.00    0.77467   0.70346    0.016
 5119.00    0.76338   0.70116    0.016
 5120.00    0.72562   0.69718    0.016
 5121.00    0.66646   0.69236    0.016
 5122.00    0.69966   0.68726    0.016
 5123.00    0.79862   0.68195    0.016
 5124.00    0.74129   0.67723    0.016
 5125.00    0.58633   0.67296    0.016
 5126.00    0.57330   0.66976    0.016
 5127.00    0.63775   0.66810    0.016
 5128.00    0.64059   0.66760    0.016
 5129.00    0.61420   0.66792    0.016
 5130.00    0.62064   0.66887    0.016
 5131.00    0.64051   0.67006    0.016
 5132.00    0.63024   0.67185    0.016
 5133.00    0.60942   0.67323    0.016
 5134.00    0.69171   0.67363    0.016
 5135.00    0.80439   0.67384    0.016
 5136.00    0.66112   0.67287    0.016
 5137.00    0.45533   0.67214    0.016
 5138.00    0.56450   0.67096    0.016
 5139.00    0.73589   0.66847    0.016
 5140.00    0.72618   0.66674    0.016
 5141.00    0.68854   0.66506    0.016
 5142.00    0.62475   0.66382    0.016
 5143.00    0.55797   0.66302    0.016
 5144.00    0.51950   0.66177    0.016
 5145.00    0.48319   0.66120    0.016
 5146.00    0.58935   0.66128    0.016
 5147.00    0.70138   0.66108    0.016
 5148.00    0.76069   0.66091    0.016
 5149.00    0.81346   0.66109    0.016
 5150.00    0.60945   0.66148    0.016
 5151.00    0.42480   0.66243    0.016
 5152.00    0.57562   0.66391    0.016
 5153.00    0.71768   0.66575    0.016
 5154.00    0.76670   0.66806    0.016
 5155.00    0.80717   0.67036    0.016
 5156.00    0.78331   0.67228    0.016
 5157.00    0.78862   0.67398    0.016
 5158.00    0.96099   0.67460    0.016
 5159.00    1.08379   0.67338    0.016
 5160.00    0.98074   0.67049    0.016
 5161.00    0.89913   0.66516    0.015
 5162.00    0.89753   0.65738    0.015
 5163.00    0.90267   0.64761    0.015
 5164.00    0.92890   0.63600    0.015
 5165.00    0.90195   0.62449    0.015
 5166.00    0.73421   0.61346    0.015
 5167.00    0.61137   0.60337    0.015
 5168.00    0.59067   0.59480    0.015
 5169.00    0.57609   0.58793    0.015
 5170.00    0.57357   0.58498    0.015
 5171.00    0.53974   0.58605    0.015
 5172.00    0.45214   0.59016    0.015
 5173.00    0.43060   0.59569    0.015
 5174.00    0.50831   0.60195    0.015
 5175.00    0.57827   0.60922    0.015
 5176.00    0.63798   0.61648    0.015
 5177.00    0.64913   0.62255    0.015
 5178.00    0.60381   0.62635    0.015
 5179.00    0.62822   0.62794    0.015
 5180.00    0.72418   0.62708    0.015
 5181.00    0.74371   0.62496    0.015
 5182.00    0.69407   0.62331    0.015
 5183.00    0.66047   0.62159    0.015
 5184.00    0.63968   0.62059    0.015
 5185.00    0.69751   0.61990    0.015
 5186.00    0.81051   0.62078    0.015
 5187.00    0.81837   0.62396    0.015
 5188.00    0.76154   0.62700    0.015
 5189.00    0.72118   0.63028    0.015
 5190.00    0.68969   0.63335    0.000
 5191.00    0.67490   0.63602    0.000
 5192.00    0.66792   0.63825    0.000
 5193.00    0.67268   0.63984    0.000
 5194.00    0.68217   0.64162    0.000
 5195.00    0.60632   0.64364    0.000
 5196.00    0.50119   0.64581    0.000
 5197.00    0.54047   0.64751    0.000
 5198.00    0.62147   0.64910    0.000
 5199.00    0.68260   0.64986    0.000
 5200.00    0.73897   0.64957    0.000
 5201.00    0.75117   0.64840    0.000
 5202.00    0.75486   0.64598    0.000
 5203.00    0.77182   0.64302    0.000
 5204.00    0.79075   0.63983    0.000
 5205.00    0.79071   0.63652    0.000
 5206.00    0.78860   0.63405    0.000
 5207.00    0.73690   0.63289    0.000
 5208.00    0.68163   0.63319    0.000
 5209.00    0.65912   0.63547    0.000
 5210.00    0.63784   0.63842    0.000
 5211.00    0.59820   0.64268    0.016
 5212.00    0.56451   0.64734    0.016
 5213.00    0.75033   0.65200    0.016
 5214.00    0.91994   0.65700    0.016
 5215.00    0.82674   0.66123    0.016
 5216.00    0.72886   0.66492    0.016
 5217.00    0.58336   0.66724    0.016
 5218.00    0.46395   0.66875    0.016
 5219.00    0.53435   0.66931    0.016
 5220.00    0.60078   0.66867    0.016
 5221.00    0.64505   0.66686    0.016
 5222.00    0.69117   0.66359    0.015
 5223.00    0.74550   0.65961    0.015
 5224.00    0.76878   0.65492    0.015
 5225.00    0.67858   0.65086    0.015
 5226.00    0.62262   0.64750    0.015
 5227.00    0.67151   0.64461    0.015
 5228.00    0.69820   0.64318    0.015
 5229.00    0.66714   0.64272    0.015
 5230.00    0.64361   0.64411    0.015
 5231.00    0.63693   0.64689    0.015
 5232.00    0.69611   0.65020    0.015
 5233.00    0.88293   0.65449    0.015
 5234.00    0.94067   0.65834    0.015
 5235.00    0.78023   0.66226    0.015
 5236.00    0.69308   0.66660    0.015
 5237.00    0.71447   0.67058    0.015
 5238.00    0.73089   0.67491    0.015
 5239.00    0.74082   0.67853    0.015
 5240.00    0.67956   0.68144    0.015
 5241.00    0.53662   0.68353    0.015
 5242.00    0.50890   0.68438    0.014
 5243.00    0.59771   0.68438    0.014
 5244.00    0.63789   0.68317    0.015
 5245.00    0.63469   0.68135    0.015
 5246.00    0.60533   0.67923    0.015
 5247.00    0.55540   0.67657    0.015
 5248.00    0.62610   0.67401    0.015
 5249.00    0.78020   0.67168    0.015
 5250.00    0.77937   0.66986    0.015
 5251.00    0.68463   0.66880    0.015
 5252.00    0.62990   0.66818    0.015
 5253.00    0.59633   0.66865    0.015
 5254.00    0.64243   0.66931    0.015
 5255.00    0.72512   0.66965    0.015
 5256.00    0.78970   0.66950    0.015
 5257.00    0.84712   0.66785    0.015
 5258.00    0.82114   0.66507    0.015
 5259.00    0.76707   0.66042    0.015
 5260.00    0.74627   0.65423    0.016
 5261.00    0.73488   0.64664    0.016
 5262.00    0.67869   0.63793    0.016
 5263.00    0.61204   0.62872    0.016
 5264.00    0.54979   0.61954    0.016
 5265.00    0.48837   0.61144    0.016
 5266.00    0.55706   0.60465    0.016
 5267.00    0.64461   0.60004    0.016
 5268.00    0.78653   0.59791    0.017
 5269.00    0.93417   0.59829    0.017
 5270.00    0.76481   0.60027    0.017
 5271.00    0.57384   0.60388    0.017
 5272.00    0.56013   0.60908    0.017
 5273.00    0.55235   0.61540    0.017
 5274.00    0.69568   0.62263    0.017
 5275.00    0.82831   0.62994    0.016
 5276.00    0.61297   0.63704    0.016
 5277.00    0.42852   0.64288    0.016
 5278.00    0.71462   0.64812    0.016
 5279.00    0.95918   0.65290    0.016
 5280.00    0.79852   0.65711    0.016
 5281.00    0.65859   0.66108    0.016
 5282.00    0.66471   0.66481    0.016
 5283.00    0.67048   0.66841    0.016
 5284.00    0.67435   0.67209    0.016
 5285.00    0.68708   0.67614    0.016
 5286.00    0.73833   0.68027    0.016
 5287.00    0.81892   0.68464    0.016
 5288.00    1.00447   0.68830    0.016
 5289.00    1.08022   0.69121    0.016
 5290.00    0.82620   0.69281    0.016
 5291.00    0.64586   0.69276    0.015
 5292.00    0.65392   0.69126    0.015
 5293.00    0.65227   0.68842    0.015
 5294.00    0.62928   0.68494    0.015
 5295.00    0.55493   0.68086    0.015
 5296.00    0.38262   0.67692    0.015
 5297.00    0.33601   0.67347    0.015
 5298.00    0.49869   0.67084    0.015
 5299.00    0.64916   0.66948    0.015
 5300.00    0.78183   0.66939    0.015
 5301.00    0.83408   0.67080    0.015
 5302.00    0.78311   0.67325    0.015
 5303.00    0.75635   0.67658    0.015
 5304.00    0.75695   0.68034    0.015
 5305.00    0.71100   0.68393    0.015
 5306.00    0.61861   0.68734    0.015
 5307.00    0.57998   0.69023    0.015
 5308.00    0.58863   0.69228    0.015
 5309.00    0.57289   0.69343    0.015
 5310.00    0.53825   0.69363    0.015
 5311.00    0.58997   0.69293    0.015
 5312.00    0.70052   0.69162    0.015
 5313.00    0.73421   0.68977    0.015
 5314.00    0.72199   0.68747    0.015
 5315.00    0.78290   0.68482    0.015
 5316.00    0.88191   0.68197    0.015
 5317.00    0.89163   0.67898    0.015
 5318.00    0.86101   0.67570    0.015
 5319.00    0.80137   0.67212    0.015
 5320.00    0.73046   0.66836    0.015
 5321.00    0.54174   0.66403    0.015
 5322.00    0.31407   0.65943    0.015
 5323.00    0.43717   0.65402    0.015
 5324.00    0.65752   0.64868    0.015
 5325.00    0.65596   0.64372    0.015
 5326.00    0.60379   0.63948    0.015
 5327.00    0.57082   0.63665    0.015
 5328.00    0.54136   0.63496    0.016
 5329.00    0.63405   0.63520    0.015
 5330.00    0.74387   0.63673    0.015
 5331.00    0.77973   0.63962    0.015
 5332.00    0.80812   0.64310    0.015
 5333.00    0.70836   0.64730    0.016
 5334.00    0.60037   0.65152    0.016
 5335.00    0.67498   0.65452    0.016
 5336.00    0.75472   0.65672    0.015
 5337.00    0.71600   0.65807    0.016
 5338.00    0.67855   0.65884    0.016
 5339.00    0.67728   0.65925    0.015
 5340.00    0.66708   0.65921    0.015
 5341.00    0.52890   0.65918    0.015
 5342.00    0.41691   0.65948    0.015
 5343.00    0.54997   0.65994    0.015
 5344.00    0.67891   0.66080    0.015
 5345.00    0.77966   0.66211    0.015
 5346.00    0.85225   0.66421    0.015
 5347.00    0.77609   0.66642    0.015
 5348.00    0.70807   0.66876    0.014
 5349.00    0.67454   0.67176    0.015
 5350.00    0.65527   0.67499    0.015
 5351.00    0.68593   0.67881    0.015
 5352.00    0.69887   0.68281    0.014
 5353.00    0.65961   0.68667    0.014
 5354.00    0.65991   0.69040    0.015
 5355.00    0.75964   0.69350    0.015
 5356.00    0.82928   0.69561    0.015
 5357.00    0.83379   0.69634    0.014
 5358.00    0.82127   0.69595    0.014
 5359.00    0.77674   0.69440    0.014
 5360.00    0.76983   0.69138    0.014
 5361.00    0.82460   0.68754    0.014
 5362.00    0.80536   0.68271    0.014
 5363.00    0.67966   0.67753    0.014
 5364.00    0.62756   0.67193    0.014
 5365.00    0.66855   0.66629    0.014
 5366.00    0.74040   0.66105    0.014
 5367.00    0.84664   0.65667    0.014
 5368.00    0.87049   0.65374   -2.000
 5369.00    0.81332   0.65157   -2.000
 5370.00    0.78554   0.65110   -2.000
 5371.00    0.78324   0.65168   -2.000
 5372.00    0.77779   0.65340   -2.000
 5373.00    0.76992   0.65620   -2.000
 5374.00    0.79930   0.65946   -2.000
 5375.00    0.85370   0.66310   -2.000
 5376.00    0.86671   0.66670   -2.000
 5377.00    0.85539   0.67012   -2.000
 5378.00    0.75227   0.67229   -2.000
 5379.00    0.60207   0.67376   -2.000
 5380.00    0.64830   0.67450   -2.000
 5381.00    0.78181   0.67448   -2.000
 5382.00    0.82068   0.67412   -2.000
 5383.00    0.82344   0.67340    0.015
 5384.00    0.82229   0.67225    0.015
 5385.00    0.81988   0.67077    0.015
 5386.00    0.82373   0.66919    0.015
 5387.00    0.82928   0.66714    0.015
 5388.00    0.80598   0.66478    0.015
 5389.00    0.77626   0.66220    0.015
 5390.00    0.75102   0.65916    0.015
 5391.00    0.72658   0.65563    0.015
 5392.00    0.77178   0.65192    0.015
 5393.00    0.82643   0.64860    0.015
 5394.00    0.68551   0.64549    0.015
 5395.00    0.52570   0.64268    0.015
 5396.00    0.66816   0.64019    0.015
 5397.00    0.82881   0.63816    0.015
 5398.00    0.72025   0.63622    0.015
 5399.00    0.60452   0.63423    0.015
 5400.00    0.46282   0.63225    0.014
 5401.00    0.33278   0.63007    0.014
 5402.00    0.50323   0.62854    0.014
 5403.00    0.66745   0.62710    0.014
 5404.00    0.74705   0.62538    0.014
 5405.00    0.81569   0.62392    0.014
 5406.00    0.78569   0.62352    0.014
 5407.00    0.74711   0.62386    0.014
 5408.00    0.65176   0.62490    0.014
 5409.00    0.57563   0.62700    0.014
 5410.00    0.59836   0.63012    0.014
 5411.00    0.62250   0.63433    0.014
 5412.00    0.65254   0.63874    0.013
 5413.00    0.69396   0.64299    0.013
 5414.00    0.77452   0.64690    0.013
 5415.00    0.81531   0.65080    0.014
 5416.00    0.74107   0.65418    0.013
 5417.00    0.68123   0.65669    0.013
 5418.00    0.65697   0.65816    0.014
 5419.00    0.64995   0.65871    0.014
 5420.00    0.67965   0.65903    0.014
 5421.00    0.69429   0.65878    0.014
 5422.00    0.68107   0.65785    0.014
 5423.00    0.67018   0.65638    0.014
 5424.00    0.66302   0.65446    0.014
 5425.00    0.66302   0.65252    0.014
 5426.00    0.67315   0.65082    0.014
 5427.00    0.65095   0.64873    0.014
 5428.00    0.58842   0.64639    0.014
 5429.00    0.55554   0.64447    0.014
 5430.00    0.55526   0.64314    0.014
 5431.00    0.61884   0.64216    0.014
 5432.00    0.74434   0.64168    0.014
 5433.00    0.74361   0.64195    0.014
 5434.00    0.63496   0.64315    0.014
 5435.00    0.60914   0.64591    0.014
 5436.00    0.64567   0.64881    0.015
 5437.00    0.61810   0.65198    0.014
 5438.00    0.54812   0.65527    0.014
 5439.00    0.52198   0.65806    0.014
 5440.00    0.52125   0.66030    0.014
 5441.00    0.60074   0.66133    0.014
 5442.00    0.72072   0.66142    0.014
 5443.00    0.73717   0.66061    0.014
 5444.00    0.70838   0.65891    0.014
 5445.00    0.69712   0.65675    0.014
 5446.00    0.69244   0.65433    0.014
 5447.00    0.62929   0.65214    0.014
 5448.00    0.54753   0.65011    0.014
 5449.00    0.49529   0.64837    0.014
 5450.00    0.45090   0.64694    0.014
 5451.00    0.50460   0.64590    0.014
 5452.00    0.57964   0.64567    0.014
 5453.00    0.66159   0.64532    0.014
 5454.00    0.74474   0.64496    0.014
 5455.00    0.77736   0.64447    0.014
 5456.00    0.80334   0.64419    0.014
 5457.00    0.61562   0.64398    0.013
 5458.00    0.40815   0.64387    0.013
 5459.00    0.44340   0.64392    0.013
 5460.00    0.49229   0.64416    0.013
 5461.00    0.61974   0.64474    0.013
 5462.00    0.74756   0.64504    0.013
 5463.00    0.73183   0.64527    0.013
 5464.00    0.71634   0.64528    0.013
 5465.00    0.70634   0.64516    0.013
 5466.00    0.69843   0.64494    0.013
 5467.00    0.71733   0.64446    0.013
 5468.00    0.72186   0.64378    0.014
 5469.00    0.60196   0.64275    0.014
 5470.00    0.49997   0.64105    0.014
 5471.00    0.51279   0.63876    0.013
 5472.00    0.51997   0.63622    0.013
 5473.00    0.49889   0.63346    0.013
 5474.00    0.50009   0.63070    0.013
 5475.00    0.59172   0.62819    0.014
 5476.00    0.63436   0.62619    0.014
 5477.00    0.51215   0.62492    0.014
 5478.00    0.45438   0.62451   -2.000
 5479.00    0.57967   0.62508   -2.000
 5480.00    0.66159   0.62617   -2.000
 5481.00    0.63827   0.62786   -2.000
 5482.00    0.58643   0.63026   -2.000
 5483.00    0.47488   0.63269   -2.000
 5484.00    0.50912   0.63512   -2.000
 5485.00    0.80885   0.63708   -2.000
 5486.00    1.11334   0.63892   -2.000
 5487.00    1.42540   0.64043   -2.000
 5488.00    1.71947   0.64157   -2.000
 5489.00    1.98842   0.64242   -2.000
 5490.00    1.86099   0.64284   -2.000
 5491.00    1.24625   0.64302   -2.000
 5492.00    0.82571   0.64297   -2.000
 5493.00    0.61560   0.64298   -2.000
 5494.00    0.48617   0.64271   -2.000
 5495.00    0.43386   0.64229   -2.000
 5496.00    0.48624   0.64166   -2.000
 5497.00    0.62686   0.64075   -2.000
 5498.00    0.61408   0.63975   -2.000
 5499.00    0.48746   0.63855   -2.000
 5500.00    0.45478   0.63725   -2.000
 5501.00    0.48335   0.63572   -2.000
 5502.00    0.50856   0.63426    0.013
 5503.00    0.53187   0.63295    0.013
 5504.00    0.54221   0.63155    0.013
 5505.00    0.54611   0.63023    0.013
 5506.00    0.53569   0.62909    0.013
 5507.00    0.51911   0.62823    0.013
 5508.00    0.53185   0.62764    0.013
 5509.00    0.55538   0.62737    0.013
 5510.00    0.59891   0.62734    0.013
 5511.00    0.64869   0.62778    0.013
 5512.00    0.63510   0.62869    0.013
 5513.00    0.60502   0.62999    0.013
 5514.00    0.61799   0.63165    0.013
 5515.00    0.64012   0.63368    0.013
 5516.00    0.64387   0.63579    0.013
 5517.00    0.64455   0.63801    0.013
 5518.00    0.65834   0.64003    0.013
 5519.00    0.67379   0.64162    0.013
 5520.00    0.60150   0.64263    0.013
 5521.00    0.52147   0.64281    0.014
 5522.00    0.50674   0.64238    0.013
 5523.00    0.49541   0.64121    0.013
 5524.00    0.54350   0.63957    0.013
 5525.00    0.59218   0.63761    0.013
 5526.00    0.60215   0.63560    0.013
 5527.00    0.61339   0.63375    0.013
 5528.00    0.65202   0.63222    0.013
 5529.00    0.68538   0.63127    0.014
 5530.00    0.65444   0.63075    0.014
 5531.00    0.62169   0.63085    0.014
 5532.00    0.57387   0.63131    0.014
 5533.00    0.53203   0.63229    0.013
 5534.00    0.52742   0.63357    0.013
 5535.00    0.52765   0.63495    0.013
 5536.00    0.55154   0.63641    0.013
 5537.00    0.57610   0.63776    0.013
 5538.00    0.60331   0.63910    0.013
 5539.00    0.62997   0.64022    0.013
 5540.00    0.65483   0.64138    0.013
 5541.00    0.65938   0.64238    0.013
 5542.00    0.60732   0.64324    0.013
 5543.00    0.57836   0.64406    0.013
 5544.00    0.60454   0.64477    0.013
 5545.00    0.61632   0.64546    0.013
 5546.00    0.59839   0.64612    0.013
 5547.00    0.57755   0.64671    0.013
 5548.00    0.55152   0.64727    0.013
 5549.00    0.55661   0.64772    0.013
 5550.00    0.61051   0.64794    0.013
 5551.00    0.64830   0.64793    0.012
 5552.00    0.66389   0.64765    0.012
 5553.00    0.69469   0.64701    0.013
 5554.00    0.74393   0.64614    0.013
 5555.00    0.74362   0.64497    0.013
 5556.00    0.69039   0.64362    0.013
 5557.00    0.64609   0.64216    0.013
 5558.00    0.61021   0.64056    0.013
 5559.00    0.61442   0.63891    0.013
 5560.00    0.65193   0.63718    0.013
 5561.00    0.65762   0.63546    0.013
 5562.00    0.64005   0.63365    0.013
 5563.00    0.62938   0.63191    0.012
 5564.00    0.62315   0.63026    0.012
 5565.00    0.58027   0.62867    0.012
 5566.00    0.51679   0.62733    0.013
 5567.00    0.52163   0.62624    0.013
 5568.00    0.55988   0.62552    0.012
 5569.00    0.55540   0.62502    0.012
 5570.00    0.53286   0.62496    0.013
 5571.00    0.57713   0.62522    0.013
 5572.00    0.64557   0.62569    0.013
 5573.00    0.61315   0.62648    0.013
 5574.00    0.54986   0.62734    0.013
 5575.00    0.51611   0.62827    0.013
 5576.00    0.48987   0.62904    0.013
 5577.00    0.52033   0.62964    0.013
 5578.00    0.56253   0.62977    0.013
 5579.00    0.60472   0.62926    0.013
 5580.00    0.64690   0.62821    0.013
 5581.00    0.72404   0.62650    0.013
 5582.00    0.80545   0.62397    0.014
 5583.00    0.79328   0.62100    0.014
 5584.00    0.77325   0.61761    0.013
 5585.00    0.77494   0.61404    0.013
 5586.00    0.77768   0.61060    0.013
 5587.00    0.80730   0.60756    0.013
 5588.00    0.83685   0.60510    0.013
 5589.00    0.83830   0.60351    0.013
 5590.00    0.83806   0.60271    0.013
 5591.00    0.80431   0.60259    0.013
 5592.00    0.77173   0.60314    0.013
 5593.00    0.75274   0.60411    0.013
 5594.00    0.73761   0.60535    0.013
 5595.00    0.75345   0.60670    0.013
 5596.00    0.75601   0.60789    0.013
 5597.00    0.67833   0.60908    0.013
 5598.00    0.61812   0.61004    0.013
 5599.00    0.64118   0.61112    0.013
 5600.00    0.66613   0.61234    0.013
 5601.00    0.69845   0.61397    0.013
 5602.00    0.70160   0.61615    0.013
 5603.00    0.61039   0.61862    0.013
 5604.00    0.53398   0.62142    0.013
 5605.00    0.49806   0.62439    0.013
 5606.00    0.49011   0.62743    0.013
 5607.00    0.54776   0.62990    0.013
 5608.00    0.60966   0.63180    0.012
 5609.00    0.68017   0.63285    0.013
 5610.00    0.75492   0.63304    0.013
 5611.00    0.83714   0.63225    0.013
 5612.00    0.85788   0.63055    0.013
 5613.00    0.78361   0.62827    0.013
 5614.00    0.72243   0.62565    0.013
 5615.00    0.67899   0.62296    0.013
 5616.00    0.64613   0.62050    0.013
 5617.00    0.62590   0.61839    0.013
 5618.00    0.61866   0.61678    0.013
 5619.00    0.62509   0.61563    0.013
 5620.00    0.62127   0.61494    0.013
 5621.00    0.60791   0.61458    0.013
 5622.00    0.61984   0.61468    0.013
 5623.00    0.65249   0.61521    0.013
 5624.00    0.60092   0.61590    0.013
 5625.00    0.48864   0.61680    0.012
 5626.00    0.48070   0.61793    0.012
 5627.00    0.53881   0.61923    0.013
 5628.00    0.61494   0.62060    0.013
 5629.00    0.70105   0.62187    0.013
 5630.00    0.70768   0.62288    0.013
 5631.00    0.67607   0.62359    0.013
 5632.00    0.61957   0.62390    0.013
 5633.00    0.55273   0.62374    0.012
 5634.00    0.55319   0.62304    0.012
 5635.00    0.57757   0.62203    0.012
 5636.00    0.56087   0.62076    0.012
 5637.00    0.53186   0.61941    0.012
 5638.00    0.59179   0.61818    0.012
 5639.00    0.67387   0.61715    0.012
 5640.00    0.69250   0.61649    0.012
 5641.00    0.69832   0.61615    0.012
 5642.00    0.68216   0.61626    0.012
 5643.00    0.66252   0.61662    0.012
 5644.00    0.67935   0.61729    0.012
 5645.00    0.70048   0.61804    0.012
 5646.00    0.68208   0.61879    0.012
 5647.00    0.66052   0.61941    0.012
 5648.00    0.67937   0.61976    0.012
 5649.00    0.70003   0.61975    0.012
 5650.00    0.66149   0.61926    0.012
 5651.00    0.62277   0.61837    0.012
 5652.00    0.60814   0.61692    0.012
 5653.00    0.59103   0.61504    0.013
 5654.00    0.52821   0.61281    0.012
 5655.00    0.47765   0.61040    0.012
 5656.00    0.56294   0.60797    0.012
 5657.00    0.63695   0.60575    0.012
 5658.00    0.62348   0.60386    0.012
 5659.00    0.61506   0.60251    0.012
 5660.00    0.63629   0.60172    0.012
 5661.00    0.65245   0.60162    0.012
 5662.00    0.64509   0.60213    0.012
 5663.00    0.64258   0.60322    0.012
 5664.00    0.65855   0.60470    0.012
 5665.00    0.68158   0.60658    0.012
 5666.00    0.72700   0.60868    0.013
 5667.00    0.75923   0.61090    0.013
 5668.00    0.75594   0.61320    0.013
 5669.00    0.71563   0.61545    0.012
 5670.00    0.58986   0.61765    0.013
 5671.00    0.54549   0.61968    0.013
 5672.00    0.66363   0.62153    0.012
 5673.00    0.74574   0.62299    0.012
 5674.00    0.76516   0.62410    0.012
 5675.00    0.73777   0.62467    0.012
 5676.00    0.63909   0.62478    0.012
 5677.00    0.58802   0.62429    0.012
 5678.00    0.60060   0.62333    0.012
 5679.00    0.59591   0.62189    0.012
 5680.00    0.57086   0.62014    0.012
 5681.00    0.52896   0.61822    0.012
 5682.00    0.46956   0.61626    0.012
 5683.00    0.48418   0.61451    0.012
 5684.00    0.56660   0.61301    0.012
 5685.00    0.64736   0.61202    0.012
 5686.00    0.72679   0.61144    0.012
 5687.00    0.74100   0.61143    0.012
 5688.00    0.70889   0.61187    0.012
 5689.00    0.69679   0.61270    0.012
 5690.00    0.69716   0.61380    0.012
 5691.00    0.66202   0.61492    0.012
 5692.00    0.60754   0.61605    0.012
 5693.00    0.59954   0.61682    0.012
 5694.00    0.61355   0.61726    0.013
 5695.00    0.66861   0.61712    0.013
 5696.00    0.74044   0.61653    0.013
 5697.00    0.74517   0.61540    0.013
 5698.00    0.72651   0.61381    0.013
 5699.00    0.72259   0.61184    0.013
 5700.00    0.72299   0.60953    0.013
 5701.00    0.62285   0.60709    0.013
 5702.00    0.49822   0.60449    0.013
 5703.00    0.44369   0.60196    0.012
 5704.00    0.40297   0.59949    0.012
 5705.00    0.46856   0.59726    0.012
 5706.00    0.55048   0.59530    0.012
 5707.00    0.58710   0.59381    0.012
 5708.00    0.61860   0.59292    0.012
 5709.00    0.60375   0.59267    0.012
 5710.00    0.58540   0.59323    0.012
 5711.00    0.51929   0.59455    0.012
 5712.00    0.45124   0.59664    0.012
 5713.00    0.52331   0.59933    0.012
 5714.00    0.59619   0.60251    0.012
 5715.00    0.65784   0.60599    0.012
 5716.00    0.71790   0.60958    0.012
 5717.00    0.75074   0.61310    0.012
 5718.00    0.77485   0.61635    0.012
 5719.00    0.70661   0.61929    0.012
 5720.00    0.64394   0.62167    0.011
 5721.00    0.62300   0.62364    0.012
 5722.00    0.60539   0.62500    0.012
 5723.00    0.60675   0.62589    0.012
 5724.00    0.61103   0.62627    0.012
 5725.00    0.62853   0.62630    0.012
 5726.00    0.63877   0.62601    0.012
 5727.00    0.62193   0.62554    0.012
 5728.00    0.61204   0.62501    0.012
 5729.00    0.62379   0.62444    0.012
 5730.00    0.63905   0.62401    0.012
 5731.00    0.66357   0.62365    0.012
 5732.00    0.68109   0.62349    0.012
 5733.00    0.68270   0.62342    0.012
 5734.00    0.68024   0.62347    0.012
 5735.00    0.66981   0.62356    0.013
 5736.00    0.64490   0.62365    0.013
 5737.00    0.59522   0.62372    0.012
 5738.00    0.55416   0.62368    0.012
 5739.00    0.52603   0.62358    0.012
 5740.00    0.52111   0.62334    0.000
 5741.00    0.54679   0.62302    0.000
 5742.00    0.56627   0.62258    0.000
 5743.00    0.57856   0.62202    0.000
 5744.00    0.54135   0.62135    0.000
 5745.00    0.45346   0.62052    0.000
 5746.00    0.46437   0.61960    0.000
 5747.00    0.56454   0.61854    0.000
 5748.00    0.62978   0.61741    0.000
 5749.00    0.66720   0.61623    0.000
 5750.00    0.68949   0.61507    0.000
 5751.00    0.70119   0.61399    0.000
 5752.00    0.72904   0.61304    0.000
 5753.00    0.76681   0.61229    0.000
 5754.00    0.73336   0.61171    0.000
 5755.00    0.66170   0.61135    0.000
 5756.00    0.63198   0.61111    0.000
 5757.00    0.62180   0.61103    0.000
 5758.00    0.61011   0.61104    0.000
 5759.00    0.59780   0.61117    0.000
 5760.00    0.56683   0.61140    0.000
 5761.00    0.52946   0.61174    0.000
 5762.00    0.54866   0.61226    0.000
 5763.00    0.58416   0.61291    0.000
 5764.00    0.58256   0.61377    0.000
 5765.00    0.57213   0.61468    0.000
 5766.00    0.59779   0.61565    0.000
 5767.00    0.63037   0.61647    0.000
 5768.00    0.67289   0.61715    0.000
 5769.00    0.71688   0.61751    0.000
 5770.00    0.66342   0.61755    0.000
 5771.00    0.59934   0.61719    0.000
 5772.00    0.55988   0.61644    0.000
 5773.00    0.52218   0.61531    0.000
 5774.00    0.49176   0.61378    0.000
 5775.00    0.46159   0.61191    0.000
 5776.00    0.47876   0.60968    0.000
 5777.00    0.49821   0.60721    0.000
 5778.00    0.59249   0.60454    0.000
 5779.00    0.67591   0.60180    0.000
 5780.00    0.58462   0.59914    0.000
 5781.00    0.50043   0.59671    0.000
 5782.00    0.48808   0.59470    0.000
 5783.00    0.48576   0.59321    0.000
 5784.00    0.55618   0.59239    0.000
 5785.00    0.62166   0.59224    0.000
 5786.00    0.65971   0.59276    0.000
 5787.00    0.68399   0.59385    0.000
 5788.00    0.64720   0.59541    0.000
 5789.00    0.61038   0.59730    0.000
 5790.00    0.57347   0.59935    0.000
 5791.00    0.55692   0.60148   -2.000
 5792.00    0.60257   0.60357   -2.000
 5793.00    0.67006   0.60556   -2.000
 5794.00    0.79425   0.60740   -2.000
 5795.00    0.87240   0.60907   -2.000
 5796.00    0.84780   0.61057   -2.000
 5797.00    0.80980   0.61186   -2.000
 5798.00    0.74590   0.61298   -2.000
 5799.00    0.70090   0.61388   -2.000
 5800.00    0.68782   0.61458   -2.000
 5801.00    0.66457   0.61503   -2.000
 5802.00    0.62631   0.61529   -2.000
 5803.00    0.63178   0.61535   -2.000
 5804.00    0.69408   0.61525   -2.000
 5805.00    0.71880   0.61505   -2.000
 5806.00    0.70047   0.61477   -2.000
 5807.00    0.68408   0.61449   -2.000
 5808.00    0.66963   0.61421   -2.000
 5809.00    0.67746   0.61398   -2.000
 5810.00    0.70512   0.61378   -2.000
 5811.00    0.67660   0.61365    0.000
 5812.00    0.60400   0.61356    0.000
 5813.00    0.58776   0.61355    0.000
 5814.00    0.61043   0.61363    0.000
 5815.00    0.64059   0.61383    0.000
 5816.00    0.67529   0.61416    0.000
 5817.00    0.67515   0.61465    0.000
 5818.00    0.65661   0.61527    0.000
 5819.00    0.65139   0.61598    0.000
 5820.00    0.65227   0.61676    0.000
 5821.00    0.65061   0.61754    0.000
 5822.00    0.64793   0.61827    0.000
 5823.00    0.65792   0.61891    0.000
 5824.00    0.67216   0.61943    0.000
 5825.00    0.68044   0.61981    0.000
 5826.00    0.68704   0.62004    0.000
 5827.00    0.65572   0.62014    0.000
 5828.00    0.61558   0.62008    0.000
 5829.00    0.61075   0.61993    0.000
 5830.00    0.61253   0.61967    0.000
 5831.00    0.58738   0.61934    0.000
 5832.00    0.55835   0.61896    0.000
 5833.00    0.58855   0.61857    0.000
 5834.00    0.62494   0.61821    0.000
 5835.00    0.66436   0.61789    0.000
 5836.00    0.70399   0.61764    0.000
 5837.00    0.71183   0.61744    0.000
 5838.00    0.71861   0.61729    0.000
 5839.00    0.66460   0.61713    0.000
 5840.00    0.61434   0.61690    0.000
 5841.00    0.68371   0.61655    0.000
 5842.00    0.74726   0.61600    0.000
 5843.00    0.72303   0.61520    0.000
 5844.00    0.69500   0.61410    0.000
 5845.00    0.63020   0.61270    0.000
 5846.00    0.57026   0.61098    0.000
 5847.00    0.54442   0.60898    0.000
 5848.00    0.52767   0.60673    0.000
 5849.00    0.55999   0.60429    0.000
 5850.00    0.59391   0.60172    0.000
 5851.00    0.63477   0.59909    0.000
 5852.00    0.66536   0.59650    0.000
 5853.00    0.65926   0.59404    0.000
 5854.00    0.65244   0.59182    0.000
 5855.00    0.64346   0.58993    0.000
 5856.00    0.65482   0.58846    0.000
 5857.00    0.71809   0.58747    0.000
 5858.00    0.74757   0.58698    0.000
 5859.00    0.70284   0.58702    0.000
 5860.00    0.65078   0.58751    0.000
 5861.00    0.58475   0.58842    0.000
 5862.00    0.53004   0.58962    0.000
 5863.00    0.49415   0.59107    0.000
 5864.00    0.49662   0.59260    0.000
 5865.00    0.55496   0.59420    0.000
 5866.00    0.59984   0.59571    0.000
 5867.00    0.62747   0.59712    0.000
 5868.00    0.63681   0.59835    0.000
 5869.00    0.62550   0.59935    0.000
 5870.00    0.63170   0.60009    0.000
 5871.00    0.65533   0.60052    0.000
 5872.00    0.70354   0.60062    0.000
 5873.00    0.77331   0.60036    0.000
 5874.00    0.79531   0.59974    0.000
 5875.00    0.78035   0.59872    0.000
 5876.00    0.75398   0.59732    0.000
 5877.00    0.71985   0.59550    0.000
 5878.00    0.70552   0.59324    0.000
 5879.00    0.70299   0.59047    0.000
 5880.00    0.69175   0.58713    0.000
 5881.00    0.67598   0.58314    0.000
 5882.00    0.69507   0.57842    0.000
 5883.00    0.72986   0.57292    0.000
 5884.00    0.72351   0.56665    0.000
 5885.00    0.70121   0.55969    0.000
 5886.00    0.66352   0.55225    0.000
 5887.00    0.62076   0.54457    0.000
 5888.00    0.57499   0.53705    0.000
 5889.00    0.52840   0.53005    0.000
 5890.00    0.54946   0.52399    0.000
 5891.00    0.58590   0.51923    0.000
 5892.00    0.54972   0.51601    0.000
 5893.00    0.50033   0.51454    0.000
 5894.00    0.48437   0.51484    0.000
 5895.00    0.47309   0.51686    0.000
 5896.00    0.53783   0.52041    0.000
 5897.00    0.61021   0.52531    0.000
 5898.00    0.66530   0.53115    0.000
 5899.00    0.71930   0.53768    0.000
 5900.00    0.70346   0.54446    0.000
 5901.00    0.68558   0.55121    0.011
 5902.00    0.66930   0.55759    0.011
 5903.00    0.65204   0.56340    0.011
 5904.00    0.60718   0.56845    0.011
 5905.00    0.56367   0.57267    0.011
 5906.00    0.53935   0.57604    0.011
 5907.00    0.51978   0.57857    0.011
 5908.00    0.54438   0.58038    0.011
 5909.00    0.55895   0.58153    0.011
 5910.00    0.50544   0.58217    0.011
 5911.00    0.45644   0.58240    0.011
 5912.00    0.43119   0.58237    0.011
 5913.00    0.41778   0.58220    0.011
 5914.00    0.45450   0.58200    0.012
 5915.00    0.49332   0.58187    0.012
 5916.00    0.53945   0.58187    0.012
 5917.00    0.57288   0.58205    0.012
 5918.00    0.56893   0.58237    0.012
 5919.00    0.55360   0.58284    0.012
 5920.00    0.50973   0.58337    0.012
 5921.00    0.48496   0.58391    0.011
 5922.00    0.50146   0.58437    0.011
 5923.00    0.51719   0.58472    0.011
 5924.00    0.53147   0.58492    0.011
 5925.00    0.52752   0.58495    0.011
 5926.00    0.49374   0.58482    0.011
 5927.00    0.48180   0.58458    0.011
 5928.00    0.50122   0.58427    0.011
 5929.00    0.51040   0.58396    0.011
 5930.00    0.50664   0.58368    0.011
 5931.00    0.51225   0.58350    0.011
 5932.00    0.52831   0.58343    0.011
 5933.00    0.55699   0.58348    0.011
 5934.00    0.59806   0.58363    0.011
 5935.00    0.63957   0.58387    0.011
 5936.00    0.68147   0.58413    0.011
 5937.00    0.71286   0.58441    0.011
 5938.00    0.73624   0.58464    0.011
 5939.00    0.74858   0.58479    0.011
 5940.00    0.75353   0.58486    0.011
 5941.00    0.73038   0.58482    0.011
 5942.00    0.69074   0.58467    0.011
 5943.00    0.63412   0.58442    0.011
 5944.00    0.56880   0.58406    0.011
 5945.00    0.53985   0.58360    0.011
 5946.00    0.52703   0.58307    0.011
 5947.00    0.52313   0.58248    0.011
 5948.00    0.52261   0.58186    0.011
 5949.00    0.52757   0.58124    0.011
 5950.00    0.53429   0.58068    0.011
 5951.00    0.53983   0.58021    0.012
 5952.00    0.54503   0.57988    0.012
 5953.00    0.54094   0.57970    0.011
 5954.00    0.53479   0.57972    0.011
 5955.00    0.57232   0.57995    0.011
 5956.00    0.61759   0.58038    0.011
 5957.00    0.65231   0.58099    0.011
 5958.00    0.68561   0.58177    0.011
 5959.00    0.60475   0.58266    0.011
 5960.00    0.51292   0.58364    0.011
 5961.00    0.46726   0.58463    0.011
 5962.00    0.42436   0.58561    0.011
 5963.00    0.46311   0.58653    0.011
 5964.00    0.50371   0.58735    0.011
 5965.00    0.50619   0.58807    0.011
 5966.00    0.50868   0.58863    0.011
 5967.00    0.51156   0.58905    0.011
 5968.00    0.51784   0.58927    0.011
 5969.00    0.56981   0.58930    0.011
 5970.00    0.61871   0.58908    0.011
 5971.00    0.64002   0.58863    0.011
 5972.00    0.65361   0.58793    0.011
 5973.00    0.61641   0.58701    0.011
 5974.00    0.58948   0.58589    0.011
 5975.00    0.61515   0.58461    0.011
 5976.00    0.63815   0.58325    0.011
 5977.00    0.65005   0.58185    0.011
 5978.00    0.65620   0.58048    0.011
 5979.00    0.64268   0.57917    0.011
 5980.00    0.63864   0.57799    0.011
 5981.00    0.66194   0.57692    0.011
 5982.00    0.67636   0.57605    0.012
 5983.00    0.66888   0.57535    0.011
 5984.00    0.65937   0.57488    0.011
 5985.00    0.64555   0.57463    0.011
 5986.00    0.63227   0.57462    0.011
 5987.00    0.62000   0.57482    0.011
 5988.00    0.62401   0.57520    0.011
 5989.00    0.65425   0.57569    0.011
 5990.00    0.68483   0.57625    0.011
 5991.00    0.71587   0.57680    0.011
 5992.00    0.72252   0.57726    0.011
 5993.00    0.69881   0.57757    0.011
 5994.00    0.66544   0.57771    0.011
 5995.00    0.62146   0.57764    0.011
 5996.00    0.57849   0.57738    0.011
 5997.00    0.53651   0.57693    0.011
 5998.00    0.52917   0.57632    0.010
 5999.00    0.55141   0.57559    0.011
 6000.00    0.55697   0.57478    0.011
 6001.00    0.55000   0.57390    0.011
 6002.00    0.54107   0.57302    0.011
 6003.00    0.53085   0.57213    0.011
 6004.00    0.52469   0.57128    0.011
 6005.00    0.52088   0.57048    0.011
 6006.00    0.53019   0.56976    0.011
 6007.00    0.54611   0.56912    0.011
 6008.00    0.58640   0.56857    0.011
 6009.00    0.63732   0.56810    0.012
 6010.00    0.66421   0.56770    0.012
 6011.00    0.68210   0.56735    0.012
 6012.00    0.67218   0.56702    0.012
 6013.00    0.65344   0.56668    0.012
 6014.00    0.62842   0.56634    0.011
 6015.00    0.60174   0.56600    0.011
 6016.00    0.59652   0.56565    0.011
 6017.00    0.59596   0.56538    0.011
 6018.00    0.60024   0.56517    0.011
 6019.00    0.60535   0.56513    0.011
 6020.00    0.62308   0.56526    0.012
 6021.00    0.64245   0.56564    0.012
 6022.00    0.65083   0.56626    0.011
 6023.00    0.65819   0.56715    0.011
 6024.00    0.63978   0.56830    0.011
 6025.00    0.61994   0.56965    0.011
 6026.00    0.59676   0.57119    0.011
 6027.00    0.57390   0.57282    0.011
 6028.00    0.58874   0.57451    0.011
 6029.00    0.60197   0.57616    0.011
 6030.00    0.57789   0.57773    0.011
 6031.00    0.55193   0.57914    0.010
 6032.00    0.50201   0.58037    0.011
 6033.00    0.46024   0.58139    0.011
 6034.00    0.48861   0.58218    0.011
 6035.00    0.52364   0.58278    0.011
 6036.00    0.60113   0.58315    0.011
 6037.00    0.66471   0.58340    0.011
 6038.00    0.65883   0.58350    0.011
 6039.00    0.64560   0.58356    0.011
 6040.00    0.60263   0.58356    0.011
 6041.00    0.57185   0.58358    0.011
 6042.00    0.58198   0.58361    0.011
 6043.00    0.57937   0.58367    0.011
 6044.00    0.54062   0.58373    0.011
 6045.00    0.51470   0.58377    0.011
 6046.00    0.51988   0.58375    0.011
 6047.00    0.53409   0.58361    0.011
 6048.00    0.56721   0.58336    0.011
 6049.00    0.58923   0.58294    0.011
 6050.00    0.59108   0.58236    0.011
 6051.00    0.57865   0.58164    0.011
 6052.00    0.54353   0.58081    0.011
 6053.00    0.52744   0.57993    0.011
 6054.00    0.53789   0.57901    0.011
 6055.00    0.55996   0.57815    0.011
 6056.00    0.59629   0.57733    0.010
 6057.00    0.60540   0.57660    0.010
 6058.00    0.58505   0.57596    0.010
 6059.00    0.56723   0.57543    0.010
 6060.00    0.55183   0.57500    0.011
 6061.00    0.55365   0.57468    0.011
 6062.00    0.56996   0.57451    0.010
 6063.00    0.56277   0.57450    0.011
 6064.00    0.53816   0.57469    0.011
 6065.00    0.52605   0.57509    0.011
 6066.00    0.52208   0.57569    0.011
 6067.00    0.52541   0.57648    0.011
 6068.00    0.53290   0.57735    0.011
 6069.00    0.56068   0.57827    0.011
 6070.00    0.59854   0.57908    0.011
 6071.00    0.63072   0.57970    0.011
 6072.00    0.66048   0.58003    0.011
 6073.00    0.63548   0.58000    0.011
 6074.00    0.59035   0.57959    0.011
 6075.00    0.56694   0.57878    0.011
 6076.00    0.55030   0.57766    0.011
 6077.00    0.54528   0.57625    0.011
 6078.00    0.54328   0.57470    0.011
 6079.00    0.56476   0.57306    0.011
 6080.00    0.59120   0.57148    0.011
 6081.00    0.64710   0.56998    0.011
 6082.00    0.70793   0.56869    0.011
 6083.00    0.69475   0.56758    0.011
 6084.00    0.67225   0.56671    0.011
 6085.00    0.62961   0.56605    0.011
 6086.00    0.58521   0.56560    0.010
 6087.00    0.57205   0.56533    0.010
 6088.00    0.56050   0.56519    0.010
 6089.00    0.54498   0.56520    0.010
 6090.00    0.52957   0.56527    0.010
 6091.00    0.52843   0.56541    0.010
 6092.00    0.52925   0.56554    0.011
 6093.00    0.57159   0.56566    0.011
 6094.00    0.61301   0.56566    0.011
 6095.00    0.64316   0.56554    0.011
 6096.00    0.67022   0.56524    0.011
 6097.00    0.67166   0.56475    0.011
 6098.00    0.66979   0.56411    0.011
 6099.00    0.64743   0.56332    0.011
 6100.00    0.62826   0.56252    0.011
 6101.00    0.62466   0.56173    0.011
 6102.00    0.62311   0.56113    0.011
 6103.00    0.62966   0.56074    0.011
 6104.00    0.62952   0.56068    0.011
 6105.00    0.60732   0.56092    0.011
 6106.00    0.59093   0.56145    0.011
 6107.00    0.59070   0.56223    0.011
 6108.00    0.58530   0.56311    0.011
 6109.00    0.56756   0.56405    0.011
 6110.00    0.54890   0.56487    0.011
 6111.00    0.52835   0.56554    0.011
 6112.00    0.51341   0.56590    0.011
 6113.00    0.50853   0.56598    0.011
 6114.00    0.51694   0.56568    0.010
 6115.00    0.54616   0.56506    0.011
 6116.00    0.55620   0.56411    0.011
 6117.00    0.53987   0.56293    0.010
 6118.00    0.52621   0.56160    0.010
 6119.00    0.51579   0.56019    0.010
 6120.00    0.52234   0.55886    0.010
 6121.00    0.54702   0.55765    0.010
 6122.00    0.58455   0.55670    0.010
 6123.00    0.63418   0.55598    0.011
 6124.00    0.66240   0.55556    0.011
 6125.00    0.67286   0.55534    0.011
 6126.00    0.64222   0.55529    0.011
 6127.00    0.58157   0.55526    0.011
 6128.00    0.54290   0.55516    0.011
 6129.00    0.51831   0.55487    0.011
 6130.00    0.52266   0.55432    0.011
 6131.00    0.54325   0.55345    0.011
 6132.00    0.53853   0.55229    0.011
 6133.00    0.52147   0.55089    0.011
 6134.00    0.54867   0.54938    0.011
 6135.00    0.59454   0.54789    0.011
 6136.00    0.62701   0.54658    0.011
 6137.00    0.65465   0.54562    0.011
 6138.00    0.65469   0.54507    0.011
 6139.00    0.64631   0.54504    0.011
 6140.00    0.61821   0.54545    0.011
 6141.00    0.58511   0.54632    0.011
 6142.00    0.59141   0.54743    0.011
 6143.00    0.60584   0.54874    0.011
 6144.00    0.63111   0.55001    0.010
 6145.00    0.65813   0.55121    0.010
 6146.00    0.66028   0.55214    0.010
 6147.00    0.65940   0.55281    0.010
 6148.00    0.62834   0.55312    0.010
 6149.00    0.59476   0.55310    0.010
 6150.00    0.53543   0.55271    0.010
 6151.00    0.47487   0.55197    0.010
 6152.00    0.43662   0.55088    0.010
 6153.00    0.39981   0.54940    0.010
 6154.00    0.42694   0.54759    0.010
 6155.00    0.45552   0.54537    0.011
 6156.00    0.51251   0.54287    0.011
 6157.00    0.56457   0.54007    0.011
 6158.00    0.55971   0.53713    0.011
 6159.00    0.55127   0.53413    0.012
 6160.00    0.51433   0.53125    0.011
 6161.00    0.48460   0.52863    0.011
 6162.00    0.49824   0.52641    0.011
 6163.00    0.50968   0.52469    0.011
 6164.00    0.51061   0.52355    0.011
 6165.00    0.50720   0.52299    0.011
 6166.00    0.48695   0.52299    0.011
 6167.00    0.47682   0.52348    0.011
 6168.00    0.49935   0.52442    0.011
 6169.00    0.50789   0.52567    0.011
 6170.00    0.47821   0.52719    0.011
 6171.00    0.46127   0.52888    0.011
 6172.00    0.47419   0.53069    0.010
 6173.00    0.50208   0.53256    0.010
 6174.00    0.56029   0.53440    0.010
 6175.00    0.59483   0.53622    0.010
 6176.00    0.58767   0.53790    0.010
 6177.00    0.56984   0.53946    0.010
 6178.00    0.53557   0.54075    0.010
 6179.00    0.51056   0.54184    0.010
 6180.00    0.49812   0.54257    0.010
 6181.00    0.49284   0.54298    0.010
 6182.00    0.49612   0.54300    0.010
 6183.00    0.50152   0.54267    0.010
 6184.00    0.50915   0.54200    0.011
 6185.00    0.51532   0.54103    0.011
 6186.00    0.52015   0.53988    0.011
 6187.00    0.54540   0.53861    0.011
 6188.00    0.58736   0.53737    0.011
 6189.00    0.61189   0.53626    0.011
 6190.00    0.62388   0.53538    0.011
 6191.00    0.58902   0.53484    0.011
 6192.00    0.52457   0.53463    0.011
 6193.00    0.50843   0.53480    0.011
 6194.00    0.51898   0.53527    0.011
 6195.00    0.68482   0.53602    0.011
 6196.00    0.92523   0.53696   -2.000
 6197.00    1.24995   0.53800   -2.000
 6198.00    1.60963   0.53910   -2.000
 6199.00    1.66268   0.54015   -2.000
 6200.00    1.60704   0.54117   -2.000
 6201.00    1.15565   0.54204   -2.000
 6202.00    0.58581   0.54279   -2.000
 6203.00    0.28339   0.54331   -2.000
 6204.00    0.04740   0.54363   -2.000
 6205.00    0.07667   0.54361   -2.000
 6206.00    0.15936   0.54330   -2.000
 6207.00    0.28435   0.54258   -2.000
 6208.00    0.41601   0.54152    0.011
 6209.00    0.45454   0.54006    0.011
 6210.00    0.48217   0.53832    0.011
 6211.00    0.48926   0.53632    0.011
 6212.00    0.49471   0.53419    0.011
 6213.00    0.53445   0.53205    0.011
 6214.00    0.57570   0.52999    0.011
 6215.00    0.57389   0.52814    0.011
 6216.00    0.57215   0.52655    0.011
 6217.00    0.59602   0.52531    0.011
 6218.00    0.61743   0.52437    0.011
 6219.00    0.59372   0.52376    0.011
 6220.00    0.56773   0.52340    0.011
 6221.00    0.51660   0.52322    0.011
 6222.00    0.47170   0.52314    0.011
 6223.00    0.47491   0.52307    0.011
 6224.00    0.48346   0.52297    0.011
 6225.00    0.52330   0.52273    0.011
 6226.00    0.55016   0.52244    0.010
 6227.00    0.51688   0.52198    0.010
 6228.00    0.48569   0.52154    0.010
 6229.00    0.46245   0.52100    0.010
 6230.00    0.45482   0.52058    0.010
 6231.00    0.49655   0.52018    0.011
 6232.00    0.52619   0.51990    0.011
 6233.00    0.52339   0.51968    0.010
 6234.00    0.51673   0.51949    0.010
 6235.00    0.50121   0.51932    0.010
 6236.00    0.49556   0.51903    0.010
 6237.00    0.50959   0.51869    0.010
 6238.00    0.51363   0.51816    0.010
 6239.00    0.50034   0.51756    0.010
 6240.00    0.49773   0.51682    0.010
 6241.00    0.51134   0.51606    0.010
 6242.00    0.51915   0.51528    0.011
 6243.00    0.51922   0.51459    0.011
 6244.00    0.51573   0.51396    0.010
 6245.00    0.50805   0.51348    0.010
 6246.00    0.49250   0.51303    0.010
 6247.00    0.46879   0.51271    0.010
 6248.00    0.46713   0.51231    0.010
 6249.00    0.48564   0.51196    0.011
 6250.00    0.46479   0.51151    0.011
 6251.00    0.41223   0.51102    0.011
 6252.00    0.38784   0.51049    0.011
 6253.00    0.38344   0.50996    0.011
 6254.00    0.42283   0.50959    0.011
 6255.00    0.48948   0.50930    0.010
 6256.00    0.53130   0.50940    0.010
 6257.00    0.55961   0.50969    0.010
 6258.00    0.66595   0.51043    0.011
 6259.00    0.80916   0.51142    0.011
 6260.00    0.95017   0.51277    0.012
 6261.00    1.09030   0.51432    0.013
 6262.00    1.07659   0.51600    0.013
 6263.00    1.00936   0.51778    0.013
 6264.00    0.84087   0.51945    0.013
 6265.00    0.64268   0.52110    0.013
 6266.00    0.51034   0.52251    0.012
 6267.00    0.39400   0.52383    0.012
 6268.00    0.35329   0.52489    0.011
 6269.00    0.32742   0.52583    0.011
 6270.00    0.36300   0.52653    0.011
 6271.00    0.40797   0.52713    0.011
 6272.00    0.44900   0.52756    0.011
 6273.00    0.48958   0.52788    0.011
 6274.00    0.52470   0.52808    0.011
 6275.00    0.55941   0.52817    0.011
 6276.00    0.60809   0.52821    0.011
 6277.00    0.65733   0.52819    0.011
 6278.00    0.61464   0.52821    0.010
 6279.00    0.57146   0.52823    0.010
 6280.00    0.53535   0.52838    0.000
 6281.00    0.50197   0.52857    0.000
 6282.00    0.51510   0.52892    0.000
 6283.00    0.52788   0.52930    0.000
 6284.00    0.53701   0.52979    0.000
 6285.00    0.53862   0.53026    0.000
 6286.00    0.48406   0.53067    0.000
 6287.00    0.43351   0.53097    0.000
 6288.00    0.40566   0.53107    0.000
 6289.00    0.38405   0.53097    0.000
 6290.00    0.39069   0.53061    0.000
 6291.00    0.40029   0.53001    0.000
 6292.00    0.42092   0.52915    0.000
 6293.00    0.44379   0.52813    0.000
 6294.00    0.47367   0.52695    0.000
 6295.00    0.50210   0.52573    0.000
 6296.00    0.52674   0.52449    0.000
 6297.00    0.54680   0.52336    0.000
 6298.00    0.55650   0.52238    0.000
 6299.00    0.54809   0.52162    0.000
 6300.00    0.50418   0.52113    0.000
 6301.00    0.47457   0.52091    0.000
 6302.00    0.46943   0.52094    0.000
 6303.00    0.48838   0.52123    0.000
 6304.00    0.54342   0.52165    0.000
 6305.00    0.59978   0.52221    0.000
 6306.00    0.65786   0.52271    0.000
 6307.00    0.67440   0.52313    0.000
 6308.00    0.64277   0.52333    0.000
 6309.00    0.58716   0.52333    0.000
 6310.00    0.50703   0.52301    0.000
 6311.00    0.47482   0.52247    0.000
 6312.00    0.48583   0.52170    0.000
 6313.00    0.49482   0.52080    0.000
 6314.00    0.50222   0.51985    0.000
 6315.00    0.49953   0.51896    0.000
 6316.00    0.48979   0.51828    0.000
 6317.00    0.51633   0.51780    0.000
 6318.00    0.56511   0.51770    0.000
 6319.00    0.59603   0.51786    0.000
 6320.00    0.61738   0.51844    0.000
 6321.00    0.58694   0.51924    0.010
 6322.00    0.53242   0.52032    0.010
 6323.00    0.50676   0.52148    0.010
 6324.00    0.49267   0.52270    0.011
 6325.00    0.46915   0.52386    0.010
 6326.00    0.44240   0.52480    0.010
 6327.00    0.44883   0.52552    0.010
 6328.00    0.46479   0.52591    0.010
 6329.00    0.49983   0.52603    0.010
 6330.00    0.53940   0.52584    0.010
 6331.00    0.56901   0.52535    0.010
 6332.00    0.59670   0.52468    0.010
 6333.00    0.61269   0.52378    0.010
 6334.00    0.62693   0.52286    0.010
 6335.00    0.57602   0.52182    0.010
 6336.00    0.51805   0.52090    0.010
 6337.00    0.48714   0.52004    0.010
 6338.00    0.45816   0.51931    0.010
 6339.00    0.46210   0.51874    0.010
 6340.00    0.46724   0.51831    0.010
 6341.00    0.48266   0.51809    0.010
 6342.00    0.49881   0.51793    0.010
 6343.00    0.53941   0.51797    0.010
 6344.00    0.57838   0.51805    0.010
 6345.00    0.59153   0.51825    0.010
 6346.00    0.60104   0.51845    0.010
 6347.00    0.57397   0.51866    0.010
 6348.00    0.54824   0.51887    0.010
 6349.00    0.53213   0.51894    0.010
 6350.00    0.51962   0.51885    0.010
 6351.00    0.52707   0.51852    0.010
 6352.00    0.53769   0.51799    0.010
 6353.00    0.56237   0.51714    0.011
 6354.00    0.57283   0.51607    0.011
 6355.00    0.53160   0.51478    0.011
 6356.00    0.50324   0.51337    0.010
 6357.00    0.51410   0.51192    0.010
 6358.00    0.52619   0.51052    0.010
 6359.00    0.54146   0.50929    0.010
 6360.00    0.55139   0.50834    0.010
 6361.00    0.54938   0.50772    0.010
 6362.00    0.55207   0.50749    0.010
 6363.00    0.56380   0.50767    0.010
 6364.00    0.57921   0.50829    0.010
 6365.00    0.60080   0.50927    0.010
 6366.00    0.60283   0.51058    0.010
 6367.00    0.57597   0.51209    0.010
 6368.00    0.54898   0.51375    0.010
 6369.00    0.52183   0.51544    0.010
 6370.00    0.51984   0.51710    0.010
 6371.00    0.54660   0.51865    0.010
 6372.00    0.58550   0.52003    0.010
 6373.00    0.63663   0.52121    0.010
 6374.00    0.66060   0.52217    0.010
 6375.00    0.66043   0.52288    0.010
 6376.00    0.61878   0.52337    0.010
 6377.00    0.54464   0.52366    0.011
 6378.00    0.49552   0.52377    0.011
 6379.00    0.46364   0.52376    0.010
 6380.00    0.46413   0.52367    0.010
 6381.00    0.48416   0.52355    0.010
 6382.00    0.51867   0.52337    0.010
 6383.00    0.56082   0.52321    0.010
 6384.00    0.55886   0.52297    0.010
 6385.00    0.53673   0.52272    0.010
 6386.00    0.51308   0.52240    0.010
 6387.00    0.48883   0.52202    0.010
 6388.00    0.49805   0.52158    0.010
 6389.00    0.51849   0.52109    0.010
 6390.00    0.52809   0.52053    0.010
 6391.00    0.53464   0.51989    0.010
 6392.00    0.52471   0.51918    0.010
 6393.00    0.51094   0.51853    0.010
 6394.00    0.52169   0.51784    0.010
 6395.00    0.53700   0.51738    0.010
 6396.00    0.56323   0.51698    0.011
 6397.00    0.59103   0.51674    0.011
 6398.00    0.59472   0.51659    0.011
 6399.00    0.59589   0.51656    0.011
 6400.00    0.55534   0.51664    0.011
 6401.00    0.51198   0.51675    0.011
 6402.00    0.49903   0.51691    0.011
 6403.00    0.48707   0.51704    0.011
 6404.00    0.50177   0.51723    0.011
 6405.00    0.51652   0.51721    0.011
 6406.00    0.53270   0.51715    0.010
 6407.00    0.54564   0.51697    0.010
 6408.00    0.50988   0.51673    0.010
 6409.00    0.47541   0.51636    0.010
 6410.00    0.45336   0.51608    0.010
 6411.00    0.43713   0.51573    0.010
 6412.00    0.46162   0.51539    0.010
 6413.00    0.48464   0.51500    0.010
 6414.00    0.49979   0.51470    0.010
 6415.00    0.50734   0.51447    0.010
 6416.00    0.48203   0.51436    0.010
 6417.00    0.45796   0.51444    0.010
 6418.00    0.43824   0.51456    0.010
 6419.00    0.41971   0.51491    0.010
 6420.00    0.40472   0.51524    0.010
 6421.00    0.40423   0.51578    0.010
 6422.00    0.44063   0.51633    0.010
 6423.00    0.47457   0.51691    0.010
 6424.00    0.50314   0.51736    0.010
 6425.00    0.52719   0.51773    0.010
 6426.00    0.54268   0.51806    0.010
 6427.00    0.55490   0.51817    0.010
 6428.00    0.56172   0.51821    0.011
 6429.00    0.56169   0.51803    0.011
 6430.00    0.55171   0.51780    0.011
 6431.00    0.53166   0.51746    0.011
 6432.00    0.49871   0.51709    0.010
 6433.00    0.48897   0.51669    0.010
 6434.00    0.50538   0.51649    0.010
 6435.00    0.51597   0.51643    0.010
 6436.00    0.52078   0.51650    0.010
 6437.00    0.53627   0.51668    0.010
 6438.00    0.56113   0.51698    0.010
 6439.00    0.59591   0.51739    0.010
 6440.00    0.63837   0.51782    0.010
 6441.00    0.63766   0.51824    0.010
 6442.00    0.60765   0.51847    0.010
 6443.00    0.56053   0.51846    0.010
 6444.00    0.50323   0.51815    0.010
 6445.00    0.47073   0.51779    0.010
 6446.00    0.45110   0.51709    0.010
 6447.00    0.47611   0.51632    0.010
 6448.00    0.52120   0.51531    0.010
 6449.00    0.53452   0.51424    0.011
 6450.00    0.53555   0.51311    0.011
 6451.00    0.48833   0.51215    0.011
 6452.00    0.42523   0.51138    0.010
 6453.00    0.44090   0.51081    0.010
 6454.00    0.47828   0.51044    0.010
 6455.00    0.50557   0.51023    0.010
 6456.00    0.53056   0.51008    0.010
 6457.00    0.52257   0.51008    0.010
 6458.00    0.50861   0.51040    0.010
 6459.00    0.53284   0.51070    0.010
 6460.00    0.56237   0.51114    0.010
 6461.00    0.54835   0.51146    0.010
 6462.00    0.52998   0.51193    0.010
 6463.00    0.47535   0.51221    0.010
 6464.00    0.41843   0.51274    0.010
 6465.00    0.43118   0.51314    0.010
 6466.00    0.44599   0.51363    0.010
 6467.00    0.47772   0.51415    0.010
 6468.00    0.50986   0.51451    0.010
 6469.00    0.55348   0.51486    0.010
 6470.00    0.59299   0.51503    0.010
 6471.00    0.57442   0.51541    0.010
 6472.00    0.55044   0.51544    0.010
 6473.00    0.47630   0.51549    0.010
 6474.00    0.41100   0.51531    0.011
 6475.00    0.40551   0.51499    0.010
 6476.00    0.40823   0.51446    0.010
 6477.00    0.45407   0.51387    0.010
 6478.00    0.49039   0.51325    0.010
 6479.00    0.48654   0.51248    0.010
 6480.00    0.48479   0.51170    0.010
 6481.00    0.49035   0.51078    0.010
 6482.00    0.49779   0.50976    0.010
 6483.00    0.51072   0.50861    0.010
 6484.00    0.52774   0.50729    0.010
 6485.00    0.55501   0.50578    0.010
 6486.00    0.56246   0.50398    0.010
 6487.00    0.52721   0.50190    0.010
 6488.00    0.49439   0.49934    0.009
 6489.00    0.46610   0.49660    0.009
 6490.00    0.45335   0.49367    0.009
 6491.00    0.46600   0.49071    0.009
 6492.00    0.49389   0.48792    0.010
 6493.00    0.54365   0.48518    0.010
 6494.00    0.57689   0.48307    0.010
 6495.00    0.58932   0.48137    0.010
 6496.00    0.59796   0.48055    0.010
 6497.00    0.60238   0.48037    0.010
 6498.00    0.59748   0.48107    0.010
 6499.00    0.58345   0.48250    0.011
 6500.00    0.57139   0.48449    0.010
 6501.00    0.56103   0.48699    0.010
 6502.00    0.57233   0.48964    0.010
 6503.00    0.60012   0.49262    0.010
 6504.00    0.60832   0.49535    0.010
 6505.00    0.60342   0.49799    0.010
 6506.00    0.57168   0.50014    0.010
 6507.00    0.52421   0.50191    0.010
 6508.00    0.50502   0.50328    0.010
 6509.00    0.50028   0.50412    0.010
 6510.00    0.50858   0.50458    0.010
 6511.00    0.52265   0.50469    0.010
 6512.00    0.53489   0.50453    0.010
 6513.00    0.54642   0.50418    0.010
 6514.00    0.53622   0.50379    0.010
 6515.00    0.51899   0.50329    0.009
 6516.00    0.53493   0.50288    0.010
 6517.00    0.55983   0.50250    0.010
 6518.00    0.58674   0.50228    0.010
 6519.00    0.61411   0.50209    0.010
 6520.00    0.60002   0.50200    0.010
 6521.00    0.57863   0.50198    0.010
 6522.00    0.56920   0.50198    0.010
 6523.00    0.56138   0.50202    0.010
 6524.00    0.54348   0.50206    0.010
 6525.00    0.52461   0.50207    0.010
 6526.00    0.51845   0.50194    0.010
 6527.00    0.51303   0.50178    0.010
 6528.00    0.53524   0.50153    0.000
 6529.00    0.55814   0.50120    0.000
 6530.00    0.58078   0.50086    0.000
 6531.00    0.60199   0.50046    0.000
 6532.00    0.58729   0.50010    0.000
 6533.00    0.57190   0.49966    0.000
 6534.00    0.54742   0.49922    0.000
 6535.00    0.52415   0.49874    0.000
 6536.00    0.51157   0.49820    0.000
 6537.00    0.50561   0.49746    0.000
 6538.00    0.54304   0.49653    0.000
 6539.00    0.58418   0.49538    0.000
 6540.00    0.64434   0.49395    0.000
 6541.00    0.70558   0.49240    0.000
 6542.00    0.77135   0.49055    0.000
 6543.00    0.84993   0.48856    0.000
 6544.00    0.97227   0.48626    0.000
 6545.00    1.08271   0.48379    0.000
 6546.00    1.15884   0.48114    0.000
 6547.00    1.18095   0.47824    0.000
 6548.00    1.07019   0.47508    0.000
 6549.00    0.94701   0.47160    0.000
 6550.00    0.79747   0.46785    0.000
 6551.00    0.69008   0.46371    0.000
 6552.00    0.66034   0.45918    0.000
 6553.00    0.68089   0.45420    0.000
 6554.00    0.78244   0.44875    0.000
 6555.00    1.06135   0.44294    0.000
 6556.00    1.59078   0.43653    0.000
 6557.00    2.37238   0.42998    0.000
 6558.00    3.46735   0.42365    0.000
 6559.00    4.37402   0.41771    0.000
 6560.00    5.07445   0.41294    0.000
 6561.00    5.17602   0.40904    0.000
 6562.00    4.69904   0.40644    0.000
 6563.00    3.89282   0.40514    0.000
 6564.00    2.80613   0.40537    0.000
 6565.00    1.95132   0.40700    0.000
 6566.00    1.27048   0.40985    0.000
 6567.00    0.88569   0.41387    0.000
 6568.00    0.69606   0.41859    0.000
 6569.00    0.63972   0.42404    0.000
 6570.00    0.66032   0.42978    0.000
 6571.00    0.65420   0.43584    0.000
 6572.00    0.63464   0.44175    0.000
 6573.00    0.58755   0.44700    0.000
 6574.00    0.52849   0.45184    0.000
 6575.00    0.58415   0.45618    0.000
 6576.00    0.68265   0.46012    0.000
 6577.00    0.95206   0.46365    0.000
 6578.00    1.27560   0.46684    0.000
 6579.00    1.61984   0.46970    0.000
 6580.00    1.96957   0.47209    0.000
 6581.00    2.03937   0.47430    0.000
 6582.00    2.04866   0.47608    0.000
 6583.00    1.77467   0.47763    0.000
 6584.00    1.45210   0.47887    0.000
 6585.00    1.16928   0.47972    0.000
 6586.00    0.89162   0.48029    0.000
 6587.00    0.75754   0.48051    0.000
 6588.00    0.63657   0.48060    0.000
 6589.00    0.61809   0.48045    0.000
 6590.00    0.60528   0.48037    0.000
 6591.00    0.55843   0.48024    0.000
 6592.00    0.51099   0.48007    0.000
 6593.00    0.47608   0.48005    0.000
 6594.00    0.44496   0.48003    0.000
 6595.00    0.50117   0.48034    0.000
 6596.00    0.55325   0.48068    0.000
 6597.00    0.55300   0.48121    0.000
 6598.00    0.55000   0.48176    0.000
 6599.00    0.52337   0.48238    0.000
 6600.00    0.50222   0.48307    0.000
 6601.00    0.51597   0.48366    0.000
 6602.00    0.53301   0.48427    0.000
 6603.00    0.56650   0.48458    0.000
 6604.00    0.59101   0.48487    0.000
 6605.00    0.57923   0.48501    0.000
 6606.00    0.56870   0.48522    0.000
 6607.00    0.56231   0.48545    0.000
 6608.00    0.56124   0.48563    0.000
 6609.00    0.57523   0.48591    0.009
 6610.00    0.57765   0.48618    0.009
 6611.00    0.55214   0.48675    0.009
 6612.00    0.52148   0.48726    0.009
 6613.00    0.48004   0.48793    0.010
 6614.00    0.46386   0.48851    0.010
 6615.00    0.49348   0.48918    0.010
 6616.00    0.52023   0.48976    0.010
 6617.00    0.54240   0.49018    0.010
 6618.00    0.55033   0.49044    0.010
 6619.00    0.53845   0.49041    0.010
 6620.00    0.52562   0.49028    0.010
 6621.00    0.51164   0.48985    0.010
 6622.00    0.48757   0.48945    0.010
 6623.00    0.45260   0.48877    0.010
 6624.00    0.43911   0.48803    0.010
 6625.00    0.44608   0.48718    0.010
 6626.00    0.47340   0.48626    0.010
 6627.00    0.51782   0.48532    0.009
 6628.00    0.53903   0.48432    0.009
 6629.00    0.54306   0.48340    0.009
 6630.00    0.52889   0.48249    0.009
 6631.00    0.50290   0.48191    0.009
 6632.00    0.49973   0.48139    0.009
 6633.00    0.50952   0.48101    0.009
 6634.00    0.53183   0.48076    0.009
 6635.00    0.56032   0.48057    0.010
 6636.00    0.55815   0.48052    0.010
 6637.00    0.54286   0.48057    0.010
 6638.00    0.49347   0.48069    0.010
 6639.00    0.43157   0.48076    0.010
 6640.00    0.38392   0.48099    0.010
 6641.00    0.34068   0.48129    0.010
 6642.00    0.33678   0.48157    0.010
 6643.00    0.34306   0.48177    0.010
 6644.00    0.36372   0.48192    0.010
 6645.00    0.38741   0.48207    0.010
 6646.00    0.42180   0.48221    0.010
 6647.00    0.45797   0.48233    0.010
 6648.00    0.46471   0.48232    0.010
 6649.00    0.46775   0.48239    0.010
 6650.00    0.46893   0.48238    0.010
 6651.00    0.46994   0.48238    0.010
 6652.00    0.48895   0.48222    0.010
 6653.00    0.50890   0.48197    0.009
 6654.00    0.50775   0.48167    0.009
 6655.00    0.50654   0.48120    0.009
 6656.00    0.52765   0.48066    0.009
 6657.00    0.54843   0.47995    0.010
 6658.00    0.56232   0.47930    0.010
 6659.00    0.57587   0.47843    0.010
 6660.00    0.58527   0.47774    0.010
 6661.00    0.59178   0.47712    0.010
 6662.00    0.57439   0.47649    0.010
 6663.00    0.55846   0.47605    0.010
 6664.00    0.55156   0.47565    0.010
 6665.00    0.54995   0.47551    0.010
 6666.00    0.57404   0.47543    0.010
 6667.00    0.58306   0.47553    0.010
 6668.00    0.53259   0.47559    0.010
 6669.00    0.48834   0.47576    0.010
 6670.00    0.46453   0.47601    0.010
 6671.00    0.43993   0.47608    0.010
 6672.00    0.41315   0.47607    0.010
 6673.00    0.40420   0.47583    0.010
 6674.00    0.43764   0.47544    0.010
 6675.00    0.47234   0.47520    0.009
 6676.00    0.50962   0.47496    0.009
 6677.00    0.51817   0.47459    0.009
 6678.00    0.47540   0.47436    0.009
 6679.00    0.45888   0.47415    0.010
 6680.00    0.48338   0.47417    0.009
 6681.00    0.50427   0.47423    0.009
 6682.00    0.52022   0.47441    0.010
 6683.00    0.51706   0.47465    0.010
 6684.00    0.49082   0.47507    0.010
 6685.00    0.48641   0.47567    0.010
 6686.00    0.50523   0.47605    0.010
 6687.00    0.51521   0.47645    0.010
 6688.00    0.51687   0.47664    0.010
 6689.00    0.49985   0.47675    0.010
 6690.00    0.46738   0.47671    0.010
 6691.00    0.44833   0.47650    0.010
 6692.00    0.43905   0.47613    0.010
 6693.00    0.45147   0.47572    0.010
 6694.00    0.47778   0.47534    0.010
 6695.00    0.48814   0.47491    0.010
 6696.00    0.48957   0.47455    0.000
 6697.00    0.49969   0.47414    0.000
 6698.00    0.51404   0.47377    0.000
 6699.00    0.54029   0.47340    0.000
 6700.00    0.57153   0.47304    0.000
 6701.00    0.54217   0.47275    0.000
 6702.00    0.49097   0.47253    0.000
 6703.00    0.43448   0.47238    0.000
 6704.00    0.37637   0.47208    0.000
 6705.00    0.39908   0.47187    0.000
 6706.00    0.44225   0.47141    0.000
 6707.00    0.51705   0.47091    0.000
 6708.00    0.59836   0.47030    0.000
 6709.00    0.68560   0.46950    0.000
 6710.00    0.77380   0.46875    0.000
 6711.00    0.89160   0.46786    0.000
 6712.00    1.01298   0.46698    0.000
 6713.00    1.11677   0.46595    0.000
 6714.00    1.21910   0.46512    0.000
 6715.00    1.20516   0.46450    0.000
 6716.00    1.18570   0.46394    0.000
 6717.00    1.00976   0.46359    0.000
 6718.00    0.83225   0.46329    0.000
 6719.00    0.69110   0.46335    0.000
 6720.00    0.55638   0.46353    0.000
 6721.00    0.54705   0.46384    0.000
 6722.00    0.54103   0.46422    0.000
 6723.00    0.57287   0.46477    0.000
 6724.00    0.61733   0.46554    0.000
 6725.00    0.76242   0.46619    0.000
 6726.00    0.90547   0.46676    0.000
 6727.00    1.03636   0.46723    0.000
 6728.00    1.12909   0.46767    0.000
 6729.00    1.04105   0.46794    0.000
 6730.00    0.93721   0.46814    0.000
 6731.00    0.77235   0.46818    0.000
 6732.00    0.61898   0.46823    0.000
 6733.00    0.50262   0.46812    0.000
 6734.00    0.42724   0.46785    0.000
 6735.00    0.46361   0.46749    0.000
 6736.00    0.49842   0.46710    0.000
 6737.00    0.52960   0.46664    0.000
 6738.00    0.53979   0.46605    0.000
 6739.00    0.50753   0.46541    0.000
 6740.00    0.47533   0.46485    0.000
 6741.00    0.44322   0.46432    0.000
 6742.00    0.43654   0.46367    0.000
 6743.00    0.46904   0.46308    0.000
 6744.00    0.49109   0.46245    0.000
 6745.00    0.49903   0.46204    0.000
 6746.00    0.50210   0.46158    0.000
 6747.00    0.49939   0.46134    0.000
 6748.00    0.48833   0.46108    0.000
 6749.00    0.46852   0.46093    0.000
 6750.00    0.45044   0.46114    0.000
 6751.00    0.43398   0.46122    0.000
 6752.00    0.45873   0.46160    0.000
 6753.00    0.51710   0.46195    0.011
 6754.00    0.55550   0.46255    0.012
 6755.00    0.57955   0.46317    0.012
 6756.00    0.58915   0.46383    0.012
 6757.00    0.58962   0.46457    0.012
 6758.00    0.56510   0.46499    0.012
 6759.00    0.52681   0.46562    0.012
 6760.00    0.48569   0.46598    0.012
 6761.00    0.44320   0.46624    0.012
 6762.00    0.43457   0.46632    0.012
 6763.00    0.43993   0.46621    0.012
 6764.00    0.45464   0.46611    0.012
 6765.00    0.47264   0.46592    0.011
 6766.00    0.45322   0.46574    0.011
 6767.00    0.42262   0.46539    0.011
 6768.00    0.43536   0.46527    0.011
 6769.00    0.45884   0.46522    0.011
 6770.00    0.50122   0.46529    0.011
 6771.00    0.54739   0.46539    0.011
 6772.00    0.56002   0.46557    0.011
 6773.00    0.56739   0.46579    0.011
 6774.00    0.56903   0.46612    0.010
 6775.00    0.57001   0.46643    0.010
 6776.00    0.55992   0.46649    0.011
 6777.00    0.54897   0.46654    0.011
 6778.00    0.48198   0.46640    0.011
 6779.00    0.41255   0.46612    0.011
 6780.00    0.42530   0.46557    0.011
 6781.00    0.43892   0.46502    0.011
 6782.00    0.45328   0.46433    0.011
 6783.00    0.46872   0.46365    0.011
 6784.00    0.50373   0.46310    0.011
 6785.00    0.53657   0.46245    0.011
 6786.00    0.54576   0.46189    0.011
 6787.00    0.55544   0.46139    0.010
 6788.00    0.56878   0.46104    0.011
 6789.00    0.58176   0.46073    0.011
 6790.00    0.59257   0.46058    0.011
 6791.00    0.59293   0.46061    0.011
 6792.00    0.54499   0.46058    0.011
 6793.00    0.51551   0.46074    0.011
 6794.00    0.55579   0.46079    0.011
 6795.00    0.59382   0.46086    0.011
 6796.00    0.62480   0.46099    0.011
 6797.00    0.63379   0.46112    0.011
 6798.00    0.58391   0.46124    0.011
 6799.00    0.55224   0.46130    0.011
 6800.00    0.56241   0.46141    0.011
 6801.00    0.56615   0.46153    0.011
 6802.00    0.55711   0.46158    0.011
 6803.00    0.54074   0.46156    0.011
 6804.00    0.51168   0.46157    0.011
 6805.00    0.49398   0.46147    0.011
 6806.00    0.49348   0.46136    0.011
 6807.00    0.49972   0.46124    0.010
 6808.00    0.51493   0.46109    0.010
 6809.00    0.53079   0.46091    0.010
 6810.00    0.54743   0.46076    0.010
 6811.00    0.55522   0.46062    0.010
 6812.00    0.55386   0.46052    0.011
 6813.00    0.52334   0.46056    0.011
 6814.00    0.46622   0.46059    0.011
 6815.00    0.43658   0.46060    0.011
 6816.00    0.42907   0.46065    0.011
 6817.00    0.44464   0.46082    0.011
 6818.00    0.47655   0.46097    0.010
 6819.00    0.48008   0.46118    0.010
 6820.00    0.46599   0.46139    0.010
 6821.00    0.46473   0.46159    0.010
 6822.00    0.47043   0.46184    0.011
 6823.00    0.48010   0.46187    0.011
 6824.00    0.49165   0.46184    0.011
 6825.00    0.51563   0.46179    0.010
 6826.00    0.54468   0.46178    0.010
 6827.00    0.53359   0.46177    0.010
 6828.00    0.50856   0.46158    0.010
 6829.00    0.49580   0.46134    0.010
 6830.00    0.48662   0.46096    0.010
 6831.00    0.51221   0.46055    0.010
 6832.00    0.54621   0.46004    0.010
 6833.00    0.53635   0.45940    0.010
 6834.00    0.51792   0.45880    0.010
 6835.00    0.48859   0.45807    0.010
 6836.00    0.45761   0.45733    0.010
 6837.00    0.48476   0.45642    0.011
 6838.00    0.51844   0.45560    0.011
 6839.00    0.55570   0.45492    0.011
 6840.00    0.59322   0.45437    0.011
 6841.00    0.49628   0.45401    0.011
 6842.00    0.39400   0.45368    0.011
 6843.00    0.37274   0.45357    0.011
 6844.00    0.35437   0.45352    0.010
 6845.00    0.42829   0.45361    0.010
 6846.00    0.49654   0.45381    0.010
 6847.00    0.46888   0.45405    0.010
 6848.00    0.44579   0.45436    0.010
 6849.00    0.47046   0.45459    0.010
 6850.00    0.49039   0.45462    0.010
 6851.00    0.47508   0.45442    0.010
 6852.00    0.46057   0.45419    0.010
 6853.00    0.45063   0.45387    0.010
 6854.00    0.44143   0.45348    0.010
 6855.00    0.43553   0.45314    0.010
 6856.00    0.43303   0.45268    0.010
 6857.00    0.44311   0.45221    0.010
 6858.00    0.44618   0.45177    0.010
 6859.00    0.42752   0.45149    0.010
 6860.00    0.41261   0.45128    0.010
 6861.00    0.40754   0.45117    0.010
 6862.00    0.40424   0.45122    0.010
 6863.00    0.40491   0.45110    0.010
 6864.00    0.41749   0.45104    0.011
 6865.00    0.45337   0.45106    0.011
 6866.00    0.45781   0.45107    0.011
 6867.00    0.40861   0.45118    0.011
 6868.00    0.37408   0.45124    0.011
 6869.00    0.36151   0.45139    0.011
 6870.00    0.35603   0.45135    0.011
 6871.00    0.35988   0.45133    0.011
 6872.00    0.36925   0.45139    0.010
 6873.00    0.38500   0.45148    0.010
 6874.00    0.39239   0.45172    0.010
 6875.00    0.39125   0.45185    0.010
 6876.00    0.38321   0.45208    0.010
 6877.00    0.36898   0.45209    0.010
 6878.00    0.35403   0.45220    0.010
 6879.00    0.33850   0.45234    0.010
 6880.00    0.33948   0.45256    0.010
 6881.00    0.35197   0.45285    0.010
 6882.00    0.36016   0.45309    0.010
 6883.00    0.36572   0.45352    0.010
 6884.00    0.38486   0.45378    0.010
 6885.00    0.41126   0.45423    0.010
 6886.00    0.46249   0.45468    0.010
 6887.00    0.52526   0.45521    0.010
 6888.00    0.50899   0.45577    0.010
 6889.00    0.46113   0.45629    0.010
 6890.00    0.45557   0.45686    0.010
 6891.00    0.46443   0.45720    0.010
 6892.00    0.46906   0.45759    0.010
 6893.00    0.47249   0.45792    0.010
 6894.00    0.48957   0.45817    0.010
 6895.00    0.50989   0.45835    0.010
 6896.00    0.50139   0.45846    0.010
 6897.00    0.48739   0.45858    0.010
 6898.00    0.48866   0.45860    0.010
 6899.00    0.49217   0.45870    0.010
 6900.00    0.49984   0.45875    0.010
 6901.00    0.50795   0.45882    0.010
 6902.00    0.50413   0.45884    0.010
 6903.00    0.49947   0.45892    0.010
 6904.00    0.45988   0.45890    0.010
 6905.00    0.41905   0.45889    0.010
 6906.00    0.41297   0.45883    0.010
 6907.00    0.40686   0.45867    0.010
 6908.00    0.39583   0.45849    0.010
 6909.00    0.38743   0.45816    0.010
 6910.00    0.42080   0.45783    0.010
 6911.00    0.45182   0.45746    0.010
 6912.00    0.45937   0.45711    0.010
 6913.00    0.46887   0.45668    0.010
 6914.00    0.49233   0.45634    0.010
 6915.00    0.51178   0.45596    0.010
 6916.00    0.50913   0.45568    0.010
 6917.00    0.50301   0.45542    0.010
 6918.00    0.48158   0.45524    0.010
 6919.00    0.46277   0.45512    0.010
 6920.00    0.45346   0.45486    0.010
 6921.00    0.44455   0.45479    0.010
 6922.00    0.43687   0.45455    0.010
 6923.00    0.42082   0.45450    0.010
 6924.00    0.38311   0.45447    0.010
 6925.00    0.36799   0.45442    0.010
 6926.00    0.40307   0.45442    0.010
 6927.00    0.44901   0.45426    0.010
 6928.00    0.51587   0.45426    0.010
 6929.00    0.53618   0.45410    0.011
 6930.00    0.47828   0.45423    0.011
 6931.00    0.45266   0.45434    0.011
 6932.00    0.47461   0.45451    0.011
 6933.00    0.48163   0.45468    0.011
 6934.00    0.46932   0.45470    0.010
 6935.00    0.47286   0.45482    0.010
 6936.00    0.49448   0.45477    0.010
 6937.00    0.49899   0.45490    0.010
 6938.00    0.48631   0.45488    0.010
 6939.00    0.48314   0.45485    0.010
 6940.00    0.48842   0.45471    0.010
 6941.00    0.46996   0.45437    0.010
 6942.00    0.43294   0.45415    0.010
 6943.00    0.43219   0.45384    0.010
 6944.00    0.45637   0.45367    0.010
 6945.00    0.47063   0.45345    0.010
 6946.00    0.47892   0.45322    0.010
 6947.00    0.45394   0.45290    0.010
 6948.00    0.41145   0.45263    0.010
 6949.00    0.39969   0.45245    0.010
 6950.00    0.40196   0.45239    0.011
 6951.00    0.39238   0.45248    0.011
 6952.00    0.37814   0.45264    0.010
 6953.00    0.38496   0.45288    0.010
 6954.00    0.39881   0.45299    0.010
 6955.00    0.39297   0.45330    0.010
 6956.00    0.38160   0.45353    0.010
 6957.00    0.38476   0.45393    0.010
 6958.00    0.39128   0.45436    0.010
 6959.00    0.37027   0.45482    0.010
 6960.00    0.34415   0.45528    0.010
 6961.00    0.36127   0.45559    0.010
 6962.00    0.38457   0.45590    0.010
 6963.00    0.43390   0.45609    0.010
 6964.00    0.48594   0.45629    0.010
 6965.00    0.49559   0.45636    0.010
 6966.00    0.50241   0.45636    0.010
 6967.00    0.47670   0.45610    0.011
 6968.00    0.44995   0.45573    0.011
 6969.00    0.44898   0.45521    0.011
 6970.00    0.44693   0.45456    0.011
 6971.00    0.41170   0.45393    0.011
 6972.00    0.38270   0.45304    0.011
 6973.00    0.44620   0.45217    0.011
 6974.00    0.50113   0.45107    0.011
 6975.00    0.47382   0.45009    0.011
 6976.00    0.45127   0.44938    0.011
 6977.00    0.46177   0.44873    0.011
 6978.00    0.46129   0.44849    0.010
 6979.00    0.40187   0.44836    0.010
 6980.00    0.35915   0.44836    0.010
 6981.00    0.38838   0.44858    0.010
 6982.00    0.41250   0.44893    0.010
 6983.00    0.41846   0.44965    0.010
 6984.00    0.41905   0.45039    0.010
 6985.00    0.40365   0.45117    0.010
 6986.00    0.39898   0.45200    0.010
 6987.00    0.42156   0.45257    0.010
 6988.00    0.43526   0.45312    0.010
 6989.00    0.42954   0.45352    0.010
 6990.00    0.42718   0.45377    0.011
 6991.00    0.43119   0.45391    0.011
 6992.00    0.42843   0.45384    0.011
 6993.00    0.41447   0.45373    0.011
 6994.00    0.38476   0.45348    0.011
 6995.00    0.33217   0.45306    0.011
 6996.00    0.32504   0.45257    0.010
 6997.00    0.37596   0.45199    0.010
 6998.00    0.39880   0.45144    0.010
 6999.00    0.39007   0.45090    0.011
 7000.00    0.39005   0.45035    0.011
 7001.00    0.39866   0.44981    0.010
 7002.00    0.42955   0.44919    0.010
 7003.00    0.47994   0.44870    0.010
 7004.00    0.46775   0.44835    0.010
 7005.00    0.40732   0.44813    0.010
 7006.00    0.40529   0.44792    0.010
 7007.00    0.44284   0.44762    0.010
 7008.00    0.45999   0.44739    0.010
 7009.00    0.46503   0.44717    0.010
 7010.00    0.43828   0.44705    0.010
 7011.00    0.39506   0.44693    0.010
 7012.00    0.38813   0.44667    0.011
 7013.00    0.39749   0.44641    0.011
 7014.00    0.40306   0.44607    0.011
 7015.00    0.40716   0.44588    0.011
 7016.00    0.43624   0.44590    0.011
 7017.00    0.47352   0.44591    0.011
 7018.00    0.44476   0.44584    0.011
 7019.00    0.39784   0.44563    0.011
 7020.00    0.40038   0.44556    0.011
 7021.00    0.41410   0.44566    0.010
 7022.00    0.41416   0.44590    0.010
 7023.00    0.41175   0.44624    0.011
 7024.00    0.45500   0.44661    0.011
 7025.00    0.50459   0.44688    0.011
 7026.00    0.52925   0.44704    0.011
 7027.00    0.55144   0.44737    0.011
 7028.00    0.49887   0.44772    0.011
 7029.00    0.44162   0.44819    0.010
 7030.00    0.44164   0.44859    0.011
 7031.00    0.44318   0.44906    0.011
 7032.00    0.41399   0.44961    0.011
 7033.00    0.38826   0.45000    0.011
 7034.00    0.45742   0.45046    0.011
 7035.00    0.52422   0.45092    0.011
 7036.00    0.55777   0.45141    0.011
 7037.00    0.57855   0.45205    0.012
 7038.00    0.48157   0.45285    0.011
 7039.00    0.40354   0.45369    0.011
 7040.00    0.45324   0.45438    0.011
 7041.00    0.49318   0.45481    0.011
 7042.00    0.48214   0.45532    0.011
 7043.00    0.48557   0.45576    0.011
 7044.00    0.54995   0.45613    0.011
 7045.00    0.56998   0.45639    0.011
 7046.00    0.43570   0.45626    0.011
 7047.00    0.33256   0.45586    0.011
 7048.00    0.32055   0.45493    0.011
 7049.00    0.36023   0.45391    0.011
 7050.00    0.52894   0.45268   -2.000
 7051.00    0.62203   0.45117   -2.000
 7052.00    0.55249   0.44972   -2.000
 7053.00    0.50318   0.44801   -2.000
 7054.00    0.49166   0.44640   -2.000
 7055.00    0.49994   0.44461   -2.000
 7056.00    0.54051   0.44282   -2.000
 7057.00    0.54400   0.44125   -2.000
 7058.00    0.49445   0.43970   -2.000
 7059.00    0.47936   0.43855   -2.000
 7060.00    0.50763   0.43760   -2.000
 7061.00    0.54346   0.43681   -2.000
 7062.00    0.58765   0.43606   -2.000
 7063.00    0.61376   0.43537   -2.000
 7064.00    0.62220   0.43480   -2.000
 7065.00    0.60399   0.43450   -2.000
 7066.00    0.56279   0.43438   -2.000
 7067.00    0.53850   0.43447   -2.000
 7068.00    0.52705   0.43474   -2.000
 7069.00    0.54685   0.43488   -2.000
 7070.00    0.58750   0.43507   -2.000
 7071.00    0.58750   0.43527   -2.000
 7072.00    0.56372   0.43561   -2.000
 7073.00    0.54852   0.43602   -2.000
 7074.00    0.53770   0.43630   -2.000
 7075.00    0.53162   0.43640   -2.000
 7076.00    0.52764   0.43634   -2.000
 7077.00    0.58098   0.43612   -2.000
 7078.00    0.65605   0.43562   -2.000
 7079.00    0.56021   0.43493   -2.000
 7080.00    0.40932   0.43393   -2.000
 7081.00    0.38082   0.43272   -2.000
 7082.00    0.38530   0.43132   -2.000
 7083.00    0.44091   0.42983   -2.000
 7084.00    0.50781   0.42839   -2.000
 7085.00    0.54497   0.42681   -2.000
 7086.00    0.57691   0.42508   -2.000
 7087.00    0.55109   0.42350   -2.000
 7088.00    0.51754   0.42207   -2.000
 7089.00    0.47763   0.42096   -2.000
 7090.00    0.43712   0.42016   -2.000
 7091.00    0.56233   0.41930   -2.000
 7092.00    0.69727   0.41885   -2.000
 7093.00    0.64926   0.41838   -2.000
 7094.00    0.59726   0.41819   -2.000
 7095.00    0.61636   0.41840   -2.000
 7096.00    0.63150   0.41855   -2.000
 7097.00    0.54827   0.41901   -2.000
 7098.00    0.46649   0.41923   -2.000
 7099.00    0.40382   0.41957   -2.000
 7100.00    0.35019   0.41997   -2.000
 7101.00    0.37660   0.42026   -2.000
 7102.00    0.40899   0.42069   -2.000
 7103.00    0.48040   0.42085   -2.000
 7104.00    0.54225   0.42099   -2.000
 7105.00    0.55545   0.42095   -2.000
 7106.00    0.54467   0.42083   -2.000
 7107.00    0.43526   0.42080   -2.000
 7108.00    0.35983   0.42063   -2.000
 7109.00    0.40025   0.42041   -2.000
 7110.00    0.43254   0.42013   -2.000
 7111.00    0.44146   0.41991   -2.000
 7112.00    0.41832   0.41981   -2.000
 7113.00    0.31654   0.41951   -2.000
 7114.00    0.27113   0.41935   -2.000
 7115.00    0.34502   0.41922   -2.000
 7116.00    0.42436   0.41904   -2.000
 7117.00    0.51372   0.41891   -2.000
 7118.00    0.56359   0.41859   -2.000
 7119.00    0.54999   0.41851   -2.000
 7120.00    0.54524   0.41816   -2.000
 7121.00    0.55297   0.41773   -2.000
 7122.00    0.52100   0.41739   -2.000
 7123.00    0.43980   0.41686   -2.000
 7124.00    0.45172   0.41644   -2.000
 7125.00    0.56545   0.41587   -2.000
 7126.00    0.63099   0.41544   -2.000
 7127.00    0.65004   0.41510   -2.000
 7128.00    0.67556   0.41463   -2.000
 7129.00    0.70658   0.41426   -2.000
 7130.00    0.67140   0.41415   -2.000
 7131.00    0.58664   0.41418   -2.000
 7132.00    0.55925   0.41434   -2.000
 7133.00    0.56961   0.41447   -2.000
 7134.00    0.45422   0.41462   -2.000
 7135.00    0.26642   0.41503   -2.000
 7136.00    0.31369   0.41534   -2.000
 7137.00    0.47893   0.41576   -2.000
 7138.00    0.54686   0.41606   -2.000
 7139.00    0.57253   0.41623   -2.000
 7140.00    0.51259   0.41644   -2.000
 7141.00    0.42074   0.41644   -2.000
 7142.00    0.41973   0.41648   -2.000
 7143.00    0.44741   0.41642   -2.000
 7144.00    0.43736   0.41638   -2.000
 7145.00    0.41737   0.41632   -2.000
 7146.00    0.44614   0.41599   -2.000
 7147.00    0.48543   0.41604   -2.000
 7148.00    0.42109   0.41626   -2.000
 7149.00    0.33904   0.41639   -2.000
 7150.00    0.44285   0.41665   -2.000
 7151.00    0.57072   0.41669   -2.000
 7152.00    0.53592   0.41705   -2.000
 7153.00    0.48636   0.41751   -2.000
 7154.00    0.47288   0.41780   -2.000
 7155.00    0.46137   0.41827   -2.000
 7156.00    0.41035   0.41838   -2.000
 7157.00    0.36014   0.41845   -2.000
 7158.00    0.45989   0.41840   -2.000
 7159.00    0.55898   0.41836   -2.000
 7160.00    0.64322   0.41853   -2.000
 7161.00    0.70995   0.41829   -2.000
 7162.00    0.55610   0.41797   -2.000
 7163.00    0.41778   0.41778   -2.000
 7164.00    0.41183   0.41787   -2.000
 7165.00    0.40581   0.41819   -2.000
 7166.00    0.39933   0.41842   -2.000
 7167.00    0.40492   0.41848   -2.000
 7168.00    0.47046   0.41865   -2.000
 7169.00    0.52993   0.41916   -2.000
 7170.00    0.56496   0.41980   -2.000
 7171.00    0.57108   0.42031   -2.000
 7172.00    0.48059   0.42050   -2.000
 7173.00    0.40078   0.42057   -2.000
 7174.00    0.35112   0.42058   -2.000
 7175.00    0.32275   0.42062   -2.000
 7176.00    0.34573   0.42065   -2.000
 7177.00    0.42869   0.42031   -2.000
 7178.00    0.63653   0.41962   -2.000
 7179.00    0.72989   0.41885   -2.000
 7180.00    0.61596   0.41827   -2.000
 7181.00    0.51428   0.41799   -2.000
 7182.00    0.43199   0.41749   -2.000
 7183.00    0.39561   0.41661   -2.000
 7184.00    0.42301   0.41581   -2.000
 7185.00    0.41494   0.41509   -2.000
 7186.00    0.36352   0.41483   -2.000
 7187.00    0.34490   0.41470   -2.000
 7188.00    0.36164   0.41437   -2.000
 7189.00    0.37370   0.41428   -2.000
 7190.00    0.38130   0.41390   -2.000
 7191.00    0.40787   0.41385   -2.000
 7192.00    0.45034   0.41408   -2.000
 7193.00    0.43095   0.41430   -2.000
 7194.00    0.36588   0.41477   -2.000
 7195.00    0.33539   0.41481   -2.000
 7196.00    0.32731   0.41503   -2.000
 7197.00    0.43198   0.41532   -2.000
 7198.00    0.60060   0.41545   -2.000
 7199.00    0.61582   0.41567   -2.000
 7200.00    0.55527   0.41547   -2.000
 7201.00    0.45625   0.41559   -2.000
 7202.00    0.34081   0.41580   -2.000
 7203.00    0.28127   0.41560   -2.000
 7204.00    0.24220   0.41545   -2.000
 7205.00    0.30885   0.41488   -2.000
 7206.00    0.40826   0.41480   -2.000
 7207.00    0.40290   0.41506   -2.000
 7208.00    0.37050   0.41511   -2.000
 7209.00    0.38834   0.41531   -2.000
 7210.00    0.41676   0.41503   -2.000
 7211.00    0.43934   0.41512   -2.000
 7212.00    0.46097   0.41548   -2.000
 7213.00    0.39969   0.41588   -2.000
 7214.00    0.32806   0.41650   -2.000
 7215.00    0.33048   0.41681   -2.000
 7216.00    0.33931   0.41718   -2.000
 7217.00    0.39749   0.41745   -2.000
 7218.00    0.45818   0.41787   -2.000
