###################################################################
## OUTPUT of StarlightChains_v04.for    [Cid@UFSC - 01/Apr/2007] ##
###################################################################

## Some input info
KUG0210-078._51_51.txt                   [arq_obs]
Base.CB07.vall.4m                        [arq_base]
Masks.EmLines.NEW.gm                     [arq_masks]
StCv04.C11.config                        [arq_config]
   66                                    [N_base]
    0                                    [N_YAV_components = # of components with extra extinction!]
    0                                    [i_FitPowerLaw (1/0 = Yes/No)]
-9.99                                    [alpha_PowerLaw]
CCM                                      [red_law_option]
 1.458241                                [q_norm = A(l_norm)/A(V)]

## (Re)Sampling Parameters
 3741.00                                 [l_ini (A)]
 7218.00                                 [l_fin (A)]
    1.00                                 [dl    (A)]     (OBS: dl_cushion =    50.00 A)

## Normalization info
 4020.00                                 [l_norm (A) - for base]
 4010.00                                 [llow_norm (A) - window for f_obs]
 4060.00                                 [lupp_norm (A) - window for f_obs]
6.339121E-18                             [fobs_norm (in input units)]

## S/N
 3691.00                                 [llow_SN (A) - window for S/N]
 7268.00                                 [lupp_SN (A) - window for S/N]
   2.135                                 [S/N in S/N window]
   3.082                                 [S/N in norm. window]
   0.005                                 [S/N_err in S/N window]
   0.007                                 [S/N_err in norm. window]
  1.0000                                 [fscale_chi2]

## etc...
    -2007978                             [idum_orig]
  2372                                   [NOl_eff]
  2330                                   [Nl_eff]
    42    NSIGMA                         [Ntot_cliped & clip_method]
  3886540                                [Nglobal_steps]
   7                                     [N_chains]
  41                                     [NEX0s_base = N_base in EX0s-fits]
 0   0   1       42   2.0   1.757E+03    [Clip-Bug, RC-Crash & Burn-In warning-flags, n_censored_weights, wei_nsig_threshold & wei_limit]
    42     42.265     41.754      0.510  [idt_all, wdt_TotTime, wdt_UsrTime & wdt_SysTime (sec)]

## Synthesis Results - Best model ##

 1.27697E-05                             [chi2/Nl_eff]
    32.97304                             [adev (%)]

   111.90230                             [sum-of-x (%)]
 1.85170E-18                             [Flux_tot (units of input spectrum!)]
 3.64339E-14                             [Mini_tot (???)]
 1.88634E-14                             [Mcor_tot (???)]

-153.50                                  [v0_min  (km/s)]
   0.50                                  [vd_min  (km/s)]
-1.0000                                  [AV_min  (mag)]
 0.0000                                  [YAV_min (mag)]

# j     x_j(%)      Mini_j(%)     Mcor_j(%)     age_j(yr)     Z_j      (L/M)_j    YAV?  Mstars   component_j        a/Fe...       SSP_chi2r SSP_adev(%)   SSP_AV   SSP_x(%)
  1      8.8898     3.6906E-02    7.1283E-02    1.000000E+06  0.00400  1.094E-02    0   1.0000   age020_m42            0.0000     1.2905E-05    33.1983   1.8426    98.7167
  2      0.0000     0.0000E+00    0.0000E+00    3.160000E+06  0.00400  4.007E-02    0   0.9999   age045_m42            0.0000     1.2855E-05    32.5617   1.0761   106.0632
  3      0.0000     0.0000E+00    0.0000E+00    5.010000E+06  0.00400  2.539E-02    0   0.9488   age055_m42            0.0000     1.2918E-05    32.7762   1.4310   102.7785
  4      0.0000     0.0000E+00    0.0000E+00    6.610000E+06  0.00400  2.620E-02    0   0.9220   age061_m42            0.0000     1.3013E-05    32.4499   1.0219   105.6852
  5      0.0000     0.0000E+00    0.0000E+00    1.000000E+07  0.00400  1.322E-02    0   0.8862   age070_m42            0.0000     1.3064E-05    33.0922   0.8308   105.6311
  6      0.1386     7.9849E-04    1.3219E-03    1.445000E+07  0.00400  7.883E-03    0   0.8571   age078_m42            0.0000     1.3023E-05    33.0945   1.1523   103.2106
  7      0.0000     0.0000E+00    0.0000E+00    2.512000E+07  0.00400  5.251E-03    0   0.8174   age090_m42            0.0000     1.3041E-05    33.1669   0.7085   105.9667
  8      0.0000     0.0000E+00    0.0000E+00    4.000000E+07  0.00400  3.649E-03    0   0.7851   age104_m42            0.0000     1.3018E-05    32.9695   0.4612   107.3143
  9      0.7428     1.0890E-02    1.6047E-02    5.500000E+07  0.00400  3.098E-03    0   0.7629   age110_m42            0.0000     1.3081E-05    32.5191   0.5680   108.4572
 10      0.0000     0.0000E+00    0.0000E+00    1.015200E+08  0.00400  2.228E-03    0   0.7207   age116_m42            0.0000     1.3212E-05    32.2328   0.5593   109.2418
 11      0.0000     0.0000E+00    0.0000E+00    2.861200E+08  0.00400  1.093E-03    0   0.6648   age125_m42            0.0000     1.3309E-05    32.2731  -0.0002   111.7723
 12      0.0000     0.0000E+00    0.0000E+00    5.088000E+08  0.00400  6.597E-04    0   0.6365   age130_m42            0.0000     1.3372E-05    32.0313  -0.0577   114.0733
 13      0.0000     0.0000E+00    0.0000E+00    1.434000E+09  0.00400  2.132E-04    0   0.5798   age139_m42            0.0000     1.3140E-05    32.4480  -1.0000   116.7155
 14      9.2163     7.1006E+00    7.3744E+00    4.250000E+09  0.00400  5.895E-05    0   0.5377   age158_m42            0.0000     1.3512E-05    39.7865  -1.0000   106.1923
 15     19.9758     2.5848E+01    2.6020E+01    7.500000E+09  0.00400  3.510E-05    0   0.5212   age171_m42            0.0000     1.4138E-05    44.4521  -1.0000   102.2410
 16     21.9978     4.9830E+01    4.8450E+01    1.300000E+10  0.00400  2.005E-05    0   0.5034   age193_m42            0.0000     1.4893E-05    48.6076  -1.0000    98.4535
 17      0.1438     4.2819E-01    4.1079E-01    1.800000E+10  0.00400  1.525E-05    0   0.4967   age213_m42            0.0000     1.4941E-05    49.2227  -1.0000    97.5218
 18      2.0726     7.6038E-03    1.4686E-02    1.000000E+06  0.00800  1.238E-02    0   1.0000   age020_m52            0.0000     1.2932E-05    33.2443   1.8412    98.8589
 19      0.0000     0.0000E+00    0.0000E+00    3.160000E+06  0.00800  3.074E-02    0   0.9966   age045_m52            0.0000     1.2941E-05    33.0777   1.7627    99.7180
 20      0.0000     0.0000E+00    0.0000E+00    5.010000E+06  0.00800  2.668E-02    0   0.9443   age055_m52            0.0000     1.2959E-05    32.8372   1.5196   101.7264
 21      0.0000     0.0000E+00    0.0000E+00    6.610000E+06  0.00800  2.136E-02    0   0.9177   age061_m52            0.0000     1.2876E-05    33.1852   0.3079   107.4739
 22      0.0741     2.7686E-04    4.7203E-04    1.000000E+07  0.00800  1.215E-02    0   0.8827   age070_m52            0.0000     1.3048E-05    33.4440   1.0341   104.8535
 23      0.0000     0.0000E+00    0.0000E+00    1.445000E+07  0.00800  8.717E-03    0   0.8552   age078_m52            0.0000     1.3017E-05    33.0952   1.1190   104.5995
 24      2.2675     1.8416E-02    2.9032E-02    2.512000E+07  0.00800  5.592E-03    0   0.8162   age090_m52            0.0000     1.3050E-05    33.1891   0.7727   107.1950
 25      0.0000     0.0000E+00    0.0000E+00    4.000000E+07  0.00800  3.896E-03    0   0.7841   age104_m52            0.0000     1.3033E-05    32.8522   0.6558   108.6870
 26      0.0073     1.5346E-04    2.1419E-04    1.015200E+08  0.00800  2.148E-03    0   0.7226   age116_m52            0.0000     1.3142E-05    32.3929   0.5560   109.3986
 27      0.0000     0.0000E+00    0.0000E+00    2.861200E+08  0.00800  9.925E-04    0   0.6683   age125_m52            0.0000     1.3462E-05    32.0172  -0.0008   115.1454
 28      2.8951     4.1863E-01    4.9629E-01    9.047900E+08  0.00800  3.141E-04    0   0.6138   age135_m52            0.0000     1.3312E-05    32.2145  -0.9182   123.2057
 29      1.5439     4.0792E-01    4.6115E-01    1.434000E+09  0.00800  1.719E-04    0   0.5853   age139_m52            0.0000     1.3457E-05    37.6728  -1.0000   113.0139
 30      6.8493     3.9518E+00    4.2743E+00    2.500000E+09  0.00800  7.872E-05    0   0.5600   age150_m52            0.0000     1.4264E-05    43.9418  -1.0000   105.6207
 31      5.7236     5.9952E+00    6.2831E+00    4.250000E+09  0.00800  4.336E-05    0   0.5426   age158_m52            0.0000     1.4324E-05    44.3550  -1.0000   104.3777
 32      0.1000     1.4383E-01    1.4776E-01    6.250000E+09  0.00800  3.159E-05    0   0.5319   age166_m52            0.0000     1.5397E-05    49.2768  -1.0000   100.2474
 33      1.3346     4.4538E+00    4.3640E+00    1.300000E+10  0.00800  1.361E-05    0   0.5073   age193_m52            0.0000     1.8386E-05    59.9474  -1.0000    88.4210
 34      0.0000     0.0000E+00    0.0000E+00    1.800000E+10  0.00800  9.886E-06    0   0.4990   age213_m52            0.0000     1.9551E-05    61.8631  -1.0000    85.1236
 35      0.7084     2.0838E-03    4.0248E-03    1.000000E+06  0.02000  1.544E-02    0   1.0000   age020_m62            0.0000     1.2970E-05    33.2597   1.8403    98.9981
 36      0.0000     0.0000E+00    0.0000E+00    3.160000E+06  0.02000  3.762E-02    0   0.9858   age045_m62            0.0000     1.2997E-05    33.1440   1.7791    99.8757
 37      0.0000     0.0000E+00    0.0000E+00    5.010000E+06  0.02000  3.296E-02    0   0.9342   age055_m62            0.0000     1.3047E-05    32.6293   1.3762   104.2867
 38      1.6275     6.4053E-03    1.0962E-02    8.710000E+06  0.02000  1.154E-02    0   0.8861   age067_m62            0.0000     1.3314E-05    36.4862   0.6467   103.7177
 39      0.0000     0.0000E+00    0.0000E+00    1.445000E+07  0.02000  7.663E-03    0   0.8472   age078_m62            0.0000     1.3031E-05    34.2214   0.7212   106.1748
 40      1.9681     1.9724E-02    3.0853E-02    2.512000E+07  0.02000  4.532E-03    0   0.8099   age090_m62            0.0000     1.3098E-05    34.2506   0.7244   105.4808
 41      0.2756     4.5803E-03    6.7190E-03    5.500000E+07  0.02000  2.733E-03    0   0.7595   age110_m62            0.0000     1.3134E-05    32.9133   0.6526   107.4943
 42      0.0000     0.0000E+00    0.0000E+00    1.609000E+08  0.02000  1.369E-03    0   0.6985   age120_m62            0.0000     1.3474E-05    32.1482   0.4220   111.9063
 43      0.0000     0.0000E+00    0.0000E+00    2.861200E+08  0.02000  9.013E-04    0   0.6714   age125_m62            0.0000     1.3685E-05    31.9485   0.1234   116.3509
 44      2.9455     2.6607E-01    3.3141E-01    5.088000E+08  0.02000  5.028E-04    0   0.6449   age130_m62            0.0000     1.3597E-05    32.0684  -0.3824   122.8884
 45      0.0000     0.0000E+00    0.0000E+00    9.047900E+08  0.02000  2.428E-04    0   0.6179   age135_m62            0.0000     1.3247E-05    32.3321  -1.0000   123.2927
 46      0.0000     0.0000E+00    0.0000E+00    1.434000E+09  0.02000  1.263E-04    0   0.5908   age139_m62            0.0000     1.3504E-05    36.0372  -1.0000   114.8124
 47      0.0391     2.9652E-02    3.2490E-02    2.500000E+09  0.02000  5.985E-05    0   0.5673   age150_m62            0.0000     1.4629E-05    44.2780  -1.0000   106.7241
 48      0.0000     0.0000E+00    0.0000E+00    4.250000E+09  0.02000  3.271E-05    0   0.5468   age158_m62            0.0000     1.6407E-05    51.4345  -1.0000    99.1348
 49      0.0000     0.0000E+00    0.0000E+00    1.000000E+10  0.02000  1.360E-05    0   0.5167   age181_m62            0.0000     1.9166E-05    58.7300  -1.0000    89.8911
 50      0.0000     0.0000E+00    0.0000E+00    1.800000E+10  0.02000  7.124E-06    0   0.5013   age213_m62            0.0000     2.1230E-05    62.4029  -1.0000    83.4193
 51     13.8831     2.4327E-02    4.6976E-02    1.000000E+06  0.05000  2.592E-02    0   0.9998   age020_m72            0.0000     1.3006E-05    33.2868   1.8426    98.7835
 52      0.0000     0.0000E+00    0.0000E+00    3.160000E+06  0.05000  4.845E-02    0   0.9577   age045_m72            0.0000     1.3006E-05    32.8898   1.6498   101.3522
 53      0.0000     0.0000E+00    0.0000E+00    5.010000E+06  0.05000  3.072E-02    0   0.9147   age055_m72            0.0000     1.3050E-05    33.6498   1.2610   103.3017
 54      0.0000     0.0000E+00    0.0000E+00    6.610000E+06  0.05000  1.455E-02    0   0.8877   age061_m72            0.0000     1.3490E-05    37.9640   0.7376   103.1216
 55      3.8305     1.9172E-02    3.1565E-02    1.000000E+07  0.05000  9.074E-03    0   0.8524   age070_m72            0.0000     1.3049E-05    34.0544   1.4347   103.0690
 56      0.0000     0.0000E+00    0.0000E+00    2.512000E+07  0.05000  4.250E-03    0   0.7902   age090_m72            0.0000     1.3100E-05    33.4197   1.1326   104.9136
 57      0.0000     0.0000E+00    0.0000E+00    4.000000E+07  0.05000  3.087E-03    0   0.7618   age104_m72            0.0000     1.3203E-05    33.4520   0.9158   106.2564
 58      0.0000     0.0000E+00    0.0000E+00    1.015200E+08  0.05000  1.700E-03    0   0.7096   age116_m72            0.0000     1.3454E-05    32.4407   0.6013   110.5406
 59      0.0000     0.0000E+00    0.0000E+00    2.861200E+08  0.05000  7.384E-04    0   0.6633   age125_m72            0.0000     1.3687E-05    31.9426  -0.0752   119.7272
 60      0.0414     4.9247E-03    6.0610E-03    5.088000E+08  0.05000  3.819E-04    0   0.6372   age130_m72            0.0000     1.3430E-05    32.3832  -0.6738   124.6088
 61      2.5832     7.0002E-01    8.2611E-01    9.047900E+08  0.05000  1.676E-04    0   0.6110   age135_m72            0.0000     1.3587E-05    34.8393  -1.0000   117.8412
 62      0.0000     0.0000E+00    0.0000E+00    1.434000E+09  0.05000  8.837E-05    0   0.5874   age139_m72            0.0000     1.4794E-05    44.3775  -1.0000   108.3524
 63      0.0000     0.0000E+00    0.0000E+00    2.500000E+09  0.05000  4.233E-05    0   0.5598   age150_m72            0.0000     1.6615E-05    51.3748  -1.0000   100.0446
 64      0.0000     0.0000E+00    0.0000E+00    6.250000E+09  0.05000  1.435E-05    0   0.5249   age166_m72            0.0000     1.9965E-05    60.6406  -1.0000    86.9649
 65      0.0000     0.0000E+00    0.0000E+00    1.300000E+10  0.05000  6.513E-06    0   0.5036   age193_m72            0.0000     2.2854E-05    65.0056  -1.0000    79.7362
 66      0.0269     2.7000E-01    2.5788E-01    1.800000E+10  0.05000  4.527E-06    0   0.4945   age213_m72            0.0000     2.4593E-05    67.0617  -1.0000    74.9014


## Synthesis Results - Average & Chains ##

# j      x_j: min, <> & last-chain-values for 1 ...  7 chains
  1      8.8898      6.7075      2.7225     10.3594      2.7138      6.4606      0.6386      1.0170      0.6682
  2      0.0000      1.0081      5.9197      0.2118      3.0307      2.5297      0.0000      0.0000      2.8353
  3      0.0000      1.0609      0.1739      0.6781      0.0000      1.7974      0.0000      1.2051      2.8369
  4      0.0000      1.0565      0.0836      0.0000      0.9199      1.7720      0.0000      0.6759      0.0000
  5      0.0000      1.5612      0.0000      1.6573      0.0000      3.0539      0.0000      0.0000      0.4021
  6      0.1386     11.3884      3.3235      5.0474      0.0000     10.0230     11.8130      3.8123      4.0058
  7      0.0000      1.3640      0.0000      2.0810      5.7841      1.1716      1.0258      0.0000      0.0000
  8      0.0000      1.4325      2.0707      4.5191      0.6118      2.4400      4.2434      0.9331      2.2922
  9      0.7428      1.1811      3.0670      0.0000      0.0000      2.0641      0.0000      0.7775      0.0000
 10      0.0000      1.2119      1.7054      0.4472      0.0000      0.9878      1.4666      1.9165      2.4208
 11      0.0000      1.1751      2.6406      3.1529      0.7128      0.1256      2.0682      0.1822      0.0000
 12      0.0000      1.1332      1.9623      0.0000      9.9974      0.0000      3.2223      2.3864      0.0000
 13      0.0000      1.1603      0.9217      2.8641      6.5333      4.9858      1.0254      0.0000      3.1325
 14      9.2163      3.8657      3.3542      4.5455      2.3599      1.3177      3.5258      3.1111      6.8303
 15     19.9758     12.0874      5.7829      2.4335     10.1121     10.4555      4.3622      0.6256      9.3960
 16     21.9978     10.4692      4.3127      7.2173      4.5880     13.5312      7.4124      5.2616      1.9735
 17      0.1438      4.0274      4.9813      2.8183      3.9263      3.5835      0.7174      2.9987      5.9405
 18      2.0726      1.8781      3.1890      0.0000      0.0000      0.0000      0.5480      2.7771      1.4679
 19      0.0000      1.1715      0.1800      0.0622      3.2474      1.9675      0.0000      0.0000      1.2811
 20      0.0000      5.7088      3.5469      1.7948      4.3519      0.4065      0.0000      7.2054      7.7224
 21      0.0000      1.7983      2.5094      4.5761      3.3365      0.0000      2.3301      1.2891      8.2081
 22      0.0741      1.3346      2.3409      1.1649      0.0000      2.2590      0.1753      0.3818      0.0000
 23      0.0000      1.2375      0.0000      3.8687      3.4651      2.4703      0.0000      3.4890      0.6746
 24      2.2675      1.2658      2.6073      1.0245      2.4654      3.4570      0.0000      1.6883      0.0000
 25      0.0000      1.2749      2.5014      0.0000      0.0000      3.9514      0.0000      6.5689      3.6883
 26      0.0073      1.0553      1.2496      0.0000      1.8529      0.0000      0.0000      0.0000      0.0000
 27      0.0000      1.4129      2.9015      4.0044      0.0000      0.0178      1.8966      2.8806      0.5227
 28      2.8951      1.0034      2.2788      3.1426      0.6028      0.5045      1.0875      0.0000      0.0000
 29      1.5439      0.8867      2.9260      0.0000      1.9358      1.8513      0.7003      0.0000      0.6241
 30      6.8493      1.4265      3.1335      1.8680      5.2607      1.9712      1.4070      0.3449      2.2686
 31      5.7236      1.3101      0.9989      1.1193      0.9785      0.4647      3.3676      0.6462      2.7702
 32      0.1000      1.0971      4.5873      1.3205      2.0082      0.7638      0.0000      3.0524      1.4397
 33      1.3346      1.5578      1.5877      3.4363      4.2404      3.2773      0.4852      0.0000      2.2411
 34      0.0000      0.8006      4.7644      0.0000      0.6431      0.0000      0.0000      1.1539      0.0000
 35      0.7084      1.6602      3.8569      0.0999      4.0874      0.0000      0.0000      0.0000      1.2748
 36      0.0000      1.1295      0.0079      0.0000      1.0358      0.7900      3.9079      2.3607      0.2632
 37      0.0000      1.0534      0.0000      0.0000      2.3641      0.5582      0.0000      3.9992      2.0532
 38      1.6275      1.0121      3.8259      6.5618      1.3450      0.6646      0.7975      2.6341      0.2303
 39      0.0000      1.4473      0.0928      2.6228      2.5460      0.0000      2.1730      3.0447      0.5114
 40      1.9681      1.2833      0.9301      1.3816      0.0000      0.4553      9.7786      0.0000      0.2391
 41      0.2756      1.4660      1.9887      2.9417      1.2609      0.9182      0.9735      0.7559      1.2529
 42      0.0000      1.7774      0.0000      3.1707      0.0000      2.2174      0.9546     12.8999      5.5150
 43      0.0000      0.7906      0.0000      0.0000      0.2452      2.0383      0.0000      2.6783      0.8885
 44      2.9455      1.6106      3.0271      1.5149      2.8175      2.1692      2.1051      0.5369      5.8685
 45      0.0000      1.6348      3.5662      3.9336      4.0865      0.7078      5.3328      4.0004      0.0000
 46      0.0000      1.4693      0.0000      0.9254      1.8063      2.1024      4.9634      1.9513      4.5757
 47      0.0391      1.4400      2.2982      3.1554      0.7663      1.5396      3.7987      5.0122      4.1606
 48      0.0000      1.0412      0.0000      0.8095      0.4176      0.0000      1.2098      1.6781      3.3941
 49      0.0000      1.0944      0.0000      0.3659      0.0000      4.7473      0.3508      0.5443      0.0000
 50      0.0000      1.0322      0.0000      1.3165      3.5774      1.4048      1.8670      4.1539      2.5085
 51     13.8831      1.4963      2.1860      0.0000      0.4904      0.9995      0.9149      1.0294      2.9766
 52      0.0000      0.9907      0.0000      0.0000      0.0000      1.7281      1.9055      1.5590      0.4942
 53      0.0000      1.7114      0.0000      2.2500      0.0000      1.1143      0.0000      2.8297      0.9598
 54      0.0000      1.2816      0.9059      0.0000      3.1374      0.5945      3.3268      0.0000      1.0945
 55      3.8305      0.8651      2.3481      0.2154      0.0000      0.0000      5.1582      0.4010      1.4650
 56      0.0000      1.0476      0.0000      0.0000      0.0000      2.1694      4.2619      0.0000      1.4179
 57      0.0000      1.3654      0.0000      0.0396      0.0000      1.1216      5.6852      2.5326      0.0000
 58      0.0000      1.2223      0.0000      1.2425      0.0000      1.5145      0.0000      0.0000      0.8492
 59      0.0000      1.3700      0.0000      3.3758      2.4249      1.8246      1.5469      3.9702      4.2378
 60      0.0414      1.2596      3.9237      2.7463      3.9392      1.0355      2.0359      1.8344      0.9965
 61      2.5832      1.2750      6.1793      5.2121      0.8722      0.4031      5.2542      2.0284      0.0000
 62      0.0000      1.4428      0.0000      0.0000      0.6565      0.0000      0.0000      1.9881      0.3399
 63      0.0000      0.9129      0.0000      0.6358      0.0000      0.7701      1.1119      3.1734      1.0261
 64      0.0000      1.4404      3.0771      3.5029      0.3001      1.5900      1.9708      1.0632      3.8188
 65      0.0000      1.3490      0.5203      2.7632      0.1223      1.0642      1.6478      1.4747      0.0000
 66      0.0269      0.9967      1.9986      3.1210      2.9198      0.4918      2.1434      1.2891      0.2370

# j      m_j: min, <> & last-chain-values for 1 ...  7 chains
  1  7.1283E-02  5.0024E-02  1.9718E-02  6.5814E-02  1.8066E-02  4.4507E-02  5.2535E-03  7.8926E-03  5.4946E-03
  2  0.0000E+00  2.0524E-03  1.1704E-02  3.6728E-04  5.5079E-03  4.7576E-03  0.0000E+00  0.0000E+00  6.3650E-03
  3  0.0000E+00  3.2346E-03  5.1502E-04  1.7612E-03  0.0000E+00  5.0621E-03  0.0000E+00  3.8233E-03  9.5373E-03
  4  0.0000E+00  3.0334E-03  2.3318E-04  0.0000E+00  2.3577E-03  4.6998E-03  0.0000E+00  2.0194E-03  0.0000E+00
  5  0.0000E+00  8.5386E-03  0.0000E+00  7.7214E-03  0.0000E+00  1.5429E-02  0.0000E+00  0.0000E+00  2.4251E-03
  6  1.3219E-03  1.0103E-01  2.8631E-02  3.8142E-02  0.0000E+00  8.2132E-02  1.1559E-01  3.5192E-02  3.9183E-02
  7  0.0000E+00  1.7323E-02  0.0000E+00  2.2515E-02  6.5574E-02  1.3745E-02  1.4370E-02  0.0000E+00  0.0000E+00
  8  0.0000E+00  2.5147E-02  3.5299E-02  6.7578E-02  9.5864E-03  3.9566E-02  8.2163E-02  1.7044E-02  4.4368E-02
  9  1.6047E-02  2.3730E-02  5.9843E-02  0.0000E+00  0.0000E+00  3.8308E-02  0.0000E+00  1.6255E-02  0.0000E+00
 10  0.0000E+00  3.1985E-02  4.3710E-02  1.0054E-02  0.0000E+00  2.4082E-02  4.2692E-02  5.2634E-02  7.0446E-02
 11  0.0000E+00  5.8313E-02  1.2726E-01  1.3328E-01  3.1576E-02  5.7587E-03  1.1321E-01  9.4088E-03  0.0000E+00
 12  0.0000E+00  8.9207E-02  1.5001E-01  0.0000E+00  7.0249E-01  0.0000E+00  2.7979E-01  1.9549E-01  0.0000E+00
 13  0.0000E+00  2.5745E-01  1.9860E-01  5.4136E-01  1.2940E+00  1.0219E+00  2.5096E-01  0.0000E+00  7.6638E-01
 14  7.3744E+00  2.8769E+00  2.4241E+00  2.8816E+00  1.5677E+00  9.0585E-01  2.8942E+00  2.4093E+00  5.6048E+00
 15  2.6020E+01  1.4644E+01  6.8038E+00  2.5115E+00  1.0936E+01  1.1701E+01  5.8293E+00  7.8867E-01  1.2552E+01
 16  4.8450E+01  2.1446E+01  8.5793E+00  1.2594E+01  8.3894E+00  2.5604E+01  1.6748E+01  1.1216E+01  4.4577E+00
 17  4.1079E-01  1.0702E+01  1.2855E+01  6.3798E+00  9.3136E+00  8.7964E+00  2.1028E+00  8.2925E+00  1.7407E+01
 18  1.4686E-02  1.2378E-02  2.0410E-02  0.0000E+00  0.0000E+00  0.0000E+00  3.9838E-03  1.9045E-02  1.0667E-02
 19  0.0000E+00  3.0988E-03  4.6236E-04  1.4021E-04  7.6676E-03  4.8073E-03  0.0000E+00  0.0000E+00  3.7365E-03
 20  0.0000E+00  1.6486E-02  9.9467E-03  4.4151E-03  1.1218E-02  1.0843E-03  0.0000E+00  2.1652E-02  2.4589E-02
 21  0.0000E+00  6.3035E-03  8.5422E-03  1.3664E-02  1.0440E-02  0.0000E+00  9.0091E-03  4.7022E-03  3.1725E-02
 22  4.7203E-04  7.9109E-03  1.3475E-02  5.8821E-03  0.0000E+00  1.2369E-02  1.1462E-03  2.3547E-03  0.0000E+00
 23  0.0000E+00  9.9056E-03  0.0000E+00  2.6379E-02  2.4758E-02  1.8265E-02  0.0000E+00  2.9062E-02  5.9537E-03
 24  2.9032E-02  1.5074E-02  3.0153E-02  1.0393E-02  2.6207E-02  3.8028E-02  0.0000E+00  2.0921E-02  0.0000E+00
 25  0.0000E+00  2.0934E-02  3.9888E-02  0.0000E+00  0.0000E+00  5.9934E-02  0.0000E+00  1.1224E-01  6.6780E-02
 26  2.1419E-04  2.8965E-02  3.3306E-02  0.0000E+00  4.5396E-02  0.0000E+00  0.0000E+00  0.0000E+00  0.0000E+00
 27  0.0000E+00  7.7624E-02  1.5480E-01  1.8741E-01  0.0000E+00  9.0387E-04  1.1493E-01  1.6468E-01  3.1663E-02
 28  4.9629E-01  1.5998E-01  3.5284E-01  4.2682E-01  8.5792E-02  7.4295E-02  1.9125E-01  0.0000E+00  0.0000E+00
 29  4.6115E-01  2.4633E-01  7.8938E-01  0.0000E+00  4.8004E-01  4.7507E-01  2.1458E-01  0.0000E+00  1.9117E-01
 30  4.2743E+00  8.2797E-01  1.7662E+00  9.2357E-01  2.7255E+00  1.0569E+00  9.0074E-01  2.0830E-01  1.4519E+00
 31  6.2831E+00  1.3376E+00  9.9039E-01  9.7350E-01  8.9179E-01  4.3829E-01  3.7925E+00  6.8655E-01  3.1187E+00
 32  1.4776E-01  1.5072E+00  6.1199E+00  1.5453E+00  2.4626E+00  9.6927E-01  0.0000E+00  4.3636E+00  2.1808E+00
 33  4.3640E+00  4.7376E+00  4.6890E+00  8.9021E+00  1.1511E+01  9.2067E+00  1.6275E+00  0.0000E+00  7.5152E+00
 34  0.0000E+00  3.2972E+00  1.9055E+01  0.0000E+00  2.3640E+00  0.0000E+00  0.0000E+00  4.9452E+00  0.0000E+00
 35  4.0248E-03  8.7732E-03  1.9792E-02  4.4969E-04  1.9280E-02  0.0000E+00  0.0000E+00  0.0000E+00  7.4278E-03
 36  0.0000E+00  2.4150E-03  1.6450E-05  0.0000E+00  1.9768E-03  1.5602E-03  9.2156E-03  5.2522E-03  6.2051E-04
 37  0.0000E+00  2.4359E-03  0.0000E+00  0.0000E+00  4.8800E-03  1.1923E-03  0.0000E+00  9.6237E-03  5.2354E-03
 38  1.0962E-02  6.3407E-03  2.3277E-02  3.5019E-02  7.5215E-03  3.8459E-03  5.5110E-03  1.7173E-02  1.5909E-03
 39  0.0000E+00  1.3055E-02  8.1250E-04  2.0154E-02  2.0500E-02  0.0000E+00  2.1620E-02  2.8579E-02  5.0862E-03
 40  3.0853E-02  1.8712E-02  1.3170E-02  1.7160E-02  0.0000E+00  6.1326E-03  1.5726E-01  0.0000E+00  3.8448E-03
 41  6.7190E-03  3.3239E-02  4.3790E-02  5.6819E-02  2.5519E-02  1.9230E-02  2.4347E-02  1.7834E-02  3.1324E-02
 42  0.0000E+00  7.3993E-02  0.0000E+00  1.1244E-01  0.0000E+00  8.5268E-02  4.3834E-02  5.5882E-01  2.5315E-01
 43  0.0000E+00  4.8054E-02  0.0000E+00  0.0000E+00  1.3301E-02  1.1443E-01  0.0000E+00  1.6939E-01  5.9542E-02
 44  3.3141E-01  1.6855E-01  3.0763E-01  1.3505E-01  2.6319E-01  2.0969E-01  2.4299E-01  5.8467E-02  6.7716E-01
 45  0.0000E+00  3.3944E-01  7.1908E-01  6.9576E-01  7.5740E-01  1.3575E-01  1.2213E+00  8.6435E-01  0.0000E+00
 46  0.0000E+00  5.6076E-01  0.0000E+00  3.0088E-01  6.1537E-01  7.4118E-01  2.0894E+00  7.7497E-01  1.9256E+00
 47  3.2490E-02  1.1137E+00  1.7260E+00  2.0787E+00  5.2899E-01  1.0999E+00  3.2404E+00  4.0336E+00  3.5479E+00
 48  0.0000E+00  1.4202E+00  0.0000E+00  9.4049E-01  5.0840E-01  0.0000E+00  1.8201E+00  2.3817E+00  5.1043E+00
 49  0.0000E+00  3.3925E+00  0.0000E+00  9.6614E-01  0.0000E+00  1.3593E+01  1.1994E+00  1.7557E+00  0.0000E+00
 50  0.0000E+00  5.9260E+00  0.0000E+00  6.4384E+00  1.8334E+01  7.4501E+00  1.1823E+01  2.4817E+01  1.5880E+01
 51  4.6976E-02  4.7089E-03  6.6809E-03  0.0000E+00  1.3777E-03  2.9056E-03  3.1758E-03  3.3711E-03  1.0329E-02
 52  0.0000E+00  1.5978E-03  0.0000E+00  0.0000E+00  0.0000E+00  2.5745E-03  3.3896E-03  2.6164E-03  8.7880E-04
 53  0.0000E+00  4.1575E-03  0.0000E+00  4.6563E-03  0.0000E+00  2.5007E-03  0.0000E+00  7.1535E-03  2.5710E-03
 54  0.0000E+00  6.3798E-03  4.3789E-03  0.0000E+00  1.3941E-02  2.7337E-03  1.8266E-02  0.0000E+00  6.0076E-03
 55  3.1565E-02  6.6304E-03  1.7477E-02  1.4064E-03  0.0000E+00  0.0000E+00  4.3607E-02  3.1983E-03  1.2381E-02
 56  0.0000E+00  1.5892E-02  0.0000E+00  0.0000E+00  0.0000E+00  3.0399E-02  7.1313E-02  0.0000E+00  2.3717E-02
 57  0.0000E+00  2.7491E-02  0.0000E+00  6.7983E-04  0.0000E+00  2.0860E-02  1.2626E-01  5.3064E-02  0.0000E+00
 58  0.0000E+00  4.1626E-02  0.0000E+00  3.6046E-02  0.0000E+00  4.7643E-02  0.0000E+00  0.0000E+00  3.1890E-02
 59  0.0000E+00  1.0041E-01  0.0000E+00  2.1076E-01  1.5864E-01  1.2353E-01  1.2505E-01  3.0279E-01  3.4247E-01
 60  6.0610E-03  1.7148E-01  5.1871E-01  3.1847E-01  4.7867E-01  1.3021E-01  3.0569E-01  2.5986E-01  1.4958E-01
 61  8.2611E-01  3.7924E-01  1.7849E+00  1.3206E+00  2.3157E-01  1.1077E-01  1.7238E+00  6.2784E-01  0.0000E+00
 62  0.0000E+00  7.8245E-01  0.0000E+00  0.0000E+00  3.1780E-01  0.0000E+00  0.0000E+00  1.1220E+00  2.0325E-01
 63  0.0000E+00  9.8498E-01  0.0000E+00  5.8439E-01  0.0000E+00  7.6759E-01  1.3233E+00  3.5631E+00  1.2208E+00
 64  0.0000E+00  4.2988E+00  8.9180E+00  8.9055E+00  7.9938E-01  4.3834E+00  6.4874E+00  3.3017E+00  1.2567E+01
 65  0.0000E+00  8.5104E+00  3.1874E+00  1.4850E+01  6.8848E-01  6.2015E+00  1.1466E+01  9.6813E+00  0.0000E+00
 66  2.5788E-01  8.8825E+00  1.7298E+01  2.3695E+01  2.3228E+01  4.0487E+00  2.1070E+01  1.1955E+01  2.3286E+00

# AV, chi2 & Mass for <> & i_chain = 1 ...  7 solutions
AV      -1.0000     -0.9762     -1.0000     -1.0000     -1.0000     -1.0000     -0.9788     -0.9105     -1.0000
chi2 1.2770E-05  1.3873E-05  1.3247E-05  1.3656E-05  1.3410E-05  1.3484E-05  1.3646E-05  1.3569E-05  1.3572E-05
Mass 1.8863E-14  2.0940E-14  2.0885E-14  2.3809E-14  2.2721E-14  2.1956E-14  1.8919E-14  2.1979E-14  1.8394E-14
-153.50                                  [v0_min (km/s) before EX0s...]
   0.50                                  [vd_min (km/s) before EX0s...]


## Synthetic spectrum (Best Model) ##l_obs f_obs f_syn wei
 3478    [Nl_obs]
 3741.00   -0.97658   0.91346    0.000
 3742.00   -0.81650   0.87756    0.000
 3743.00    1.22780   0.84220    0.000
 3744.00    1.53943   0.80647    0.000
 3745.00    0.84154   0.78068   -1.000
 3746.00    0.75599   0.71827   -1.000
 3747.00    0.98139   0.64423   -1.000
 3748.00    0.01861   0.64435   -1.000
 3749.00   -1.46664   0.73214    0.000
 3750.00   -0.97728   0.83011    0.000
 3751.00    0.25756   0.89421   -1.000
 3752.00    1.49125   0.95016   -1.000
 3753.00    2.72457   0.99773   -1.000
 3754.00    1.16930   0.99879   -1.000
 3755.00   -1.13324   0.93185    0.000
 3756.00   -2.31841   0.85690    0.000
 3757.00   -3.25834   0.84837    0.000
 3758.00   -3.06907   0.88545    0.000
 3759.00   -2.68267   0.92414    0.000
 3760.00   -2.73836   0.94499    0.000
 3761.00   -2.85278   0.93814    0.000
 3762.00   -2.21646   0.93370    0.000
 3763.00   -1.50960   0.94273    0.000
 3764.00   -0.39414   0.91229    0.000
 3765.00    0.74488   0.85904    0.021
 3766.00    1.32548   0.84089    0.021
 3767.00    1.87313   0.81783    0.021
 3768.00    0.03132   0.76335    0.022
 3769.00   -1.70776   0.75864    0.000
 3770.00   -0.95169   0.83335    0.000
 3771.00   -0.20664   0.90346    0.000
 3772.00    0.39409   0.93135    0.021
 3773.00    0.88951   0.94323    0.021
 3774.00    0.46038   0.96908    0.021
 3775.00    0.10586   0.99743    0.020
 3776.00    0.23512   1.01488    0.020
 3777.00    0.39273   1.03967    0.020
 3778.00    0.69378   1.07226    0.021
 3779.00    0.97372   1.08436    0.021
 3780.00    1.16724   1.07835    0.021
 3781.00    1.00500   1.08212    0.021
 3782.00   -0.36385   1.09288    0.000
 3783.00   -0.91478   1.06667    0.000
 3784.00    0.87363   1.00236    0.021
 3785.00    1.91861   0.96270    0.022
 3786.00    1.14721   0.95250    0.021
 3787.00    0.70511   0.94139    0.021
 3788.00    0.95709   0.93361    0.022
 3789.00    1.00480   0.94369    0.022
 3790.00    0.67835   0.94309    0.021
 3791.00    0.20047   0.90694    0.020
 3792.00   -0.51979   0.85382    0.000
 3793.00   -0.81391   0.81023    0.000
 3794.00   -0.50944   0.76383    0.000
 3795.00   -0.29674   0.69061    0.000
 3796.00   -0.19749   0.64135    0.000
 3797.00    0.04473   0.68165    0.020
 3798.00    0.44270   0.78523    0.020
 3799.00    0.23062   0.87615    0.020
 3800.00   -0.56771   0.93567    0.000
 3801.00   -1.22639   0.99020    0.000
 3802.00   -1.76673   1.02249    0.000
 3803.00   -1.29853   1.01818    0.000
 3804.00   -0.07774   0.98994    0.000
 3805.00   -0.36268   0.97189    0.000
 3806.00   -1.63470   0.99944    0.000
 3807.00   -2.00026   1.04790    0.000
 3808.00   -1.84567   1.07489    0.000
 3809.00   -1.28418   1.07285    0.000
 3810.00   -0.51933   1.03973    0.000
 3811.00    0.33026   0.98489    0.020
 3812.00    1.21649   0.94481    0.021
 3813.00    1.08796   0.92253    0.020
 3814.00    0.58308   0.92635    0.020
 3815.00    0.64082   0.96760    0.019
 3816.00    0.87541   0.98233    0.019
 3817.00    0.64662   0.91944    0.019
 3818.00    0.29626   0.84821    0.020
 3819.00    0.33929   0.86253    0.019
 3820.00    0.46660   0.93198    0.019
 3821.00    0.25411   0.95523    0.019
 3822.00   -0.01605   0.90298    0.000
 3823.00    0.18285   0.85001    0.018
 3824.00    0.44193   0.83617    0.019
 3825.00    0.85806   0.83811    0.019
 3826.00    1.28829   0.83005    0.018
 3827.00    0.36226   0.82334    0.019
 3828.00   -0.63667   0.82443    0.000
 3829.00   -0.82203   0.79298    0.000
 3830.00   -0.98658   0.72136    0.000
 3831.00   -0.77050   0.65596    0.000
 3832.00   -0.55746   0.61026    0.000
 3833.00   -0.41165   0.58983    0.000
 3834.00   -0.23714   0.61992    0.000
 3835.00    0.29430   0.66231    0.019
 3836.00    0.86129   0.68564    0.020
 3837.00    1.72880   0.71756    0.021
 3838.00    2.29543   0.75850    0.021
 3839.00    0.96919   0.80945    0.020
 3840.00   -0.08033   0.88086    0.000
 3841.00    0.23547   0.93673    0.020
 3842.00    0.49786   0.96386    0.020
 3843.00    0.54643   0.97047    0.020
 3844.00    0.61376   0.97452    0.019
 3845.00    0.74343   0.99892    0.020
 3846.00    0.75592   1.01048    0.020
 3847.00    0.43933   0.98285    0.000
 3848.00   -0.14168   0.95554    0.000
 3849.00   -1.35778   0.97788    0.000
 3850.00   -1.76304   1.01557    0.000
 3851.00   -0.48666   1.02020    0.000
 3852.00    0.45933   1.00476    0.000
 3853.00    0.80938   0.97764    0.000
 3854.00    0.78509   0.95244    0.000
 3855.00    0.17044   0.95365    0.000
 3856.00   -0.13898   0.93979    0.000
 3857.00   -0.02584   0.89483    0.000
 3858.00    0.40981   0.88484    0.000
 3859.00    1.23843   0.93694    0.000
 3860.00    1.81050   1.00014    0.000
 3861.00    2.10700   1.02864    0.000
 3862.00    2.09946   1.02143    0.000
 3863.00    1.80382   1.00089    0.000
 3864.00    1.41964   0.99302    0.000
 3865.00    0.96149   0.99578    0.000
 3866.00    0.49064   1.00055    0.000
 3867.00    0.01047   1.00207    0.000
 3868.00   -0.11984   0.97886    0.000
 3869.00   -0.02416   0.93178    0.000
 3870.00   -0.04398   0.88470    0.000
 3871.00   -0.12908   0.88970    0.000
 3872.00   -0.23093   0.94425    0.000
 3873.00   -0.34103   0.98708    0.000
 3874.00   -0.38598   0.98162    0.000
 3875.00   -0.40324   0.93015    0.000
 3876.00   -0.39651   0.87553    0.000
 3877.00   -0.38105   0.88522    0.000
 3878.00   -0.11809   0.92644    0.000
 3879.00    0.22118   0.91455    0.000
 3880.00    0.54056   0.87620    0.000
 3881.00    0.85484   0.87304    0.018
 3882.00    1.44472   0.88151    0.018
 3883.00    2.09221   0.82925    0.018
 3884.00    1.26175   0.74238    0.018
 3885.00    0.18758   0.68501    0.018
 3886.00    1.57557   0.63716    0.018
 3887.00    3.26848   0.61105    0.019
 3888.00    2.45529   0.66874    0.018
 3889.00    1.42763   0.77156    0.018
 3890.00    1.31125   0.84872    0.018
 3891.00    1.24028   0.88251    0.018
 3892.00    1.01407   0.88901    0.018
 3893.00    0.79237   0.88753    0.017
 3894.00    1.02679   0.91243    0.017
 3895.00    1.23505   0.94972    0.017
 3896.00    0.90790   0.94880    0.017
 3897.00    0.59257   0.93113    0.017
 3898.00    0.41698   0.94095    0.016
 3899.00    0.28140   0.97572    0.016
 3900.00    0.47172   0.98288    0.016
 3901.00    0.56352   0.96765    0.015
 3902.00    0.05347   0.96581    0.015
 3903.00   -0.29754   0.94198    0.000
 3904.00    0.11675   0.92344    0.014
 3905.00    0.49169   0.96064    0.013
 3906.00    0.71251   1.01523    0.013
 3907.00    0.75726   1.04207    0.013
 3908.00    0.22815   1.04596    0.014
 3909.00   -0.10081   1.05458    0.000
 3910.00    0.12217   1.06368    0.014
 3911.00    0.30705   1.04594    0.015
 3912.00    0.40199   1.02876    0.015
 3913.00    0.23904   1.02838    0.015
 3914.00   -0.45022   1.01815    0.000
 3915.00   -0.67925   1.00696    0.000
 3916.00   -0.09085   0.99335    0.000
 3917.00    0.32669   0.96587    0.016
 3918.00    0.47871   0.93508    0.016
 3919.00    0.49678   0.92144    0.016
 3920.00    0.33206   0.93044    0.016
 3921.00    0.11303   0.94336    0.016
 3922.00   -0.17122   0.95189    0.000
 3923.00   -0.15561   0.93787    0.000
 3924.00    0.17757   0.90240    0.016
 3925.00    0.16130   0.85962    0.016
 3926.00   -0.18143   0.80941    0.000
 3927.00   -0.48436   0.76036    0.000
 3928.00   -0.75453   0.70951    0.000
 3929.00   -0.47173   0.64982    0.000
 3930.00    0.21193   0.58743    0.016
 3931.00    0.72213   0.53579    0.016
 3932.00    1.12194   0.52529    0.016
 3933.00    0.94991   0.56944    0.016
 3934.00    0.45965   0.64421    0.016
 3935.00    0.73065   0.71905    0.016
 3936.00    1.37016   0.78294    0.016
 3937.00    1.49916   0.84146    0.016
 3938.00    1.41473   0.88422    0.016
 3939.00    1.30136   0.89723    0.016
 3940.00    1.17763   0.89969    0.015
 3941.00    1.30373   0.89002    0.015
 3942.00    1.50535   0.87997    0.016
 3943.00    1.63383   0.91804    0.016
 3944.00    1.74394   0.97610    0.016
 3945.00    2.07060   0.98392    0.016
 3946.00    2.44143   0.95999    0.016
 3947.00    2.23660   0.96417    0.016
 3948.00    1.93959   0.99698    0.016
 3949.00    1.75371   1.01069    0.016
 3950.00    1.58109   0.98460    0.016
 3951.00    1.28012   0.97725    0.016
 3952.00    0.96871   1.00917    0.016
 3953.00    0.46122   1.00978    0.016
 3954.00   -0.05527   0.96623    0.000
 3955.00    0.38395   0.94423    0.016
 3956.00    0.81552   0.96183    0.016
 3957.00    0.21126   0.97587    0.016
 3958.00   -0.34867   0.93791    0.000
 3959.00   -0.06885   0.85299    0.000
 3960.00    0.18723   0.79053    0.000
 3961.00    0.17581   0.77019    0.000
 3962.00    0.21471   0.74039    0.000
 3963.00    0.64904   0.68092    0.000
 3964.00    1.03174   0.59862    0.000
 3965.00    1.10803   0.50588    0.000
 3966.00    1.15396   0.42611    0.000
 3967.00    1.05733   0.38878    0.000
 3968.00    0.96643   0.41314    0.000
 3969.00    0.89752   0.49408    0.000
 3970.00    0.88658   0.59179    0.000
 3971.00    1.06099   0.67202    0.000
 3972.00    0.99380   0.74304    0.000
 3973.00    0.27226   0.81052    0.000
 3974.00   -0.12383   0.85593    0.000
 3975.00    0.23576   0.89088    0.000
 3976.00    0.62504   0.93400    0.000
 3977.00    1.07399   0.97738    0.000
 3978.00    1.31035   1.00432    0.000
 3979.00    1.17483   1.00163    0.000
 3980.00    1.10808   0.98000    0.000
 3981.00    1.14659   0.97883    0.016
 3982.00    1.23441   1.00343    0.015
 3983.00    1.38852   1.02499    0.015
 3984.00    1.48217   1.02856    0.015
 3985.00    1.50419   1.03428    0.015
 3986.00    1.37519   1.05850    0.015
 3987.00    1.08849   1.05911    0.015
 3988.00    0.78520   1.04709    0.015
 3989.00    0.46664   1.06149    0.015
 3990.00    0.26267   1.08630    0.014
 3991.00    0.15174   1.09536    0.014
 3992.00    0.42623   1.07635    0.014
 3993.00    0.97609   1.05441    0.014
 3994.00    1.24109   1.03644    0.014
 3995.00    1.32747   1.01522    0.015
 3996.00    1.13415   1.01472    0.015
 3997.00    0.78755   1.05554    0.015
 3998.00    0.56635   1.09242    0.015
 3999.00    0.40487   1.09688    0.015
 4000.00    0.68094   1.10397    0.015
 4001.00    1.13685   1.11170    0.015
 4002.00    1.08374   1.06961    0.015
 4003.00    0.85185   1.00005    0.015
 4004.00    0.56046   0.98619    0.015
 4005.00    0.25144   1.03395    0.015
 4006.00    0.52766   1.07170    0.015
 4007.00    0.94763   1.07827    0.015
 4008.00    1.35420   1.08181    0.015
 4009.00    1.75810   1.09247    0.015
 4010.00    1.53066   1.09179    0.015
 4011.00    1.20512   1.09006    0.015
 4012.00    1.67122   1.09304    0.015
 4013.00    2.22835   1.10415    0.015
 4014.00    1.89119   1.10796    0.015
 4015.00    1.48488   1.08920    0.015
 4016.00    0.78121   1.08772    0.015
 4017.00    0.06502   1.11266    0.015
 4018.00    0.18131   1.11807    0.015
 4019.00    0.30064   1.10197    0.015
 4020.00    0.21969   1.09127    0.015
 4021.00    0.16712   1.07889    0.015
 4022.00    0.61472   1.04393    0.015
 4023.00    1.02272   1.02139    0.014
 4024.00    1.00455   1.04226    0.014
 4025.00    0.95399   1.08480    0.014
 4026.00    0.65742   1.11487    0.014
 4027.00    0.42720   1.10209    0.014
 4028.00    0.57963   1.04429    0.014
 4029.00    0.74557   0.99925    0.014
 4030.00    0.97347   0.99338    0.014
 4031.00    1.12673   0.99773    0.014
 4032.00    1.00000   1.01251    0.014
 4033.00    0.90508   1.04348    0.014
 4034.00    0.90991   1.09157    0.014
 4035.00    0.95887   1.13869    0.014
 4036.00    1.12528   1.15608    0.014
 4037.00    1.20182   1.14192    0.014
 4038.00    1.07315   1.10864    0.013
 4039.00    0.97448   1.09221    0.013
 4040.00    0.93508   1.10781    0.014
 4041.00    0.99365   1.09908    0.014
 4042.00    1.22099   1.02875    0.014
 4043.00    1.52182   0.94246    0.014
 4044.00    1.93351   0.93411    0.014
 4045.00    2.01289   1.01743    0.014
 4046.00    1.65178   1.08558    0.014
 4047.00    1.48758   1.10263    0.014
 4048.00    1.55328   1.11477    0.014
 4049.00    1.50081   1.11976    0.014
 4050.00    1.32670   1.10228    0.014
 4051.00    1.22705   1.07911    0.014
 4052.00    1.19503   1.05896    0.014
 4053.00    0.85053   1.05058    0.014
 4054.00    0.25594   1.05344    0.014
 4055.00    0.02519   1.03927    0.014
 4056.00    0.05065   1.02663    0.014
 4057.00    0.41892   1.05107    0.014
 4058.00    0.99894   1.08919    0.014
 4059.00    1.33437   1.09578    0.014
 4060.00    1.53782   1.04329    0.015
 4061.00    1.57239   0.96689    0.014
 4062.00    1.52780   0.95665    0.014
 4063.00    1.36778   1.01339    0.014
 4064.00    1.16112   1.03662    0.014
 4065.00    0.97962   1.02619    0.014
 4066.00    0.80680   1.04472    0.014
 4067.00    1.14062   1.08032    0.014
 4068.00    1.62155   1.06669    0.014
 4069.00    1.48845   1.00594    0.014
 4070.00    1.20785   0.98835    0.014
 4071.00    1.51550   1.03863    0.014
 4072.00    1.93712   1.07139    0.014
 4073.00    1.16981   1.04234    0.014
 4074.00    0.22335   0.98179    0.014
 4075.00    0.71628   0.93235    0.014
 4076.00    1.36842   0.93836    0.014
 4077.00    1.10668   0.99195    0.013
 4078.00    0.77802   1.05103    0.013
 4079.00    0.71828   1.08743    0.013
 4080.00    0.66884   1.08234    0.013
 4081.00    0.88042   1.04892    0.013
 4082.00    1.08916   1.02128    0.014
 4083.00    1.13626   1.01884    0.013
 4084.00    1.19428   1.04070    0.013
 4085.00    1.43236   1.07635    0.013
 4086.00    1.62130   1.09951    0.013
 4087.00    1.30463   1.09740    0.013
 4088.00    1.06556   1.08318    0.013
 4089.00    1.39594   1.06545    0.013
 4090.00    1.62770   1.04422    0.013
 4091.00    1.30622   1.04115    0.013
 4092.00    1.02067   1.03729    0.000
 4093.00    0.89594   0.99280    0.000
 4094.00    0.82960   0.93904    0.000
 4095.00    0.97774   0.90971    0.000
 4096.00    1.04460   0.89007    0.000
 4097.00    0.86149   0.84807    0.000
 4098.00    0.62731   0.76169    0.000
 4099.00    0.25967   0.66249    0.000
 4100.00   -0.17773   0.64816    0.000
 4101.00   -0.77178   0.73039    0.000
 4102.00   -0.80792   0.82598    0.000
 4103.00    0.24159   0.89884    0.000
 4104.00    0.85433   0.94844    0.000
 4105.00    0.72599   0.97124    0.000
 4106.00    0.73688   0.97816    0.000
 4107.00    0.95472   0.97547    0.000
 4108.00    1.12887   0.97264    0.000
 4109.00    1.24594   0.98087    0.000
 4110.00    1.11973   0.99962    0.000
 4111.00    0.71348   1.02440    0.000
 4112.00    0.73256   1.04297    0.000
 4113.00    1.18340   1.04838    0.013
 4114.00    1.51070   1.05408    0.013
 4115.00    1.72739   1.04960    0.013
 4116.00    1.48921   1.01653    0.019
 4117.00    0.89215   0.99444    0.064
 4118.00    1.00134   1.00699   -1.000
 4119.00    1.60065   1.01731   -1.000
 4120.00    1.62923   1.01673   -1.000
 4121.00    1.31051   1.02619   -1.000
 4122.00    1.27895   1.04979   -1.000
 4123.00    1.39993   1.06751   -1.000
 4124.00    1.81873   1.05768   -1.000
 4125.00    2.37485   1.03212   -1.000
 4126.00    2.16607   1.01415   -1.000
 4127.00    1.65356   1.01375   -1.000
 4128.00    1.19732   1.01468    0.033
 4129.00    0.76013   0.99492    0.014
 4130.00    1.07098   0.96153    0.013
 4131.00    1.59467   0.95591    0.013
 4132.00    1.47693   0.97719    0.013
 4133.00    1.20860   1.01658    0.013
 4134.00    1.05244   1.05316    0.013
 4135.00    0.91746   1.06055    0.013
 4136.00    0.68890   1.07062    0.013
 4137.00    0.44669   1.08233    0.013
 4138.00    0.59359   1.08012    0.013
 4139.00    0.78184   1.05460    0.013
 4140.00    0.35191   0.98598    0.013
 4141.00   -0.12078   0.91164    0.000
 4142.00    0.66975   0.91079    0.013
 4143.00    1.50386   0.97820    0.013
 4144.00    1.40352   1.03203    0.013
 4145.00    1.29159   1.04772    0.013
 4146.00    0.85791   1.04130    0.013
 4147.00    0.48288   1.02235    0.012
 4148.00    1.01466   1.01230    0.012
 4149.00    1.50514   1.02053    0.013
 4150.00    1.58857   1.02108    0.012
 4151.00    1.66913   1.00721    0.012
 4152.00    1.72938   0.99130    0.013
 4153.00    1.75888   0.99018    0.013
 4154.00    1.62053   0.99657    0.013
 4155.00    1.47826   1.00710    0.012
 4156.00    1.31884   1.02845    0.012
 4157.00    1.20943   1.04747    0.012
 4158.00    1.27989   1.05177    0.012
 4159.00    1.39172   1.04877    0.012
 4160.00    1.62841   1.05739    0.012
 4161.00    1.63549   1.06454    0.012
 4162.00    1.05296   1.05395    0.012
 4163.00    0.61561   1.04528    0.012
 4164.00    0.49898   1.03505    0.012
 4165.00    0.35884   1.01384    0.012
 4166.00    0.17368   1.00984    0.012
 4167.00    0.26968   1.02920    0.012
 4168.00    0.83560   1.03005    0.012
 4169.00    1.25172   0.99019    0.012
 4170.00    1.44840   0.93419    0.013
 4171.00    1.58305   0.91403    0.013
 4172.00    1.63781   0.93947    0.013
 4173.00    1.62532   0.97228    0.013
 4174.00    1.53652   0.98550    0.013
 4175.00    1.38128   0.97630    0.013
 4176.00    1.15955   0.97164    0.013
 4177.00    0.95296   0.99644    0.012
 4178.00    0.75973   1.02028    0.012
 4179.00    0.71213   1.00949    0.012
 4180.00    0.77778   0.98848    0.012
 4181.00    0.97071   0.99161    0.012
 4182.00    1.25069   1.00798    0.013
 4183.00    1.53531   1.02016    0.013
 4184.00    1.82272   1.00041    0.013
 4185.00    1.73292   0.96039    0.013
 4186.00    1.44583   0.96226    0.012
 4187.00    1.24730   0.99679    0.012
 4188.00    1.08895   1.00843    0.012
 4189.00    0.93521   0.99890    0.012
 4190.00    0.78329   1.01504    0.012
 4191.00    0.91267   1.04959    0.012
 4192.00    1.13549   1.04557    0.012
 4193.00    1.28695   1.00288    0.012
 4194.00    1.41853   0.97121    0.012
 4195.00    1.50762   0.95180    0.012
 4196.00    1.58697   0.92210    0.012
 4197.00    0.77355   0.91254    0.012
 4198.00   -0.20394   0.93036    0.000
 4199.00   -0.18241   0.93431    0.000
 4200.00   -0.01960   0.93419    0.000
 4201.00    0.23085   0.95643    0.012
 4202.00    0.49025   0.97453    0.012
 4203.00    0.68079   0.98122    0.012
 4204.00    0.86686   0.99851    0.012
 4205.00    0.76537   1.01933    0.012
 4206.00    0.65516   1.03132    0.012
 4207.00    0.61317   1.02451    0.012
 4208.00    0.57843   1.01140    0.012
 4209.00    0.75664   1.01685    0.011
 4210.00    0.94215   1.03039    0.011
 4211.00    1.23376   1.02639    0.012
 4212.00    1.51268   0.99684    0.012
 4213.00    1.67148   0.95092    0.012
 4214.00    1.77271   0.93913    0.011
 4215.00    1.47810   0.98125    0.011
 4216.00    1.19697   1.01978    0.011
 4217.00    0.98754   1.03305    0.011
 4218.00    0.82327   1.04295    0.011
 4219.00    0.85189   1.04409    0.011
 4220.00    0.88819   1.01722    0.011
 4221.00    0.95159   0.97546    0.011
 4222.00    0.92909   0.92667    0.011
 4223.00    0.65220   0.85664    0.011
 4224.00    0.42798   0.78267    0.011
 4225.00    0.33664   0.78212    0.011
 4226.00    0.38543   0.87816    0.011
 4227.00    0.73868   0.97112    0.011
 4228.00    1.00776   1.00969    0.011
 4229.00    1.11812   1.01857    0.011
 4230.00    1.12796   0.99677    0.011
 4231.00    0.97229   0.96581    0.011
 4232.00    0.86527   0.96368    0.011
 4233.00    0.82849   0.95892    0.011
 4234.00    0.76888   0.93707    0.011
 4235.00    0.68027   0.94061    0.011
 4236.00    0.54159   0.95620    0.011
 4237.00    0.34689   0.96077    0.010
 4238.00    0.33359   0.97364    0.010
 4239.00    0.49930   0.99634    0.010
 4240.00    0.75052   0.99920    0.011
 4241.00    1.07616   0.99987    0.011
 4242.00    1.10221   1.02321    0.011
 4243.00    0.89858   1.02924    0.011
 4244.00    0.82610   0.99571    0.011
 4245.00    0.84200   0.95643    0.011
 4246.00    0.88902   0.94104    0.011
 4247.00    0.95441   0.93366    0.012
 4248.00    1.01703   0.91975    0.012
 4249.00    1.07822   0.93599    0.012
 4250.00    0.88083   0.97367    0.012
 4251.00    0.56806   0.96996    0.012
 4252.00    0.93962   0.93537    0.012
 4253.00    1.57357   0.93250    0.012
 4254.00    1.75450   0.97348    0.012
 4255.00    1.78779   1.00498    0.012
 4256.00    2.02875   0.98031    0.012
 4257.00    2.32639   0.92991    0.012
 4258.00    1.85907   0.89449    0.012
 4259.00    1.22032   0.90324    0.011
 4260.00    0.92890   0.95616    0.012
 4261.00    0.69960   1.00277    0.012
 4262.00    1.09844   1.01880    0.012
 4263.00    1.58323   1.02415    0.012
 4264.00    1.40512   1.01806    0.012
 4265.00    1.16225   0.98857    0.012
 4266.00    1.31929   0.96597    0.012
 4267.00    1.50079   0.95305    0.011
 4268.00    0.84610   0.91212    0.011
 4269.00    0.17387   0.85400    0.011
 4270.00    0.48408   0.84167    0.011
 4271.00    0.79717   0.86918    0.011
 4272.00    1.18630   0.87674    0.011
 4273.00    1.53935   0.88744    0.011
 4274.00    1.39642   0.93470    0.011
 4275.00    1.23118   0.98318    0.011
 4276.00    0.86327   1.00019    0.011
 4277.00    0.55586   0.97750    0.011
 4278.00    0.65134   0.93971    0.011
 4279.00    0.74314   0.92992    0.011
 4280.00    0.81580   0.93882    0.011
 4281.00    0.87397   0.95024    0.011
 4282.00    0.87158   0.95164   -2.000
 4283.00    0.98143   0.92827   -2.000
 4284.00    1.47872   0.91118   -2.000
 4285.00    1.86359   0.91324   -2.000
 4286.00    1.92175   0.89499   -2.000
 4287.00    1.87200   0.84659   -2.000
 4288.00    1.55462   0.82287   -2.000
 4289.00    1.29801   0.85799   -2.000
 4290.00    1.17135   0.91514   -2.000
 4291.00    1.01117   0.93908   -2.000
 4292.00    0.78876   0.92113   -2.000
 4293.00    0.81258   0.90766   -2.000
 4294.00    1.23576   0.90193   -2.000
 4295.00    1.37460   0.87695   -2.000
 4296.00    1.10892   0.83152   -2.000
 4297.00    0.89380   0.77631   -2.000
 4298.00    0.74193   0.75476    0.011
 4299.00    0.83281   0.77305    0.011
 4300.00    1.19145   0.78325    0.011
 4301.00    1.27649   0.78852    0.011
 4302.00    1.09532   0.80656    0.011
 4303.00    1.02761   0.81415    0.011
 4304.00    1.05723   0.80162    0.011
 4305.00    1.09393   0.76950    0.011
 4306.00    1.13599   0.73921    0.011
 4307.00    1.13945   0.74777    0.011
 4308.00    1.11727   0.78322    0.011
 4309.00    1.12161   0.81490    0.011
 4310.00    1.14137   0.83770    0.011
 4311.00    1.03011   0.85463    0.010
 4312.00    0.85245   0.87475    0.010
 4313.00    0.99285   0.92702    0.010
 4314.00    1.27282   1.00209    0.010
 4315.00    1.43480   1.03943    0.010
 4316.00    1.55234   1.03339    0.011
 4317.00    1.30159   1.01771    0.011
 4318.00    0.93309   0.99972    0.011
 4319.00    0.95332   0.97853    0.011
 4320.00    1.07743   0.95624    0.011
 4321.00    1.09717   0.90511    0.011
 4322.00    1.09407   0.83630    0.011
 4323.00    0.98794   0.79079    0.011
 4324.00    0.86388   0.80924    0.011
 4325.00    1.05891   0.88878    0.011
 4326.00    1.29613   0.95996    0.011
 4327.00    1.11311   0.97694    0.011
 4328.00    0.89081   0.95821    0.011
 4329.00    0.86590   0.94824    0.011
 4330.00    0.85228   0.95509    0.000
 4331.00    0.75811   0.95580    0.000
 4332.00    0.66557   0.95283    0.000
 4333.00    0.97526   0.94459    0.000
 4334.00    1.27527   0.89685    0.000
 4335.00    1.34265   0.80429    0.000
 4336.00    1.39657   0.71717    0.000
 4337.00    1.27516   0.64564    0.000
 4338.00    1.18506   0.59501    0.000
 4339.00    1.36851   0.63148    0.000
 4340.00    1.49374   0.73529    0.000
 4341.00    1.24295   0.80712    0.000
 4342.00    0.97468   0.84322    0.000
 4343.00    0.61825   0.88228    0.000
 4344.00    0.35527   0.90686    0.000
 4345.00    0.47373   0.91715    0.000
 4346.00    0.62151   0.94175    0.000
 4347.00    0.86851   0.96489    0.000
 4348.00    1.01826   0.93472    0.000
 4349.00    0.89053   0.86087    0.000
 4350.00    0.95253   0.83015    0.000
 4351.00    1.47709   0.87198    0.011
 4352.00    1.75740   0.91774    0.013
 4353.00    1.52397   0.93597    0.034
 4354.00    1.38565   0.95692   -1.000
 4355.00    1.42119   0.97237   -1.000
 4356.00    1.28311   0.95613   -1.000
 4357.00    0.86762   0.93399   -1.000
 4358.00    0.69446   0.94779   -1.000
 4359.00    0.86107   0.98096   -1.000
 4360.00    1.07976   0.99363   -1.000
 4361.00    1.36271   0.99137   -1.000
 4362.00    1.46820   1.00308   -1.000
 4363.00    1.38069   1.01435   -1.000
 4364.00    1.35181   0.99142    0.042
 4365.00    1.37916   0.95250    0.014
 4366.00    1.24609   0.93965    0.011
 4367.00    0.97734   0.94939    0.011
 4368.00    0.81801   0.95296    0.011
 4369.00    0.74018   0.95451    0.011
 4370.00    0.73247   0.95443    0.011
 4371.00    0.77064   0.92923    0.011
 4372.00    0.75388   0.88652    0.011
 4373.00    0.70566   0.87256    0.011
 4374.00    0.75786   0.90836    0.011
 4375.00    0.86016   0.95915    0.011
 4376.00    1.18706   0.98191    0.011
 4377.00    1.61089   0.97539    0.011
 4378.00    1.69607   0.96521    0.011
 4379.00    1.65595   0.94739    0.011
 4380.00    1.33025   0.88110    0.011
 4381.00    0.91500   0.78609    0.010
 4382.00    0.81068   0.75545    0.010
 4383.00    0.78770   0.81302    0.010
 4384.00    0.95759   0.88601    0.010
 4385.00    1.16868   0.91320    0.010
 4386.00    1.11054   0.90987    0.010
 4387.00    1.00688   0.90620    0.010
 4388.00    0.78860   0.90475    0.010
 4389.00    0.55567   0.91768    0.010
 4390.00    0.52120   0.94373    0.010
 4391.00    0.50443   0.94658    0.010
 4392.00    0.82647   0.91845    0.010
 4393.00    1.16656   0.90700    0.010
 4394.00    1.15933   0.94205    0.010
 4395.00    1.14602   0.98176    0.010
 4396.00    1.19188   0.97935    0.010
 4397.00    1.23465   0.94255    0.010
 4398.00    1.20943   0.90781    0.010
 4399.00    1.17867   0.91659    0.010
 4400.00    1.07952   0.95132    0.010
 4401.00    0.99546   0.93545    0.010
 4402.00    1.03819   0.87315    0.010
 4403.00    1.08459   0.85521    0.010
 4404.00    1.15395   0.89309    0.010
 4405.00    1.17098   0.90992    0.010
 4406.00    0.93066   0.90097    0.010
 4407.00    0.77475   0.92064    0.010
 4408.00    0.95582   0.96427    0.010
 4409.00    1.09232   0.99265    0.010
 4410.00    1.08098   1.00316    0.010
 4411.00    1.12883   0.98924    0.010
 4412.00    1.34253   0.93449    0.010
 4413.00    1.38906   0.88430    0.010
 4414.00    1.03492   0.88738    0.010
 4415.00    0.87780   0.91815    0.010
 4416.00    1.12846   0.95367    0.010
 4417.00    1.33825   0.98907    0.010
 4418.00    1.47446   0.99664    0.010
 4419.00    1.46894   0.97138    0.010
 4420.00    1.24033   0.94389    0.010
 4421.00    1.10690   0.94272    0.010
 4422.00    1.10500   0.95559    0.010
 4423.00    1.06433   0.95364    0.010
 4424.00    0.97649   0.94204    0.010
 4425.00    0.99149   0.94129    0.010
 4426.00    1.11676   0.95424    0.010
 4427.00    1.17977   0.95402    0.010
 4428.00    1.18390   0.93785    0.010
 4429.00    1.13310   0.94374    0.010
 4430.00    1.03648   0.95866    0.010
 4431.00    1.15778   0.94033    0.010
 4432.00    1.43907   0.89841    0.010
 4433.00    1.46405   0.87520    0.010
 4434.00    1.32377   0.90070    0.010
 4435.00    1.17686   0.95451    0.010
 4436.00    1.02620   0.99446    0.010
 4437.00    0.92185   1.00488    0.010
 4438.00    0.84025   0.98318    0.010
 4439.00    0.88866   0.94052    0.010
 4440.00    0.99223   0.90102    0.010
 4441.00    1.04389   0.88992    0.010
 4442.00    1.07669   0.91930    0.010
 4443.00    1.08026   0.96543    0.010
 4444.00    1.07484   0.98338    0.010
 4445.00    0.99816   0.97477    0.010
 4446.00    0.90324   0.97348    0.010
 4447.00    0.85809   0.97157    0.010
 4448.00    0.82331   0.95747    0.010
 4449.00    1.00641   0.95651    0.010
 4450.00    1.22530   0.96182    0.010
 4451.00    1.42284   0.93984    0.010
 4452.00    1.61773   0.89462    0.010
 4453.00    1.45855   0.86739    0.010
 4454.00    1.26925   0.88119    0.010
 4455.00    1.10446   0.90270    0.010
 4456.00    0.94089   0.90371    0.010
 4457.00    0.84702   0.89645    0.010
 4458.00    0.75307   0.89144    0.010
 4459.00    0.58441   0.88151    0.010
 4460.00    0.43313   0.88908    0.010
 4461.00    0.63372   0.92455    0.000
 4462.00    0.81272   0.94616    0.000
 4463.00    0.73776   0.94365    0.000
 4464.00    0.65520   0.93849    0.000
 4465.00    0.51096   0.93168    0.000
 4466.00    0.41268   0.91506    0.000
 4467.00    0.59407   0.89825    0.000
 4468.00    0.79200   0.89821    0.000
 4469.00    1.06926   0.91232    0.000
 4470.00    1.29127   0.94055    0.000
 4471.00    1.29752   0.97533    0.000
 4472.00    1.27180   0.99124    0.000
 4473.00    1.14212   0.98607    0.000
 4474.00    0.96242   0.98929    0.000
 4475.00    0.64509   1.00544    0.000
 4476.00    0.49690   1.00334    0.000
 4477.00    0.74726   0.96784    0.000
 4478.00    0.88867   0.91802    0.000
 4479.00    0.80817   0.88754    0.000
 4480.00    0.88219   0.89783    0.000
 4481.00    1.23013   0.94086    0.000
 4482.00    1.26561   0.98069    0.010
 4483.00    0.81650   0.99993    0.010
 4484.00    0.60826   1.00317    0.010
 4485.00    0.72808   0.98687    0.010
 4486.00    0.71913   0.95159    0.010
 4487.00    0.55580   0.92163    0.010
 4488.00    0.51848   0.92393    0.010
 4489.00    0.61439   0.95248    0.010
 4490.00    0.63463   0.97446    0.010
 4491.00    0.58432   0.96500    0.010
 4492.00    0.55807   0.93530    0.010
 4493.00    0.55160   0.91882    0.010
 4494.00    0.65748   0.92559    0.010
 4495.00    0.84464   0.94922    0.010
 4496.00    0.84582   0.97599    0.010
 4497.00    0.72886   0.98518    0.010
 4498.00    0.86402   0.97013    0.010
 4499.00    1.13922   0.95335    0.010
 4500.00    0.86949   0.97004    0.010
 4501.00    0.33651   1.00817    0.010
 4502.00    0.46886   1.02702    0.010
 4503.00    0.87879   1.02211    0.010
 4504.00    1.00391   1.00757    0.010
 4505.00    1.02739   0.99377    0.010
 4506.00    0.73361   0.98959    0.010
 4507.00    0.34419   0.99682    0.010
 4508.00    0.52624   1.00464    0.010
 4509.00    0.85142   0.99864    0.010
 4510.00    0.88156   0.98097    0.010
 4511.00    0.85173   0.96537    0.010
 4512.00    0.86518   0.95645    0.010
 4513.00    0.88555   0.95714    0.010
 4514.00    0.74629   0.96204    0.010
 4515.00    0.58806   0.95481    0.010
 4516.00    0.48063   0.94714    0.010
 4517.00    0.37730   0.95912    0.010
 4518.00    0.53395   0.97665    0.010
 4519.00    0.70241   0.97603    0.010
 4520.00    0.75763   0.95144    0.010
 4521.00    0.81301   0.93306    0.010
 4522.00    0.94746   0.93319    0.010
 4523.00    1.06245   0.92432    0.010
 4524.00    0.81207   0.90138    0.010
 4525.00    0.57156   0.87796    0.010
 4526.00    0.44172   0.86291    0.010
 4527.00    0.35273   0.86422    0.010
 4528.00    0.58350   0.87957    0.010
 4529.00    0.76713   0.89870    0.010
 4530.00    0.67198   0.90743    0.010
 4531.00    0.60066   0.88595    0.010
 4532.00    0.64085   0.85508    0.010
 4533.00    0.72468   0.85459    0.010
 4534.00    0.97532   0.89852    0.010
 4535.00    1.10851   0.95577    0.010
 4536.00    0.86723   0.97621    0.010
 4537.00    0.76288   0.95858    0.010
 4538.00    1.02852   0.93139    0.010
 4539.00    1.07736   0.92105    0.010
 4540.00    0.62381   0.93508    0.010
 4541.00    0.38861   0.94452    0.010
 4542.00    0.59110   0.93134    0.010
 4543.00    0.69804   0.92169    0.010
 4544.00    0.63814   0.92992    0.009
 4545.00    0.56073   0.93160    0.009
 4546.00    0.45655   0.90911    0.009
 4547.00    0.51788   0.88479    0.009
 4548.00    0.80138   0.89573    0.009
 4549.00    0.87392   0.92221    0.010
 4550.00    0.69708   0.92095    0.000
 4551.00    0.74008   0.90075    0.000
 4552.00    1.01222   0.88463    0.000
 4553.00    1.14145   0.88842    0.000
 4554.00    1.13927   0.91724    0.000
 4555.00    0.92815   0.95188    0.000
 4556.00    0.54768   0.96805    0.000
 4557.00    0.40201   0.96963    0.000
 4558.00    0.42379   0.97047    0.000
 4559.00    0.61725   0.97202    0.000
 4560.00    0.91815   0.96075    0.000
 4561.00    1.08637   0.93262    0.000
 4562.00    1.18202   0.91167    0.000
 4563.00    0.95262   0.91512    0.000
 4564.00    0.56870   0.93890    0.000
 4565.00    0.55539   0.96536    0.000
 4566.00    0.69409   0.97521    0.000
 4567.00    0.72452   0.96862    0.000
 4568.00    0.71701   0.94316    0.000
 4569.00    0.67783   0.91148    0.000
 4570.00    0.62929   0.91741    0.000
 4571.00    0.60793   0.95230    0.000
 4572.00    0.59323   0.96624    0.000
 4573.00    0.76595   0.96034    0.000
 4574.00    0.97582   0.95828    0.000
 4575.00    0.98262   0.95573    0.000
 4576.00    0.95798   0.94150    0.000
 4577.00    0.96681   0.91682    0.000
 4578.00    0.97946   0.89721    0.000
 4579.00    0.80522   0.89665    0.000
 4580.00    0.61663   0.90748    0.000
 4581.00    0.63443   0.91115    0.000
 4582.00    0.66083   0.90874    0.000
 4583.00    0.74099   0.90778    0.000
 4584.00    0.81877   0.91290    0.000
 4585.00    0.77406   0.93108    0.000
 4586.00    0.72377   0.94934    0.000
 4587.00    0.57597   0.95249    0.000
 4588.00    0.45056   0.94003    0.000
 4589.00    0.56467   0.92092    0.000
 4590.00    0.66236   0.90925    0.000
 4591.00    0.63587   0.91146    0.000
 4592.00    0.64026   0.91572    0.000
 4593.00    0.82214   0.91682    0.000
 4594.00    0.94136   0.92089    0.000
 4595.00    0.77427   0.92617    0.000
 4596.00    0.67085   0.93034    0.000
 4597.00    0.80565   0.92720    0.000
 4598.00    0.89318   0.91337    0.000
 4599.00    0.83289   0.90775    0.000
 4600.00    0.79261   0.91508    0.000
 4601.00    0.80543   0.92221    0.000
 4602.00    0.84535   0.92470    0.000
 4603.00    0.94704   0.92343    0.000
 4604.00    0.96960   0.92602    0.000
 4605.00    0.83601   0.93922    0.000
 4606.00    0.72524   0.96013    0.000
 4607.00    0.65368   0.97088    0.000
 4608.00    0.66764   0.96250    0.000
 4609.00    0.81033   0.94830    0.000
 4610.00    1.00148   0.93949    0.000
 4611.00    1.25673   0.93707    0.000
 4612.00    1.22547   0.94363    0.000
 4613.00    0.86030   0.94676    0.000
 4614.00    0.66654   0.94185    0.000
 4615.00    0.64895   0.94133    0.000
 4616.00    0.60521   0.93563    0.000
 4617.00    0.53777   0.92737    0.000
 4618.00    0.57766   0.93665    0.000
 4619.00    0.70332   0.95210    0.000
 4620.00    0.78783   0.95464    0.000
 4621.00    0.84344   0.95243    0.000
 4622.00    0.79702   0.94866    0.000
 4623.00    0.68771   0.94080    0.000
 4624.00    0.63178   0.93877    0.000
 4625.00    0.60461   0.94127    0.000
 4626.00    0.68486   0.93273    0.000
 4627.00    0.81535   0.92133    0.000
 4628.00    0.79745   0.92957    0.000
 4629.00    0.71974   0.94396    0.000
 4630.00    0.57554   0.93748    0.000
 4631.00    0.40847   0.92147    0.000
 4632.00    0.43949   0.91725    0.000
 4633.00    0.52788   0.91969    0.000
 4634.00    0.74396   0.91599    0.000
 4635.00    0.99062   0.90480    0.000
 4636.00    0.77681   0.89541    0.000
 4637.00    0.47406   0.89359    0.000
 4638.00    0.60961   0.90328    0.000
 4639.00    0.81095   0.92218    0.000
 4640.00    0.88443   0.93196    0.000
 4641.00    0.94384   0.92721    0.000
 4642.00    0.86594   0.91540    0.000
 4643.00    0.77807   0.89262    0.000
 4644.00    0.91321   0.86418    0.000
 4645.00    1.05679   0.85462    0.000
 4646.00    1.14739   0.86801    0.000
 4647.00    1.22806   0.88823    0.000
 4648.00    0.95065   0.90199    0.000
 4649.00    0.68279   0.90771    0.000
 4650.00    0.57110   0.91219    0.000
 4651.00    0.45571   0.90777    0.000
 4652.00    0.30249   0.88846    0.000
 4653.00    0.19636   0.87523    0.000
 4654.00    0.43428   0.88090    0.000
 4655.00    0.66039   0.90445    0.000
 4656.00    0.82046   0.93751    0.000
 4657.00    0.93895   0.95881    0.000
 4658.00    0.87193   0.95747    0.000
 4659.00    0.84361   0.93920    0.000
 4660.00    0.95708   0.91811    0.000
 4661.00    1.00344   0.90647    0.000
 4662.00    0.84393   0.90461    0.000
 4663.00    0.80105   0.89277    0.000
 4664.00    1.06229   0.85533    0.000
 4665.00    1.20278   0.81976    0.000
 4666.00    1.07264   0.82196    0.000
 4667.00    0.86766   0.85308    0.000
 4668.00    0.51735   0.88576    0.000
 4669.00    0.30476   0.90482    0.000
 4670.00    0.32539   0.90514    0.000
 4671.00    0.45039   0.89763    0.000
 4672.00    0.73025   0.89746    0.000
 4673.00    0.84046   0.90898    0.000
 4674.00    0.72941   0.92183    0.000
 4675.00    0.65374   0.91809    0.000
 4676.00    0.61875   0.89934    0.000
 4677.00    0.60249   0.88231    0.000
 4678.00    0.60523   0.87263    0.000
 4679.00    0.64002   0.86945    0.000
 4680.00    0.70347   0.87692    0.000
 4681.00    0.75195   0.89050    0.000
 4682.00    0.78863   0.89340    0.000
 4683.00    0.84686   0.88618    0.000
 4684.00    0.92002   0.88315    0.000
 4685.00    0.86426   0.88679    0.000
 4686.00    0.73021   0.89350    0.000
 4687.00    0.68609   0.89672    0.000
 4688.00    0.68965   0.89087    0.000
 4689.00    0.71375   0.88686    0.000
 4690.00    0.74731   0.89538    0.000
 4691.00    0.72751   0.90734    0.000
 4692.00    0.68658   0.91696    0.000
 4693.00    0.67035   0.92574    0.000
 4694.00    0.66245   0.92512    0.000
 4695.00    0.61345   0.90540    0.000
 4696.00    0.55279   0.87886    0.000
 4697.00    0.57090   0.87092    0.000
 4698.00    0.60745   0.87741    0.000
 4699.00    0.69369   0.87231    0.000
 4700.00    0.78929   0.85458    0.000
 4701.00    0.89766   0.85003    0.000
 4702.00    1.00790   0.86882    0.000
 4703.00    0.94484   0.88459    0.000
 4704.00    0.86347   0.87731    0.000
 4705.00    0.76630   0.85891    0.000
 4706.00    0.66805   0.84791    0.000
 4707.00    0.82100   0.85202    0.000
 4708.00    0.98249   0.87316    0.000
 4709.00    1.05147   0.89589    0.000
 4710.00    1.11650   0.89740    0.000
 4711.00    1.05772   0.88031    0.000
 4712.00    0.98317   0.86569    0.000
 4713.00    0.66660   0.87226    0.000
 4714.00    0.39889   0.89430    0.000
 4715.00    0.61030   0.90962    0.000
 4716.00    0.79309   0.91462    0.000
 4717.00    0.77358   0.91887    0.000
 4718.00    0.73458   0.91998    0.000
 4719.00    0.58962   0.91236    0.000
 4720.00    0.49346   0.90408    0.000
 4721.00    0.61000   0.90860    0.000
 4722.00    0.67116   0.92095    0.000
 4723.00    0.53362   0.92191    0.000
 4724.00    0.46710   0.89951    0.000
 4725.00    0.61443   0.86640    0.000
 4726.00    0.70986   0.85038    0.000
 4727.00    0.67232   0.85422    0.000
 4728.00    0.64879   0.86012    0.000
 4729.00    0.65612   0.86513    0.000
 4730.00    0.72486   0.87387    0.000
 4731.00    0.91100   0.88229    0.000
 4732.00    1.00092   0.88845    0.000
 4733.00    0.93032   0.88578    0.000
 4734.00    0.79936   0.87268    0.000
 4735.00    0.58014   0.87333    0.000
 4736.00    0.51958   0.88981    0.000
 4737.00    0.66297   0.89430    0.000
 4738.00    0.70966   0.88482    0.000
 4739.00    0.64680   0.88054    0.000
 4740.00    0.69047   0.88783    0.000
 4741.00    0.84057   0.89615    0.000
 4742.00    0.87520   0.89503    0.000
 4743.00    0.80809   0.89326    0.000
 4744.00    0.79612   0.89974    0.000
 4745.00    0.82696   0.90367    0.000
 4746.00    0.80943   0.90096    0.000
 4747.00    0.75889   0.90073    0.000
 4748.00    0.85846   0.90289    0.000
 4749.00    1.04785   0.89858    0.000
 4750.00    1.08229   0.88766    0.000
 4751.00    1.03585   0.87766    0.000
 4752.00    0.81148   0.87237    0.000
 4753.00    0.50659   0.87055    0.000
 4754.00    0.53535   0.86958    0.000
 4755.00    0.69403   0.87068    0.000
 4756.00    0.84485   0.87523    0.000
 4757.00    0.99306   0.88232    0.000
 4758.00    0.79394   0.88137    0.000
 4759.00    0.49826   0.86238    0.000
 4760.00    0.51223   0.83957    0.000
 4761.00    0.59703   0.83085    0.009
 4762.00    0.59788   0.82994    0.009
 4763.00    0.58335   0.82829    0.009
 4764.00    0.63978   0.83272    0.009
 4765.00    0.70622   0.84576    0.009
 4766.00    0.67124   0.86144    0.009
 4767.00    0.62599   0.87396    0.008
 4768.00    0.75458   0.87251    0.008
 4769.00    0.89441   0.85851    0.009
 4770.00    0.67078   0.85333    0.009
 4771.00    0.43736   0.86705    0.009
 4772.00    0.80685   0.88362    0.009
 4773.00    1.15269   0.88657    0.009
 4774.00    0.81334   0.88376    0.009
 4775.00    0.51937   0.88377    0.009
 4776.00    0.88139   0.87813    0.009
 4777.00    1.18964   0.86803    0.009
 4778.00    0.99200   0.86501    0.008
 4779.00    0.80759   0.86461    0.008
 4780.00    0.71374   0.85605    0.008
 4781.00    0.65723   0.84930    0.008
 4782.00    0.79851   0.85403    0.008
 4783.00    0.88677   0.85221    0.008
 4784.00    0.74927   0.84096    0.008
 4785.00    0.63864   0.84019    0.008
 4786.00    0.62242   0.84274    0.008
 4787.00    0.63698   0.84233    0.008
 4788.00    0.74253   0.84914    0.009
 4789.00    0.84188   0.85843    0.009
 4790.00    0.92563   0.86776    0.008
 4791.00    0.94344   0.88291    0.008
 4792.00    0.81824   0.89681    0.008
 4793.00    0.67655   0.89874    0.009
 4794.00    0.50383   0.88871    0.008
 4795.00    0.46858   0.87226    0.008
 4796.00    0.65924   0.85521    0.008
 4797.00    0.71937   0.84710    0.009
 4798.00    0.59142   0.85425    0.009
 4799.00    0.53446   0.87096    0.009
 4800.00    0.56746   0.88293    0.009
 4801.00    0.66349   0.87917    0.009
 4802.00    0.82991   0.86303    0.009
 4803.00    0.79442   0.85121    0.009
 4804.00    0.56004   0.84965    0.009
 4805.00    0.53292   0.84895    0.008
 4806.00    0.68584   0.85025    0.009
 4807.00    0.77663   0.85633    0.009
 4808.00    0.81987   0.86035    0.009
 4809.00    0.80516   0.86066    0.009
 4810.00    0.75147   0.86098    0.009
 4811.00    0.80073   0.86290    0.009
 4812.00    0.91066   0.86614    0.009
 4813.00    0.85800   0.87002    0.009
 4814.00    0.72180   0.87496    0.009
 4815.00    0.67068   0.87905    0.009
 4816.00    0.65744   0.88068    0.009
 4817.00    0.62759   0.87989    0.009
 4818.00    0.59138   0.87682    0.009
 4819.00    0.65755   0.86934    0.009
 4820.00    0.75701   0.84841    0.009
 4821.00    0.79348   0.82510    0.009
 4822.00    0.81280   0.82740    0.009
 4823.00    0.82594   0.84885    0.009
 4824.00    0.83769   0.86023    0.009
 4825.00    0.95247   0.85450    0.009
 4826.00    1.08561   0.84480    0.009
 4827.00    0.89189   0.84293    0.009
 4828.00    0.65364   0.84221    0.009
 4829.00    0.59900   0.83315    0.008
 4830.00    0.56221   0.82937    0.008
 4831.00    0.80378   0.84075    0.009
 4832.00    1.06224   0.85182    0.009
 4833.00    0.71624   0.85187    0.009
 4834.00    0.35717   0.84944    0.009
 4835.00    0.53163   0.84693    0.009
 4836.00    0.69631   0.83599    0.009
 4837.00    0.60584   0.82149    0.009
 4838.00    0.53760   0.81858    0.009
 4839.00    0.77298   0.82557    0.008
 4840.00    0.96786   0.82571    0.008
 4841.00    0.79662   0.82253    0.008
 4842.00    0.63228   0.83176    0.008
 4843.00    0.51371   0.84498    0.008
 4844.00    0.43209   0.84375    0.008
 4845.00    0.54107   0.82616    0.008
 4846.00    0.62509   0.80990    0.008
 4847.00    0.60515   0.81198    0.008
 4848.00    0.64637   0.82057    0.000
 4849.00    0.89816   0.81963    0.000
 4850.00    1.05385   0.81446    0.000
 4851.00    0.93087   0.80173    0.000
 4852.00    0.79109   0.77201    0.000
 4853.00    0.60970   0.74651    0.000
 4854.00    0.48432   0.74678    0.000
 4855.00    0.47845   0.74847    0.000
 4856.00    0.50342   0.71645    0.000
 4857.00    0.58555   0.64423    0.000
 4858.00    0.76490   0.55944    0.000
 4859.00    1.10166   0.52943    0.000
 4860.00    1.13403   0.58480    0.000
 4861.00    0.73416   0.66214    0.000
 4862.00    0.56395   0.70943    0.000
 4863.00    0.68065   0.73872    0.000
 4864.00    0.66065   0.76015    0.000
 4865.00    0.49013   0.77256    0.000
 4866.00    0.50650   0.78148    0.000
 4867.00    0.70440   0.77963    0.000
 4868.00    0.85023   0.75547    0.000
 4869.00    0.95146   0.73383    0.000
 4870.00    0.95459   0.74661    0.000
 4871.00    0.88374   0.77697    0.000
 4872.00    0.73859   0.79224    0.000
 4873.00    0.54419   0.79503    0.000
 4874.00    0.46103   0.79929    0.000
 4875.00    0.44243   0.80369    0.008
 4876.00    0.48317   0.81442    0.008
 4877.00    0.55394   0.82975    0.008
 4878.00    0.58656   0.82556    0.008
 4879.00    0.60248   0.80877    0.008
 4880.00    0.64224   0.80720    0.008
 4881.00    0.69095   0.81254    0.008
 4882.00    0.65264   0.80467    0.008
 4883.00    0.58658   0.79102    0.008
 4884.00    0.57199   0.78869    0.008
 4885.00    0.57114   0.79572    0.008
 4886.00    0.67286   0.79690    0.008
 4887.00    0.79695   0.78239    0.008
 4888.00    0.86658   0.75856    0.008
 4889.00    0.92677   0.75864    0.008
 4890.00    1.01167   0.79616    0.008
 4891.00    1.09982   0.83768    0.008
 4892.00    0.96931   0.86156    0.008
 4893.00    0.81848   0.87156    0.008
 4894.00    0.81168   0.87283    0.008
 4895.00    0.81305   0.86903    0.008
 4896.00    0.72645   0.85561    0.008
 4897.00    0.63973   0.83500    0.008
 4898.00    0.75914   0.82749    0.008
 4899.00    0.86653   0.83190    0.008
 4900.00    0.68826   0.82614    0.008
 4901.00    0.50946   0.81695    0.008
 4902.00    0.32379   0.82626    0.008
 4903.00    0.18931   0.84771    0.008
 4904.00    0.49987   0.85695    0.008
 4905.00    0.76103   0.84707    0.008
 4906.00    0.70440   0.82680    0.008
 4907.00    0.63828   0.80393    0.008
 4908.00    0.52443   0.79352    0.008
 4909.00    0.46590   0.80471    0.008
 4910.00    0.63251   0.82135    0.008
 4911.00    0.73986   0.83107    0.008
 4912.00    0.64724   0.84148    0.008
 4913.00    0.61670   0.85147    0.008
 4914.00    0.76291   0.84492    0.008
 4915.00    0.86735   0.81332    0.008
 4916.00    0.87017   0.76788    0.008
 4917.00    0.84256   0.73105    0.008
 4918.00    0.75106   0.72222    0.008
 4919.00    0.63642   0.74588    0.008
 4920.00    0.47957   0.77638    0.008
 4921.00    0.37764   0.78531    0.008
 4922.00    0.36330   0.78498    0.008
 4923.00    0.36153   0.80114    0.008
 4924.00    0.37733   0.82503    0.008
 4925.00    0.45078   0.83852    0.008
 4926.00    0.59523   0.84693    0.008
 4927.00    0.69243   0.85335    0.008
 4928.00    0.73835   0.85390    0.008
 4929.00    0.77270   0.84551    0.008
 4930.00    0.79597   0.81806    0.008
 4931.00    0.83559   0.78685    0.008
 4932.00    0.88901   0.78779    0.008
 4933.00    0.80610   0.80978    0.008
 4934.00    0.62182   0.81119    0.008
 4935.00    0.56935   0.78556    0.008
 4936.00    0.60296   0.76220    0.008
 4937.00    0.65021   0.77077    0.008
 4938.00    0.70525   0.80416    0.008
 4939.00    0.73222   0.82780    0.008
 4940.00    0.74521   0.83613    0.000
 4941.00    0.76759   0.84296    0.000
 4942.00    0.79401   0.84182    0.000
 4943.00    0.77296   0.83093    0.000
 4944.00    0.73438   0.82876    0.000
 4945.00    0.84530   0.83906    0.000
 4946.00    1.00298   0.84715    0.000
 4947.00    1.09602   0.84946    0.000
 4948.00    1.17218   0.85167    0.000
 4949.00    0.95297   0.84975    0.000
 4950.00    0.67086   0.84096    0.000
 4951.00    0.61421   0.83317    0.000
 4952.00    0.59555   0.82704    0.000
 4953.00    0.59533   0.80532    0.000
 4954.00    0.59747   0.75551    0.000
 4955.00    0.72018   0.71957    0.000
 4956.00    0.85358   0.74466    0.000
 4957.00    0.70503   0.79647    0.000
 4958.00    0.54159   0.82205    0.000
 4959.00    0.63932   0.82199    0.000
 4960.00    0.74276   0.81963    0.000
 4961.00    0.90248   0.81737    0.000
 4962.00    1.04977   0.80431    0.000
 4963.00    0.92660   0.78788    0.000
 4964.00    0.79814   0.78216    0.000
 4965.00    0.60484   0.78347    0.000
 4966.00    0.45268   0.78609    0.000
 4967.00    0.64509   0.78966    0.000
 4968.00    0.81354   0.79546    0.000
 4969.00    0.83228   0.80475    0.000
 4970.00    0.80989   0.81291    0.000
 4971.00    0.58580   0.81928    0.000
 4972.00    0.43149   0.82318    0.000
 4973.00    0.55493   0.82040    0.000
 4974.00    0.65972   0.81265    0.000
 4975.00    0.70281   0.80079    0.000
 4976.00    0.79818   0.78922    0.000
 4977.00    1.03974   0.78331    0.000
 4978.00    1.19151   0.77105    0.000
 4979.00    1.12855   0.74259    0.000
 4980.00    1.08040   0.71722    0.000
 4981.00    1.06284   0.71681    0.000
 4982.00    1.03299   0.73452    0.000
 4983.00    0.98108   0.75685    0.000
 4984.00    0.89195   0.78099    0.000
 4985.00    0.74436   0.79703    0.000
 4986.00    0.60196   0.79576    0.000
 4987.00    0.46673   0.78379    0.000
 4988.00    0.51554   0.77346    0.000
 4989.00    0.78778   0.77679    0.000
 4990.00    0.94096   0.78510    0.000
 4991.00    0.96670   0.78349    0.000
 4992.00    0.83105   0.78524    0.000
 4993.00    0.54300   0.79484    0.000
 4994.00    0.55627   0.79834    0.000
 4995.00    0.82037   0.79348    0.000
 4996.00    0.91135   0.77794    0.000
 4997.00    0.87546   0.75664    0.000
 4998.00    0.76079   0.74573    0.000
 4999.00    0.59542   0.74794    0.000
 5000.00    0.67626   0.75659    0.000
 5001.00    0.89570   0.76192    0.000
 5002.00    0.97877   0.75058    0.000
 5003.00    0.99502   0.72731    0.000
 5004.00    0.87099   0.72131    0.000
 5005.00    0.68756   0.74497    0.000
 5006.00    0.66716   0.77194    0.000
 5007.00    0.70587   0.77922    0.000
 5008.00    0.91000   0.76920    0.000
 5009.00    1.16488   0.74743    0.000
 5010.00    1.13353   0.72266    0.000
 5011.00    1.02909   0.70574    0.000
 5012.00    0.83211   0.70618    0.000
 5013.00    0.61591   0.72268    0.000
 5014.00    0.60307   0.73353    0.000
 5015.00    0.62352   0.73015    0.000
 5016.00    0.77900   0.73194    0.000
 5017.00    0.95105   0.74703    0.000
 5018.00    0.85337   0.75695    0.000
 5019.00    0.73289   0.74937    0.000
 5020.00    0.66583   0.74376    0.000
 5021.00    0.60139   0.75494    0.000
 5022.00    0.67583   0.76711    0.000
 5023.00    0.75100   0.76788    0.000
 5024.00    0.73942   0.75720    0.000
 5025.00    0.73190   0.74867    0.000
 5026.00    0.80578   0.75835    0.000
 5027.00    0.86505   0.77328    0.000
 5028.00    0.75383   0.78013    0.000
 5029.00    0.65873   0.78778    0.008
 5030.00    0.69389   0.79902    0.008
 5031.00    0.74622   0.79954    0.008
 5032.00    0.90270   0.77670    0.008
 5033.00    1.01362   0.74671    0.008
 5034.00    0.90668   0.74033    0.008
 5035.00    0.81409   0.74740    0.008
 5036.00    0.77743   0.73744    0.008
 5037.00    0.75659   0.70609    0.008
 5038.00    0.78703   0.67285    0.008
 5039.00    0.80191   0.67473    0.008
 5040.00    0.77405   0.71648    0.008
 5041.00    0.74046   0.75745    0.008
 5042.00    0.69339   0.78120    0.008
 5043.00    0.68570   0.79697    0.008
 5044.00    0.75806   0.79850    0.008
 5045.00    0.73272   0.77816    0.008
 5046.00    0.53454   0.75070    0.008
 5047.00    0.48367   0.73619    0.008
 5048.00    0.66087   0.73444    0.008
 5049.00    0.76437   0.73867    0.008
 5050.00    0.76768   0.75213    0.008
 5051.00    0.77861   0.77018    0.008
 5052.00    0.79866   0.78162    0.008
 5053.00    0.81334   0.78402    0.008
 5054.00    0.82236   0.78393    0.008
 5055.00    0.77648   0.78677    0.008
 5056.00    0.67950   0.78769    0.008
 5057.00    0.70120   0.78674    0.008
 5058.00    0.82029   0.79081    0.008
 5059.00    0.77736   0.79598    0.008
 5060.00    0.61741   0.78967    0.008
 5061.00    0.62606   0.76278    0.008
 5062.00    0.74160   0.73270    0.008
 5063.00    0.71579   0.73042    0.008
 5064.00    0.61163   0.74480    0.008
 5065.00    0.61265   0.74752    0.008
 5066.00    0.66440   0.74612    0.008
 5067.00    0.73787   0.75578    0.008
 5068.00    0.82039   0.76070    0.008
 5069.00    0.83583   0.74869    0.008
 5070.00    0.82739   0.74223    0.008
 5071.00    0.78639   0.75070    0.008
 5072.00    0.73560   0.75470    0.008
 5073.00    0.60392   0.75163    0.008
 5074.00    0.45205   0.75413    0.008
 5075.00    0.57308   0.75142    0.008
 5076.00    0.74942   0.72280    0.008
 5077.00    0.63109   0.69117    0.008
 5078.00    0.46593   0.69159    0.008
 5079.00    0.71863   0.71073    0.008
 5080.00    1.02076   0.71938    0.008
 5081.00    0.93284   0.72394    0.008
 5082.00    0.81357   0.73893    0.008
 5083.00    0.64501   0.75400    0.008
 5084.00    0.47423   0.75700    0.008
 5085.00    0.51269   0.75465    0.008
 5086.00    0.55195   0.75660    0.008
 5087.00    0.50741   0.75887    0.008
 5088.00    0.47007   0.75880    0.008
 5089.00    0.56663   0.76346    0.007
 5090.00    0.65735   0.77378    0.007
 5091.00    0.68303   0.77888    0.007
 5092.00    0.72493   0.77113    0.007
 5093.00    0.89312   0.75608    0.008
 5094.00    1.01724   0.74101    0.008
 5095.00    0.88170   0.72325    0.008
 5096.00    0.80502   0.70582    0.008
 5097.00    1.00303   0.70834    0.008
 5098.00    1.10902   0.73121    0.008
 5099.00    0.86424   0.74983    0.008
 5100.00    0.67247   0.75276    0.007
 5101.00    0.64926   0.74734    0.007
 5102.00    0.62397   0.74129    0.007
 5103.00    0.59307   0.73403    0.007
 5104.00    0.56306   0.72104    0.007
 5105.00    0.53512   0.71243    0.008
 5106.00    0.51823   0.71491    0.008
 5107.00    0.52346   0.71576    0.007
 5108.00    0.56203   0.72008    0.007
 5109.00    0.65869   0.73462    0.007
 5110.00    0.72747   0.74498    0.007
 5111.00    0.75370   0.74927    0.008
 5112.00    0.73311   0.75276    0.008
 5113.00    0.64976   0.75611    0.008
 5114.00    0.57958   0.76332    0.008
 5115.00    0.52492   0.77041    0.008
 5116.00    0.55589   0.76868    0.008
 5117.00    0.67595   0.75865    0.008
 5118.00    0.71818   0.74650    0.008
 5119.00    0.68898   0.73428    0.008
 5120.00    0.62996   0.71612    0.008
 5121.00    0.54681   0.69778    0.007
 5122.00    0.45774   0.69531    0.007
 5123.00    0.36446   0.70387    0.007
 5124.00    0.42301   0.70834    0.007
 5125.00    0.57641   0.70698    0.007
 5126.00    0.62172   0.70388    0.007
 5127.00    0.60805   0.70445    0.007
 5128.00    0.57142   0.71382    0.007
 5129.00    0.52390   0.72489    0.007
 5130.00    0.61690   0.72852    0.007
 5131.00    0.76741   0.73106    0.007
 5132.00    0.85739   0.74149    0.007
 5133.00    0.92621   0.74505    0.007
 5134.00    0.83850   0.73149    0.007
 5135.00    0.70465   0.71350    0.007
 5136.00    0.70326   0.69745    0.007
 5137.00    0.73422   0.69840    0.008
 5138.00    0.84871   0.71286    0.008
 5139.00    0.97970   0.70670    0.008
 5140.00    1.01327   0.69295    0.008
 5141.00    1.03181   0.70245    0.008
 5142.00    0.80726   0.71462    0.008
 5143.00    0.55502   0.70934    0.008
 5144.00    0.63342   0.70016    0.008
 5145.00    0.73703   0.70097    0.008
 5146.00    0.77378   0.71167    0.008
 5147.00    0.80778   0.71536    0.008
 5148.00    0.60917   0.70387    0.008
 5149.00    0.41498   0.69213    0.008
 5150.00    0.48762   0.68913    0.008
 5151.00    0.56407   0.69117    0.008
 5152.00    0.70669   0.70005    0.008
 5153.00    0.82693   0.71719    0.008
 5154.00    0.70916   0.73595    0.008
 5155.00    0.62025   0.74793    0.008
 5156.00    0.74863   0.74931    0.008
 5157.00    0.85343   0.74900    0.008
 5158.00    0.82323   0.74855    0.008
 5159.00    0.78312   0.73886    0.008
 5160.00    0.69786   0.72884    0.008
 5161.00    0.65239   0.72364    0.008
 5162.00    0.75537   0.70238    0.008
 5163.00    0.82581   0.65190    0.008
 5164.00    0.79475   0.59033    0.008
 5165.00    0.75412   0.55946    0.008
 5166.00    0.68812   0.58188    0.008
 5167.00    0.64138   0.62648    0.008
 5168.00    0.63842   0.63110    0.008
 5169.00    0.65456   0.58061    0.008
 5170.00    0.70830   0.54627    0.008
 5171.00    0.74950   0.58494    0.008
 5172.00    0.76921   0.65452    0.008
 5173.00    0.79766   0.69499    0.008
 5174.00    0.83926   0.70781    0.008
 5175.00    0.77661   0.71373    0.008
 5176.00    0.57628   0.71432    0.008
 5177.00    0.54657   0.70733    0.008
 5178.00    0.71534   0.69014    0.008
 5179.00    0.70256   0.64856    0.008
 5180.00    0.50354   0.57960    0.007
 5181.00    0.43412   0.54034    0.007
 5182.00    0.48198   0.58035    0.007
 5183.00    0.52349   0.65418    0.007
 5184.00    0.55992   0.69914    0.007
 5185.00    0.62102   0.70631    0.007
 5186.00    0.69942   0.70634    0.007
 5187.00    0.70988   0.71579    0.007
 5188.00    0.67853   0.70540    0.007
 5189.00    0.64303   0.67147    0.007
 5190.00    0.60529   0.65898    0.000
 5191.00    0.67556   0.67481    0.000
 5192.00    0.79624   0.68523    0.000
 5193.00    0.86711   0.69002    0.000
 5194.00    0.91794   0.70177    0.000
 5195.00    0.89864   0.71286    0.000
 5196.00    0.85529   0.72208    0.000
 5197.00    0.82483   0.72968    0.000
 5198.00    0.79810   0.72877    0.000
 5199.00    0.78529   0.72040    0.000
 5200.00    0.77581   0.71105    0.000
 5201.00    0.74614   0.69290    0.000
 5202.00    0.71259   0.66374    0.000
 5203.00    0.67764   0.64720    0.000
 5204.00    0.64249   0.64940    0.000
 5205.00    0.65871   0.64487    0.000
 5206.00    0.68056   0.63942    0.000
 5207.00    0.66631   0.65269    0.000
 5208.00    0.64946   0.67887    0.000
 5209.00    0.63897   0.70885    0.000
 5210.00    0.62871   0.73296    0.000
 5211.00    0.64357   0.73943    0.007
 5212.00    0.66386   0.72384    0.007
 5213.00    0.87729   0.70279    0.007
 5214.00    1.07039   0.69807    0.007
 5215.00    0.93389   0.71199    0.007
 5216.00    0.80354   0.72939    0.007
 5217.00    0.73571   0.73984    0.007
 5218.00    0.67244   0.74634    0.007
 5219.00    0.64230   0.74784    0.008
 5220.00    0.65970   0.73802    0.008
 5221.00    0.94193   0.71611    0.008
 5222.00    1.14551   0.68581    0.008
 5223.00    0.99922   0.65056    0.008
 5224.00    0.83678   0.62884    0.007
 5225.00    0.61534   0.65022    0.007
 5226.00    0.42172   0.69411    0.007
 5227.00    0.31325   0.72130    0.008
 5228.00    0.29921   0.73232    0.008
 5229.00    0.53084   0.72593    0.008
 5230.00    0.66093   0.70347    0.008
 5231.00    0.56391   0.69016    0.008
 5232.00    0.56627   0.69655    0.008
 5233.00    0.76126   0.71556    0.008
 5234.00    0.86940   0.73481    0.008
 5235.00    0.83074   0.74355    0.008
 5236.00    0.92685   0.74244    0.008
 5237.00    1.22254   0.73956    0.008
 5238.00    1.26412   0.74000    0.008
 5239.00    0.97486   0.73856    0.008
 5240.00    0.88635   0.73530    0.008
 5241.00    1.02810   0.74081    0.008
 5242.00    1.00104   0.74836    0.008
 5243.00    0.80324   0.73469    0.008
 5244.00    0.72691   0.70575    0.008
 5245.00    0.75894   0.69567    0.008
 5246.00    0.72865   0.70185    0.007
 5247.00    0.64936   0.69610    0.007
 5248.00    0.66183   0.68917    0.007
 5249.00    0.73775   0.69808    0.008
 5250.00    0.76264   0.71034    0.008
 5251.00    0.75661   0.71063    0.007
 5252.00    0.70418   0.70195    0.007
 5253.00    0.62718   0.70832    0.007
 5254.00    0.59133   0.73192    0.007
 5255.00    0.57436   0.75046    0.007
 5256.00    0.68026   0.75387    0.008
 5257.00    0.83473   0.74431    0.008
 5258.00    0.88415   0.72237    0.008
 5259.00    0.89818   0.69167    0.008
 5260.00    0.78932   0.66313    0.007
 5261.00    0.64568   0.64322    0.007
 5262.00    0.54371   0.62930    0.008
 5263.00    0.45146   0.62567    0.008
 5264.00    0.53287   0.64692    0.008
 5265.00    0.64685   0.66333    0.008
 5266.00    0.72625   0.63178    0.008
 5267.00    0.80063   0.59543    0.008
 5268.00    0.55786   0.61794    0.008
 5269.00    0.28173   0.66741    0.008
 5270.00    0.49741   0.69030    0.008
 5271.00    0.74662   0.69220    0.008
 5272.00    0.90449   0.68659    0.008
 5273.00    1.05930   0.68601    0.008
 5274.00    0.85016   0.70898    0.008
 5275.00    0.64840   0.73783    0.008
 5276.00    0.69611   0.74658    0.008
 5277.00    0.73959   0.73567    0.008
 5278.00    0.71878   0.71739    0.008
 5279.00    0.69735   0.70060    0.007
 5280.00    0.66990   0.68657    0.007
 5281.00    0.65834   0.68359    0.007
 5282.00    0.75869   0.70548    0.007
 5283.00    0.83759   0.73704    0.007
 5284.00    0.80015   0.75204    0.007
 5285.00    0.77668   0.74878    0.007
 5286.00    0.81390   0.74401    0.007
 5287.00    0.84915   0.74714    0.007
 5288.00    0.87733   0.75081    0.008
 5289.00    0.86019   0.74747    0.008
 5290.00    0.70698   0.74088    0.008
 5291.00    0.64696   0.73896    0.007
 5292.00    0.82524   0.73558    0.008
 5293.00    0.94835   0.71683    0.008
 5294.00    0.95008   0.68422    0.008
 5295.00    0.91230   0.66263    0.008
 5296.00    0.79913   0.67374    0.008
 5297.00    0.70702   0.69759    0.008
 5298.00    0.64995   0.70417    0.008
 5299.00    0.64809   0.70207    0.008
 5300.00    0.72679   0.71185    0.008
 5301.00    0.76965   0.73236    0.008
 5302.00    0.76652   0.74613    0.008
 5303.00    0.74933   0.74345    0.008
 5304.00    0.71625   0.73182    0.008
 5305.00    0.66870   0.72787    0.008
 5306.00    0.60671   0.73596    0.008
 5307.00    0.53116   0.74378    0.008
 5308.00    0.44370   0.74382    0.007
 5309.00    0.44478   0.73987    0.007
 5310.00    0.51448   0.73541    0.007
 5311.00    0.59427   0.73289    0.007
 5312.00    0.68095   0.72908    0.007
 5313.00    0.76710   0.71813    0.007
 5314.00    0.85294   0.71016    0.007
 5315.00    0.80799   0.71615    0.007
 5316.00    0.69490   0.72414    0.007
 5317.00    0.76821   0.72436    0.007
 5318.00    0.92572   0.72187    0.007
 5319.00    0.91215   0.71846    0.007
 5320.00    0.83211   0.70766    0.007
 5321.00    0.67079   0.69120    0.007
 5322.00    0.48259   0.68879    0.007
 5323.00    0.58184   0.69413    0.007
 5324.00    0.76078   0.66866    0.007
 5325.00    0.80948   0.61654    0.007
 5326.00    0.82846   0.60442    0.007
 5327.00    0.82606   0.64802    0.007
 5328.00    0.81975   0.69344    0.007
 5329.00    0.78908   0.70714    0.007
 5330.00    0.75500   0.70475    0.007
 5331.00    0.68122   0.71172    0.007
 5332.00    0.60343   0.72261    0.007
 5333.00    0.60117   0.72175    0.007
 5334.00    0.60376   0.71463    0.007
 5335.00    0.73409   0.71271    0.007
 5336.00    0.86777   0.70446    0.007
 5337.00    0.81285   0.68088    0.007
 5338.00    0.75987   0.66757    0.007
 5339.00    0.76247   0.68282    0.007
 5340.00    0.75764   0.70466    0.007
 5341.00    0.64617   0.71429    0.007
 5342.00    0.54742   0.70983    0.007
 5343.00    0.56784   0.70241    0.007
 5344.00    0.59772   0.70314    0.007
 5345.00    0.69216   0.69969    0.007
 5346.00    0.76712   0.68906    0.007
 5347.00    0.73929   0.69149    0.007
 5348.00    0.71612   0.70937    0.007
 5349.00    0.71271   0.72287    0.007
 5350.00    0.72297   0.72445    0.007
 5351.00    0.78115   0.72807    0.007
 5352.00    0.81969   0.73826    0.007
 5353.00    0.80039   0.74403    0.007
 5354.00    0.80746   0.74446    0.007
 5355.00    0.88081   0.74507    0.008
 5356.00    0.91857   0.74580    0.007
 5357.00    0.87929   0.74215    0.007
 5358.00    0.88436   0.73045    0.007
 5359.00    0.97272   0.71610    0.007
 5360.00    0.98190   0.70860    0.007
 5361.00    0.86122   0.70445    0.007
 5362.00    0.79266   0.69833    0.007
 5363.00    0.79908   0.69705    0.007
 5364.00    0.79309   0.69993    0.007
 5365.00    0.77140   0.70046    0.007
 5366.00    0.74317   0.69059    0.007
 5367.00    0.70763   0.66579    0.007
 5368.00    0.60442   0.64253   -2.000
 5369.00    0.43466   0.64847   -2.000
 5370.00    0.41758   0.68222   -2.000
 5371.00    0.53288   0.71219   -2.000
 5372.00    0.75231   0.72636   -2.000
 5373.00    1.05127   0.72798   -2.000
 5374.00    1.16118   0.72368   -2.000
 5375.00    1.14415   0.72290   -2.000
 5376.00    0.94207   0.72247   -2.000
 5377.00    0.63114   0.71645   -2.000
 5378.00    0.54144   0.70920   -2.000
 5379.00    0.56520   0.70457   -2.000
 5380.00    0.50425   0.69941   -2.000
 5381.00    0.40567   0.70034   -2.000
 5382.00    0.50042   0.70973   -2.000
 5383.00    0.66897   0.71676    0.007
 5384.00    0.72817   0.71752    0.007
 5385.00    0.75190   0.71355    0.007
 5386.00    0.65957   0.70459    0.007
 5387.00    0.53571   0.69493    0.007
 5388.00    0.61286   0.69023    0.007
 5389.00    0.73478   0.68769    0.007
 5390.00    0.71417   0.68426    0.007
 5391.00    0.66824   0.68281    0.007
 5392.00    0.67607   0.68238    0.007
 5393.00    0.69119   0.66879    0.007
 5394.00    0.67864   0.64838    0.007
 5395.00    0.66341   0.65418    0.007
 5396.00    0.64614   0.67931    0.007
 5397.00    0.62875   0.69159    0.007
 5398.00    0.66696   0.69360    0.007
 5399.00    0.70697   0.69796    0.007
 5400.00    0.80621   0.69054    0.007
 5401.00    0.89407   0.66360    0.007
 5402.00    0.68838   0.63572    0.007
 5403.00    0.50318   0.62964    0.007
 5404.00    0.59566   0.64945    0.007
 5405.00    0.67866   0.66819    0.007
 5406.00    0.67642   0.66254    0.007
 5407.00    0.67324   0.64741    0.007
 5408.00    0.66391   0.65293    0.007
 5409.00    0.67099   0.67558    0.007
 5410.00    0.76252   0.69278    0.007
 5411.00    0.82950   0.69484    0.007
 5412.00    0.79453   0.69143    0.007
 5413.00    0.74437   0.69786    0.007
 5414.00    0.64200   0.70872    0.007
 5415.00    0.59181   0.71112    0.007
 5416.00    0.69262   0.70538    0.007
 5417.00    0.79240   0.69804    0.007
 5418.00    0.88964   0.69701    0.007
 5419.00    0.92647   0.70240    0.007
 5420.00    0.83470   0.69783    0.007
 5421.00    0.78671   0.68247    0.007
 5422.00    0.81970   0.68120    0.007
 5423.00    0.79656   0.69764    0.007
 5424.00    0.68274   0.71353    0.007
 5425.00    0.63835   0.70540    0.007
 5426.00    0.69236   0.67022    0.007
 5427.00    0.68824   0.64986    0.007
 5428.00    0.61163   0.66477    0.007
 5429.00    0.61767   0.67737    0.007
 5430.00    0.71456   0.67003    0.007
 5431.00    0.76649   0.65670    0.007
 5432.00    0.77483   0.65153    0.007
 5433.00    0.75963   0.66049    0.007
 5434.00    0.72428   0.67777    0.007
 5435.00    0.69572   0.69719    0.007
 5436.00    0.67225   0.71128    0.007
 5437.00    0.67594   0.71735    0.007
 5438.00    0.69758   0.71860    0.007
 5439.00    0.69249   0.71895    0.007
 5440.00    0.67191   0.71875    0.007
 5441.00    0.68600   0.71007    0.007
 5442.00    0.71758   0.68646    0.007
 5443.00    0.76217   0.65224    0.007
 5444.00    0.81244   0.63378    0.007
 5445.00    0.80856   0.65081    0.007
 5446.00    0.78438   0.67883    0.007
 5447.00    0.76104   0.69310    0.007
 5448.00    0.73796   0.69516    0.007
 5449.00    0.75768   0.69275    0.007
 5450.00    0.78878   0.68628    0.007
 5451.00    0.73396   0.66809    0.007
 5452.00    0.66044   0.64019    0.007
 5453.00    0.76864   0.63301    0.007
 5454.00    0.90823   0.65814    0.007
 5455.00    0.79423   0.68571    0.007
 5456.00    0.64697   0.69541    0.007
 5457.00    0.75239   0.69068    0.007
 5458.00    0.88115   0.68165    0.007
 5459.00    0.82126   0.66919    0.007
 5460.00    0.75078   0.65710    0.007
 5461.00    0.64814   0.66109    0.007
 5462.00    0.54590   0.67484    0.007
 5463.00    0.55846   0.68010    0.007
 5464.00    0.57248   0.68187    0.007
 5465.00    0.62054   0.68728    0.007
 5466.00    0.67185   0.68744    0.007
 5467.00    0.76502   0.68033    0.007
 5468.00    0.84091   0.67625    0.007
 5469.00    0.76741   0.67569    0.007
 5470.00    0.70128   0.66892    0.007
 5471.00    0.68237   0.66348    0.007
 5472.00    0.65581   0.65837    0.007
 5473.00    0.59084   0.63774    0.007
 5474.00    0.53741   0.62387    0.007
 5475.00    0.53075   0.64263    0.007
 5476.00    0.51700   0.66973    0.007
 5477.00    0.47933   0.67299    0.007
 5478.00    0.49807   0.65832   -2.000
 5479.00    0.67705   0.65194   -2.000
 5480.00    0.75119   0.66080   -2.000
 5481.00    0.57082   0.67610   -2.000
 5482.00    0.46370   0.68862   -2.000
 5483.00    0.51005   0.68749   -2.000
 5484.00    0.73508   0.67396   -2.000
 5485.00    1.28551   0.66605   -2.000
 5486.00    1.94595   0.67116   -2.000
 5487.00    2.78150   0.67508   -2.000
 5488.00    3.29287   0.67768   -2.000
 5489.00    3.35140   0.68190   -2.000
 5490.00    3.07399   0.67946   -2.000
 5491.00    2.38357   0.67677   -2.000
 5492.00    1.61753   0.68050   -2.000
 5493.00    0.76952   0.67834   -2.000
 5494.00    0.30307   0.66516   -2.000
 5495.00    0.20135   0.66317   -2.000
 5496.00    0.22718   0.67764   -2.000
 5497.00    0.36052   0.68109   -2.000
 5498.00    0.40804   0.66673   -2.000
 5499.00    0.39185   0.65742   -2.000
 5500.00    0.41039   0.66236   -2.000
 5501.00    0.45157   0.67012   -2.000
 5502.00    0.52795   0.66733    0.007
 5503.00    0.62442   0.65257    0.007
 5504.00    0.65521   0.64761    0.007
 5505.00    0.65338   0.66182    0.007
 5506.00    0.60177   0.67261    0.007
 5507.00    0.52876   0.67204    0.007
 5508.00    0.46542   0.66351    0.007
 5509.00    0.40563   0.64845    0.007
 5510.00    0.38002   0.63904    0.007
 5511.00    0.36507   0.64159    0.007
 5512.00    0.44710   0.65162    0.007
 5513.00    0.55437   0.66239    0.007
 5514.00    0.50189   0.67132    0.007
 5515.00    0.41549   0.68140    0.007
 5516.00    0.54724   0.68859    0.007
 5517.00    0.71562   0.68838    0.007
 5518.00    0.66619   0.68497    0.007
 5519.00    0.58918   0.68268    0.007
 5520.00    0.64445   0.68267    0.007
 5521.00    0.71138   0.68226    0.007
 5522.00    0.65154   0.67670    0.007
 5523.00    0.58507   0.66478    0.007
 5524.00    0.53394   0.64711    0.007
 5525.00    0.48448   0.63180    0.007
 5526.00    0.53971   0.63847    0.006
 5527.00    0.59098   0.66144    0.006
 5528.00    0.55669   0.67582    0.006
 5529.00    0.52708   0.67597    0.006
 5530.00    0.55461   0.67165    0.006
 5531.00    0.58770   0.66532    0.006
 5532.00    0.66705   0.65896    0.006
 5533.00    0.73299   0.66233    0.006
 5534.00    0.71555   0.66968    0.006
 5535.00    0.69439   0.67126    0.007
 5536.00    0.65508   0.67406    0.016
 5537.00    0.64612   0.68158   -1.000
 5538.00    0.75765   0.68654   -1.000
 5539.00    0.82526   0.68246   -1.000
 5540.00    0.74796   0.67228   -1.000
 5541.00    0.70093   0.66771   -1.000
 5542.00    0.73831   0.66881   -1.000
 5543.00    0.74957   0.66906   -1.000
 5544.00    0.69855   0.67209   -1.000
 5545.00    0.65744   0.68035   -1.000
 5546.00    0.63679   0.68613   -1.000
 5547.00    0.59763   0.68704   -1.000
 5548.00    0.52526   0.68576   -1.000
 5549.00    0.46827   0.68161   -1.000
 5550.00    0.43541   0.67307   -1.000
 5551.00    0.43694   0.66434    0.030
 5552.00    0.48582   0.66373    0.009
 5553.00    0.53020   0.66892    0.006
 5554.00    0.56915   0.67039    0.006
 5555.00    0.59969   0.66944    0.006
 5556.00    0.62124   0.67051    0.006
 5557.00    0.60341   0.67177    0.006
 5558.00    0.54845   0.67052    0.006
 5559.00    0.54931   0.66448    0.007
 5560.00    0.59654   0.65666    0.007
 5561.00    0.56092   0.65448    0.007
 5562.00    0.46469   0.65349    0.007
 5563.00    0.42775   0.65142    0.006
 5564.00    0.42890   0.65281    0.006
 5565.00    0.54263   0.65393    0.006
 5566.00    0.71962   0.64877    0.006
 5567.00    0.79297   0.64847    0.006
 5568.00    0.81565   0.65509    0.006
 5569.00    0.86340   0.64967    0.006
 5570.00    0.92174   0.64255    0.006
 5571.00    0.84989   0.65195    0.006
 5572.00    0.73093   0.65989    0.006
 5573.00    0.68690   0.65799    0.006
 5574.00    0.66580   0.66076    0.006
 5575.00    0.56087   0.66421    0.006
 5576.00    0.43460   0.66480    0.006
 5577.00    0.54846   0.66658    0.006
 5578.00    0.71207   0.66294    0.006
 5579.00    0.72514   0.65650    0.006
 5580.00    0.71365   0.65769    0.006
 5581.00    0.69552   0.65990    0.006
 5582.00    0.67657   0.65362    0.006
 5583.00    0.70312   0.63654    0.006
 5584.00    0.73349   0.61644    0.006
 5585.00    0.69038   0.60541    0.006
 5586.00    0.64371   0.60658    0.006
 5587.00    0.71857   0.61906    0.007
 5588.00    0.79381   0.63370    0.007
 5589.00    0.78296   0.63938    0.007
 5590.00    0.76191   0.63660    0.008
 5591.00    0.53796   0.63174    0.008
 5592.00    0.34405   0.63893    0.008
 5593.00    0.49890   0.65585    0.007
 5594.00    0.62816   0.65596    0.007
 5595.00    0.55173   0.63773    0.007
 5596.00    0.52532   0.62847    0.007
 5597.00    0.80103   0.63007    0.007
 5598.00    1.02336   0.62590    0.007
 5599.00    0.99123   0.61684    0.007
 5600.00    0.93942   0.61748    0.007
 5601.00    0.81119   0.63616    0.007
 5602.00    0.69932   0.65766    0.007
 5603.00    0.64039   0.66952    0.007
 5604.00    0.59302   0.67304    0.007
 5605.00    0.57732   0.67194    0.007
 5606.00    0.58613   0.66995    0.006
 5607.00    0.65244   0.66899    0.006
 5608.00    0.66003   0.67037    0.006
 5609.00    0.54852   0.67298    0.006
 5610.00    0.52863   0.67005    0.006
 5611.00    0.67051   0.64927    0.006
 5612.00    0.74991   0.61642    0.006
 5613.00    0.73275   0.60871    0.006
 5614.00    0.69588   0.62965    0.006
 5615.00    0.63225   0.64528    0.006
 5616.00    0.58235   0.64675    0.006
 5617.00    0.54887   0.64729    0.006
 5618.00    0.51257   0.65298    0.006
 5619.00    0.47329   0.65800    0.006
 5620.00    0.46239   0.65071    0.006
 5621.00    0.47784   0.63160    0.006
 5622.00    0.53415   0.62317    0.006
 5623.00    0.62391   0.63434    0.006
 5624.00    0.65481   0.64610    0.006
 5625.00    0.64327   0.65105    0.006
 5626.00    0.62599   0.65656    0.006
 5627.00    0.60507   0.66112    0.006
 5628.00    0.59702   0.66215    0.006
 5629.00    0.59610   0.66082    0.006
 5630.00    0.58706   0.65796    0.006
 5631.00    0.57411   0.65479    0.006
 5632.00    0.63069   0.65091    0.006
 5633.00    0.71614   0.64499    0.006
 5634.00    0.75670   0.63859    0.006
 5635.00    0.78130   0.63708    0.006
 5636.00    0.68535   0.64129    0.006
 5637.00    0.55323   0.64121    0.006
 5638.00    0.58180   0.63527    0.006
 5639.00    0.65038   0.63623    0.006
 5640.00    0.60975   0.64170    0.006
 5641.00    0.54706   0.64385    0.006
 5642.00    0.50431   0.64546    0.006
 5643.00    0.46473   0.64721    0.006
 5644.00    0.57714   0.64973    0.006
 5645.00    0.70745   0.65087    0.006
 5646.00    0.67415   0.64875    0.006
 5647.00    0.62778   0.64729    0.006
 5648.00    0.56454   0.65097    0.006
 5649.00    0.50056   0.65677    0.006
 5650.00    0.63006   0.65742    0.006
 5651.00    0.75882   0.64963    0.006
 5652.00    0.74428   0.64285    0.006
 5653.00    0.73067   0.64328    0.006
 5654.00    0.73432   0.63202    0.006
 5655.00    0.73275   0.60561    0.006
 5656.00    0.67332   0.60103    0.006
 5657.00    0.61477   0.62347    0.006
 5658.00    0.56305   0.63447    0.006
 5659.00    0.53728   0.62547    0.006
 5660.00    0.66386   0.62291    0.006
 5661.00    0.77684   0.63431    0.006
 5662.00    0.82654   0.64494    0.006
 5663.00    0.84766   0.64519    0.006
 5664.00    0.76019   0.63771    0.006
 5665.00    0.67433   0.63264    0.006
 5666.00    0.59354   0.63360    0.006
 5667.00    0.54191   0.63702    0.006
 5668.00    0.56868   0.64013    0.006
 5669.00    0.58778   0.64691    0.006
 5670.00    0.58915   0.65474    0.006
 5671.00    0.58617   0.65581    0.006
 5672.00    0.57452   0.65086    0.006
 5673.00    0.58382   0.65102    0.006
 5674.00    0.62957   0.65565    0.006
 5675.00    0.66749   0.65393    0.006
 5676.00    0.69349   0.64919    0.006
 5677.00    0.67536   0.64846    0.006
 5678.00    0.59819   0.64657    0.006
 5679.00    0.57086   0.63596    0.006
 5680.00    0.60225   0.62814    0.006
 5681.00    0.60984   0.63101    0.006
 5682.00    0.59272   0.63710    0.006
 5683.00    0.57195   0.63591    0.006
 5684.00    0.54784   0.62776    0.006
 5685.00    0.60263   0.62289    0.006
 5686.00    0.72114   0.62699    0.006
 5687.00    0.66091   0.63706    0.006
 5688.00    0.47369   0.64579    0.006
 5689.00    0.38168   0.65190    0.006
 5690.00    0.34905   0.65402    0.006
 5691.00    0.39123   0.65086    0.006
 5692.00    0.47416   0.64873    0.006
 5693.00    0.54256   0.64932    0.006
 5694.00    0.60408   0.64661    0.006
 5695.00    0.66920   0.63756    0.006
 5696.00    0.73578   0.63341    0.006
 5697.00    0.81836   0.63101    0.006
 5698.00    0.90654   0.62340    0.006
 5699.00    0.84234   0.62023    0.006
 5700.00    0.73334   0.62653    0.006
 5701.00    0.64236   0.63482    0.006
 5702.00    0.55577   0.63377    0.006
 5703.00    0.59035   0.62455    0.006
 5704.00    0.64879   0.61715    0.006
 5705.00    0.62238   0.60746    0.006
 5706.00    0.58293   0.59757    0.006
 5707.00    0.62013   0.59889    0.006
 5708.00    0.66602   0.60227    0.006
 5709.00    0.63020   0.60754    0.006
 5710.00    0.58819   0.62408    0.006
 5711.00    0.56779   0.63693    0.006
 5712.00    0.54828   0.63999    0.006
 5713.00    0.54311   0.64244    0.006
 5714.00    0.53791   0.64230    0.006
 5715.00    0.52627   0.64069    0.006
 5716.00    0.51224   0.64406    0.006
 5717.00    0.45726   0.64794    0.006
 5718.00    0.40994   0.65070    0.006
 5719.00    0.44374   0.65417    0.006
 5720.00    0.48208   0.65524    0.006
 5721.00    0.55438   0.65367    0.006
 5722.00    0.62607   0.65008    0.006
 5723.00    0.69430   0.64100    0.006
 5724.00    0.74554   0.63095    0.006
 5725.00    0.71959   0.63296    0.006
 5726.00    0.69888   0.64238    0.006
 5727.00    0.69764   0.64354    0.006
 5728.00    0.69160   0.63548    0.006
 5729.00    0.67060   0.63394    0.006
 5730.00    0.64919   0.64157    0.006
 5731.00    0.62669   0.64773    0.006
 5732.00    0.59121   0.64938    0.006
 5733.00    0.52629   0.64629    0.006
 5734.00    0.50494   0.64339    0.006
 5735.00    0.56923   0.64316    0.006
 5736.00    0.60700   0.64296    0.006
 5737.00    0.59935   0.64266    0.006
 5738.00    0.58142   0.64247    0.006
 5739.00    0.54808   0.64106    0.006
 5740.00    0.55598   0.63951    0.000
 5741.00    0.61825   0.64178    0.000
 5742.00    0.63926   0.64775    0.000
 5743.00    0.61235   0.65004    0.000
 5744.00    0.57084   0.64192    0.000
 5745.00    0.51438   0.63194    0.000
 5746.00    0.55992   0.63520    0.000
 5747.00    0.69761   0.64527    0.000
 5748.00    0.77213   0.64664    0.000
 5749.00    0.79639   0.63534    0.000
 5750.00    0.74496   0.62013    0.000
 5751.00    0.64053   0.61397    0.000
 5752.00    0.57660   0.62377    0.000
 5753.00    0.53754   0.63827    0.000
 5754.00    0.51085   0.64665    0.000
 5755.00    0.49079   0.64982    0.000
 5756.00    0.51802   0.64661    0.000
 5757.00    0.56728   0.63837    0.000
 5758.00    0.61222   0.62811    0.000
 5759.00    0.65542   0.61769    0.000
 5760.00    0.60938   0.61534    0.000
 5761.00    0.53277   0.62824    0.000
 5762.00    0.48035   0.64079    0.000
 5763.00    0.43489   0.64443    0.000
 5764.00    0.34098   0.64465    0.000
 5765.00    0.23553   0.64428    0.000
 5766.00    0.33166   0.64273    0.000
 5767.00    0.46647   0.64146    0.000
 5768.00    0.57623   0.63923    0.000
 5769.00    0.68226   0.63556    0.000
 5770.00    0.76056   0.63447    0.000
 5771.00    0.83583   0.63284    0.000
 5772.00    0.78183   0.63176    0.000
 5773.00    0.71856   0.63507    0.000
 5774.00    0.65907   0.63772    0.000
 5775.00    0.59972   0.63655    0.000
 5776.00    0.61276   0.63103    0.000
 5777.00    0.62660   0.61734    0.000
 5778.00    0.65823   0.60199    0.000
 5779.00    0.68698   0.59938    0.000
 5780.00    0.66949   0.60598    0.000
 5781.00    0.65806   0.60728    0.000
 5782.00    0.70806   0.60376    0.000
 5783.00    0.75247   0.60935    0.000
 5784.00    0.75627   0.62140    0.000
 5785.00    0.74905   0.62827    0.000
 5786.00    0.68062   0.63116    0.000
 5787.00    0.62466   0.62598    0.000
 5788.00    0.62402   0.61904    0.000
 5789.00    0.62100   0.62300    0.000
 5790.00    0.60929   0.63079    0.000
 5791.00    0.59877   0.63624   -2.000
 5792.00    0.59188   0.64024   -2.000
 5793.00    0.57661   0.63785   -2.000
 5794.00    0.53954   0.62711   -2.000
 5795.00    0.51628   0.62186   -2.000
 5796.00    0.52385   0.63112   -2.000
 5797.00    0.55992   0.64088   -2.000
 5798.00    0.65112   0.64495   -2.000
 5799.00    0.68641   0.64715   -2.000
 5800.00    0.62735   0.64449   -2.000
 5801.00    0.63135   0.63583   -2.000
 5802.00    0.72855   0.63011   -2.000
 5803.00    0.75507   0.63004   -2.000
 5804.00    0.68973   0.63333   -2.000
 5805.00    0.62094   0.63559   -2.000
 5806.00    0.54820   0.63618   -2.000
 5807.00    0.50109   0.63762   -2.000
 5808.00    0.47986   0.63822   -2.000
 5809.00    0.52021   0.63750   -2.000
 5810.00    0.61541   0.63672   -2.000
 5811.00    0.66600   0.63418    0.000
 5812.00    0.68160   0.62671    0.000
 5813.00    0.67095   0.62073    0.000
 5814.00    0.64220   0.62413    0.000
 5815.00    0.67451   0.63378    0.000
 5816.00    0.74377   0.63942    0.000
 5817.00    0.75836   0.64061    0.000
 5818.00    0.74406   0.64059    0.000
 5819.00    0.70805   0.63901    0.000
 5820.00    0.66209   0.63646    0.000
 5821.00    0.66850   0.63649    0.000
 5822.00    0.69557   0.63931    0.000
 5823.00    0.72485   0.63992    0.000
 5824.00    0.75488   0.63929    0.000
 5825.00    0.78497   0.63895    0.000
 5826.00    0.81507   0.63956    0.000
 5827.00    0.82624   0.64009    0.000
 5828.00    0.83301   0.63879    0.000
 5829.00    0.80428   0.63804    0.000
 5830.00    0.76892   0.63728    0.000
 5831.00    0.65061   0.63475    0.000
 5832.00    0.52034   0.63334    0.000
 5833.00    0.55226   0.63597    0.000
 5834.00    0.60116   0.63632    0.000
 5835.00    0.67566   0.63210    0.000
 5836.00    0.75190   0.63111    0.000
 5837.00    0.76052   0.63507    0.000
 5838.00    0.76692   0.63981    0.000
 5839.00    0.72103   0.64129    0.000
 5840.00    0.67647   0.64061    0.000
 5841.00    0.67478   0.63810    0.000
 5842.00    0.66933   0.63460    0.000
 5843.00    0.60700   0.62949    0.000
 5844.00    0.55361   0.62334    0.000
 5845.00    0.58687   0.62225    0.000
 5846.00    0.61982   0.62472    0.000
 5847.00    0.65059   0.62575    0.000
 5848.00    0.68159   0.62312    0.000
 5849.00    0.71379   0.61408    0.000
 5850.00    0.72740   0.60320    0.000
 5851.00    0.66045   0.60309    0.000
 5852.00    0.59944   0.61042    0.000
 5853.00    0.55957   0.60720    0.000
 5854.00    0.52247   0.59205    0.000
 5855.00    0.49366   0.58708    0.000
 5856.00    0.48244   0.59755    0.000
 5857.00    0.51610   0.60859    0.000
 5858.00    0.53784   0.61343    0.000
 5859.00    0.53339   0.61038    0.000
 5860.00    0.54783   0.60953    0.000
 5861.00    0.59823   0.61526    0.000
 5862.00    0.65497   0.61711    0.000
 5863.00    0.72222   0.60917    0.000
 5864.00    0.76169   0.60442    0.000
 5865.00    0.76067   0.61139    0.000
 5866.00    0.73265   0.61961    0.000
 5867.00    0.67003   0.62349    0.000
 5868.00    0.61043   0.62408    0.000
 5869.00    0.55426   0.62062    0.000
 5870.00    0.54611   0.61743    0.000
 5871.00    0.58579   0.61487    0.000
 5872.00    0.61869   0.61089    0.000
 5873.00    0.64564   0.60728    0.000
 5874.00    0.68179   0.60716    0.000
 5875.00    0.72507   0.60870    0.000
 5876.00    0.71967   0.60512    0.000
 5877.00    0.68118   0.60094    0.000
 5878.00    0.65458   0.60248    0.000
 5879.00    0.63507   0.60597    0.000
 5880.00    0.65803   0.60357    0.000
 5881.00    0.70308   0.59927    0.000
 5882.00    0.73660   0.60007    0.000
 5883.00    0.76494   0.60222    0.000
 5884.00    0.76797   0.59534    0.000
 5885.00    0.76121   0.56280    0.000
 5886.00    0.68747   0.49904    0.000
 5887.00    0.59165   0.45645    0.000
 5888.00    0.52427   0.48601    0.000
 5889.00    0.46476   0.53665    0.000
 5890.00    0.43143   0.55920    0.000
 5891.00    0.40404   0.55294    0.000
 5892.00    0.39460   0.51201    0.000
 5893.00    0.38842   0.48056    0.000
 5894.00    0.38236   0.50957    0.000
 5895.00    0.37632   0.55358    0.000
 5896.00    0.43834   0.57042    0.000
 5897.00    0.50720   0.57940    0.000
 5898.00    0.53220   0.59018    0.000
 5899.00    0.55442   0.59551    0.000
 5900.00    0.53528   0.59745    0.000
 5901.00    0.51524   0.59812    0.006
 5902.00    0.59916   0.59629    0.006
 5903.00    0.67895   0.59476    0.006
 5904.00    0.64244   0.59755    0.006
 5905.00    0.60709   0.60147    0.006
 5906.00    0.58822   0.60060    0.006
 5907.00    0.56804   0.59982    0.006
 5908.00    0.53559   0.60344    0.006
 5909.00    0.51096   0.60339    0.006
 5910.00    0.53947   0.59405    0.006
 5911.00    0.57028   0.58208    0.006
 5912.00    0.61319   0.58011    0.005
 5913.00    0.64935   0.58454    0.005
 5914.00    0.65695   0.59138    0.005
 5915.00    0.64557   0.59616    0.006
 5916.00    0.56786   0.59855    0.005
 5917.00    0.50008   0.60066    0.005
 5918.00    0.46146   0.59820    0.005
 5919.00    0.43237   0.59408    0.005
 5920.00    0.42715   0.59537    0.005
 5921.00    0.45210   0.59933    0.005
 5922.00    0.54223   0.60222    0.005
 5923.00    0.59574   0.60363    0.005
 5924.00    0.58061   0.60165    0.005
 5925.00    0.54570   0.59713    0.005
 5926.00    0.47841   0.59046    0.005
 5927.00    0.47867   0.58634    0.005
 5928.00    0.57593   0.59306    0.005
 5929.00    0.64815   0.60245    0.005
 5930.00    0.68875   0.60147    0.005
 5931.00    0.70716   0.59281    0.005
 5932.00    0.70085   0.58961    0.005
 5933.00    0.68348   0.59593    0.005
 5934.00    0.65525   0.60134    0.005
 5935.00    0.61768   0.60322    0.005
 5936.00    0.57202   0.60313    0.005
 5937.00    0.57359   0.59723    0.005
 5938.00    0.61119   0.58860    0.005
 5939.00    0.64357   0.58842    0.005
 5940.00    0.67247   0.59414    0.005
 5941.00    0.68275   0.59833    0.005
 5942.00    0.68211   0.60200    0.006
 5943.00    0.68914   0.60422    0.006
 5944.00    0.70010   0.59975    0.006
 5945.00    0.65631   0.58872    0.006
 5946.00    0.58824   0.58279    0.005
 5947.00    0.55118   0.58919    0.005
 5948.00    0.52593   0.59513    0.005
 5949.00    0.53722   0.58936    0.005
 5950.00    0.56033   0.58406    0.005
 5951.00    0.59061   0.58997    0.005
 5952.00    0.62282   0.59428    0.005
 5953.00    0.64653   0.58872    0.005
 5954.00    0.66836   0.58421    0.005
 5955.00    0.63352   0.58736    0.005
 5956.00    0.58865   0.59327    0.005
 5957.00    0.53160   0.59930    0.005
 5958.00    0.47291   0.60286    0.005
 5959.00    0.47041   0.60393    0.005
 5960.00    0.47330   0.60319    0.005
 5961.00    0.49536   0.60093    0.005
 5962.00    0.51857   0.59622    0.005
 5963.00    0.59365   0.59297    0.005
 5964.00    0.66962   0.59633    0.005
 5965.00    0.67972   0.60028    0.005
 5966.00    0.68841   0.60241    0.005
 5967.00    0.66159   0.60403    0.005
 5968.00    0.63902   0.60454    0.005
 5969.00    0.67363   0.60350    0.005
 5970.00    0.69997   0.60266    0.005
 5971.00    0.65226   0.60002    0.005
 5972.00    0.61025   0.59286    0.005
 5973.00    0.60578   0.58517    0.006
 5974.00    0.60281   0.58131    0.006
 5975.00    0.60749   0.58270    0.005
 5976.00    0.62011   0.58848    0.005
 5977.00    0.66560   0.59523    0.005
 5978.00    0.69509   0.59767    0.005
 5979.00    0.66973   0.59481    0.005
 5980.00    0.62757   0.58477    0.005
 5981.00    0.53691   0.57470    0.005
 5982.00    0.47692   0.57670    0.005
 5983.00    0.49249   0.58504    0.005
 5984.00    0.52559   0.58896    0.005
 5985.00    0.59595   0.58980    0.005
 5986.00    0.65506   0.59250    0.005
 5987.00    0.69342   0.59361    0.005
 5988.00    0.70651   0.59021    0.005
 5989.00    0.67885   0.59081    0.005
 5990.00    0.64910   0.59762    0.005
 5991.00    0.61639   0.60238    0.005
 5992.00    0.60920   0.60049    0.005
 5993.00    0.63377   0.59532    0.005
 5994.00    0.65773   0.58993    0.005
 5995.00    0.68102   0.58785    0.005
 5996.00    0.66944   0.58952    0.005
 5997.00    0.62410   0.59226    0.005
 5998.00    0.56318   0.59222    0.005
 5999.00    0.48894   0.58590    0.005
 6000.00    0.47174   0.58119    0.005
 6001.00    0.49739   0.58551    0.005
 6002.00    0.53528   0.58939    0.005
 6003.00    0.58124   0.58515    0.005
 6004.00    0.63202   0.57594    0.005
 6005.00    0.68559   0.56888    0.005
 6006.00    0.66342   0.57523    0.005
 6007.00    0.60310   0.58829    0.005
 6008.00    0.51624   0.59241    0.005
 6009.00    0.41780   0.58631    0.005
 6010.00    0.41681   0.58030    0.005
 6011.00    0.45228   0.58289    0.005
 6012.00    0.45931   0.58631    0.005
 6013.00    0.45730   0.58229    0.005
 6014.00    0.47707   0.58041    0.005
 6015.00    0.50262   0.58413    0.005
 6016.00    0.50514   0.58224    0.005
 6017.00    0.50268   0.57514    0.005
 6018.00    0.54907   0.57297    0.005
 6019.00    0.60386   0.57669    0.005
 6020.00    0.64890   0.57887    0.005
 6021.00    0.69266   0.57935    0.005
 6022.00    0.67384   0.58473    0.005
 6023.00    0.64927   0.58855    0.005
 6024.00    0.61172   0.58754    0.005
 6025.00    0.57345   0.59097    0.005
 6026.00    0.53510   0.59556    0.005
 6027.00    0.49713   0.59530    0.005
 6028.00    0.49680   0.59374    0.005
 6029.00    0.49908   0.59562    0.005
 6030.00    0.56177   0.59798    0.005
 6031.00    0.62013   0.59813    0.005
 6032.00    0.62328   0.59752    0.005
 6033.00    0.62852   0.59680    0.005
 6034.00    0.65169   0.59635    0.005
 6035.00    0.66134   0.59520    0.005
 6036.00    0.58459   0.59211    0.005
 6037.00    0.52867   0.59008    0.005
 6038.00    0.57679   0.59067    0.005
 6039.00    0.62827   0.59131    0.005
 6040.00    0.69333   0.59441    0.005
 6041.00    0.73123   0.59734    0.005
 6042.00    0.67798   0.59781    0.005
 6043.00    0.63332   0.59792    0.005
 6044.00    0.61301   0.59880    0.005
 6045.00    0.60352   0.59814    0.005
 6046.00    0.62023   0.59639    0.005
 6047.00    0.62823   0.59758    0.005
 6048.00    0.61798   0.59877    0.005
 6049.00    0.60365   0.59708    0.005
 6050.00    0.58188   0.59382    0.005
 6051.00    0.56494   0.59089    0.005
 6052.00    0.55569   0.58689    0.005
 6053.00    0.53934   0.58362    0.005
 6054.00    0.51310   0.58471    0.005
 6055.00    0.51412   0.58837    0.005
 6056.00    0.54858   0.59232    0.005
 6057.00    0.57318   0.59415    0.005
 6058.00    0.58711   0.59405    0.005
 6059.00    0.57183   0.59092    0.005
 6060.00    0.52867   0.58522    0.005
 6061.00    0.49982   0.57575    0.005
 6062.00    0.48301   0.56538    0.005
 6063.00    0.50984   0.57016    0.005
 6064.00    0.56898   0.58576    0.005
 6065.00    0.60698   0.59521    0.005
 6066.00    0.63121   0.59747    0.005
 6067.00    0.64996   0.59774    0.005
 6068.00    0.66557   0.59823    0.005
 6069.00    0.65495   0.59872    0.005
 6070.00    0.63132   0.59846    0.005
 6071.00    0.60773   0.59771    0.005
 6072.00    0.58416   0.59730    0.005
 6073.00    0.54157   0.59446    0.005
 6074.00    0.49200   0.58861    0.005
 6075.00    0.45996   0.58090    0.005
 6076.00    0.43339   0.57845    0.005
 6077.00    0.43416   0.58078    0.005
 6078.00    0.44203   0.57881    0.005
 6079.00    0.43216   0.57532    0.005
 6080.00    0.41852   0.57688    0.005
 6081.00    0.46233   0.57907    0.005
 6082.00    0.51574   0.57737    0.005
 6083.00    0.53556   0.57842    0.005
 6084.00    0.55115   0.58324    0.005
 6085.00    0.55186   0.58568    0.005
 6086.00    0.55125   0.58034    0.005
 6087.00    0.54776   0.57319    0.005
 6088.00    0.54412   0.57293    0.005
 6089.00    0.55296   0.57605    0.005
 6090.00    0.56194   0.57788    0.005
 6091.00    0.56533   0.58301    0.005
 6092.00    0.57290   0.58919    0.005
 6093.00    0.66964   0.58850    0.005
 6094.00    0.75647   0.58532    0.005
 6095.00    0.72311   0.58588    0.005
 6096.00    0.68844   0.58853    0.005
 6097.00    0.64285   0.58813    0.005
 6098.00    0.60297   0.57538    0.005
 6099.00    0.59848   0.55021    0.005
 6100.00    0.59642   0.54192    0.005
 6101.00    0.60616   0.56104    0.005
 6102.00    0.61727   0.57923    0.005
 6103.00    0.63374   0.58302    0.005
 6104.00    0.64594   0.57848    0.005
 6105.00    0.64410   0.57577    0.005
 6106.00    0.63084   0.58067    0.005
 6107.00    0.58585   0.58380    0.005
 6108.00    0.54339   0.58025    0.005
 6109.00    0.50698   0.57971    0.005
 6110.00    0.49075   0.58462    0.005
 6111.00    0.51604   0.58785    0.005
 6112.00    0.54705   0.58568    0.005
 6113.00    0.58832   0.58080    0.005
 6114.00    0.62405   0.58096    0.005
 6115.00    0.65111   0.58369    0.005
 6116.00    0.64568   0.57859    0.005
 6117.00    0.59560   0.56768    0.005
 6118.00    0.54596   0.55320    0.005
 6119.00    0.49684   0.54238    0.005
 6120.00    0.47914   0.55252    0.005
 6121.00    0.49494   0.57061    0.005
 6122.00    0.49192   0.57500    0.005
 6123.00    0.47121   0.57170    0.005
 6124.00    0.49246   0.57004    0.005
 6125.00    0.54852   0.57050    0.005
 6126.00    0.57764   0.57421    0.005
 6127.00    0.58709   0.58069    0.005
 6128.00    0.53430   0.58343    0.005
 6129.00    0.44160   0.58177    0.005
 6130.00    0.39524   0.58005    0.005
 6131.00    0.37488   0.57396    0.005
 6132.00    0.43660   0.55806    0.005
 6133.00    0.53839   0.53342    0.005
 6134.00    0.62056   0.51846    0.005
 6135.00    0.69447   0.53434    0.005
 6136.00    0.71943   0.56273    0.005
 6137.00    0.72673   0.57095    0.005
 6138.00    0.67626   0.55902    0.005
 6139.00    0.60817   0.55424    0.005
 6140.00    0.53311   0.56631    0.005
 6141.00    0.45629   0.57886    0.005
 6142.00    0.49645   0.58286    0.005
 6143.00    0.56077   0.58210    0.005
 6144.00    0.61584   0.57847    0.005
 6145.00    0.66940   0.57123    0.005
 6146.00    0.62944   0.56475    0.005
 6147.00    0.57810   0.56197    0.005
 6148.00    0.52481   0.56491    0.005
 6149.00    0.47135   0.57143    0.005
 6150.00    0.42850   0.57492    0.005
 6151.00    0.38616   0.56950    0.005
 6152.00    0.38247   0.56452    0.005
 6153.00    0.38086   0.56592    0.005
 6154.00    0.46712   0.56597    0.005
 6155.00    0.55304   0.56373    0.005
 6156.00    0.63251   0.55929    0.005
 6157.00    0.70756   0.54349    0.005
 6158.00    0.73160   0.51536    0.005
 6159.00    0.74636   0.49669    0.005
 6160.00    0.68678   0.50236    0.005
 6161.00    0.63522   0.52092    0.005
 6162.00    0.63196   0.53488    0.005
 6163.00    0.62489   0.54081    0.005
 6164.00    0.59973   0.54370    0.005
 6165.00    0.57617   0.53649    0.005
 6166.00    0.55881   0.51945    0.005
 6167.00    0.54118   0.51705    0.005
 6168.00    0.52268   0.53438    0.005
 6169.00    0.51767   0.54737    0.005
 6170.00    0.54951   0.54721    0.005
 6171.00    0.57795   0.54667    0.005
 6172.00    0.59840   0.54808    0.005
 6173.00    0.59108   0.54734    0.005
 6174.00    0.52753   0.54831    0.005
 6175.00    0.47622   0.55392    0.005
 6176.00    0.44647   0.55526    0.005
 6177.00    0.44414   0.55321    0.005
 6178.00    0.48411   0.55625    0.005
 6179.00    0.51550   0.55973    0.005
 6180.00    0.53526   0.55999    0.005
 6181.00    0.53264   0.55898    0.005
 6182.00    0.50334   0.55572    0.005
 6183.00    0.48999   0.54903    0.005
 6184.00    0.49343   0.54373    0.005
 6185.00    0.51933   0.54160    0.005
 6186.00    0.56608   0.53950    0.005
 6187.00    0.60360   0.52963    0.005
 6188.00    0.63359   0.51493    0.005
 6189.00    0.63504   0.51818    0.005
 6190.00    0.61596   0.53718    0.005
 6191.00    0.58168   0.54907    0.005
 6192.00    0.53779   0.55156    0.005
 6193.00    0.63325   0.55298    0.005
 6194.00    0.80568   0.55377    0.005
 6195.00    1.24830   0.54915    0.005
 6196.00    1.82066   0.53881   -2.000
 6197.00    2.27239   0.53429   -2.000
 6198.00    2.67412   0.54101   -2.000
 6199.00    2.47168   0.54974   -2.000
 6200.00    2.05508   0.55322   -2.000
 6201.00    1.19139   0.55281   -2.000
 6202.00    0.19389   0.55333   -2.000
 6203.00   -0.34884   0.55538   -2.000
 6204.00   -0.77861   0.55648   -2.000
 6205.00   -0.61313   0.55636   -2.000
 6206.00   -0.32780   0.55550   -2.000
 6207.00    0.02268   0.55227   -2.000
 6208.00    0.38344   0.54804    0.005
 6209.00    0.46606   0.54151    0.005
 6210.00    0.51610   0.52938    0.005
 6211.00    0.46316   0.52115    0.005
 6212.00    0.40204   0.52032    0.005
 6213.00    0.35893   0.52496    0.005
 6214.00    0.31661   0.53334    0.005
 6215.00    0.35245   0.53471    0.005
 6216.00    0.38879   0.52693    0.005
 6217.00    0.40789   0.52399    0.005
 6218.00    0.42445   0.52885    0.005
 6219.00    0.39474   0.53444    0.005
 6220.00    0.36788   0.53568    0.005
 6221.00    0.37237   0.53397    0.005
 6222.00    0.38025   0.53528    0.005
 6223.00    0.41421   0.53765    0.005
 6224.00    0.44671   0.53780    0.005
 6225.00    0.47069   0.53470    0.005
 6226.00    0.48982   0.52347    0.005
 6227.00    0.48646   0.50814    0.005
 6228.00    0.48838   0.50444    0.005
 6229.00    0.51034   0.51327    0.005
 6230.00    0.52388   0.52449    0.005
 6231.00    0.51080   0.53660    0.005
 6232.00    0.49144   0.54391    0.005
 6233.00    0.45524   0.54237    0.005
 6234.00    0.43925   0.53704    0.005
 6235.00    0.46980   0.53118    0.005
 6236.00    0.49369   0.52586    0.005
 6237.00    0.50429   0.52324    0.005
 6238.00    0.51347   0.52532    0.005
 6239.00    0.52020   0.52288    0.005
 6240.00    0.55035   0.51609    0.005
 6241.00    0.61610   0.51605    0.005
 6242.00    0.63465   0.51770    0.005
 6243.00    0.59020   0.51772    0.005
 6244.00    0.52999   0.52409    0.005
 6245.00    0.45125   0.53417    0.005
 6246.00    0.39624   0.53933    0.005
 6247.00    0.36582   0.53783    0.005
 6248.00    0.36670   0.52828    0.005
 6249.00    0.39620   0.51462    0.005
 6250.00    0.42663   0.50901    0.005
 6251.00    0.45781   0.51153    0.005
 6252.00    0.46531   0.51381    0.005
 6253.00    0.45602   0.51019    0.005
 6254.00    0.44480   0.50372    0.005
 6255.00    0.43236   0.50065    0.005
 6256.00    0.49315   0.50753    0.005
 6257.00    0.59376   0.51865    0.005
 6258.00    0.81222   0.52502    0.005
 6259.00    1.08637   0.53231    0.005
 6260.00    1.24473   0.53847    0.006
 6261.00    1.35591   0.53461    0.006
 6262.00    1.12913   0.52757    0.006
 6263.00    0.78473   0.52959    0.007
 6264.00    0.42831   0.53504    0.006
 6265.00    0.06835   0.53442    0.006
 6266.00    0.06732   0.53056    0.006
 6267.00    0.15347   0.52961    0.006
 6268.00    0.28161   0.53265    0.005
 6269.00    0.41799   0.53698    0.005
 6270.00    0.46369   0.53877    0.005
 6271.00    0.49551   0.53727    0.005
 6272.00    0.44341   0.53665    0.005
 6273.00    0.38185   0.53712    0.005
 6274.00    0.34439   0.53679    0.005
 6275.00    0.30875   0.53430    0.005
 6276.00    0.37149   0.52794    0.005
 6277.00    0.43818   0.52086    0.005
 6278.00    0.46117   0.52086    0.005
 6279.00    0.48276   0.52681    0.005
 6280.00    0.46088   0.53229    0.000
 6281.00    0.44251   0.53431    0.000
 6282.00    0.48386   0.53410    0.000
 6283.00    0.52509   0.53732    0.000
 6284.00    0.56513   0.54277    0.000
 6285.00    0.59926   0.54642    0.000
 6286.00    0.58929   0.54639    0.000
 6287.00    0.57828   0.54162    0.000
 6288.00    0.56126   0.53631    0.000
 6289.00    0.54633   0.53446    0.000
 6290.00    0.54086   0.53553    0.000
 6291.00    0.53568   0.53749    0.000
 6292.00    0.53160   0.53480    0.000
 6293.00    0.51927   0.52637    0.000
 6294.00    0.48132   0.52104    0.000
 6295.00    0.45783   0.52413    0.000
 6296.00    0.47248   0.52864    0.000
 6297.00    0.49969   0.52559    0.000
 6298.00    0.55533   0.51803    0.000
 6299.00    0.59415   0.51682    0.000
 6300.00    0.59997   0.52424    0.000
 6301.00    0.61112   0.53172    0.000
 6302.00    0.63135   0.53403    0.000
 6303.00    0.62691   0.53667    0.000
 6304.00    0.58555   0.54273    0.000
 6305.00    0.55920   0.54565    0.000
 6306.00    0.55264   0.54255    0.000
 6307.00    0.55133   0.53749    0.000
 6308.00    0.55610   0.53397    0.000
 6309.00    0.54603   0.53376    0.000
 6310.00    0.52079   0.53414    0.000
 6311.00    0.48949   0.52905    0.000
 6312.00    0.45271   0.52430    0.000
 6313.00    0.45011   0.52610    0.000
 6314.00    0.47467   0.52389    0.000
 6315.00    0.48717   0.51747    0.000
 6316.00    0.49125   0.52097    0.000
 6317.00    0.46126   0.53015    0.000
 6318.00    0.41040   0.53329    0.000
 6319.00    0.38958   0.53280    0.000
 6320.00    0.38486   0.53559    0.000
 6321.00    0.38904   0.54001    0.005
 6322.00    0.39738   0.54172    0.005
 6323.00    0.43670   0.54140    0.005
 6324.00    0.48845   0.53978    0.005
 6325.00    0.53717   0.54016    0.005
 6326.00    0.58485   0.54020    0.005
 6327.00    0.62805   0.53822    0.005
 6328.00    0.66997   0.54016    0.005
 6329.00    0.66941   0.54513    0.005
 6330.00    0.65877   0.54579    0.005
 6331.00    0.64407   0.53595    0.005
 6332.00    0.62860   0.52070    0.005
 6333.00    0.59223   0.51528    0.005
 6334.00    0.55277   0.52224    0.005
 6335.00    0.54420   0.53009    0.005
 6336.00    0.53897   0.53464    0.005
 6337.00    0.52276   0.53962    0.005
 6338.00    0.50576   0.54240    0.005
 6339.00    0.48161   0.53915    0.005
 6340.00    0.45720   0.53086    0.005
 6341.00    0.47494   0.52437    0.005
 6342.00    0.49267   0.52589    0.005
 6343.00    0.50442   0.52933    0.005
 6344.00    0.51583   0.53191    0.005
 6345.00    0.52167   0.53618    0.005
 6346.00    0.52894   0.54047    0.005
 6347.00    0.55053   0.54200    0.005
 6348.00    0.56424   0.54163    0.005
 6349.00    0.52108   0.53954    0.005
 6350.00    0.47949   0.53404    0.005
 6351.00    0.44655   0.52671    0.005
 6352.00    0.41714   0.52372    0.005
 6353.00    0.40330   0.52626    0.005
 6354.00    0.39276   0.52457    0.005
 6355.00    0.39421   0.51660    0.005
 6356.00    0.39906   0.51331    0.005
 6357.00    0.41427   0.51600    0.005
 6358.00    0.43759   0.51546    0.005
 6359.00    0.48195   0.51221    0.005
 6360.00    0.51686   0.51315    0.005
 6361.00    0.53073   0.51809    0.005
 6362.00    0.53371   0.52284    0.005
 6363.00    0.51568   0.52668    0.005
 6364.00    0.49400   0.53138    0.005
 6365.00    0.46618   0.53503    0.005
 6366.00    0.42994   0.53407    0.005
 6367.00    0.38129   0.53184    0.005
 6368.00    0.34267   0.53298    0.005
 6369.00    0.31707   0.53732    0.005
 6370.00    0.33990   0.54076    0.005
 6371.00    0.41808   0.54090    0.005
 6372.00    0.46957   0.53978    0.005
 6373.00    0.49417   0.53914    0.005
 6374.00    0.47497   0.53664    0.005
 6375.00    0.41684   0.53118    0.005
 6376.00    0.38519   0.52689    0.005
 6377.00    0.37427   0.52614    0.005
 6378.00    0.39174   0.52819    0.005
 6379.00    0.42877   0.53202    0.005
 6380.00    0.48936   0.53327    0.005
 6381.00    0.56419   0.53123    0.005
 6382.00    0.60050   0.53081    0.005
 6383.00    0.61651   0.53317    0.005
 6384.00    0.57909   0.53458    0.005
 6385.00    0.51723   0.53355    0.005
 6386.00    0.48583   0.53262    0.005
 6387.00    0.46641   0.53218    0.005
 6388.00    0.46370   0.52903    0.005
 6389.00    0.46659   0.51928    0.005
 6390.00    0.47257   0.50964    0.005
 6391.00    0.47943   0.51337    0.005
 6392.00    0.51957   0.52656    0.005
 6393.00    0.56742   0.53589    0.005
 6394.00    0.59837   0.53794    0.005
 6395.00    0.62617   0.53031    0.005
 6396.00    0.62020   0.51311    0.005
 6397.00    0.60937   0.50445    0.005
 6398.00    0.56922   0.51708    0.005
 6399.00    0.52602   0.53339    0.005
 6400.00    0.53053   0.54010    0.005
 6401.00    0.53825   0.54114    0.005
 6402.00    0.59360   0.53897    0.005
 6403.00    0.65051   0.53304    0.005
 6404.00    0.60785   0.52550    0.005
 6405.00    0.56486   0.52408    0.005
 6406.00    0.51201   0.52998    0.005
 6407.00    0.46347   0.53024    0.005
 6408.00    0.47952   0.52242    0.005
 6409.00    0.49641   0.52034    0.005
 6410.00    0.52140   0.52533    0.005
 6411.00    0.54066   0.52910    0.005
 6412.00    0.51981   0.53080    0.005
 6413.00    0.50091   0.53231    0.005
 6414.00    0.49250   0.53244    0.005
 6415.00    0.48675   0.52983    0.005
 6416.00    0.49255   0.52229    0.005
 6417.00    0.50347   0.51237    0.005
 6418.00    0.53262   0.51067    0.005
 6419.00    0.55570   0.52186    0.005
 6420.00    0.56066   0.53402    0.005
 6421.00    0.56950   0.53714    0.005
 6422.00    0.58823   0.53612    0.005
 6423.00    0.59749   0.53704    0.005
 6424.00    0.58601   0.53884    0.005
 6425.00    0.57252   0.53716    0.005
 6426.00    0.55522   0.52850    0.005
 6427.00    0.53519   0.51634    0.005
 6428.00    0.51063   0.51238    0.005
 6429.00    0.48689   0.51958    0.005
 6430.00    0.46433   0.52817    0.005
 6431.00    0.44921   0.53338    0.005
 6432.00    0.44361   0.53636    0.005
 6433.00    0.45070   0.53618    0.005
 6434.00    0.47207   0.52829    0.005
 6435.00    0.49022   0.51384    0.005
 6436.00    0.50516   0.50896    0.005
 6437.00    0.51783   0.52096    0.005
 6438.00    0.52849   0.53465    0.005
 6439.00    0.51253   0.54036    0.005
 6440.00    0.47603   0.54202    0.005
 6441.00    0.42299   0.54216    0.005
 6442.00    0.35872   0.54247    0.005
 6443.00    0.34855   0.54248    0.005
 6444.00    0.37057   0.53762    0.005
 6445.00    0.40915   0.52318    0.005
 6446.00    0.45633   0.50311    0.005
 6447.00    0.45738   0.49659    0.005
 6448.00    0.43769   0.51029    0.005
 6449.00    0.43358   0.52613    0.005
 6450.00    0.43548   0.53236    0.005
 6451.00    0.43869   0.52858    0.005
 6452.00    0.44233   0.52017    0.005
 6453.00    0.48455   0.51817    0.005
 6454.00    0.53741   0.52621    0.005
 6455.00    0.55604   0.53555    0.005
 6456.00    0.56690   0.53970    0.005
 6457.00    0.50599   0.53576    0.005
 6458.00    0.43207   0.51993    0.005
 6459.00    0.40864   0.50102    0.005
 6460.00    0.39222   0.50044    0.005
 6461.00    0.40047   0.51534    0.005
 6462.00    0.41117   0.52745    0.005
 6463.00    0.43771   0.53352    0.005
 6464.00    0.46525   0.53598    0.005
 6465.00    0.46172   0.53416    0.005
 6466.00    0.45728   0.52953    0.005
 6467.00    0.45000   0.52438    0.005
 6468.00    0.44366   0.52012    0.005
 6469.00    0.46352   0.52110    0.005
 6470.00    0.48208   0.52393    0.005
 6471.00    0.48215   0.52087    0.005
 6472.00    0.48096   0.51663    0.005
 6473.00    0.46807   0.51913    0.005
 6474.00    0.45657   0.52488    0.005
 6475.00    0.45449   0.52732    0.005
 6476.00    0.45191   0.52639    0.005
 6477.00    0.44674   0.52074    0.005
 6478.00    0.44252   0.50989    0.005
 6479.00    0.44232   0.50243    0.005
 6480.00    0.44840   0.50532    0.005
 6481.00    0.47642   0.51340    0.005
 6482.00    0.49669   0.51892    0.005
 6483.00    0.49421   0.52079    0.005
 6484.00    0.49276   0.52154    0.005
 6485.00    0.49392   0.52119    0.005
 6486.00    0.49210   0.51850    0.005
 6487.00    0.48387   0.51425    0.005
 6488.00    0.47457   0.50979    0.005
 6489.00    0.46326   0.50132    0.005
 6490.00    0.44590   0.48365    0.005
 6491.00    0.41866   0.46474    0.005
 6492.00    0.40859   0.45810    0.005
 6493.00    0.42316   0.46247    0.005
 6494.00    0.43750   0.47174    0.005
 6495.00    0.45155   0.48089    0.005
 6496.00    0.46575   0.48739    0.005
 6497.00    0.48012   0.49618    0.005
 6498.00    0.49575   0.50514    0.005
 6499.00    0.51263   0.51090    0.005
 6500.00    0.52647   0.51419    0.005
 6501.00    0.53769   0.51649    0.005
 6502.00    0.53545   0.51856    0.005
 6503.00    0.52295   0.51867    0.005
 6504.00    0.51969   0.51601    0.005
 6505.00    0.52260   0.51330    0.005
 6506.00    0.53710   0.51374    0.005
 6507.00    0.55838   0.51622    0.005
 6508.00    0.52685   0.51747    0.005
 6509.00    0.46836   0.51714    0.005
 6510.00    0.45426   0.51555    0.005
 6511.00    0.45980   0.51166    0.005
 6512.00    0.48394   0.50659    0.005
 6513.00    0.51515   0.50288    0.005
 6514.00    0.51704   0.50099    0.005
 6515.00    0.50945   0.50045    0.005
 6516.00    0.49919   0.50417    0.005
 6517.00    0.48821   0.51096    0.005
 6518.00    0.48348   0.51522    0.005
 6519.00    0.48014   0.51574    0.005
 6520.00    0.46555   0.51519    0.005
 6521.00    0.44899   0.51524    0.005
 6522.00    0.38257   0.51338    0.005
 6523.00    0.30945   0.50897    0.005
 6524.00    0.29614   0.50723    0.005
 6525.00    0.28854   0.51046    0.005
 6526.00    0.31528   0.51422    0.005
 6527.00    0.34406   0.51440    0.005
 6528.00    0.36644   0.51128    0.000
 6529.00    0.38878   0.50792    0.000
 6530.00    0.42730   0.50730    0.000
 6531.00    0.46466   0.51018    0.000
 6532.00    0.47265   0.51346    0.000
 6533.00    0.47638   0.51427    0.000
 6534.00    0.42309   0.51350    0.000
 6535.00    0.37749   0.51413    0.000
 6536.00    0.40042   0.51620    0.000
 6537.00    0.42295   0.51696    0.000
 6538.00    0.44287   0.51432    0.000
 6539.00    0.45946   0.50978    0.000
 6540.00    0.45905   0.50584    0.000
 6541.00    0.46795   0.50094    0.000
 6542.00    0.51532   0.49281    0.000
 6543.00    0.55746   0.48754    0.000
 6544.00    0.58174   0.49146    0.000
 6545.00    0.61393   0.49822    0.000
 6546.00    0.66891   0.49984    0.000
 6547.00    0.69411   0.49686    0.000
 6548.00    0.64609   0.49360    0.000
 6549.00    0.59960   0.49092    0.000
 6550.00    0.55637   0.48633    0.000
 6551.00    0.53846   0.47954    0.000
 6552.00    0.56720   0.47449    0.000
 6553.00    0.59834   0.47396    0.000
 6554.00    0.63334   0.47503    0.000
 6555.00    0.72788   0.47223    0.000
 6556.00    0.90651   0.46258    0.000
 6557.00    1.13920   0.43839    0.000
 6558.00    1.43905   0.38755    0.000
 6559.00    1.67174   0.33290    0.000
 6560.00    1.83084   0.33261    0.000
 6561.00    1.82379   0.38835    0.000
 6562.00    1.65621   0.44108    0.000
 6563.00    1.37097   0.46580    0.000
 6564.00    0.98549   0.47515    0.000
 6565.00    0.70020   0.47694    0.000
 6566.00    0.49007   0.47716    0.000
 6567.00    0.38267   0.48063    0.000
 6568.00    0.34298   0.48226    0.000
 6569.00    0.32594   0.47827    0.000
 6570.00    0.32198   0.47353    0.000
 6571.00    0.36475   0.47381    0.000
 6572.00    0.43102   0.48073    0.000
 6573.00    0.49939   0.49090    0.000
 6574.00    0.56869   0.49812    0.000
 6575.00    0.61607   0.50023    0.000
 6576.00    0.65526   0.49832    0.000
 6577.00    0.70716   0.49467    0.000
 6578.00    0.76307   0.49370    0.000
 6579.00    0.83532   0.49748    0.000
 6580.00    0.91188   0.50086    0.000
 6581.00    0.91091   0.50042    0.000
 6582.00    0.89317   0.49778    0.000
 6583.00    0.83020   0.49684    0.000
 6584.00    0.75948   0.50039    0.000
 6585.00    0.64104   0.50498    0.000
 6586.00    0.51639   0.50672    0.000
 6587.00    0.45935   0.50429    0.000
 6588.00    0.40849   0.49454    0.000
 6589.00    0.45679   0.47945    0.000
 6590.00    0.51056   0.47193    0.000
 6591.00    0.51016   0.48029    0.000
 6592.00    0.50831   0.49330    0.000
 6593.00    0.47815   0.49835    0.000
 6594.00    0.44954   0.49633    0.000
 6595.00    0.45616   0.49376    0.000
 6596.00    0.46243   0.49638    0.000
 6597.00    0.46430   0.50258    0.000
 6598.00    0.46664   0.50615    0.000
 6599.00    0.47304   0.50545    0.000
 6600.00    0.48024   0.50217    0.000
 6601.00    0.49261   0.49830    0.000
 6602.00    0.49854   0.49608    0.000
 6603.00    0.47242   0.49509    0.000
 6604.00    0.45485   0.49210    0.000
 6605.00    0.47177   0.48743    0.000
 6606.00    0.49525   0.48738    0.000
 6607.00    0.54066   0.49465    0.000
 6608.00    0.57125   0.50159    0.000
 6609.00    0.55991   0.50207    0.005
 6610.00    0.54166   0.49934    0.005
 6611.00    0.50671   0.49949    0.005
 6612.00    0.46922   0.50231    0.005
 6613.00    0.42641   0.50337    0.005
 6614.00    0.39766   0.50263    0.005
 6615.00    0.39442   0.50230    0.005
 6616.00    0.40541   0.50334    0.005
 6617.00    0.43895   0.50446    0.005
 6618.00    0.46314   0.50404    0.005
 6619.00    0.47429   0.50126    0.005
 6620.00    0.47437   0.49594    0.005
 6621.00    0.46089   0.49076    0.005
 6622.00    0.43421   0.49020    0.005
 6623.00    0.39328   0.49354    0.005
 6624.00    0.39384   0.49601    0.005
 6625.00    0.43391   0.49661    0.005
 6626.00    0.47096   0.49610    0.005
 6627.00    0.50548   0.49467    0.005
 6628.00    0.49717   0.49216    0.005
 6629.00    0.45718   0.48793    0.005
 6630.00    0.43284   0.48358    0.005
 6631.00    0.41865   0.48387    0.005
 6632.00    0.40625   0.48916    0.005
 6633.00    0.39485   0.49419    0.005
 6634.00    0.38618   0.49608    0.005
 6635.00    0.37886   0.49557    0.005
 6636.00    0.41495   0.49458    0.005
 6637.00    0.46962   0.49538    0.005
 6638.00    0.50245   0.49632    0.005
 6639.00    0.52727   0.49124    0.005
 6640.00    0.54821   0.48309    0.005
 6641.00    0.56794   0.48290    0.005
 6642.00    0.55251   0.48914    0.005
 6643.00    0.52798   0.49268    0.005
 6644.00    0.52163   0.49279    0.005
 6645.00    0.51911   0.49328    0.005
 6646.00    0.50867   0.49386    0.005
 6647.00    0.49691   0.49234    0.005
 6648.00    0.51205   0.48974    0.005
 6649.00    0.53056   0.48868    0.005
 6650.00    0.49281   0.48904    0.005
 6651.00    0.45016   0.48957    0.005
 6652.00    0.43611   0.48969    0.005
 6653.00    0.42352   0.48945    0.005
 6654.00    0.44906   0.48983    0.005
 6655.00    0.47567   0.49000    0.005
 6656.00    0.52987   0.48896    0.005
 6657.00    0.57795   0.48733    0.005
 6658.00    0.49697   0.48428    0.005
 6659.00    0.41866   0.47825    0.005
 6660.00    0.37231   0.47389    0.005
 6661.00    0.33527   0.47678    0.005
 6662.00    0.37510   0.48178    0.005
 6663.00    0.40747   0.48368    0.005
 6664.00    0.39378   0.48412    0.005
 6665.00    0.38556   0.48580    0.005
 6666.00    0.40395   0.48906    0.005
 6667.00    0.42132   0.49149    0.005
 6668.00    0.43468   0.49170    0.005
 6669.00    0.45282   0.49086    0.005
 6670.00    0.48666   0.49055    0.005
 6671.00    0.50942   0.49036    0.005
 6672.00    0.50143   0.48819    0.005
 6673.00    0.48717   0.47993    0.005
 6674.00    0.45803   0.46760    0.005
 6675.00    0.43433   0.46363    0.005
 6676.00    0.42180   0.47135    0.005
 6677.00    0.43326   0.47877    0.005
 6678.00    0.48756   0.48037    0.005
 6679.00    0.51456   0.48113    0.005
 6680.00    0.49889   0.48316    0.005
 6681.00    0.49505   0.48462    0.005
 6682.00    0.50746   0.48448    0.005
 6683.00    0.51406   0.48358    0.005
 6684.00    0.51365   0.48258    0.005
 6685.00    0.49800   0.48236    0.005
 6686.00    0.46612   0.48344    0.005
 6687.00    0.46589   0.48442    0.005
 6688.00    0.49538   0.48448    0.005
 6689.00    0.51047   0.48421    0.005
 6690.00    0.51365   0.48359    0.005
 6691.00    0.51519   0.48113    0.005
 6692.00    0.51554   0.47709    0.005
 6693.00    0.48874   0.47466    0.005
 6694.00    0.44457   0.47589    0.004
 6695.00    0.41922   0.47890    0.005
 6696.00    0.40440   0.48217    0.000
 6697.00    0.39806   0.48471    0.000
 6698.00    0.39585   0.48441    0.000
 6699.00    0.43708   0.48112    0.000
 6700.00    0.49659   0.47744    0.000
 6701.00    0.53507   0.47646    0.000
 6702.00    0.56599   0.47855    0.000
 6703.00    0.52186   0.48094    0.000
 6704.00    0.45488   0.48177    0.000
 6705.00    0.42366   0.48160    0.000
 6706.00    0.40149   0.48052    0.000
 6707.00    0.43662   0.47926    0.000
 6708.00    0.48355   0.47963    0.000
 6709.00    0.56586   0.47927    0.000
 6710.00    0.65389   0.47618    0.000
 6711.00    0.69549   0.47227    0.000
 6712.00    0.73147   0.46743    0.000
 6713.00    0.76184   0.46039    0.000
 6714.00    0.79173   0.45528    0.000
 6715.00    0.74553   0.45860    0.000
 6716.00    0.69571   0.46668    0.000
 6717.00    0.61581   0.47068    0.000
 6718.00    0.53556   0.47067    0.000
 6719.00    0.45910   0.47159    0.000
 6720.00    0.38687   0.47371    0.000
 6721.00    0.39690   0.47380    0.000
 6722.00    0.41046   0.47140    0.000
 6723.00    0.46448   0.47028    0.000
 6724.00    0.52064   0.47229    0.000
 6725.00    0.59380   0.47454    0.000
 6726.00    0.65749   0.47553    0.000
 6727.00    0.66444   0.47574    0.000
 6728.00    0.67441   0.47517    0.000
 6729.00    0.69875   0.47417    0.000
 6730.00    0.71073   0.47367    0.000
 6731.00    0.67499   0.47400    0.000
 6732.00    0.63778   0.47457    0.000
 6733.00    0.59582   0.47443    0.000
 6734.00    0.56415   0.47230    0.000
 6735.00    0.56050   0.46929    0.000
 6736.00    0.55024   0.46823    0.000
 6737.00    0.52454   0.46950    0.000
 6738.00    0.49897   0.46952    0.000
 6739.00    0.47365   0.46674    0.000
 6740.00    0.47757   0.46551    0.000
 6741.00    0.53295   0.46796    0.000
 6742.00    0.56807   0.47012    0.000
 6743.00    0.57202   0.46966    0.000
 6744.00    0.55007   0.46771    0.000
 6745.00    0.49311   0.46458    0.000
 6746.00    0.44352   0.46108    0.000
 6747.00    0.40272   0.46057    0.000
 6748.00    0.39640   0.46279    0.000
 6749.00    0.42628   0.46360    0.000
 6750.00    0.43294   0.46450    0.000
 6751.00    0.41810   0.46762    0.000
 6752.00    0.41710   0.47049    0.000
 6753.00    0.42739   0.47225    0.005
 6754.00    0.46558   0.47360    0.005
 6755.00    0.52382   0.47471    0.005
 6756.00    0.54268   0.47554    0.005
 6757.00    0.53672   0.47569    0.005
 6758.00    0.50915   0.47448    0.005
 6759.00    0.46969   0.47356    0.005
 6760.00    0.46721   0.47427    0.005
 6761.00    0.48245   0.47429    0.005
 6762.00    0.49089   0.47152    0.006
 6763.00    0.49651   0.46643    0.006
 6764.00    0.48849   0.46290    0.006
 6765.00    0.47563   0.46411    0.006
 6766.00    0.50821   0.46629    0.006
 6767.00    0.55435   0.46551    0.006
 6768.00    0.63112   0.46505    0.006
 6769.00    0.71549   0.46757    0.006
 6770.00    0.69608   0.47131    0.006
 6771.00    0.65584   0.47439    0.005
 6772.00    0.59397   0.47607    0.005
 6773.00    0.52870   0.47647    0.005
 6774.00    0.48470   0.47648    0.005
 6775.00    0.44318   0.47690    0.005
 6776.00    0.42277   0.47670    0.005
 6777.00    0.40402   0.47464    0.005
 6778.00    0.47783   0.47068    0.005
 6779.00    0.55567   0.46531    0.005
 6780.00    0.51165   0.46073    0.005
 6781.00    0.46709   0.45917    0.005
 6782.00    0.45749   0.46020    0.005
 6783.00    0.44812   0.46225    0.005
 6784.00    0.44290   0.46473    0.005
 6785.00    0.44131   0.46638    0.005
 6786.00    0.47958   0.46609    0.005
 6787.00    0.51458   0.46547    0.005
 6788.00    0.52446   0.46570    0.005
 6789.00    0.54052   0.46500    0.005
 6790.00    0.59258   0.46350    0.005
 6791.00    0.61979   0.46335    0.005
 6792.00    0.53204   0.46414    0.005
 6793.00    0.46607   0.46497    0.005
 6794.00    0.48248   0.46561    0.005
 6795.00    0.49877   0.46603    0.005
 6796.00    0.51472   0.46698    0.005
 6797.00    0.52848   0.46835    0.005
 6798.00    0.53641   0.46942    0.005
 6799.00    0.54679   0.46908    0.005
 6800.00    0.56282   0.46720    0.005
 6801.00    0.58684   0.46591    0.005
 6802.00    0.62673   0.46542    0.005
 6803.00    0.63494   0.46439    0.005
 6804.00    0.58829   0.46447    0.005
 6805.00    0.54575   0.46535    0.005
 6806.00    0.50945   0.46452    0.005
 6807.00    0.48862   0.46393    0.005
 6808.00    0.48840   0.46518    0.005
 6809.00    0.50076   0.46614    0.005
 6810.00    0.52788   0.46481    0.005
 6811.00    0.51677   0.46211    0.005
 6812.00    0.46609   0.46176    0.005
 6813.00    0.47013   0.46446    0.005
 6814.00    0.52413   0.46654    0.006
 6815.00    0.54771   0.46559    0.005
 6816.00    0.54681   0.46324    0.005
 6817.00    0.53334   0.46286    0.005
 6818.00    0.51097   0.46530    0.005
 6819.00    0.53201   0.46785    0.005
 6820.00    0.58000   0.46859    0.005
 6821.00    0.61428   0.46852    0.005
 6822.00    0.64113   0.46848    0.005
 6823.00    0.61701   0.46656    0.005
 6824.00    0.56886   0.46204    0.005
 6825.00    0.52379   0.45931    0.005
 6826.00    0.47998   0.46137    0.005
 6827.00    0.46347   0.46526    0.005
 6828.00    0.45642   0.46667    0.005
 6829.00    0.45255   0.46571    0.005
 6830.00    0.44960   0.46585    0.005
 6831.00    0.50960   0.46747    0.005
 6832.00    0.58485   0.46821    0.005
 6833.00    0.58797   0.46709    0.005
 6834.00    0.57698   0.46440    0.005
 6835.00    0.59461   0.46056    0.005
 6836.00    0.61661   0.45648    0.005
 6837.00    0.65641   0.45243    0.005
 6838.00    0.69822   0.44985    0.005
 6839.00    0.58714   0.45120    0.006
 6840.00    0.46463   0.45592    0.006
 6841.00    0.38194   0.46107    0.005
 6842.00    0.30083   0.46357    0.005
 6843.00    0.35139   0.46333    0.005
 6844.00    0.40422   0.46304    0.005
 6845.00    0.51185   0.46319    0.005
 6846.00    0.60963   0.46279    0.005
 6847.00    0.54098   0.46224    0.005
 6848.00    0.47981   0.46209    0.005
 6849.00    0.49671   0.46177    0.005
 6850.00    0.50921   0.45887    0.005
 6851.00    0.48894   0.45359    0.005
 6852.00    0.47168   0.45110    0.005
 6853.00    0.47156   0.45291    0.005
 6854.00    0.46988   0.45507    0.005
 6855.00    0.46116   0.45625    0.005
 6856.00    0.45163   0.45616    0.005
 6857.00    0.43913   0.45337    0.005
 6858.00    0.42790   0.45113    0.005
 6859.00    0.42061   0.45409    0.005
 6860.00    0.41566   0.46023    0.005
 6861.00    0.41688   0.46344    0.005
 6862.00    0.42565   0.46162    0.005
 6863.00    0.45150   0.45764    0.005
 6864.00    0.46549   0.45415    0.005
 6865.00    0.45627   0.45340    0.005
 6866.00    0.43566   0.45588    0.005
 6867.00    0.39559   0.45697    0.005
 6868.00    0.37637   0.45454    0.005
 6869.00    0.38831   0.45330    0.005
 6870.00    0.39653   0.45498    0.005
 6871.00    0.39984   0.45641    0.005
 6872.00    0.43031   0.45763    0.005
 6873.00    0.49220   0.46017    0.005
 6874.00    0.50414   0.46291    0.005
 6875.00    0.46512   0.46414    0.005
 6876.00    0.42570   0.46355    0.005
 6877.00    0.38590   0.46083    0.005
 6878.00    0.40225   0.45618    0.005
 6879.00    0.46313   0.45307    0.005
 6880.00    0.49104   0.45390    0.005
 6881.00    0.49596   0.45634    0.005
 6882.00    0.48618   0.45699    0.005
 6883.00    0.46741   0.45686    0.005
 6884.00    0.45364   0.45908    0.005
 6885.00    0.44256   0.46209    0.005
 6886.00    0.42891   0.46313    0.005
 6887.00    0.41408   0.46358    0.005
 6888.00    0.42106   0.46412    0.005
 6889.00    0.43675   0.46337    0.005
 6890.00    0.42264   0.46211    0.005
 6891.00    0.39837   0.46122    0.005
 6892.00    0.35586   0.46034    0.005
 6893.00    0.30812   0.45975    0.005
 6894.00    0.35069   0.46019    0.005
 6895.00    0.41464   0.46061    0.005
 6896.00    0.43600   0.45898    0.005
 6897.00    0.44924   0.45731    0.005
 6898.00    0.47982   0.45899    0.005
 6899.00    0.51296   0.46207    0.005
 6900.00    0.51633   0.46304    0.005
 6901.00    0.51649   0.46209    0.005
 6902.00    0.52950   0.46215    0.005
 6903.00    0.54343   0.46438    0.005
 6904.00    0.45502   0.46639    0.005
 6905.00    0.36293   0.46654    0.005
 6906.00    0.35920   0.46528    0.005
 6907.00    0.35668   0.46337    0.005
 6908.00    0.38631   0.46189    0.005
 6909.00    0.41265   0.45947    0.005
 6910.00    0.38700   0.45493    0.005
 6911.00    0.36025   0.45270    0.005
 6912.00    0.32260   0.45404    0.005
 6913.00    0.28777   0.45522    0.005
 6914.00    0.27320   0.45663    0.005
 6915.00    0.26496   0.45841    0.005
 6916.00    0.29156   0.45959    0.005
 6917.00    0.30888   0.46118    0.005
 6918.00    0.28528   0.46240    0.005
 6919.00    0.28193   0.46093    0.005
 6920.00    0.35194   0.45622    0.005
 6921.00    0.40831   0.45204    0.005
 6922.00    0.42323   0.45189    0.005
 6923.00    0.44984   0.45523    0.005
 6924.00    0.50663   0.45936    0.005
 6925.00    0.54940   0.46168    0.005
 6926.00    0.56098   0.46172    0.005
 6927.00    0.55219   0.46039    0.005
 6928.00    0.50417   0.45822    0.005
 6929.00    0.47536   0.45550    0.005
 6930.00    0.47883   0.45493    0.005
 6931.00    0.47578   0.45741    0.005
 6932.00    0.46316   0.45941    0.005
 6933.00    0.43946   0.45945    0.005
 6934.00    0.40141   0.45866    0.005
 6935.00    0.40515   0.45876    0.005
 6936.00    0.45656   0.46012    0.005
 6937.00    0.47927   0.46140    0.005
 6938.00    0.47309   0.46152    0.005
 6939.00    0.48750   0.45980    0.005
 6940.00    0.52019   0.45537    0.005
 6941.00    0.49136   0.44997    0.005
 6942.00    0.41443   0.44971    0.005
 6943.00    0.38687   0.45514    0.005
 6944.00    0.39327   0.46014    0.005
 6945.00    0.40883   0.46189    0.005
 6946.00    0.42991   0.46102    0.005
 6947.00    0.45141   0.45823    0.005
 6948.00    0.47313   0.45573    0.005
 6949.00    0.44353   0.45468    0.005
 6950.00    0.39051   0.45396    0.005
 6951.00    0.39802   0.45423    0.005
 6952.00    0.42932   0.45653    0.005
 6953.00    0.43243   0.45897    0.005
 6954.00    0.42611   0.45991    0.005
 6955.00    0.41520   0.46001    0.005
 6956.00    0.40300   0.46018    0.005
 6957.00    0.37956   0.46082    0.005
 6958.00    0.35352   0.46156    0.005
 6959.00    0.40454   0.46218    0.005
 6960.00    0.46987   0.46232    0.005
 6961.00    0.45869   0.46102    0.005
 6962.00    0.43656   0.45954    0.005
 6963.00    0.46107   0.45990    0.005
 6964.00    0.49040   0.46190    0.005
 6965.00    0.48300   0.46320    0.005
 6966.00    0.47316   0.46222    0.005
 6967.00    0.44514   0.46000    0.005
 6968.00    0.41654   0.45920    0.005
 6969.00    0.42199   0.46072    0.005
 6970.00    0.42906   0.46161    0.005
 6971.00    0.48608   0.45928    0.005
 6972.00    0.53838   0.45476    0.005
 6973.00    0.52052   0.44883    0.005
 6974.00    0.49828   0.44040    0.005
 6975.00    0.43400   0.43479    0.005
 6976.00    0.38039   0.43935    0.005
 6977.00    0.40108   0.44976    0.005
 6978.00    0.42968   0.45742    0.005
 6979.00    0.50076   0.46095    0.005
 6980.00    0.55482   0.46211    0.005
 6981.00    0.53559   0.46206    0.005
 6982.00    0.50643   0.46214    0.005
 6983.00    0.44202   0.46179    0.005
 6984.00    0.37609   0.45936    0.005
 6985.00    0.30563   0.45554    0.005
 6986.00    0.28485   0.45363    0.005
 6987.00    0.39025   0.45525    0.005
 6988.00    0.44539   0.45839    0.005
 6989.00    0.39069   0.45992    0.006
 6990.00    0.35354   0.45855    0.006
 6991.00    0.34968   0.45679    0.005
 6992.00    0.35264   0.45712    0.005
 6993.00    0.36686   0.45867    0.005
 6994.00    0.38080   0.45828    0.005
 6995.00    0.39436   0.45441    0.005
 6996.00    0.43278   0.45021    0.005
 6997.00    0.50294   0.45034    0.005
 6998.00    0.51592   0.45415    0.005
 6999.00    0.46458   0.45603    0.005
 7000.00    0.42811   0.45324    0.005
 7001.00    0.40638   0.44972    0.005
 7002.00    0.40957   0.44905    0.005
 7003.00    0.43455   0.45084    0.005
 7004.00    0.51875   0.45346    0.005
 7005.00    0.64858   0.45602    0.006
 7006.00    0.59042   0.45713    0.006
 7007.00    0.40488   0.45582    0.006
 7008.00    0.37726   0.45454    0.006
 7009.00    0.44341   0.45544    0.006
 7010.00    0.42085   0.45554    0.006
 7011.00    0.35234   0.45010    0.006
 7012.00    0.35341   0.44037    0.006
 7013.00    0.38571   0.43650    0.006
 7014.00    0.44931   0.44379    0.006
 7015.00    0.52500   0.45351    0.005
 7016.00    0.46528   0.45850    0.005
 7017.00    0.36113   0.45953    0.005
 7018.00    0.38218   0.45749    0.005
 7019.00    0.43768   0.45246    0.005
 7020.00    0.44904   0.44743    0.005
 7021.00    0.45041   0.44690    0.006
 7022.00    0.38109   0.45082    0.006
 7023.00    0.29898   0.45424    0.006
 7024.00    0.39592   0.45506    0.006
 7025.00    0.51766   0.45552    0.006
 7026.00    0.48517   0.45699    0.006
 7027.00    0.43738   0.45848    0.007
 7028.00    0.40591   0.45816    0.006
 7029.00    0.37546   0.45643    0.006
 7030.00    0.32788   0.45505    0.006
 7031.00    0.28010   0.45547    0.006
 7032.00    0.30912   0.45693    0.006
 7033.00    0.33566   0.45506    0.006
 7034.00    0.29387   0.44851    0.006
 7035.00    0.25614   0.44578    0.006
 7036.00    0.27546   0.45274    0.006
 7037.00    0.29785   0.46248    0.006
 7038.00    0.34848   0.46811    0.006
 7039.00    0.39768   0.46940    0.006
 7040.00    0.43721   0.46727    0.006
 7041.00    0.45904   0.46381    0.005
 7042.00    0.38836   0.46303    0.005
 7043.00    0.35041   0.46587    0.006
 7044.00    0.45028   0.46895    0.006
 7045.00    0.50135   0.46943    0.006
 7046.00    0.38263   0.46762    0.006
 7047.00    0.31344   0.46422    0.006
 7048.00    0.38917   0.45803    0.006
 7049.00    0.45200   0.44988    0.006
 7050.00    0.48263   0.44296   -2.000
 7051.00    0.51402   0.43911   -2.000
 7052.00    0.54706   0.43963   -2.000
 7053.00    0.52936   0.44336   -2.000
 7054.00    0.41690   0.44550   -2.000
 7055.00    0.35068   0.44275   -2.000
 7056.00    0.35986   0.43755   -2.000
 7057.00    0.41276   0.43507   -2.000
 7058.00    0.52821   0.43648   -2.000
 7059.00    0.64297   0.43878   -2.000
 7060.00    0.75687   0.44111   -2.000
 7061.00    0.76794   0.44215   -2.000
 7062.00    0.66497   0.43991   -2.000
 7063.00    0.60312   0.43625   -2.000
 7064.00    0.58151   0.43264   -2.000
 7065.00    0.59169   0.43190   -2.000
 7066.00    0.62932   0.43617   -2.000
 7067.00    0.58377   0.44171   -2.000
 7068.00    0.47504   0.44471   -2.000
 7069.00    0.50034   0.44602   -2.000
 7070.00    0.61514   0.44680   -2.000
 7071.00    0.65445   0.44629   -2.000
 7072.00    0.64959   0.44515   -2.000
 7073.00    0.68814   0.44456   -2.000
 7074.00    0.74883   0.44473   -2.000
 7075.00    0.67514   0.44521   -2.000
 7076.00    0.54211   0.44590   -2.000
 7077.00    0.59557   0.44631   -2.000
 7078.00    0.71975   0.44466   -2.000
 7079.00    0.60087   0.43942   -2.000
 7080.00    0.40371   0.43111   -2.000
 7081.00    0.48887   0.42486   -2.000
 7082.00    0.65010   0.42447   -2.000
 7083.00    0.60165   0.42469   -2.000
 7084.00    0.50692   0.42156   -2.000
 7085.00    0.43234   0.41757   -2.000
 7086.00    0.36131   0.41500   -2.000
 7087.00    0.42617   0.41476   -2.000
 7088.00    0.50924   0.41679   -2.000
 7089.00    0.49577   0.41782   -2.000
 7090.00    0.47313   0.41769   -2.000
 7091.00    0.45063   0.41733   -2.000
 7092.00    0.42815   0.41689   -2.000
 7093.00    0.55880   0.41691   -2.000
 7094.00    0.69189   0.41833   -2.000
 7095.00    0.64228   0.42377   -2.000
 7096.00    0.59364   0.42820   -2.000
 7097.00    0.56889   0.42846   -2.000
 7098.00    0.54242   0.42597   -2.000
 7099.00    0.49317   0.42387   -2.000
 7100.00    0.43976   0.42490   -2.000
 7101.00    0.34964   0.42817   -2.000
 7102.00    0.28426   0.42964   -2.000
 7103.00    0.38053   0.42864   -2.000
 7104.00    0.45242   0.42837   -2.000
 7105.00    0.40011   0.42896   -2.000
 7106.00    0.36713   0.42713   -2.000
 7107.00    0.41374   0.42304   -2.000
 7108.00    0.46341   0.42131   -2.000
 7109.00    0.52356   0.42400   -2.000
 7110.00    0.57836   0.42741   -2.000
 7111.00    0.61781   0.42884   -2.000
 7112.00    0.60902   0.43020   -2.000
 7113.00    0.48189   0.43195   -2.000
 7114.00    0.39780   0.43281   -2.000
 7115.00    0.40479   0.43245   -2.000
 7116.00    0.38097   0.43144   -2.000
 7117.00    0.30048   0.42928   -2.000
 7118.00    0.26397   0.42630   -2.000
 7119.00    0.29808   0.42648   -2.000
 7120.00    0.43789   0.42905   -2.000
 7121.00    0.72671   0.42738   -2.000
 7122.00    0.86539   0.42152   -2.000
 7123.00    0.81786   0.41782   -2.000
 7124.00    0.80502   0.41788   -2.000
 7125.00    0.83011   0.41736   -2.000
 7126.00    0.76215   0.41334   -2.000
 7127.00    0.60445   0.40924   -2.000
 7128.00    0.48821   0.41033   -2.000
 7129.00    0.40722   0.41507   -2.000
 7130.00    0.35081   0.41974   -2.000
 7131.00    0.31279   0.42256   -2.000
 7132.00    0.29116   0.42352   -2.000
 7133.00    0.28030   0.42432   -2.000
 7134.00    0.39683   0.42360   -2.000
 7135.00    0.58674   0.42121   -2.000
 7136.00    0.60908   0.42083   -2.000
 7137.00    0.54734   0.42333   -2.000
 7138.00    0.51583   0.42539   -2.000
 7139.00    0.49745   0.42608   -2.000
 7140.00    0.41763   0.42643   -2.000
 7141.00    0.31493   0.42640   -2.000
 7142.00    0.27584   0.42591   -2.000
 7143.00    0.25684   0.42175   -2.000
 7144.00    0.28370   0.41419   -2.000
 7145.00    0.32266   0.41273   -2.000
 7146.00    0.32834   0.41899   -2.000
 7147.00    0.32685   0.42496   -2.000
 7148.00    0.36975   0.42895   -2.000
 7149.00    0.42024   0.43270   -2.000
 7150.00    0.43421   0.43455   -2.000
 7151.00    0.44347   0.43404   -2.000
 7152.00    0.41306   0.43508   -2.000
 7153.00    0.37906   0.43873   -2.000
 7154.00    0.33868   0.44007   -2.000
 7155.00    0.29795   0.43719   -2.000
 7156.00    0.38259   0.43371   -2.000
 7157.00    0.47235   0.43375   -2.000
 7158.00    0.78840   0.43564   -2.000
 7159.00    1.07305   0.42627   -2.000
 7160.00    0.64492   0.41169   -2.000
 7161.00    0.25636   0.40321   -2.000
 7162.00    0.36638   0.40490   -2.000
 7163.00    0.46160   0.41254   -2.000
 7164.00    0.43060   0.41787   -2.000
 7165.00    0.43807   0.41855   -2.000
 7166.00    0.68933   0.41836   -2.000
 7167.00    0.84076   0.41969   -2.000
 7168.00    0.49656   0.42192   -2.000
 7169.00    0.21374   0.42356   -2.000
 7170.00    0.17797   0.42294   -2.000
 7171.00    0.18892   0.42004   -2.000
 7172.00    0.35596   0.41691   -2.000
 7173.00    0.50663   0.41711   -2.000
 7174.00    0.61110   0.41972   -2.000
 7175.00    0.66866   0.41909   -2.000
 7176.00    0.61303   0.41367   -2.000
 7177.00    0.52331   0.40837   -2.000
 7178.00    0.36258   0.40837   -2.000
 7179.00    0.27692   0.41438   -2.000
 7180.00    0.32719   0.42053   -2.000
 7181.00    0.34849   0.42183   -2.000
 7182.00    0.32394   0.41808   -2.000
 7183.00    0.37582   0.41022   -2.000
 7184.00    0.53391   0.40382   -2.000
 7185.00    0.54858   0.40327   -2.000
 7186.00    0.38789   0.40760   -2.000
 7187.00    0.28247   0.41369   -2.000
 7188.00    0.23663   0.41598   -2.000
 7189.00    0.23620   0.41498   -2.000
 7190.00    0.27895   0.41539   -2.000
 7191.00    0.33509   0.41784   -2.000
 7192.00    0.40246   0.41759   -2.000
 7193.00    0.43159   0.41362   -2.000
 7194.00    0.43250   0.41200   -2.000
 7195.00    0.39550   0.41437   -2.000
 7196.00    0.33393   0.41646   -2.000
 7197.00    0.47649   0.41420   -2.000
 7198.00    0.73485   0.40920   -2.000
 7199.00    0.68010   0.40933   -2.000
 7200.00    0.47073   0.41516   -2.000
 7201.00    0.37139   0.41876   -2.000
 7202.00    0.31906   0.41428   -2.000
 7203.00    0.30635   0.40420   -2.000
 7204.00    0.30815   0.39891   -2.000
 7205.00    0.36048   0.40173   -2.000
 7206.00    0.42847   0.40850   -2.000
 7207.00    0.43185   0.41575   -2.000
 7208.00    0.41856   0.41880   -2.000
 7209.00    0.46571   0.41724   -2.000
 7210.00    0.52556   0.41472   -2.000
 7211.00    0.45866   0.41352   -2.000
 7212.00    0.37070   0.41404   -2.000
 7213.00    0.31838   0.41649   -2.000
 7214.00    0.27051   0.41980   -2.000
 7215.00    0.17242   0.42095   -2.000
 7216.00    0.06998   0.42012   -2.000
 7217.00    0.05252   0.41920   -2.000
 7218.00    0.03938   0.41840   -2.000
