###################################################################
## OUTPUT of StarlightChains_v04.for    [Cid@UFSC - 01/Apr/2007] ##
###################################################################

## Some input info
KUG0210-078._23_39.txt                   [arq_obs]
Base.CB07.vall.4m                        [arq_base]
Masks.EmLines.NEW.gm                     [arq_masks]
StCv04.C11.config                        [arq_config]
   66                                    [N_base]
    0                                    [N_YAV_components = # of components with extra extinction!]
    0                                    [i_FitPowerLaw (1/0 = Yes/No)]
-9.99                                    [alpha_PowerLaw]
CCM                                      [red_law_option]
 1.458241                                [q_norm = A(l_norm)/A(V)]

## (Re)Sampling Parameters
 3741.00                                 [l_ini (A)]
 7218.00                                 [l_fin (A)]
    1.00                                 [dl    (A)]     (OBS: dl_cushion =    50.00 A)

## Normalization info
 4020.00                                 [l_norm (A) - for base]
 4010.00                                 [llow_norm (A) - window for f_obs]
 4060.00                                 [lupp_norm (A) - window for f_obs]
8.532272E-18                             [fobs_norm (in input units)]

## S/N
 3691.00                                 [llow_SN (A) - window for S/N]
 7268.00                                 [lupp_SN (A) - window for S/N]
   2.567                                 [S/N in S/N window]
   4.093                                 [S/N in norm. window]
   0.007                                 [S/N_err in S/N window]
   0.011                                 [S/N_err in norm. window]
  1.0000                                 [fscale_chi2]

## etc...
    -2007269                             [idum_orig]
  2385                                   [NOl_eff]
  2300                                   [Nl_eff]
    85    NSIGMA                         [Ntot_cliped & clip_method]
  1878870                                [Nglobal_steps]
   7                                     [N_chains]
  43                                     [NEX0s_base = N_base in EX0s-fits]
 0   0   1       85   2.0   3.414E+03    [Clip-Bug, RC-Crash & Burn-In warning-flags, n_censored_weights, wei_nsig_threshold & wei_limit]
    39     37.344     36.509      0.835  [idt_all, wdt_TotTime, wdt_UsrTime & wdt_SysTime (sec)]

## Synthesis Results - Best model ##

 1.61804E-05                             [chi2/Nl_eff]
    49.17495                             [adev (%)]

    89.55295                             [sum-of-x (%)]
 4.69842E-18                             [Flux_tot (units of input spectrum!)]
 1.07574E-13                             [Mini_tot (???)]
 5.56190E-14                             [Mcor_tot (???)]

-256.93                                  [v0_min  (km/s)]
 318.99                                  [vd_min  (km/s)]
-0.3621                                  [AV_min  (mag)]
 0.0000                                  [YAV_min (mag)]

# j     x_j(%)      Mini_j(%)     Mcor_j(%)     age_j(yr)     Z_j      (L/M)_j    YAV?  Mstars   component_j        a/Fe...       SSP_chi2r SSP_adev(%)   SSP_AV   SSP_x(%)
  1      0.0000     0.0000E+00    0.0000E+00    1.000000E+06  0.00400  1.094E-02    0   1.0000   age020_m42            0.0000     1.7361E-05    47.9340   2.3651    73.3018
  2      2.9009     3.5308E-03    6.8284E-03    3.160000E+06  0.00400  4.007E-02    0   0.9999   age045_m42            0.0000     1.6833E-05    49.4972   1.4383    83.6889
  3      0.0164     3.1572E-05    5.7938E-05    5.010000E+06  0.00400  2.539E-02    0   0.9488   age055_m42            0.0000     1.6889E-05    48.7689   1.8449    79.4762
  4      2.9920     5.5696E-03    9.9321E-03    6.610000E+06  0.00400  2.620E-02    0   0.9220   age061_m42            0.0000     1.6821E-05    49.7602   1.3333    84.7804
  5      0.0577     2.1282E-04    3.6478E-04    1.000000E+07  0.00400  1.322E-02    0   0.8862   age070_m42            0.0000     1.6573E-05    49.1894   1.1447    84.1769
  6      0.0000     0.0000E+00    0.0000E+00    1.445000E+07  0.00400  7.883E-03    0   0.8571   age078_m42            0.0000     1.6688E-05    48.8129   1.5284    80.5208
  7      0.0000     0.0000E+00    0.0000E+00    2.512000E+07  0.00400  5.251E-03    0   0.8174   age090_m42            0.0000     1.6551E-05    49.1883   1.0227    84.4933
  8      0.0000     0.0000E+00    0.0000E+00    4.000000E+07  0.00400  3.649E-03    0   0.7851   age104_m42            0.0000     1.6596E-05    49.4406   0.7509    86.4065
  9      3.2104     5.0540E-02    7.4574E-02    5.500000E+07  0.00400  3.098E-03    0   0.7629   age110_m42            0.0000     1.6898E-05    50.1276   0.8181    88.7147
 10      0.0000     0.0000E+00    0.0000E+00    1.015200E+08  0.00400  2.228E-03    0   0.7207   age116_m42            0.0000     1.7248E-05    50.8088   0.7577    91.0533
 11      0.0000     0.0000E+00    0.0000E+00    2.861200E+08  0.00400  1.093E-03    0   0.6648   age125_m42            0.0000     1.7493E-05    51.5926   0.1397    94.9938
 12      0.0000     0.0000E+00    0.0000E+00    5.088000E+08  0.00400  6.597E-04    0   0.6365   age130_m42            0.0000     1.8317E-05    52.4976  -0.0003    99.0492
 13      3.2160     7.3568E-01    8.2500E-01    1.434000E+09  0.00400  2.132E-04    0   0.5798   age139_m42            0.0000     1.8357E-05    52.2609  -1.0000   101.9547
 14      0.0111     9.2019E-03    9.5698E-03    4.250000E+09  0.00400  5.895E-05    0   0.5377   age158_m42            0.0000     1.7859E-05    52.5471  -1.0000    92.0512
 15      2.0390     2.8332E+00    2.8560E+00    7.500000E+09  0.00400  3.510E-05    0   0.5212   age171_m42            0.0000     1.8916E-05    55.2102  -1.0000    89.3335
 16      0.0000     0.0000E+00    0.0000E+00    1.300000E+10  0.00400  2.005E-05    0   0.5034   age193_m42            0.0000     2.0366E-05    58.6258  -1.0000    86.6729
 17      0.0000     0.0000E+00    0.0000E+00    1.800000E+10  0.00400  1.525E-05    0   0.4967   age213_m42            0.0000     2.0315E-05    58.9258  -1.0000    85.7504
 18      0.0000     0.0000E+00    0.0000E+00    1.000000E+06  0.00800  1.238E-02    0   1.0000   age020_m52            0.0000     1.7367E-05    47.9030   2.3629    73.3815
 19      0.0000     0.0000E+00    0.0000E+00    3.160000E+06  0.00800  3.074E-02    0   0.9966   age045_m52            0.0000     1.7290E-05    47.9103   2.2779    74.2637
 20      0.0000     0.0000E+00    0.0000E+00    5.010000E+06  0.00800  2.668E-02    0   0.9443   age055_m52            0.0000     1.6950E-05    48.5036   1.9631    77.8631
 21      0.0000     0.0000E+00    0.0000E+00    6.610000E+06  0.00800  2.136E-02    0   0.9177   age061_m52            0.0000     1.6395E-05    48.5892   0.6710    84.3863
 22      7.1172     2.8569E-02    4.8775E-02    1.000000E+07  0.00800  1.215E-02    0   0.8827   age070_m52            0.0000     1.6544E-05    48.9056   1.3881    82.2677
 23      0.0000     0.0000E+00    0.0000E+00    1.445000E+07  0.00800  8.717E-03    0   0.8552   age078_m52            0.0000     1.6624E-05    48.8421   1.4826    81.9715
 24      0.0712     6.2133E-04    9.8086E-04    2.512000E+07  0.00800  5.592E-03    0   0.8162   age090_m52            0.0000     1.6559E-05    49.2901   1.0820    85.5670
 25      0.0000     0.0000E+00    0.0000E+00    4.000000E+07  0.00800  3.896E-03    0   0.7841   age104_m52            0.0000     1.6661E-05    49.7497   0.9364    87.7948
 26      0.0000     0.0000E+00    0.0000E+00    1.015200E+08  0.00800  2.148E-03    0   0.7226   age116_m52            0.0000     1.6940E-05    50.4631   0.7704    90.5422
 27      0.0000     0.0000E+00    0.0000E+00    2.861200E+08  0.00800  9.925E-04    0   0.6683   age125_m52            0.0000     1.8473E-05    52.6842  -0.0000   100.6526
 28      0.5048     7.8375E-02    9.3045E-02    9.047900E+08  0.00800  3.141E-04    0   0.6138   age135_m52            0.0000     1.9119E-05    53.1583  -0.8390   106.8019
 29      0.0000     0.0000E+00    0.0000E+00    1.434000E+09  0.00800  1.719E-04    0   0.5853   age139_m52            0.0000     1.8317E-05    53.0311  -1.0000    98.5913
 30      0.0000     0.0000E+00    0.0000E+00    2.500000E+09  0.00800  7.872E-05    0   0.5600   age150_m52            0.0000     1.9619E-05    55.7927  -1.0000    92.8235
 31      0.0000     0.0000E+00    0.0000E+00    4.250000E+09  0.00800  4.336E-05    0   0.5426   age158_m52            0.0000     1.9632E-05    55.9457  -1.0000    91.7812
 32      2.0521     3.1682E+00    3.2593E+00    6.250000E+09  0.00800  3.159E-05    0   0.5319   age166_m52            0.0000     2.2127E-05    60.4331  -1.0000    89.1033
 33      0.0000     0.0000E+00    0.0000E+00    1.300000E+10  0.00800  1.361E-05    0   0.5073   age193_m52            0.0000     2.9175E-05    70.5327  -1.0000    79.2572
 34      0.0000     0.0000E+00    0.0000E+00    1.800000E+10  0.00800  9.886E-06    0   0.4990   age213_m52            0.0000     3.2549E-05    72.3590  -1.0000    76.3678
 35      8.6200     2.7229E-02    5.2664E-02    1.000000E+06  0.02000  1.544E-02    0   1.0000   age020_m62            0.0000     1.7387E-05    47.8646   2.3688    73.3314
 36      0.0001     8.7819E-08    1.6744E-07    3.160000E+06  0.02000  3.762E-02    0   0.9858   age045_m62            0.0000     1.7337E-05    47.9117   2.3022    74.1389
 37      0.0000     0.0000E+00    0.0000E+00    5.010000E+06  0.02000  3.296E-02    0   0.9342   age055_m62            0.0000     1.6853E-05    49.2335   1.7435    82.1208
 38      0.0000     0.0000E+00    0.0000E+00    8.710000E+06  0.02000  1.154E-02    0   0.8861   age067_m62            0.0000     1.6760E-05    48.6513   1.0468    78.5898
 39      0.0000     0.0000E+00    0.0000E+00    1.445000E+07  0.02000  7.663E-03    0   0.8472   age078_m62            0.0000     1.6517E-05    48.9147   1.0953    82.3124
 40      0.0000     0.0000E+00    0.0000E+00    2.512000E+07  0.02000  4.532E-03    0   0.8099   age090_m62            0.0000     1.6490E-05    49.1978   1.0670    82.6528
 41      0.2422     4.3214E-03    6.3480E-03    5.500000E+07  0.02000  2.733E-03    0   0.7595   age110_m62            0.0000     1.6628E-05    49.6840   0.9158    87.2317
 42      0.0017     5.9314E-05    8.0133E-05    1.609000E+08  0.02000  1.369E-03    0   0.6985   age120_m62            0.0000     1.7693E-05    51.4852   0.5417    95.6861
 43      8.7734     4.7474E-01    6.1649E-01    2.861200E+08  0.02000  9.013E-04    0   0.6714   age125_m62            0.0000     1.9062E-05    52.6445   0.1574   102.0950
 44      0.1117     1.0830E-02    1.3509E-02    5.088000E+08  0.02000  5.028E-04    0   0.6449   age130_m62            0.0000     2.0076E-05    53.5424  -0.3413   107.7247
 45      0.0000     0.0000E+00    0.0000E+00    9.047900E+08  0.02000  2.428E-04    0   0.6179   age135_m62            0.0000     1.8595E-05    52.6212  -0.8869   105.6379
 46      0.0052     2.0001E-03    2.2854E-03    1.434000E+09  0.02000  1.263E-04    0   0.5908   age139_m62            0.0000     1.8271E-05    52.1475  -1.0000    99.7148
 47      0.0000     0.0000E+00    0.0000E+00    2.500000E+09  0.02000  5.985E-05    0   0.5673   age150_m62            0.0000     2.0489E-05    56.4011  -1.0000    94.3333
 48      0.0000     0.0000E+00    0.0000E+00    4.250000E+09  0.02000  3.271E-05    0   0.5468   age158_m62            0.0000     2.5253E-05    63.2115  -1.0000    88.9895
 49      0.0000     1.6277E-07    1.6266E-07    1.000000E+10  0.02000  1.360E-05    0   0.5167   age181_m62            0.0000     3.2595E-05    69.8119  -1.0000    80.9105
 50      1.6478     1.1281E+01    1.0937E+01    1.800000E+10  0.02000  7.124E-06    0   0.5013   age213_m62            0.0000     3.8016E-05    72.4669  -1.0000    74.7896
 51      0.0000     0.0000E+00    0.0000E+00    1.000000E+06  0.05000  2.592E-02    0   0.9998   age020_m72            0.0000     1.7531E-05    47.6586   2.3985    72.3993
 52      0.0000     0.0000E+00    0.0000E+00    3.160000E+06  0.05000  4.845E-02    0   0.9577   age045_m72            0.0000     1.7092E-05    48.3946   2.1130    77.0060
 53      0.0000     0.0000E+00    0.0000E+00    5.010000E+06  0.05000  3.072E-02    0   0.9147   age055_m72            0.0000     1.6801E-05    49.2394   1.6800    78.9840
 54     24.8202     8.3196E-02    1.4284E-01    6.610000E+06  0.05000  1.455E-02    0   0.8877   age061_m72            0.0000     1.7167E-05    51.3955   1.1318    77.2402
 55      0.0000     0.0000E+00    0.0000E+00    1.000000E+07  0.05000  9.074E-03    0   0.8524   age070_m72            0.0000     1.6919E-05    50.9764   1.8449    78.7865
 56      1.4974     1.7184E-02    2.6263E-02    2.512000E+07  0.05000  4.250E-03    0   0.7902   age090_m72            0.0000     1.6675E-05    50.4551   1.4626    82.9033
 57      0.0001     9.9919E-07    1.4722E-06    4.000000E+07  0.05000  3.087E-03    0   0.7618   age104_m72            0.0000     1.6671E-05    50.7323   1.1975    85.4356
 58      0.0228     6.5276E-04    8.9589E-04    1.015200E+08  0.05000  1.700E-03    0   0.7096   age116_m72            0.0000     1.7310E-05    51.1718   0.7509    93.3691
 59      0.0000     0.0000E+00    0.0000E+00    2.861200E+08  0.05000  7.384E-04    0   0.6633   age125_m72            0.0000     1.9798E-05    53.1805  -0.0457   105.2737
 60      0.0000     0.0000E+00    0.0000E+00    5.088000E+08  0.05000  3.819E-04    0   0.6372   age130_m72            0.0000     1.9362E-05    52.9503  -0.5834   107.8447
 61      0.0000     0.0000E+00    0.0000E+00    9.047900E+08  0.05000  1.676E-04    0   0.6110   age135_m72            0.0000     1.8937E-05    52.3047  -1.0000   103.0402
 62      2.0103     1.1095E+00    1.2605E+00    1.434000E+09  0.05000  8.837E-05    0   0.5874   age139_m72            0.0000     2.0804E-05    56.5701  -1.0000    95.8797
 63      0.1499     1.7269E-01    1.8697E-01    2.500000E+09  0.05000  4.233E-05    0   0.5598   age150_m72            0.0000     2.6154E-05    63.3931  -1.0000    89.9827
 64     12.4349     4.2262E+01    4.2906E+01    6.250000E+09  0.05000  1.435E-05    0   0.5249   age166_m72            0.0000     3.4448E-05    71.3112  -1.0000    78.1924
 65      5.0267     3.7641E+01    3.6664E+01    1.300000E+10  0.05000  6.513E-06    0   0.5036   age193_m72            0.0000     4.1762E-05    74.1566  -1.0000    71.2158
 66      0.0000     0.0000E+00    0.0000E+00    1.800000E+10  0.05000  4.527E-06    0   0.4945   age213_m72            0.0000     4.5688E-05    75.1440  -1.0000    66.5252


## Synthesis Results - Average & Chains ##

# j      x_j: min, <> & last-chain-values for 1 ...  7 chains
  1      0.0000      1.1942      0.0000      1.6533      0.7426      0.7524      1.2770      0.0000      0.0000
  2      2.9009      0.9951      0.7996      0.0000      1.4666      3.4421      0.4801      0.6659      0.4721
  3      0.0164      0.8582      0.0000      0.0990      0.0456      3.9588      0.6587      0.0000      0.0000
  4      2.9920      1.4319      4.3423      4.2493      0.8241      3.3066      0.3913      1.4440      0.0000
  5      0.0577      1.0289      0.8344      2.7494      3.3858      0.8154      0.4919      1.3463      2.0424
  6      0.0000      0.9786      1.0347      1.0770      0.0000      4.4876      0.5404      2.3456      1.8773
  7      0.0000      0.8496      0.0000      0.0000      0.0000      0.0000      1.7230      0.0000      0.0000
  8      0.0000      1.1960      0.0000      0.6297      1.3562      2.9951      0.0000      3.1946      0.0000
  9      3.2104      1.4516      0.0000      2.4442      1.5478      0.5837      1.4675      0.0000      2.7787
 10      0.0000      0.8578      0.3859      0.4355      0.0000      0.0396      1.4689      1.6703      0.0000
 11      0.0000      1.1028      0.0000      0.5990      1.8485      0.0000      0.0000      0.0000      0.0085
 12      0.0000      1.0723      0.9797      5.1868      0.0000      0.8043      1.1059      0.0000      1.6372
 13      3.2160      1.0479      0.0000      2.0155      7.5360      1.0311      0.0869      0.9463      1.0910
 14      0.0111      1.1106      0.0000      0.6562      2.8665      1.7651      1.5012      0.6075      0.3840
 15      2.0390      3.5994      7.0642      0.2825      0.1316      1.7129      3.0450      4.7644      7.4427
 16      0.0000      3.3588      3.9002      2.5992      0.0000      0.0000      3.1527      4.7544      1.8121
 17      0.0000      3.7959      2.6042      3.4272      0.4267      4.1273      3.7939      3.7612      0.0000
 18      0.0000      0.7376      0.6902      0.2581      0.7554      0.0596      0.0000      0.5067      0.9685
 19      0.0000      1.2433      3.9086      1.4217      0.9902      0.0000      2.4276      0.9513      0.4802
 20      0.0000      1.1457      0.0000      0.0000      6.0862      0.2103      0.0000      0.0000      3.2206
 21      0.0000      1.2732      0.7127      2.2820      0.0000      0.0000      0.3410      1.4957      0.0000
 22      7.1172      1.1077      0.9401      3.4299      0.0000      1.5868      1.1758      1.4118      1.3449
 23      0.0000      0.9832      0.7159      1.1492      1.0438      0.1686      0.3872      1.3335      0.0000
 24      0.0712      1.6224      0.2603      1.8376      2.4047      1.6894      1.7521      2.5508      1.2572
 25      0.0000      1.0958      3.1565      0.7188      1.4210      0.0000      0.0000      0.1948      1.7448
 26      0.0000      0.9262      1.4732      3.0058      1.1962      0.0000      0.1558      1.0236      0.0000
 27      0.0000      1.1131      0.2120      0.0000      0.9339      0.0000      2.6763      1.6102      3.0708
 28      0.5048      1.0591      0.4285      1.7275      0.3446      1.1527      0.0953      1.1689      0.0000
 29      0.0000      1.1661      0.2120      4.9439      0.0000      4.1457      4.7147      1.6250      2.5724
 30      0.0000      1.0681      0.8141      0.0000      0.3532      4.2171      2.2026      1.0139      3.8217
 31      0.0000      1.0068      2.9125      0.0000      3.4697      4.0079      2.8554      0.7354      5.3961
 32      2.0521      0.9837      0.0000      2.0065      2.6462      5.0390      1.6778      0.4498      0.7353
 33      0.0000      1.1038      1.8045      0.0567      0.8853      0.0000      0.0000      4.3085      0.0000
 34      0.0000      1.6500      2.9376      0.4438      7.8778      0.3330      2.1530      2.9926      1.3716
 35      8.6200      1.0143      1.0419      0.0000      1.8521      1.1714      0.0000      0.0000      3.6726
 36      0.0001      0.7972      0.3407      2.6720      0.3492      0.4129      2.4006      0.3569      0.0000
 37      0.0000      1.0123      0.6917      0.0241      1.9972      0.1347      0.7802      3.0552      2.4920
 38      0.0000      1.1419      1.8176      0.0000      0.9494      0.0839      1.3207      1.4407      0.1158
 39      0.0000      0.9562      0.0000      2.0576      0.3800      0.0000      0.5926      2.3226      2.3256
 40      0.0000      1.0233      1.4150      0.2481      0.3319      0.8962      0.7676      0.6392      0.0000
 41      0.2422      1.0108      0.0176      0.5577      1.2599      2.4829      1.5238      2.2144      0.0000
 42      0.0017      0.9793      1.7400      0.0000      3.0452      0.9239      0.0000      0.0000      4.2525
 43      8.7734      0.9156      0.4662      3.1089      0.0000      2.5844      0.1340      0.9595      0.2827
 44      0.1117      1.0112      1.3096      0.6602      1.0472      3.2078      2.7110      0.2076      3.8918
 45      0.0000      1.3939      1.4802      5.1575      0.9558      0.0000      2.1785      0.8302      4.5098
 46      0.0052      0.8695      0.0000      2.8128      0.8970      0.5364      0.3761      1.9071      0.0992
 47      0.0000      0.7007      0.5443      2.2054      0.2045      0.0000      1.1314      0.5806      0.0000
 48      0.0000      3.5942      5.3588      1.6486      9.2432      0.2495      5.3011      2.8219      3.2154
 49      0.0000      9.1057      9.4848      5.8877      4.1134      4.5004     12.4032      5.5227      0.0000
 50      1.6478      1.0042      1.1717      4.2019      0.7571      1.1063      0.1019      1.4006      0.0404
 51      0.0000      8.7657     10.0296      1.6509      0.8667      1.5106     10.7824      4.2835      2.7451
 52      0.0000      0.9139      0.0009      5.0976      0.2255      0.0000      0.2671      1.4547      1.4558
 53      0.0000      0.7834      1.0801      0.0000      0.3188      0.7187      0.7846      3.4251      0.0000
 54     24.8202      1.2567      1.0721      0.6666      5.3025      2.3083      0.0000      1.3511      0.0000
 55      0.0000      1.1668      0.9274      0.1666      0.9894      0.3548      2.0125      1.9784      0.9564
 56      1.4974      0.8638      0.0000      0.0000      3.4539      1.5102      0.0000      0.0000      0.0000
 57      0.0001      1.0197      1.4130      0.5654      0.0000      0.9579      1.1726      0.6122      2.6407
 58      0.0228      1.1016      1.1154      0.6972      0.5276      1.9063      0.2056      2.6729      2.8119
 59      0.0000      1.0891      1.1434      0.0000      0.8307      0.0355      1.0163      0.8811      0.1381
 60      0.0000      1.4605      0.0000      0.0000      1.0216      1.6850      0.1528      1.1087      6.2216
 61      0.0000      1.2916      1.4266      1.8499      0.4207      3.0661      0.0000      0.3176      1.3520
 62      2.0103      1.0938      2.6186      0.0000      0.0000      0.9659      1.1370      0.8992      0.4404
 63      0.1499      5.6820      7.2236      2.4489      2.7815      5.0000      5.9702      3.6217      3.0960
 64     12.4349      1.5063      1.4552      3.0412      1.2057      5.1412      0.4863      4.0441      0.0000
 65      5.0267      0.8812      0.0000      0.0000      2.2884      1.0111      0.0000      0.0865      1.9521
 66      0.0000      0.7011      0.6841      0.1312      0.7125      0.6056      0.6592      0.0000      4.6961

# j      m_j: min, <> & last-chain-values for 1 ...  7 chains
  1  0.0000E+00  8.8559E-03  0.0000E+00  1.4490E-02  5.1988E-03  6.4674E-03  9.4205E-03  0.0000E+00  0.0000E+00
  2  6.8284E-03  2.0145E-03  1.4854E-03  0.0000E+00  2.8027E-03  8.0775E-03  9.6689E-04  1.3226E-03  1.0201E-03
  3  5.7938E-05  2.6017E-03  0.0000E+00  3.5483E-04  1.3060E-04  1.3912E-02  1.9864E-03  0.0000E+00  0.0000E+00
  4  9.9321E-03  4.0879E-03  1.1376E-02  1.4337E-02  2.2209E-03  1.0943E-02  1.1113E-03  4.0445E-03  0.0000E+00
  5  3.6478E-04  5.5954E-03  4.1639E-03  1.7671E-02  1.7382E-02  5.1401E-03  2.6610E-03  7.1831E-03  1.1855E-02
  6  0.0000E+00  8.6317E-03  8.3749E-03  1.1227E-02  0.0000E+00  4.5886E-02  4.7419E-03  2.0299E-02  1.7675E-02
  7  0.0000E+00  1.0730E-02  0.0000E+00  0.0000E+00  0.0000E+00  0.0000E+00  2.1646E-02  0.0000E+00  0.0000E+00
  8  0.0000E+00  2.0877E-02  0.0000E+00  1.2990E-02  2.2347E-02  6.0601E-02  0.0000E+00  5.4707E-02  0.0000E+00
  9  7.4574E-02  2.9001E-02  0.0000E+00  5.7709E-02  2.9190E-02  1.3519E-02  2.9165E-02  0.0000E+00  5.9252E-02
 10  0.0000E+00  2.2512E-02  9.2924E-03  1.3507E-02  0.0000E+00  1.2043E-03  3.8346E-02  4.3002E-02  0.0000E+00
 11  0.0000E+00  5.4419E-02  0.0000E+00  3.4931E-02  8.6108E-02  0.0000E+00  0.0000E+00  0.0000E+00  4.4672E-04
 12  0.0000E+00  8.3930E-02  7.0367E-02  4.7981E-01  0.0000E+00  7.2979E-02  8.6111E-02  0.0000E+00  1.3678E-01
 13  8.2500E-01  2.3120E-01  0.0000E+00  5.2552E-01  1.5696E+00  2.6369E-01  1.9072E-02  2.0482E-01  2.5692E-01
 14  9.5698E-03  8.2184E-01  0.0000E+00  5.7384E-01  2.0024E+00  1.5141E+00  1.1050E+00  4.4104E-01  3.0330E-01
 15  2.8560E+00  4.3360E+00  7.8091E+00  4.0214E-01  1.4971E-01  2.3920E+00  3.6491E+00  5.6308E+00  9.5697E+00
 16  0.0000E+00  6.8414E+00  7.2900E+00  6.2568E+00  0.0000E+00  0.0000E+00  6.3882E+00  9.5008E+00  3.9396E+00
 17  0.0000E+00  1.0030E+01  6.3144E+00  1.0702E+01  1.0643E+00  1.2642E+01  9.9725E+00  9.7504E+00  0.0000E+00
 18  0.0000E+00  4.8333E-03  4.1505E-03  1.9992E-03  4.6731E-03  4.5304E-04  0.0000E+00  3.2574E-03  6.7744E-03
 19  0.0000E+00  3.2702E-03  9.4337E-03  4.4193E-03  2.4586E-03  0.0000E+00  6.3517E-03  2.4547E-03  1.3481E-03
 20  0.0000E+00  3.2897E-03  0.0000E+00  0.0000E+00  1.6497E-02  6.9983E-04  0.0000E+00  0.0000E+00  9.8705E-03
 21  0.0000E+00  4.4377E-03  2.2796E-03  9.4002E-03  0.0000E+00  0.0000E+00  1.1825E-03  5.1145E-03  0.0000E+00
 22  4.8775E-02  6.5285E-03  5.0845E-03  2.3892E-02  0.0000E+00  1.0841E-02  6.8936E-03  8.1634E-03  8.4608E-03
 23  0.0000E+00  7.8254E-03  5.2283E-03  1.0810E-02  7.8426E-03  1.5551E-03  3.0654E-03  1.0413E-02  0.0000E+00
 24  9.8086E-04  1.9211E-02  2.8281E-03  2.5716E-02  2.6881E-02  2.3189E-02  2.0639E-02  2.9633E-02  1.5889E-02
 25  0.0000E+00  1.7892E-02  4.7292E-02  1.3871E-02  2.1902E-02  0.0000E+00  0.0000E+00  3.1199E-03  3.0406E-02
 26  0.0000E+00  2.5278E-02  3.6894E-02  9.6948E-02  3.0818E-02  0.0000E+00  4.2298E-03  2.7407E-02  0.0000E+00
 27  0.0000E+00  6.0805E-02  1.0625E-02  0.0000E+00  4.8162E-02  0.0000E+00  1.4543E-01  8.6293E-02  1.7905E-01
 28  9.3045E-02  1.6790E-01  6.2344E-02  3.2367E-01  5.1580E-02  2.1183E-01  1.5031E-02  1.8180E-01  0.0000E+00
 29  0.0000E+00  3.2212E-01  5.3729E-02  1.6140E+00  0.0000E+00  1.3274E+00  1.2955E+00  4.4037E-01  7.5842E-01
 30  0.0000E+00  6.1644E-01  4.3112E-01  0.0000E+00  1.9244E-01  2.8212E+00  1.2645E+00  5.7408E-01  2.3542E+00
 31  0.0000E+00  1.0221E+00  2.7132E+00  0.0000E+00  3.3253E+00  4.7165E+00  2.8836E+00  7.3243E-01  5.8471E+00
 32  3.2593E+00  1.3437E+00  0.0000E+00  3.2393E+00  3.4123E+00  7.9789E+00  2.2799E+00  6.0276E-01  1.0720E+00
 33  0.0000E+00  3.3380E+00  5.0074E+00  2.0256E-01  2.5273E+00  0.0000E+00  0.0000E+00  1.2782E+01  0.0000E+00
 34  0.0000E+00  6.7567E+00  1.1038E+01  2.1480E+00  3.0453E+01  1.5808E+00  8.7702E+00  1.2023E+01  5.9950E+00
 35  5.2664E-02  5.3296E-03  5.0237E-03  0.0000E+00  9.1869E-03  7.1348E-03  0.0000E+00  0.0000E+00  2.0597E-02
 36  1.6744E-07  1.6948E-03  6.6455E-04  6.7131E-03  7.0080E-04  1.0176E-03  5.0767E-03  7.4441E-04  0.0000E+00
 37  0.0000E+00  2.3277E-03  1.4595E-03  6.5615E-05  4.3353E-03  3.5907E-04  1.7845E-03  6.8922E-03  6.1160E-03
 38  0.0000E+00  7.1130E-03  1.0390E-02  0.0000E+00  5.5830E-03  6.0570E-04  8.1843E-03  8.8050E-03  7.6962E-04
 39  0.0000E+00  8.5759E-03  0.0000E+00  2.1811E-02  3.2177E-03  0.0000E+00  5.2878E-03  2.0437E-02  2.2264E-02
 40  0.0000E+00  1.4835E-02  1.8825E-02  4.2517E-03  4.5423E-03  1.5062E-02  1.1071E-02  9.0913E-03  0.0000E+00
 41  6.3480E-03  2.2790E-02  3.6391E-04  1.4861E-02  2.6813E-02  6.4890E-02  3.4174E-02  4.8980E-02  0.0000E+00
 42  8.0133E-05  4.0535E-02  6.6094E-02  0.0000E+00  1.1899E-01  4.4332E-02  0.0000E+00  0.0000E+00  1.8788E-01
 43  6.1649E-01  5.5334E-02  2.5851E-02  2.2204E-01  0.0000E+00  1.8105E-01  8.0531E-03  5.6886E-02  1.8234E-02
 44  1.3509E-02  1.0522E-01  1.2505E-01  8.1193E-02  1.0287E-01  3.8692E-01  2.8062E-01  2.1192E-02  4.3224E-01
 45  0.0000E+00  2.8779E-01  2.8043E-01  1.2584E+00  1.8628E-01  0.0000E+00  4.4743E-01  1.6816E-01  9.9380E-01
 46  2.2854E-03  3.2998E-01  0.0000E+00  1.2615E+00  3.2134E-01  2.3598E-01  1.4198E-01  7.1002E-01  4.0188E-02
 47  0.0000E+00  5.3883E-01  3.8410E-01  2.0043E+00  1.4844E-01  0.0000E+00  8.6550E-01  4.3804E-01  0.0000E+00
 48  0.0000E+00  4.8744E+00  6.6689E+00  2.6423E+00  1.1833E+01  3.9226E-01  7.1516E+00  3.7545E+00  4.6544E+00
 49  1.6266E-07  2.8066E+01  2.6827E+01  2.1447E+01  1.1969E+01  1.6079E+01  3.8030E+01  1.6700E+01  0.0000E+00
 50  1.0937E+01  5.7328E+00  6.1380E+00  2.8349E+01  4.0799E+00  7.3210E+00  5.7894E-01  7.8441E+00  2.4597E-01
 51  0.0000E+00  2.7430E-02  2.8801E-02  6.1057E-03  2.5602E-03  5.4795E-03  3.3565E-02  1.3151E-02  9.1686E-03
 52  0.0000E+00  1.4656E-03  1.3824E-06  9.6610E-03  3.4134E-04  0.0000E+00  4.2614E-04  2.2886E-03  2.4918E-03
 53  0.0000E+00  1.8924E-03  2.3941E-03  0.0000E+00  7.2707E-04  2.0126E-03  1.8854E-03  8.1172E-03  0.0000E+00
 54  1.4284E-01  6.2200E-03  4.8696E-03  3.8995E-03  2.4776E-02  1.3244E-02  0.0000E+00  6.5610E-03  0.0000E+00
 55  0.0000E+00  8.8920E-03  6.4858E-03  1.5005E-03  7.1178E-03  3.1345E-03  1.5257E-02  1.4792E-02  7.7799E-03
 56  2.6263E-02  1.3030E-02  0.0000E+00  0.0000E+00  4.9181E-02  2.6406E-02  0.0000E+00  0.0000E+00  0.0000E+00
 57  1.4722E-06  2.0415E-02  2.5959E-02  1.3377E-02  0.0000E+00  2.2231E-02  2.3352E-02  1.2025E-02  5.6428E-02
 58  8.9589E-04  3.7302E-02  3.4661E-02  2.7904E-02  1.6865E-02  7.4832E-02  6.9245E-03  8.8800E-02  1.0164E-01
 59  0.0000E+00  7.9369E-02  7.6463E-02  0.0000E+00  5.7149E-02  2.9969E-03  7.3678E-02  6.2995E-02  1.0740E-02
 60  0.0000E+00  1.9769E-01  0.0000E+00  0.0000E+00  1.3055E-01  2.6439E-01  2.0580E-02  1.4723E-01  8.9888E-01
 61  0.0000E+00  3.8198E-01  3.8717E-01  6.4661E-01  1.1745E-01  1.0512E+00  0.0000E+00  9.2168E-02  4.2680E-01
 62  1.2605E+00  5.8984E-01  1.2958E+00  0.0000E+00  0.0000E+00  6.0380E-01  6.0995E-01  4.7570E-01  2.5349E-01
 63  1.8697E-01  6.0961E+00  7.1117E+00  3.1052E+00  2.8171E+00  6.2184E+00  6.3718E+00  3.8121E+00  3.5453E+00
 64  4.2906E+01  4.4701E+00  3.9625E+00  1.0666E+01  3.3776E+00  1.7685E+01  1.4354E+00  1.1774E+01  0.0000E+00
 65  3.6664E+01  5.5277E+00  0.0000E+00  0.0000E+00  1.3551E+01  7.3520E+00  0.0000E+00  5.3222E-01  1.3070E+01
 66  0.0000E+00  6.2132E+00  5.5628E+00  1.3740E+00  5.9602E+00  6.2209E+00  5.8113E+00  0.0000E+00  4.4419E+01

# AV, chi2 & Mass for <> & i_chain = 1 ...  7 solutions
AV      -0.3621     -0.9657     -1.0000     -0.7423     -0.9510     -0.8626     -1.0000     -0.9275     -0.7909
chi2 1.6180E-05  1.7170E-05  1.6897E-05  1.6744E-05  1.6920E-05  1.6640E-05  1.6877E-05  1.6868E-05  1.6755E-05
Mass 5.5619E-14  2.8747E-14  2.9918E-14  3.2837E-14  3.1059E-14  2.8484E-14  2.7598E-14  3.0847E-14  3.4062E-14
-256.93                                  [v0_min (km/s) before EX0s...]
 318.99                                  [vd_min (km/s) before EX0s...]


## Synthetic spectrum (Best Model) ##l_obs f_obs f_syn wei
 3478    [Nl_obs]
 3741.00    1.16751   0.67779    0.000
 3742.00    1.10673   0.66674    0.000
 3743.00    0.16956   0.65489    0.000
 3744.00    0.13417   0.64478    0.000
 3745.00    0.62420   0.63752   -1.000
 3746.00    1.00839   0.63495   -1.000
 3747.00    1.33883   0.63831   -1.000
 3748.00    0.85234   0.64633   -1.000
 3749.00    0.00662   0.65786   -1.000
 3750.00    0.30535   0.67232   -1.000
 3751.00    1.03616   0.68863   -1.000
 3752.00    1.04058   0.70401   -1.000
 3753.00    0.81219   0.71698   -1.000
 3754.00    0.32111   0.72744   -1.000
 3755.00   -0.24037   0.73484    0.000
 3756.00   -0.01469   0.73908    0.000
 3757.00    0.38377   0.74001   -1.000
 3758.00    0.37837   0.73744   -1.000
 3759.00    0.30248   0.73229   -1.000
 3760.00   -0.26594   0.72513    0.000
 3761.00   -0.89978   0.71527    0.000
 3762.00   -0.23742   0.70354    0.000
 3763.00    0.54675   0.69184   -1.000
 3764.00    0.65402   0.68132   -1.000
 3765.00    0.72223   0.67313   -1.000
 3766.00    0.64867   0.66832   -1.000
 3767.00    0.56919   0.66801   -1.000
 3768.00    0.18036   0.67322   -1.000
 3769.00   -0.15528   0.68351    0.000
 3770.00    0.80127   0.69703   -1.000
 3771.00    1.63843   0.71411   -1.000
 3772.00    0.91108   0.73398   -1.000
 3773.00    0.23117   0.75357   -1.000
 3774.00   -0.03230   0.77225    0.000
 3775.00   -0.20055   0.78933    0.000
 3776.00    0.24865   0.80374   -1.000
 3777.00    0.65765   0.81498   -1.000
 3778.00    0.86318   0.82216   -1.000
 3779.00    0.97100   0.82598   -1.000
 3780.00    0.67893   0.82623   -1.000
 3781.00    0.57294   0.82233   -1.000
 3782.00    1.09810   0.81525   -1.000
 3783.00    1.49150   0.80538   -1.000
 3784.00    1.50805   0.79298   -1.000
 3785.00    1.24854   0.77806   -1.000
 3786.00    0.31457   0.76083   -1.000
 3787.00   -0.12913   0.74214    0.000
 3788.00    0.46050   0.72223   -1.000
 3789.00    0.94619   0.70113   -1.000
 3790.00    1.24151   0.68028   -1.000
 3791.00    1.28549   0.66164   -1.000
 3792.00    0.92715   0.64576   -1.000
 3793.00    0.83329   0.63414   -1.000
 3794.00    1.11090   0.62866   -1.000
 3795.00    1.25363   0.62987   -1.000
 3796.00    1.22963   0.63767   -1.000
 3797.00    1.27038   0.65064   -1.000
 3798.00    1.38166   0.66770   -1.000
 3799.00    1.12142   0.68818   -1.000
 3800.00    0.50415   0.71008   -1.000
 3801.00   -0.11412   0.73069    0.000
 3802.00   -0.73322   0.74959    0.000
 3803.00   -0.49128   0.76666    0.000
 3804.00    0.39320   0.78075   -1.000
 3805.00    1.12373   0.79172   -1.000
 3806.00    1.75335   0.79913   -1.000
 3807.00    1.70179   0.80349   -1.000
 3808.00    1.25934   0.80517   -1.000
 3809.00    1.07982   0.80394   -1.000
 3810.00    1.03171   0.79994   -1.000
 3811.00    0.69257   0.79364   -1.000
 3812.00    0.22757   0.78646   -1.000
 3813.00    0.46898   0.77852   -1.000
 3814.00    0.97237   0.76969   -1.000
 3815.00    0.74537   0.76154   -1.000
 3816.00    0.28878   0.75451   -1.000
 3817.00    0.13726   0.74853   -1.000
 3818.00    0.06577   0.74312   -1.000
 3819.00    0.28172   0.73636   -1.000
 3820.00    0.55926   0.72936   -1.000
 3821.00    0.45749   0.72239   -1.000
 3822.00    0.29135   0.71334   -1.000
 3823.00    0.32561   0.70177   -1.000
 3824.00    0.38558   0.68723   -1.000
 3825.00    0.15657   0.67067   -1.000
 3826.00   -0.09837   0.65279    0.000
 3827.00   -0.00965   0.63351    0.000
 3828.00    0.09755   0.61488   -1.000
 3829.00    0.38193   0.59787   -1.000
 3830.00    0.66491   0.58399   -1.000
 3831.00    0.52951   0.57564   -1.000
 3832.00    0.40745   0.57265   -1.000
 3833.00    0.58182   0.57568   -1.000
 3834.00    0.73562   0.58532   -1.000
 3835.00    0.63357   0.59982   -1.000
 3836.00    0.59243   0.61898    0.480
 3837.00    1.06616   0.64151    0.046
 3838.00    1.40298   0.66432    0.026
 3839.00    0.87841   0.68725    0.025
 3840.00    0.40395   0.70866    0.025
 3841.00    0.17678   0.72749    0.025
 3842.00    0.10775   0.74427    0.026
 3843.00    0.67182   0.75783    0.026
 3844.00    1.08479   0.76837    0.026
 3845.00    0.99538   0.77613    0.026
 3846.00    0.87524   0.78198    0.026
 3847.00    0.66879   0.78654    0.000
 3848.00    0.48866   0.78899    0.000
 3849.00    0.37175   0.79022    0.000
 3850.00    0.30886   0.79033    0.000
 3851.00    0.35799   0.78982    0.000
 3852.00    0.35936   0.78990    0.000
 3853.00    0.27457   0.78920    0.000
 3854.00    0.38533   0.78818    0.000
 3855.00    0.80448   0.78783    0.000
 3856.00    1.09522   0.78796    0.000
 3857.00    1.20819   0.78895    0.000
 3858.00    1.16846   0.79002    0.000
 3859.00    0.94268   0.79047    0.000
 3860.00    0.63435   0.79072    0.000
 3861.00    0.23735   0.79107    0.000
 3862.00    0.02841   0.79027    0.000
 3863.00   -0.00234   0.78890    0.000
 3864.00   -0.03382   0.78704    0.000
 3865.00   -0.06590   0.78409    0.000
 3866.00   -0.01344   0.78086    0.000
 3867.00    0.10120   0.77693    0.000
 3868.00    0.48988   0.77333    0.000
 3869.00    1.05557   0.77019    0.000
 3870.00    0.93104   0.76604    0.000
 3871.00    0.41643   0.76071    0.000
 3872.00   -0.03858   0.75473    0.000
 3873.00   -0.46428   0.74782    0.000
 3874.00   -0.44557   0.74022    0.000
 3875.00   -0.23788   0.73093    0.000
 3876.00    0.22801   0.71873    0.000
 3877.00    0.78796   0.70488    0.000
 3878.00    0.76845   0.68963    0.000
 3879.00    0.57031   0.67365    0.000
 3880.00    0.61216   0.65672    0.000
 3881.00    0.71562   0.63912    0.024
 3882.00    0.80208   0.62355    0.023
 3883.00    0.88499   0.61081    0.023
 3884.00    0.84308   0.60231    0.024
 3885.00    0.78060   0.59959    0.024
 3886.00    1.35212   0.60231    0.025
 3887.00    2.00216   0.61093    0.025
 3888.00    1.28111   0.62385    0.024
 3889.00    0.44271   0.64009    0.024
 3890.00    1.12720   0.65919    0.024
 3891.00    1.88759   0.67953    0.025
 3892.00    1.92494   0.69956    0.024
 3893.00    1.93244   0.71725    0.024
 3894.00    0.77667   0.73314    0.023
 3895.00   -0.27727   0.74710    0.000
 3896.00    0.75158   0.75973    0.023
 3897.00    1.70537   0.77068    0.022
 3898.00    1.77143   0.77910    0.022
 3899.00    1.69909   0.78715    0.021
 3900.00    0.49928   0.79401    0.021
 3901.00   -0.51177   0.80059    0.000
 3902.00   -0.36986   0.80753    0.000
 3903.00   -0.14871   0.81351    0.000
 3904.00    0.45382   0.81961    0.019
 3905.00    0.89042   0.82495    0.019
 3906.00    0.67720   0.82916    0.019
 3907.00    0.41839   0.83314    0.019
 3908.00    0.01101   0.83556    0.019
 3909.00   -0.16499   0.83605    0.000
 3910.00    0.29706   0.83521    0.020
 3911.00    0.57548   0.83217    0.021
 3912.00    0.42027   0.82820    0.022
 3913.00    0.30133   0.82281    0.022
 3914.00    0.25641   0.81600    0.022
 3915.00    0.32756   0.80909    0.022
 3916.00    0.60487   0.80160    0.023
 3917.00    0.85736   0.79487    0.023
 3918.00    1.07128   0.78767    0.024
 3919.00    1.03154   0.78024    0.024
 3920.00    0.64569   0.77294    0.024
 3921.00    0.32834   0.76474    0.024
 3922.00    0.09328   0.75680    0.024
 3923.00    0.08326   0.74784    0.024
 3924.00    0.31159   0.73832    0.024
 3925.00    0.75487   0.72918    0.024
 3926.00    1.39895   0.71982    0.024
 3927.00    1.51083   0.71193    0.024
 3928.00    1.18441   0.70542    0.024
 3929.00    0.55281   0.70137    0.023
 3930.00   -0.30003   0.70067    0.000
 3931.00   -0.56467   0.70235    0.000
 3932.00   -0.45498   0.70685    0.000
 3933.00   -0.29175   0.71329    0.000
 3934.00   -0.09872   0.72150    0.000
 3935.00   -0.11053   0.73130    0.000
 3936.00   -0.22150   0.74094    0.000
 3937.00   -0.28126   0.75021    0.000
 3938.00   -0.31962   0.75871    0.000
 3939.00   -0.14948   0.76631    0.000
 3940.00    0.09526   0.77365    0.022
 3941.00    0.32697   0.78034    0.022
 3942.00    0.55475   0.78577    0.022
 3943.00    0.69795   0.79041    0.022
 3944.00    0.81990   0.79458    0.022
 3945.00    0.13471   0.79812    0.022
 3946.00   -0.71507   0.80082    0.000
 3947.00   -0.93494   0.80151    0.000
 3948.00   -1.05394   0.80065    0.000
 3949.00   -0.00901   0.79878    0.000
 3950.00    1.17489   0.79502    0.023
 3951.00    1.14203   0.78880    0.023
 3952.00    1.01010   0.78029    0.023
 3953.00    0.82760   0.76965    0.023
 3954.00    0.64277   0.75656    0.023
 3955.00    1.08362   0.74052    0.023
 3956.00    1.51703   0.72097    0.023
 3957.00    1.14512   0.69908    0.023
 3958.00    0.77237   0.67565    0.023
 3959.00    0.38370   0.65008    0.023
 3960.00    0.06231   0.62349    0.000
 3961.00    0.49902   0.59709    0.000
 3962.00    0.83611   0.57229    0.000
 3963.00    0.39008   0.55126    0.000
 3964.00    0.05684   0.53458    0.000
 3965.00    0.39282   0.52391    0.000
 3966.00    0.67454   0.52082    0.000
 3967.00    0.70149   0.52496    0.000
 3968.00    0.69454   0.53609    0.000
 3969.00    0.55763   0.55347    0.000
 3970.00    0.40427   0.57613    0.000
 3971.00    0.19833   0.60255    0.000
 3972.00    0.13577   0.63071    0.000
 3973.00    0.46153   0.65888    0.000
 3974.00    0.51048   0.68566    0.000
 3975.00   -0.08335   0.71054    0.000
 3976.00   -0.31926   0.73260    0.000
 3977.00    0.16375   0.75155    0.000
 3978.00    0.70013   0.76827    0.000
 3979.00    1.32985   0.78239    0.000
 3980.00    1.70330   0.79460    0.000
 3981.00    1.68442   0.80513    0.024
 3982.00    1.28899   0.81363    0.023
 3983.00    0.38717   0.82165    0.022
 3984.00    0.17050   0.82833    0.022
 3985.00    0.76518   0.83388    0.023
 3986.00    0.85781   0.83881    0.023
 3987.00    0.42620   0.84225    0.022
 3988.00    0.14091   0.84543    0.022
 3989.00   -0.00963   0.84739    0.000
 3990.00    0.42517   0.84859    0.022
 3991.00    1.33521   0.85004    0.022
 3992.00    1.53450   0.85122    0.022
 3993.00    1.22598   0.85234    0.021
 3994.00    0.92323   0.85340    0.021
 3995.00    0.62411   0.85438    0.021
 3996.00    0.27708   0.85510    0.021
 3997.00   -0.09619   0.85538    0.000
 3998.00   -0.04277   0.85489    0.000
 3999.00    0.21390   0.85424    0.021
 4000.00    0.65776   0.85309    0.021
 4001.00    1.17855   0.85164    0.022
 4002.00    0.97473   0.85073    0.022
 4003.00    0.51641   0.85039    0.022
 4004.00    0.41699   0.85067    0.022
 4005.00    0.42390   0.85159    0.022
 4006.00    0.56841   0.85404    0.022
 4007.00    0.74671   0.85752    0.022
 4008.00    0.43738   0.86133    0.022
 4009.00    0.03110   0.86488    0.022
 4010.00    0.52647   0.86821    0.022
 4011.00    1.16196   0.87142    0.022
 4012.00    1.45132   0.87337    0.023
 4013.00    1.70088   0.87423    0.023
 4014.00    1.33075   0.87393    0.023
 4015.00    0.91270   0.87230    0.023
 4016.00    0.89967   0.86956    0.023
 4017.00    0.90369   0.86532    0.023
 4018.00    0.96193   0.86025    0.023
 4019.00    1.02221   0.85502    0.023
 4020.00    1.14986   0.84978    0.023
 4021.00    1.28416   0.84482    0.023
 4022.00    1.53567   0.84076    0.023
 4023.00    1.73943   0.83726    0.023
 4024.00    1.42939   0.83440    0.022
 4025.00    1.11079   0.83247    0.022
 4026.00    0.72723   0.83150    0.022
 4027.00    0.39032   0.83248    0.022
 4028.00    0.32250   0.83420    0.022
 4029.00    0.44900   0.83683    0.022
 4030.00    1.46605   0.84011    0.022
 4031.00    2.14398   0.84390    0.022
 4032.00    1.54985   0.84851    0.022
 4033.00    1.00000   0.85220    0.021
 4034.00    0.58897   0.85516    0.021
 4035.00    0.25523   0.85727    0.021
 4036.00    0.12711   0.85765    0.021
 4037.00    0.32161   0.85658    0.021
 4038.00    1.25278   0.85367    0.021
 4039.00    1.63324   0.84987    0.021
 4040.00    0.92500   0.84671    0.021
 4041.00    0.43916   0.84397    0.021
 4042.00    0.33645   0.84278    0.021
 4043.00    0.53961   0.84261    0.021
 4044.00    1.20421   0.84282    0.021
 4045.00    1.41379   0.84389    0.021
 4046.00    1.02019   0.84544    0.021
 4047.00    1.03864   0.84741    0.021
 4048.00    1.53817   0.84846    0.021
 4049.00    1.87561   0.84828    0.021
 4050.00    2.04619   0.84689    0.021
 4051.00    1.83047   0.84463    0.021
 4052.00    1.26393   0.84172    0.022
 4053.00    0.95960   0.83838    0.021
 4054.00    0.86511   0.83505    0.021
 4055.00    0.80123   0.83119    0.021
 4056.00    0.75889   0.82748    0.021
 4057.00    0.72497   0.82400    0.021
 4058.00    0.69625   0.82125    0.021
 4059.00    0.77243   0.81907    0.021
 4060.00    0.90521   0.81727    0.021
 4061.00    0.68938   0.81607    0.021
 4062.00    0.31016   0.81493    0.022
 4063.00    0.59988   0.81381    0.022
 4064.00    1.15986   0.81269    0.022
 4065.00    0.91850   0.81209    0.022
 4066.00    0.40083   0.81176    0.022
 4067.00    0.39356   0.81040    0.022
 4068.00    0.53450   0.80904    0.022
 4069.00    0.65055   0.80758    0.022
 4070.00    0.76061   0.80589    0.021
 4071.00    0.64105   0.80487    0.022
 4072.00    0.47700   0.80462    0.022
 4073.00    0.77942   0.80612    0.022
 4074.00    1.15213   0.80811    0.021
 4075.00    0.35705   0.80980    0.021
 4076.00   -0.56720   0.81188    0.000
 4077.00   -0.45149   0.81431    0.000
 4078.00   -0.25963   0.81691    0.000
 4079.00    0.36356   0.81947    0.021
 4080.00    1.00326   0.82139    0.022
 4081.00    1.34153   0.82234    0.022
 4082.00    1.66435   0.82179    0.021
 4083.00    1.46756   0.81981    0.021
 4084.00    1.27125   0.81668    0.021
 4085.00    1.08274   0.81156    0.021
 4086.00    0.86998   0.80469    0.020
 4087.00    0.40767   0.79568    0.020
 4088.00    0.06467   0.78346    0.021
 4089.00    0.59728   0.76864    0.020
 4090.00    1.06263   0.75160    0.020
 4091.00    1.15070   0.73299    0.020
 4092.00    1.28174   0.71305    0.000
 4093.00    1.60511   0.69256    0.000
 4094.00    1.78719   0.67286    0.000
 4095.00    1.45037   0.65549    0.000
 4096.00    1.18814   0.64230    0.000
 4097.00    1.15534   0.63373    0.000
 4098.00    1.26779   0.63033    0.000
 4099.00    1.75991   0.63220    0.000
 4100.00    1.98019   0.63860    0.000
 4101.00    1.58999   0.64906    0.000
 4102.00    1.28058   0.66305    0.000
 4103.00    1.12836   0.67957    0.000
 4104.00    0.99836   0.69671    0.000
 4105.00    0.90605   0.71316    0.000
 4106.00    0.76879   0.72894    0.000
 4107.00    0.56469   0.74277    0.000
 4108.00    0.50888   0.75465    0.000
 4109.00    0.64682   0.76478    0.000
 4110.00    0.74364   0.77306    0.000
 4111.00    0.79315   0.77953    0.000
 4112.00    0.71184   0.78425    0.000
 4113.00    0.49776   0.78821    0.019
 4114.00    0.55234   0.79092    0.019
 4115.00    0.84747   0.79307    0.019
 4116.00    1.15985   0.79474    0.019
 4117.00    1.48583   0.79634    0.020
 4118.00    1.34729   0.79778    0.020
 4119.00    0.88640   0.79852    0.020
 4120.00    1.00397   0.79960    0.020
 4121.00    1.47354   0.79991    0.020
 4122.00    1.31778   0.80012    0.020
 4123.00    0.82980   0.79947    0.020
 4124.00    0.67455   0.79841    0.020
 4125.00    0.67271   0.79694    0.020
 4126.00    1.11404   0.79554    0.020
 4127.00    1.73133   0.79463    0.020
 4128.00    1.55955   0.79417    0.020
 4129.00    1.12073   0.79505    0.020
 4130.00    1.01298   0.79573    0.020
 4131.00    0.99943   0.79719    0.019
 4132.00    0.91190   0.79824    0.019
 4133.00    0.80701   0.79907    0.019
 4134.00    0.81131   0.79906    0.019
 4135.00    0.83622   0.79766    0.020
 4136.00    0.94180   0.79546    0.020
 4137.00    1.05915   0.79226    0.020
 4138.00    0.41305   0.78946    0.019
 4139.00   -0.31418   0.78672    0.000
 4140.00   -0.05648   0.78429    0.000
 4141.00    0.26936   0.78267    0.020
 4142.00    0.43887   0.78181    0.019
 4143.00    0.60299   0.78160    0.019
 4144.00    0.77862   0.78264    0.019
 4145.00    0.95402   0.78449    0.020
 4146.00    1.12108   0.78625    0.019
 4147.00    1.26336   0.78742    0.019
 4148.00    1.02228   0.78867    0.019
 4149.00    0.79548   0.78996    0.019
 4150.00    0.70931   0.79114    0.019
 4151.00    0.62793   0.79331    0.019
 4152.00    0.58053   0.79537    0.019
 4153.00    0.54241   0.79799    0.019
 4154.00    0.55492   0.80053    0.018
 4155.00    0.55157   0.80326    0.018
 4156.00    0.47886   0.80580    0.018
 4157.00    0.49519   0.80749    0.018
 4158.00    0.83172   0.80883    0.018
 4159.00    1.11983   0.80905    0.018
 4160.00    1.26178   0.80833    0.018
 4161.00    1.28527   0.80657    0.018
 4162.00    1.00454   0.80416    0.018
 4163.00    0.73116   0.80095    0.018
 4164.00    0.47400   0.79704    0.018
 4165.00    0.26643   0.79282    0.018
 4166.00    0.15383   0.78881    0.018
 4167.00    0.22532   0.78498    0.018
 4168.00    0.60448   0.78151    0.018
 4169.00    1.00588   0.77889    0.018
 4170.00    1.43986   0.77684    0.018
 4171.00    1.68434   0.77553    0.018
 4172.00    1.68474   0.77484    0.018
 4173.00    1.51227   0.77508    0.018
 4174.00    1.14364   0.77624    0.018
 4175.00    0.86919   0.77769    0.018
 4176.00    0.68900   0.77944    0.018
 4177.00    0.60717   0.78107    0.018
 4178.00    0.61216   0.78242    0.018
 4179.00    0.79781   0.78393    0.018
 4180.00    1.12397   0.78502    0.018
 4181.00    1.06924   0.78601    0.018
 4182.00    0.75405   0.78656    0.018
 4183.00    0.57075   0.78727    0.018
 4184.00    0.46652   0.78793    0.018
 4185.00    0.54978   0.78812    0.018
 4186.00    0.73110   0.78811    0.018
 4187.00    0.85199   0.78721    0.018
 4188.00    0.94548   0.78624    0.018
 4189.00    1.16815   0.78468    0.018
 4190.00    1.44123   0.78240    0.018
 4191.00    1.47780   0.77965    0.018
 4192.00    1.43582   0.77648    0.019
 4193.00    1.39618   0.77356    0.019
 4194.00    1.35720   0.77092    0.019
 4195.00    0.93036   0.76882    0.019
 4196.00    0.41452   0.76792    0.019
 4197.00    0.29262   0.76851    0.019
 4198.00    0.24311   0.77020    0.019
 4199.00    0.39496   0.77307    0.018
 4200.00    0.57529   0.77674    0.018
 4201.00    1.13351   0.78076    0.018
 4202.00    1.73025   0.78471    0.019
 4203.00    1.05579   0.78865    0.018
 4204.00    0.29851   0.79198    0.018
 4205.00    0.40485   0.79418    0.018
 4206.00    0.53745   0.79559    0.018
 4207.00    0.49765   0.79618    0.018
 4208.00    0.46334   0.79657    0.017
 4209.00    0.59064   0.79637    0.018
 4210.00    0.69519   0.79593    0.018
 4211.00    0.46862   0.79537    0.018
 4212.00    0.29933   0.79496    0.018
 4213.00    0.67163   0.79371    0.018
 4214.00    1.01029   0.79192    0.018
 4215.00    1.11769   0.78924    0.018
 4216.00    1.20674   0.78537    0.018
 4217.00    1.19828   0.78085    0.018
 4218.00    1.19002   0.77497    0.018
 4219.00    1.18260   0.76904    0.017
 4220.00    1.09912   0.76287    0.017
 4221.00    0.74765   0.75759    0.017
 4222.00    0.37335   0.75338    0.017
 4223.00   -0.06860   0.75070    0.000
 4224.00   -0.26847   0.74987    0.000
 4225.00    0.14257   0.75073    0.017
 4226.00    0.34253   0.75317    0.017
 4227.00    0.08378   0.75621    0.017
 4228.00    0.09106   0.76041    0.016
 4229.00    0.60000   0.76437    0.016
 4230.00    0.94801   0.76767    0.016
 4231.00    1.03104   0.77056    0.016
 4232.00    0.97889   0.77332    0.016
 4233.00    0.73160   0.77580    0.016
 4234.00    0.57691   0.77853    0.016
 4235.00    0.53980   0.78186    0.016
 4236.00    0.45047   0.78459    0.015
 4237.00    0.30270   0.78742    0.015
 4238.00    0.41082   0.78975    0.015
 4239.00    0.77144   0.79114    0.015
 4240.00    0.97350   0.79164    0.015
 4241.00    1.03758   0.79087    0.016
 4242.00    0.96423   0.78908    0.016
 4243.00    0.78552   0.78616    0.016
 4244.00    0.56715   0.78264    0.016
 4245.00    0.32206   0.77863    0.016
 4246.00    0.14062   0.77445    0.016
 4247.00   -0.00323   0.77083    0.000
 4248.00    0.26529   0.76790    0.016
 4249.00    0.74611   0.76574    0.016
 4250.00    0.84557   0.76432    0.017
 4251.00    0.77488   0.76372    0.017
 4252.00    0.52310   0.76419    0.016
 4253.00    0.20188   0.76518    0.016
 4254.00    0.62755   0.76636    0.016
 4255.00    1.29663   0.76832    0.016
 4256.00    1.43100   0.77033    0.016
 4257.00    1.41942   0.77250    0.017
 4258.00    1.16258   0.77375    0.016
 4259.00    0.85077   0.77447    0.016
 4260.00    1.03531   0.77434    0.016
 4261.00    1.30862   0.77307    0.017
 4262.00    1.29323   0.77084    0.017
 4263.00    1.23834   0.76709    0.017
 4264.00    0.95833   0.76238    0.017
 4265.00    0.65632   0.75681    0.017
 4266.00    0.68340   0.75157    0.017
 4267.00    0.73060   0.74674    0.017
 4268.00    0.44406   0.74324    0.017
 4269.00    0.15087   0.74138    0.016
 4270.00    0.31775   0.74090    0.016
 4271.00    0.48388   0.74191    0.016
 4272.00    0.63023   0.74414    0.016
 4273.00    0.76398   0.74752    0.016
 4274.00    0.72452   0.75076    0.017
 4275.00    0.67671   0.75357    0.017
 4276.00    0.55310   0.75582    0.017
 4277.00    0.43084   0.75714    0.017
 4278.00    0.31751   0.75683    0.017
 4279.00    0.28475   0.75555    0.017
 4280.00    0.66904   0.75306    0.017
 4281.00    0.94277   0.75011    0.017
 4282.00    0.75492   0.74711   -2.000
 4283.00    0.66749   0.74336   -2.000
 4284.00    0.92674   0.74025   -2.000
 4285.00    1.11569   0.73692   -2.000
 4286.00    1.10034   0.73404   -2.000
 4287.00    1.05870   0.73144   -2.000
 4288.00    0.95187   0.72861   -2.000
 4289.00    0.81702   0.72573   -2.000
 4290.00    0.62226   0.72238   -2.000
 4291.00    0.46429   0.71902   -2.000
 4292.00    0.37460   0.71456   -2.000
 4293.00    0.42852   0.70972   -2.000
 4294.00    0.71534   0.70383   -2.000
 4295.00    0.90238   0.69775   -2.000
 4296.00    0.94746   0.69193   -2.000
 4297.00    0.91087   0.68608   -2.000
 4298.00    0.77207   0.68107    0.017
 4299.00    0.62455   0.67688    0.017
 4300.00    0.46740   0.67396    0.017
 4301.00    0.51900   0.67251    0.017
 4302.00    0.77369   0.67262    0.017
 4303.00    0.68212   0.67399    0.017
 4304.00    0.29346   0.67749    0.016
 4305.00    0.30154   0.68284    0.016
 4306.00    0.60945   0.68976    0.016
 4307.00    0.74546   0.69852    0.016
 4308.00    0.76733   0.70832    0.017
 4309.00    0.71409   0.71928    0.016
 4310.00    0.61716   0.73023    0.016
 4311.00    0.61564   0.74061    0.016
 4312.00    0.66248   0.74939    0.016
 4313.00    0.87925   0.75608    0.016
 4314.00    1.17058   0.76043    0.016
 4315.00    1.26967   0.76199    0.016
 4316.00    1.29635   0.76153    0.016
 4317.00    1.14011   0.75850    0.016
 4318.00    0.92539   0.75398    0.016
 4319.00    0.87552   0.74844    0.016
 4320.00    0.86972   0.74322    0.016
 4321.00    0.88955   0.73832    0.016
 4322.00    0.91498   0.73453    0.015
 4323.00    0.86075   0.73153    0.016
 4324.00    0.79266   0.72891    0.016
 4325.00    0.69429   0.72668    0.016
 4326.00    0.59191   0.72356    0.016
 4327.00    0.85328   0.71940    0.016
 4328.00    1.14863   0.71295    0.016
 4329.00    1.01505   0.70380    0.016
 4330.00    0.85692   0.69222    0.000
 4331.00    0.82574   0.67867    0.000
 4332.00    0.79815   0.66450    0.000
 4333.00    0.84425   0.65022    0.000
 4334.00    0.88752   0.63749    0.000
 4335.00    0.86289   0.62726    0.000
 4336.00    0.83601   0.62072    0.000
 4337.00    0.77982   0.61820    0.000
 4338.00    0.72902   0.62000    0.000
 4339.00    0.72525   0.62628    0.000
 4340.00    0.69414   0.63568    0.000
 4341.00    0.48652   0.64761    0.000
 4342.00    0.27495   0.66085    0.000
 4343.00    0.04344   0.67413    0.000
 4344.00   -0.08906   0.68632    0.000
 4345.00    0.18254   0.69760    0.000
 4346.00    0.38756   0.70756    0.000
 4347.00    0.36732   0.71624    0.000
 4348.00    0.31625   0.72412    0.000
 4349.00    0.17722   0.73139    0.000
 4350.00    0.17851   0.73818    0.000
 4351.00    0.52188   0.74471    0.015
 4352.00    0.78592   0.75131    0.015
 4353.00    0.88312   0.75815    0.015
 4354.00    0.89296   0.76474    0.015
 4355.00    0.74311   0.77063    0.015
 4356.00    0.71044   0.77604    0.015
 4357.00    0.86500   0.78055    0.016
 4358.00    0.88342   0.78415    0.016
 4359.00    0.71096   0.78650    0.015
 4360.00    0.60766   0.78798    0.015
 4361.00    0.58972   0.78830    0.015
 4362.00    0.74154   0.78744    0.015
 4363.00    1.07799   0.78554    0.015
 4364.00    1.17351   0.78280    0.016
 4365.00    1.03793   0.77963    0.016
 4366.00    0.74291   0.77591    0.016
 4367.00    0.31303   0.77211    0.015
 4368.00    0.22783   0.76839    0.015
 4369.00    0.39938   0.76503    0.015
 4370.00    0.73459   0.76164    0.015
 4371.00    1.17689   0.75827    0.015
 4372.00    1.11436   0.75465    0.015
 4373.00    0.76269   0.75073    0.016
 4374.00    0.67549   0.74614    0.016
 4375.00    0.72021   0.74113    0.016
 4376.00    0.71354   0.73569    0.016
 4377.00    0.68469   0.73005    0.015
 4378.00    0.71058   0.72443    0.015
 4379.00    0.75673   0.71922    0.015
 4380.00    0.67195   0.71520    0.015
 4381.00    0.54610   0.71259    0.015
 4382.00    0.49718   0.71191    0.016
 4383.00    0.46838   0.71287    0.016
 4384.00    0.54958   0.71580    0.015
 4385.00    0.65428   0.72035    0.015
 4386.00    0.59540   0.72589    0.015
 4387.00    0.50887   0.73181    0.015
 4388.00    0.65033   0.73761    0.015
 4389.00    0.82092   0.74333    0.015
 4390.00    0.74801   0.74847    0.015
 4391.00    0.65336   0.75261    0.015
 4392.00    0.51986   0.75578    0.015
 4393.00    0.38429   0.75756    0.015
 4394.00    0.85986   0.75803    0.016
 4395.00    1.33647   0.75731    0.016
 4396.00    0.92512   0.75561    0.016
 4397.00    0.53296   0.75332    0.015
 4398.00    0.56250   0.75043    0.015
 4399.00    0.59764   0.74753    0.015
 4400.00    0.70199   0.74530    0.016
 4401.00    0.78415   0.74387    0.016
 4402.00    0.67973   0.74369    0.016
 4403.00    0.60329   0.74443    0.016
 4404.00    0.70227   0.74596    0.016
 4405.00    0.77931   0.74830    0.016
 4406.00    0.74844   0.75128    0.016
 4407.00    0.69822   0.75425    0.015
 4408.00    0.57071   0.75683    0.015
 4409.00    0.52350   0.75912    0.015
 4410.00    0.74258   0.76119    0.015
 4411.00    0.86758   0.76279    0.015
 4412.00    0.72900   0.76413    0.015
 4413.00    0.61394   0.76538    0.015
 4414.00    0.55525   0.76659    0.015
 4415.00    0.48881   0.76770    0.015
 4416.00    0.40631   0.76899    0.015
 4417.00    0.33423   0.77019    0.016
 4418.00    0.28090   0.77084    0.015
 4419.00    0.28991   0.77119    0.015
 4420.00    0.39706   0.77093    0.015
 4421.00    0.49169   0.77028    0.015
 4422.00    0.56902   0.76927    0.015
 4423.00    0.61300   0.76804    0.015
 4424.00    0.61642   0.76674    0.015
 4425.00    0.53979   0.76526    0.015
 4426.00    0.37733   0.76368    0.015
 4427.00    0.32391   0.76235    0.015
 4428.00    0.37360   0.76117    0.015
 4429.00    0.47476   0.76048    0.015
 4430.00    0.61882   0.76017    0.015
 4431.00    0.62326   0.76033    0.015
 4432.00    0.52517   0.76123    0.015
 4433.00    0.58605   0.76230    0.016
 4434.00    0.74942   0.76371    0.016
 4435.00    0.76075   0.76541    0.016
 4436.00    0.68632   0.76723    0.015
 4437.00    0.54232   0.76922    0.015
 4438.00    0.36416   0.77096    0.015
 4439.00    0.36811   0.77257    0.015
 4440.00    0.44934   0.77395    0.015
 4441.00    0.46471   0.77500    0.015
 4442.00    0.45616   0.77579    0.016
 4443.00    0.56536   0.77606    0.015
 4444.00    0.71076   0.77567    0.015
 4445.00    0.39352   0.77431    0.016
 4446.00   -0.04216   0.77192    0.000
 4447.00   -0.00009   0.76847    0.000
 4448.00    0.14156   0.76421    0.017
 4449.00    0.16306   0.75956    0.017
 4450.00    0.16483   0.75456    0.016
 4451.00    0.49397   0.74964    0.015
 4452.00    0.86348   0.74535    0.015
 4453.00    0.64605   0.74152    0.015
 4454.00    0.37870   0.73880    0.014
 4455.00    0.44790   0.73692    0.014
 4456.00    0.53370   0.73620    0.014
 4457.00    0.43861   0.73632    0.014
 4458.00    0.34386   0.73701    0.014
 4459.00    0.45132   0.73821    0.014
 4460.00    0.55123   0.73966    0.014
 4461.00    0.49820   0.74144    0.000
 4462.00    0.44666   0.74325    0.000
 4463.00    0.41263   0.74529    0.000
 4464.00    0.40498   0.74767    0.000
 4465.00    0.61119   0.75006    0.000
 4466.00    0.79159   0.75311    0.000
 4467.00    0.81493   0.75640    0.000
 4468.00    0.78698   0.76020    0.000
 4469.00    0.51298   0.76396    0.000
 4470.00    0.30321   0.76772    0.000
 4471.00    0.34428   0.77115    0.000
 4472.00    0.39935   0.77389    0.000
 4473.00    0.49994   0.77604    0.000
 4474.00    0.57382   0.77726    0.000
 4475.00    0.57420   0.77796    0.000
 4476.00    0.51886   0.77814    0.000
 4477.00    0.33219   0.77835    0.000
 4478.00    0.30264   0.77835    0.000
 4479.00    0.59311   0.77858    0.000
 4480.00    0.67332   0.77877    0.000
 4481.00    0.38082   0.77922    0.000
 4482.00    0.15150   0.77952    0.014
 4483.00    0.02017   0.77968    0.014
 4484.00    0.06567   0.77938    0.014
 4485.00    0.35198   0.77875    0.014
 4486.00    0.44620   0.77781    0.014
 4487.00    0.31008   0.77696    0.014
 4488.00    0.23823   0.77620    0.014
 4489.00    0.23433   0.77611    0.014
 4490.00    0.36086   0.77656    0.014
 4491.00    0.60900   0.77795    0.014
 4492.00    0.68930   0.77997    0.014
 4493.00    0.63161   0.78281    0.014
 4494.00    0.55085   0.78629    0.013
 4495.00    0.45339   0.79027    0.014
 4496.00    0.54185   0.79476    0.014
 4497.00    0.74841   0.79915    0.014
 4498.00    0.81937   0.80343    0.014
 4499.00    0.81501   0.80707    0.014
 4500.00    0.64905   0.81006    0.013
 4501.00    0.40502   0.81222    0.013
 4502.00    0.39303   0.81340    0.013
 4503.00    0.47785   0.81373    0.014
 4504.00    0.69633   0.81303    0.014
 4505.00    0.96251   0.81145    0.014
 4506.00    0.98629   0.80927    0.014
 4507.00    0.93700   0.80666    0.013
 4508.00    0.90383   0.80385    0.013
 4509.00    0.87471   0.80103    0.013
 4510.00    0.86577   0.79823    0.013
 4511.00    0.86093   0.79564    0.013
 4512.00    0.73425   0.79307    0.013
 4513.00    0.58812   0.79070    0.013
 4514.00    0.57822   0.78816    0.013
 4515.00    0.58451   0.78548    0.013
 4516.00    0.59498   0.78218    0.013
 4517.00    0.60578   0.77845    0.013
 4518.00    0.59529   0.77390    0.013
 4519.00    0.58382   0.76885    0.013
 4520.00    0.56969   0.76337    0.013
 4521.00    0.55687   0.75749    0.013
 4522.00    0.61249   0.75206    0.013
 4523.00    0.66859   0.74671    0.013
 4524.00    0.73360   0.74268    0.013
 4525.00    0.79294   0.73930    0.013
 4526.00    0.78881   0.73756    0.013
 4527.00    0.78328   0.73678    0.013
 4528.00    0.76676   0.73766    0.013
 4529.00    0.72956   0.73934    0.013
 4530.00    0.57006   0.74218    0.013
 4531.00    0.46287   0.74545    0.013
 4532.00    0.60057   0.74899    0.013
 4533.00    0.72226   0.75265    0.013
 4534.00    0.78276   0.75582    0.013
 4535.00    0.79120   0.75887    0.013
 4536.00    0.63363   0.76101    0.013
 4537.00    0.53520   0.76264    0.013
 4538.00    0.59656   0.76336    0.013
 4539.00    0.64215   0.76336    0.013
 4540.00    0.65117   0.76292    0.013
 4541.00    0.60462   0.76198    0.013
 4542.00    0.44669   0.76091    0.013
 4543.00    0.31433   0.75960    0.013
 4544.00    0.22662   0.75850    0.013
 4545.00    0.18836   0.75755    0.013
 4546.00    0.22566   0.75710    0.013
 4547.00    0.27760   0.75724    0.013
 4548.00    0.34919   0.75790    0.013
 4549.00    0.43296   0.75951    0.013
 4550.00    0.53112   0.76144    0.000
 4551.00    0.63970   0.76423    0.000
 4552.00    0.75915   0.76705    0.000
 4553.00    0.75054   0.77017    0.000
 4554.00    0.62420   0.77305    0.000
 4555.00    0.60281   0.77571    0.000
 4556.00    0.66650   0.77781    0.000
 4557.00    0.75696   0.77937    0.000
 4558.00    0.86652   0.78036    0.000
 4559.00    0.83533   0.78083    0.000
 4560.00    0.71604   0.78108    0.000
 4561.00    0.66590   0.78105    0.000
 4562.00    0.65357   0.78103    0.000
 4563.00    0.62700   0.78101    0.000
 4564.00    0.59366   0.78105    0.000
 4565.00    0.63432   0.78114    0.000
 4566.00    0.70534   0.78117    0.000
 4567.00    0.73487   0.78099    0.000
 4568.00    0.74987   0.78058    0.000
 4569.00    0.67351   0.77970    0.000
 4570.00    0.57016   0.77852    0.000
 4571.00    0.45651   0.77694    0.000
 4572.00    0.34033   0.77500    0.000
 4573.00    0.50233   0.77269    0.000
 4574.00    0.71946   0.77033    0.000
 4575.00    0.69894   0.76777    0.000
 4576.00    0.64163   0.76553    0.000
 4577.00    0.80564   0.76350    0.000
 4578.00    0.99498   0.76196    0.000
 4579.00    1.04396   0.76097    0.000
 4580.00    1.08216   0.76040    0.000
 4581.00    0.79906   0.76038    0.000
 4582.00    0.50259   0.76039    0.000
 4583.00    0.45823   0.76071    0.000
 4584.00    0.41849   0.76067    0.000
 4585.00    0.48310   0.76066    0.000
 4586.00    0.54935   0.76017    0.000
 4587.00    0.64414   0.75951    0.000
 4588.00    0.73418   0.75846    0.000
 4589.00    0.77340   0.75731    0.000
 4590.00    0.79326   0.75606    0.000
 4591.00    0.66674   0.75501    0.000
 4592.00    0.57657   0.75416    0.000
 4593.00    0.69534   0.75368    0.000
 4594.00    0.79201   0.75362    0.000
 4595.00    0.78774   0.75402    0.000
 4596.00    0.75996   0.75497    0.000
 4597.00    0.64426   0.75631    0.000
 4598.00    0.54430   0.75832    0.000
 4599.00    0.49357   0.76047    0.000
 4600.00    0.52732   0.76342    0.000
 4601.00    0.78531   0.76622    0.000
 4602.00    0.99172   0.76960    0.000
 4603.00    1.08060   0.77260    0.000
 4604.00    1.06152   0.77574    0.000
 4605.00    0.82947   0.77841    0.000
 4606.00    0.75920   0.78081    0.000
 4607.00    0.96708   0.78274    0.000
 4608.00    1.06495   0.78410    0.000
 4609.00    0.99720   0.78517    0.000
 4610.00    0.90245   0.78568    0.000
 4611.00    0.77200   0.78618    0.000
 4612.00    0.79674   0.78617    0.000
 4613.00    1.00235   0.78642    0.000
 4614.00    1.02426   0.78614    0.000
 4615.00    0.85739   0.78615    0.000
 4616.00    0.65773   0.78576    0.000
 4617.00    0.42836   0.78546    0.000
 4618.00    0.46087   0.78485    0.000
 4619.00    0.70262   0.78429    0.000
 4620.00    0.81691   0.78335    0.000
 4621.00    0.84163   0.78229    0.000
 4622.00    0.73917   0.78096    0.000
 4623.00    0.55830   0.77935    0.000
 4624.00    0.62937   0.77751    0.000
 4625.00    0.83610   0.77538    0.000
 4626.00    0.86914   0.77306    0.000
 4627.00    0.82094   0.77033    0.000
 4628.00    0.75681   0.76748    0.000
 4629.00    0.68626   0.76434    0.000
 4630.00    0.71369   0.76109    0.000
 4631.00    0.77483   0.75761    0.000
 4632.00    0.73093   0.75413    0.000
 4633.00    0.65660   0.75071    0.000
 4634.00    0.70929   0.74726    0.000
 4635.00    0.79239   0.74406    0.000
 4636.00    0.67466   0.74076    0.000
 4637.00    0.51813   0.73791    0.000
 4638.00    0.45605   0.73496    0.000
 4639.00    0.40813   0.73261    0.000
 4640.00    0.52936   0.73028    0.000
 4641.00    0.66920   0.72870    0.000
 4642.00    0.80629   0.72735    0.000
 4643.00    0.94318   0.72704    0.000
 4644.00    0.96248   0.72711    0.000
 4645.00    0.97733   0.72834    0.000
 4646.00    0.79295   0.72994    0.000
 4647.00    0.61047   0.73255    0.000
 4648.00    0.53617   0.73525    0.000
 4649.00    0.47247   0.73857    0.000
 4650.00    0.58200   0.74162    0.000
 4651.00    0.67169   0.74474    0.000
 4652.00    0.55816   0.74727    0.000
 4653.00    0.46066   0.74923    0.000
 4654.00    0.48030   0.75038    0.000
 4655.00    0.54838   0.75046    0.000
 4656.00    0.88732   0.74958    0.000
 4657.00    1.13967   0.74749    0.000
 4658.00    1.00571   0.74465    0.000
 4659.00    0.92791   0.74104    0.000
 4660.00    1.05579   0.73726    0.000
 4661.00    1.10894   0.73350    0.000
 4662.00    0.93284   0.73022    0.000
 4663.00    0.81094   0.72764    0.000
 4664.00    0.83039   0.72606    0.000
 4665.00    0.89649   0.72546    0.000
 4666.00    1.06715   0.72581    0.000
 4667.00    1.03244   0.72678    0.000
 4668.00    0.59889   0.72832    0.000
 4669.00    0.31334   0.72987    0.000
 4670.00    0.27841   0.73154    0.000
 4671.00    0.33356   0.73272    0.000
 4672.00    0.52236   0.73372    0.000
 4673.00    0.68590   0.73410    0.000
 4674.00    0.81650   0.73427    0.000
 4675.00    0.87372   0.73402    0.000
 4676.00    0.84662   0.73373    0.000
 4677.00    0.80886   0.73328    0.000
 4678.00    0.76030   0.73299    0.000
 4679.00    0.72455   0.73273    0.000
 4680.00    0.70026   0.73273    0.000
 4681.00    0.72145   0.73281    0.000
 4682.00    0.77846   0.73314    0.000
 4683.00    0.80005   0.73349    0.000
 4684.00    0.79711   0.73400    0.000
 4685.00    0.75413   0.73443    0.000
 4686.00    0.68683   0.73486    0.000
 4687.00    0.76062   0.73508    0.000
 4688.00    0.90921   0.73510    0.000
 4689.00    0.94366   0.73478    0.000
 4690.00    0.92559   0.73407    0.000
 4691.00    0.93109   0.73294    0.000
 4692.00    0.94593   0.73141    0.000
 4693.00    0.81476   0.72950    0.000
 4694.00    0.63430   0.72739    0.000
 4695.00    0.52531   0.72508    0.000
 4696.00    0.43660   0.72292    0.000
 4697.00    0.53767   0.72082    0.000
 4698.00    0.68316   0.71915    0.000
 4699.00    0.61601   0.71777    0.000
 4700.00    0.50887   0.71690    0.000
 4701.00    0.58732   0.71650    0.000
 4702.00    0.69276   0.71647    0.000
 4703.00    0.74201   0.71709    0.000
 4704.00    0.78531   0.71784    0.000
 4705.00    0.79133   0.71942    0.000
 4706.00    0.79479   0.72094    0.000
 4707.00    0.46475   0.72344    0.000
 4708.00    0.12336   0.72575    0.000
 4709.00   -0.04359   0.72908    0.000
 4710.00   -0.18775   0.73212    0.000
 4711.00    0.40073   0.73597    0.000
 4712.00    0.94137   0.73934    0.000
 4713.00    0.74790   0.74307    0.000
 4714.00    0.57453   0.74601    0.000
 4715.00    0.59814   0.74873    0.000
 4716.00    0.61958   0.75039    0.000
 4717.00    0.62561   0.75131    0.000
 4718.00    0.62881   0.75111    0.000
 4719.00    0.61665   0.74997    0.000
 4720.00    0.61601   0.74797    0.000
 4721.00    0.66559   0.74525    0.000
 4722.00    0.70833   0.74221    0.000
 4723.00    0.72651   0.73898    0.000
 4724.00    0.75799   0.73602    0.000
 4725.00    0.82951   0.73347    0.000
 4726.00    0.86835   0.73157    0.000
 4727.00    0.82344   0.73045    0.000
 4728.00    0.78322   0.73003    0.000
 4729.00    0.75336   0.73043    0.000
 4730.00    0.73171   0.73131    0.000
 4731.00    0.72573   0.73276    0.000
 4732.00    0.74960   0.73443    0.000
 4733.00    0.82327   0.73635    0.000
 4734.00    0.80141   0.73831    0.000
 4735.00    0.63990   0.74024    0.000
 4736.00    0.56251   0.74215    0.000
 4737.00    0.59328   0.74386    0.000
 4738.00    0.56305   0.74551    0.000
 4739.00    0.46370   0.74686    0.000
 4740.00    0.44721   0.74806    0.000
 4741.00    0.51350   0.74889    0.000
 4742.00    0.63866   0.74940    0.000
 4743.00    0.81571   0.74954    0.000
 4744.00    0.88265   0.74914    0.000
 4745.00    0.86411   0.74848    0.000
 4746.00    0.80442   0.74716    0.000
 4747.00    0.71665   0.74576    0.000
 4748.00    0.66001   0.74369    0.000
 4749.00    0.62200   0.74174    0.000
 4750.00    0.63175   0.73920    0.000
 4751.00    0.66643   0.73688    0.000
 4752.00    0.67853   0.73411    0.000
 4753.00    0.68040   0.73153    0.000
 4754.00    0.57919   0.72865    0.000
 4755.00    0.43783   0.72594    0.000
 4756.00    0.49356   0.72313    0.000
 4757.00    0.61458   0.72060    0.000
 4758.00    0.66862   0.71823    0.000
 4759.00    0.70403   0.71638    0.000
 4760.00    0.65510   0.71500    0.000
 4761.00    0.58688   0.71435    0.012
 4762.00    0.69469   0.71437    0.012
 4763.00    0.83474   0.71514    0.012
 4764.00    0.79293   0.71657    0.012
 4765.00    0.72551   0.71852    0.012
 4766.00    0.74502   0.72093    0.012
 4767.00    0.77335   0.72343    0.012
 4768.00    0.87816   0.72601    0.012
 4769.00    0.98791   0.72832    0.012
 4770.00    0.85031   0.73032    0.012
 4771.00    0.70543   0.73177    0.012
 4772.00    0.66113   0.73263    0.012
 4773.00    0.61902   0.73284    0.012
 4774.00    0.64041   0.73240    0.012
 4775.00    0.66345   0.73147    0.012
 4776.00    0.71053   0.73005    0.012
 4777.00    0.74196   0.72839    0.012
 4778.00    0.62610   0.72656    0.012
 4779.00    0.53890   0.72488    0.012
 4780.00    0.64791   0.72344    0.011
 4781.00    0.74327   0.72247    0.011
 4782.00    0.76640   0.72202    0.011
 4783.00    0.78872   0.72223    0.011
 4784.00    0.80766   0.72304    0.011
 4785.00    0.80917   0.72440    0.011
 4786.00    0.74947   0.72619    0.011
 4787.00    0.68543   0.72824    0.011
 4788.00    0.60856   0.73036    0.012
 4789.00    0.57391   0.73233    0.012
 4790.00    0.64556   0.73404    0.012
 4791.00    0.70779   0.73534    0.012
 4792.00    0.74959   0.73611    0.012
 4793.00    0.79451   0.73642    0.012
 4794.00    0.84531   0.73623    0.012
 4795.00    0.88034   0.73562    0.012
 4796.00    0.88942   0.73473    0.012
 4797.00    0.83690   0.73352    0.012
 4798.00    0.69561   0.73229    0.012
 4799.00    0.58601   0.73086    0.012
 4800.00    0.51658   0.72967    0.012
 4801.00    0.51489   0.72840    0.012
 4802.00    0.58886   0.72755    0.012
 4803.00    0.61553   0.72674    0.012
 4804.00    0.59561   0.72644    0.012
 4805.00    0.68243   0.72628    0.012
 4806.00    0.86198   0.72662    0.012
 4807.00    0.86481   0.72717    0.012
 4808.00    0.73240   0.72803    0.012
 4809.00    0.72287   0.72902    0.012
 4810.00    0.79600   0.73002    0.012
 4811.00    0.77488   0.73092    0.012
 4812.00    0.69822   0.73154    0.012
 4813.00    0.59987   0.73183    0.012
 4814.00    0.49037   0.73167    0.012
 4815.00    0.40892   0.73106    0.012
 4816.00    0.33996   0.73004    0.012
 4817.00    0.39737   0.72859    0.012
 4818.00    0.50314   0.72693    0.012
 4819.00    0.53254   0.72499    0.012
 4820.00    0.53712   0.72310    0.012
 4821.00    0.57731   0.72112    0.012
 4822.00    0.62719   0.71938    0.012
 4823.00    0.68094   0.71769    0.012
 4824.00    0.73554   0.71627    0.012
 4825.00    0.73756   0.71506    0.012
 4826.00    0.73020   0.71396    0.012
 4827.00    0.78430   0.71307    0.012
 4828.00    0.84677   0.71209    0.012
 4829.00    0.76281   0.71128    0.012
 4830.00    0.66463   0.71024    0.012
 4831.00    0.59619   0.70934    0.012
 4832.00    0.52956   0.70808    0.012
 4833.00    0.59520   0.70695    0.012
 4834.00    0.66334   0.70549    0.012
 4835.00    0.55147   0.70407    0.012
 4836.00    0.44601   0.70242    0.012
 4837.00    0.50797   0.70072    0.012
 4838.00    0.56816   0.69883    0.012
 4839.00    0.60405   0.69673    0.012
 4840.00    0.63377   0.69435    0.012
 4841.00    0.60771   0.69156    0.012
 4842.00    0.59476   0.68822    0.011
 4843.00    0.66879   0.68413    0.012
 4844.00    0.70496   0.67921    0.012
 4845.00    0.54573   0.67329    0.012
 4846.00    0.44870   0.66633    0.012
 4847.00    0.61056   0.65821    0.012
 4848.00    0.70579   0.64910    0.000
 4849.00    0.57155   0.63901    0.000
 4850.00    0.51204   0.62842    0.000
 4851.00    0.66925   0.61746    0.000
 4852.00    0.77684   0.60669    0.000
 4853.00    0.76161   0.59659    0.000
 4854.00    0.69751   0.58762    0.000
 4855.00    0.52914   0.58036    0.000
 4856.00    0.48311   0.57515    0.000
 4857.00    0.66379   0.57245    0.000
 4858.00    0.70094   0.57197    0.000
 4859.00    0.50576   0.57401    0.000
 4860.00    0.47389   0.57781    0.000
 4861.00    0.67392   0.58355    0.000
 4862.00    0.70707   0.59029    0.000
 4863.00    0.53174   0.59817    0.000
 4864.00    0.45913   0.60602    0.000
 4865.00    0.49962   0.61413    0.000
 4866.00    0.56405   0.62183    0.000
 4867.00    0.65173   0.62930    0.000
 4868.00    0.67058   0.63631    0.000
 4869.00    0.63050   0.64302    0.000
 4870.00    0.59835   0.64920    0.000
 4871.00    0.57218   0.65497    0.000
 4872.00    0.57080   0.66009    0.000
 4873.00    0.58585   0.66481    0.000
 4874.00    0.65296   0.66851    0.000
 4875.00    0.75029   0.67160    0.012
 4876.00    0.68113   0.67356    0.012
 4877.00    0.52776   0.67494    0.012
 4878.00    0.56137   0.67535    0.012
 4879.00    0.67684   0.67548    0.012
 4880.00    0.74200   0.67518    0.012
 4881.00    0.78824   0.67486    0.012
 4882.00    0.71864   0.67486    0.012
 4883.00    0.61210   0.67539    0.012
 4884.00    0.57131   0.67672    0.012
 4885.00    0.54805   0.67869    0.012
 4886.00    0.62222   0.68176    0.012
 4887.00    0.71766   0.68534    0.012
 4888.00    0.70702   0.68982    0.011
 4889.00    0.67799   0.69431    0.011
 4890.00    0.60215   0.69906    0.011
 4891.00    0.52014   0.70329    0.012
 4892.00    0.58684   0.70724    0.012
 4893.00    0.66736   0.71051    0.012
 4894.00    0.55867   0.71280    0.012
 4895.00    0.43925   0.71440    0.012
 4896.00    0.48222   0.71497    0.012
 4897.00    0.52912   0.71498    0.012
 4898.00    0.60105   0.71433    0.012
 4899.00    0.67190   0.71335    0.012
 4900.00    0.71709   0.71197    0.011
 4901.00    0.74588   0.71053    0.011
 4902.00    0.56276   0.70886    0.011
 4903.00    0.39846   0.70706    0.011
 4904.00    0.39773   0.70508    0.011
 4905.00    0.40919   0.70306    0.011
 4906.00    0.49902   0.70069    0.011
 4907.00    0.55446   0.69815    0.011
 4908.00    0.43692   0.69506    0.011
 4909.00    0.36550   0.69188    0.011
 4910.00    0.48176   0.68813    0.011
 4911.00    0.58644   0.68449    0.011
 4912.00    0.65203   0.68062    0.011
 4913.00    0.67764   0.67711    0.011
 4914.00    0.58944   0.67395    0.011
 4915.00    0.51662   0.67157    0.011
 4916.00    0.48124   0.67035    0.011
 4917.00    0.45151   0.67002    0.011
 4918.00    0.43363   0.67138    0.011
 4919.00    0.49498   0.67341    0.011
 4920.00    0.70092   0.67714    0.011
 4921.00    0.81458   0.68097    0.011
 4922.00    0.78106   0.68581    0.011
 4923.00    0.74178   0.68995    0.011
 4924.00    0.69443   0.69394    0.011
 4925.00    0.70835   0.69678    0.011
 4926.00    0.79773   0.69900    0.011
 4927.00    0.78221   0.70004    0.011
 4928.00    0.65281   0.70021    0.011
 4929.00    0.61042   0.69972    0.011
 4930.00    0.65136   0.69875    0.011
 4931.00    0.63350   0.69768    0.011
 4932.00    0.56598   0.69683    0.011
 4933.00    0.61412   0.69639    0.011
 4934.00    0.74825   0.69652    0.011
 4935.00    0.86036   0.69769    0.011
 4936.00    0.95807   0.69932    0.011
 4937.00    0.94868   0.70167    0.011
 4938.00    0.87806   0.70417    0.011
 4939.00    0.70345   0.70715    0.011
 4940.00    0.47708   0.70987    0.000
 4941.00    0.44464   0.71261    0.000
 4942.00    0.49572   0.71430    0.000
 4943.00    0.59845   0.71556    0.000
 4944.00    0.72025   0.71560    0.000
 4945.00    0.79157   0.71490    0.000
 4946.00    0.84710   0.71299    0.000
 4947.00    0.83897   0.71052    0.000
 4948.00    0.81423   0.70724    0.000
 4949.00    0.83004   0.70348    0.000
 4950.00    0.85448   0.69962    0.000
 4951.00    0.73576   0.69563    0.000
 4952.00    0.59292   0.69217    0.000
 4953.00    0.51826   0.68886    0.000
 4954.00    0.45226   0.68649    0.000
 4955.00    0.49373   0.68454    0.000
 4956.00    0.54473   0.68334    0.000
 4957.00    0.49904   0.68255    0.000
 4958.00    0.44823   0.68219    0.000
 4959.00    0.59249   0.68263    0.000
 4960.00    0.73817   0.68289    0.000
 4961.00    0.70254   0.68345    0.000
 4962.00    0.66728   0.68379    0.000
 4963.00    0.64031   0.68443    0.000
 4964.00    0.61410   0.68488    0.000
 4965.00    0.59743   0.68536    0.000
 4966.00    0.58650   0.68562    0.000
 4967.00    0.62359   0.68578    0.000
 4968.00    0.67441   0.68545    0.000
 4969.00    0.81097   0.68460    0.000
 4970.00    0.90768   0.68320    0.000
 4971.00    0.80900   0.68097    0.000
 4972.00    0.71112   0.67831    0.000
 4973.00    0.61648   0.67501    0.000
 4974.00    0.55391   0.67144    0.000
 4975.00    0.59742   0.66787    0.000
 4976.00    0.58782   0.66435    0.000
 4977.00    0.42973   0.66150    0.000
 4978.00    0.38213   0.65911    0.000
 4979.00    0.59880   0.65769    0.000
 4980.00    0.72241   0.65709    0.000
 4981.00    0.65382   0.65734    0.000
 4982.00    0.58869   0.65811    0.000
 4983.00    0.52978   0.65949    0.000
 4984.00    0.47942   0.66121    0.000
 4985.00    0.44248   0.66294    0.000
 4986.00    0.46683   0.66448    0.000
 4987.00    0.57574   0.66556    0.000
 4988.00    0.59895   0.66617    0.000
 4989.00    0.51813   0.66586    0.000
 4990.00    0.51500   0.66511    0.000
 4991.00    0.59502   0.66347    0.000
 4992.00    0.62666   0.66148    0.000
 4993.00    0.61262   0.65890    0.000
 4994.00    0.66495   0.65584    0.000
 4995.00    0.77254   0.65262    0.000
 4996.00    0.76799   0.64931    0.000
 4997.00    0.68127   0.64591    0.000
 4998.00    0.62003   0.64273    0.000
 4999.00    0.57517   0.63976    0.000
 5000.00    0.52425   0.63699    0.000
 5001.00    0.46991   0.63483    0.000
 5002.00    0.52046   0.63270    0.000
 5003.00    0.62239   0.63110    0.000
 5004.00    0.60736   0.62939    0.000
 5005.00    0.54279   0.62801    0.000
 5006.00    0.61266   0.62646    0.000
 5007.00    0.73128   0.62539    0.000
 5008.00    0.64649   0.62438    0.000
 5009.00    0.49931   0.62375    0.000
 5010.00    0.48704   0.62314    0.000
 5011.00    0.50922   0.62309    0.000
 5012.00    0.44835   0.62336    0.000
 5013.00    0.37023   0.62413    0.000
 5014.00    0.45890   0.62564    0.000
 5015.00    0.57487   0.62741    0.000
 5016.00    0.53522   0.62991    0.000
 5017.00    0.47646   0.63243    0.000
 5018.00    0.51431   0.63530    0.000
 5019.00    0.56031   0.63817    0.000
 5020.00    0.61426   0.64127    0.000
 5021.00    0.66860   0.64398    0.000
 5022.00    0.57441   0.64677    0.000
 5023.00    0.48079   0.64900    0.000
 5024.00    0.56120   0.65124    0.000
 5025.00    0.63738   0.65256    0.000
 5026.00    0.62889   0.65338    0.000
 5027.00    0.60855   0.65342    0.000
 5028.00    0.44977   0.65264    0.000
 5029.00    0.32643   0.65160    0.011
 5030.00    0.48912   0.64972    0.011
 5031.00    0.64313   0.64760    0.011
 5032.00    0.74456   0.64519    0.011
 5033.00    0.81711   0.64301    0.011
 5034.00    0.75156   0.64096    0.011
 5035.00    0.69780   0.63942    0.011
 5036.00    0.68999   0.63843    0.011
 5037.00    0.67047   0.63849    0.011
 5038.00    0.61295   0.63918    0.011
 5039.00    0.58165   0.64032    0.011
 5040.00    0.62231   0.64187    0.011
 5041.00    0.63124   0.64380    0.011
 5042.00    0.56555   0.64588    0.011
 5043.00    0.50770   0.64842    0.011
 5044.00    0.46582   0.65034    0.011
 5045.00    0.44334   0.65252    0.011
 5046.00    0.45518   0.65440    0.011
 5047.00    0.54973   0.65634    0.011
 5048.00    0.77232   0.65819    0.011
 5049.00    0.78199   0.66016    0.011
 5050.00    0.50219   0.66232    0.011
 5051.00    0.35658   0.66417    0.011
 5052.00    0.37158   0.66592    0.011
 5053.00    0.43941   0.66722    0.011
 5054.00    0.56297   0.66822    0.011
 5055.00    0.59425   0.66827    0.011
 5056.00    0.53961   0.66791    0.011
 5057.00    0.54907   0.66681    0.011
 5058.00    0.61113   0.66537    0.011
 5059.00    0.62301   0.66325    0.011
 5060.00    0.59866   0.66101    0.011
 5061.00    0.56481   0.65865    0.011
 5062.00    0.52494   0.65625    0.011
 5063.00    0.50362   0.65378    0.011
 5064.00    0.49257   0.65155    0.011
 5065.00    0.46864   0.64937    0.011
 5066.00    0.43850   0.64750    0.011
 5067.00    0.51368   0.64572    0.011
 5068.00    0.63269   0.64380    0.011
 5069.00    0.65168   0.64208    0.011
 5070.00    0.63505   0.64020    0.011
 5071.00    0.72314   0.63840    0.011
 5072.00    0.84273   0.63648    0.011
 5073.00    0.79744   0.63487    0.011
 5074.00    0.71097   0.63376    0.011
 5075.00    0.58779   0.63271    0.011
 5076.00    0.45716   0.63246    0.011
 5077.00    0.52050   0.63259    0.011
 5078.00    0.61466   0.63359    0.011
 5079.00    0.64901   0.63470    0.011
 5080.00    0.67629   0.63661    0.011
 5081.00    0.60485   0.63902    0.011
 5082.00    0.52548   0.64161    0.011
 5083.00    0.57623   0.64404    0.011
 5084.00    0.63282   0.64617    0.011
 5085.00    0.54807   0.64805    0.010
 5086.00    0.46470   0.64915    0.010
 5087.00    0.53413   0.64982    0.010
 5088.00    0.60238   0.64968    0.010
 5089.00    0.64868   0.64924    0.010
 5090.00    0.68679   0.64809    0.010
 5091.00    0.63365   0.64663    0.010
 5092.00    0.57866   0.64486    0.011
 5093.00    0.50923   0.64302    0.011
 5094.00    0.46851   0.64108    0.011
 5095.00    0.59700   0.63913    0.011
 5096.00    0.69819   0.63748    0.011
 5097.00    0.67193   0.63589    0.010
 5098.00    0.65754   0.63488    0.010
 5099.00    0.68835   0.63385    0.010
 5100.00    0.69222   0.63356    0.010
 5101.00    0.61042   0.63355    0.010
 5102.00    0.52010   0.63372    0.010
 5103.00    0.40676   0.63414    0.010
 5104.00    0.33219   0.63482    0.010
 5105.00    0.34725   0.63591    0.010
 5106.00    0.38993   0.63722    0.010
 5107.00    0.48784   0.63871    0.011
 5108.00    0.61706   0.64008    0.011
 5109.00    0.80084   0.64160    0.011
 5110.00    0.87811   0.64248    0.011
 5111.00    0.79288   0.64313    0.011
 5112.00    0.73534   0.64319    0.011
 5113.00    0.71488   0.64241    0.011
 5114.00    0.64288   0.64107    0.011
 5115.00    0.51007   0.63914    0.011
 5116.00    0.45399   0.63658    0.011
 5117.00    0.47774   0.63378    0.011
 5118.00    0.52134   0.63091    0.011
 5119.00    0.58316   0.62788    0.011
 5120.00    0.65633   0.62544    0.011
 5121.00    0.73868   0.62314    0.011
 5122.00    0.74832   0.62172    0.011
 5123.00    0.70621   0.62060    0.011
 5124.00    0.59846   0.62036    0.011
 5125.00    0.44970   0.62056    0.010
 5126.00    0.43840   0.62096    0.010
 5127.00    0.50213   0.62166    0.010
 5128.00    0.52089   0.62202    0.010
 5129.00    0.51831   0.62275    0.011
 5130.00    0.60687   0.62298    0.011
 5131.00    0.73274   0.62298    0.011
 5132.00    0.81969   0.62246    0.011
 5133.00    0.89305   0.62183    0.011
 5134.00    0.74390   0.62073    0.011
 5135.00    0.52916   0.61946    0.011
 5136.00    0.52153   0.61813    0.011
 5137.00    0.56448   0.61636    0.011
 5138.00    0.63094   0.61521    0.011
 5139.00    0.70204   0.61378    0.011
 5140.00    0.55858   0.61279    0.011
 5141.00    0.38205   0.61222    0.011
 5142.00    0.48627   0.61150    0.011
 5143.00    0.62246   0.61122    0.011
 5144.00    0.52427   0.61162    0.010
 5145.00    0.40819   0.61228    0.010
 5146.00    0.42512   0.61303    0.010
 5147.00    0.44753   0.61442    0.011
 5148.00    0.41131   0.61550    0.011
 5149.00    0.37818   0.61713    0.011
 5150.00    0.49563   0.61823    0.011
 5151.00    0.60135   0.61878    0.011
 5152.00    0.50374   0.61885    0.011
 5153.00    0.41166   0.61804    0.011
 5154.00    0.37854   0.61604    0.011
 5155.00    0.35204   0.61271    0.011
 5156.00    0.37539   0.60803    0.011
 5157.00    0.39495   0.60217    0.011
 5158.00    0.39274   0.59543    0.011
 5159.00    0.44065   0.58798    0.011
 5160.00    0.71686   0.57992    0.011
 5161.00    0.93760   0.57180    0.011
 5162.00    0.95130   0.56397    0.011
 5163.00    0.94714   0.55731    0.011
 5164.00    0.88724   0.55213    0.011
 5165.00    0.79483   0.54800    0.011
 5166.00    0.61630   0.54556    0.011
 5167.00    0.44095   0.54446    0.011
 5168.00    0.27283   0.54498    0.011
 5169.00    0.17482   0.54677    0.011
 5170.00    0.21486   0.54920    0.011
 5171.00    0.26314   0.55160    0.011
 5172.00    0.32557   0.55338    0.011
 5173.00    0.43961   0.55554    0.011
 5174.00    0.63121   0.55809    0.011
 5175.00    0.69932   0.56035    0.011
 5176.00    0.60432   0.56229    0.011
 5177.00    0.55519   0.56378    0.011
 5178.00    0.55942   0.56558    0.011
 5179.00    0.52694   0.56732    0.011
 5180.00    0.45682   0.56922    0.010
 5181.00    0.50348   0.57148    0.010
 5182.00    0.65583   0.57392    0.010
 5183.00    0.67318   0.57663    0.010
 5184.00    0.58287   0.57968    0.010
 5185.00    0.48366   0.58374    0.010
 5186.00    0.37819   0.58731    0.010
 5187.00    0.35636   0.59048    0.010
 5188.00    0.38601   0.59332    0.010
 5189.00    0.47652   0.59556    0.010
 5190.00    0.59974   0.59793    0.000
 5191.00    0.64192   0.59920    0.000
 5192.00    0.64626   0.60012    0.000
 5193.00    0.67229   0.60062    0.000
 5194.00    0.70703   0.60087    0.000
 5195.00    0.67195   0.60009    0.000
 5196.00    0.61291   0.59882    0.000
 5197.00    0.48126   0.59723    0.000
 5198.00    0.32864   0.59538    0.000
 5199.00    0.40662   0.59341    0.000
 5200.00    0.53968   0.59161    0.000
 5201.00    0.52386   0.59048    0.000
 5202.00    0.47939   0.58970    0.000
 5203.00    0.47381   0.59013    0.000
 5204.00    0.47406   0.59082    0.000
 5205.00    0.46155   0.59256    0.000
 5206.00    0.44765   0.59473    0.000
 5207.00    0.45590   0.59807    0.000
 5208.00    0.46576   0.60143    0.000
 5209.00    0.57556   0.60501    0.000
 5210.00    0.68910   0.60893    0.000
 5211.00    0.69878   0.61192    0.011
 5212.00    0.70623   0.61480    0.011
 5213.00    0.65023   0.61642    0.011
 5214.00    0.59818   0.61738    0.011
 5215.00    0.61008   0.61720    0.011
 5216.00    0.60661   0.61635    0.011
 5217.00    0.44668   0.61548    0.011
 5218.00    0.32373   0.61408    0.010
 5219.00    0.46994   0.61327    0.011
 5220.00    0.58710   0.61228    0.011
 5221.00    0.54237   0.61137    0.011
 5222.00    0.49386   0.61104    0.011
 5223.00    0.42849   0.61089    0.011
 5224.00    0.38280   0.61130    0.011
 5225.00    0.40901   0.61261    0.011
 5226.00    0.42414   0.61459    0.011
 5227.00    0.40536   0.61733    0.011
 5228.00    0.38229   0.62072    0.011
 5229.00    0.34806   0.62436    0.011
 5230.00    0.33080   0.62742    0.011
 5231.00    0.35148   0.63036    0.011
 5232.00    0.38652   0.63309    0.011
 5233.00    0.44939   0.63495    0.011
 5234.00    0.51638   0.63692    0.011
 5235.00    0.59031   0.63830    0.011
 5236.00    0.62825   0.63921    0.011
 5237.00    0.61287   0.63918    0.011
 5238.00    0.57035   0.63809    0.011
 5239.00    0.49249   0.63693    0.010
 5240.00    0.48368   0.63542    0.010
 5241.00    0.55407   0.63334    0.010
 5242.00    0.60492   0.63140    0.010
 5243.00    0.63601   0.62959    0.010
 5244.00    0.59323   0.62803    0.010
 5245.00    0.48454   0.62674    0.010
 5246.00    0.42391   0.62503    0.010
 5247.00    0.40105   0.62411    0.010
 5248.00    0.44440   0.62368    0.010
 5249.00    0.53353   0.62352    0.010
 5250.00    0.52609   0.62263    0.010
 5251.00    0.46011   0.62126    0.010
 5252.00    0.47160   0.61968    0.010
 5253.00    0.52409   0.61692    0.010
 5254.00    0.56106   0.61352    0.010
 5255.00    0.59091   0.60899    0.010
 5256.00    0.56638   0.60436    0.010
 5257.00    0.52035   0.59926    0.010
 5258.00    0.51007   0.59433    0.010
 5259.00    0.51182   0.58944    0.010
 5260.00    0.41373   0.58381    0.011
 5261.00    0.28738   0.57933    0.011
 5262.00    0.16175   0.57669    0.011
 5263.00    0.03628   0.57544    0.011
 5264.00    0.19185   0.57508    0.011
 5265.00    0.40011   0.57649    0.011
 5266.00    0.51193   0.57862    0.011
 5267.00    0.60978   0.58239    0.011
 5268.00    0.59244   0.58752    0.011
 5269.00    0.56297   0.59222    0.011
 5270.00    0.66747   0.59756    0.011
 5271.00    0.78110   0.60342    0.011
 5272.00    0.51809   0.60924    0.011
 5273.00    0.24245   0.61418    0.011
 5274.00    0.40292   0.61889    0.011
 5275.00    0.56008   0.62308    0.011
 5276.00    0.59588   0.62737    0.011
 5277.00    0.62900   0.63190    0.011
 5278.00    0.62130   0.63565    0.011
 5279.00    0.61353   0.63873    0.011
 5280.00    0.60509   0.64142    0.011
 5281.00    0.58676   0.64392    0.011
 5282.00    0.49883   0.64596    0.011
 5283.00    0.42630   0.64766    0.011
 5284.00    0.43730   0.64851    0.011
 5285.00    0.46219   0.64931    0.011
 5286.00    0.54747   0.64936    0.011
 5287.00    0.59179   0.64828    0.011
 5288.00    0.48957   0.64636    0.011
 5289.00    0.42611   0.64404    0.011
 5290.00    0.47909   0.64235    0.011
 5291.00    0.55758   0.64055    0.011
 5292.00    0.70132   0.63890    0.011
 5293.00    0.75900   0.63777    0.011
 5294.00    0.62739   0.63738    0.011
 5295.00    0.53429   0.63797    0.011
 5296.00    0.51467   0.63891    0.011
 5297.00    0.51866   0.64044    0.011
 5298.00    0.56192   0.64238    0.011
 5299.00    0.54950   0.64526    0.011
 5300.00    0.45580   0.64837    0.011
 5301.00    0.41863   0.65087    0.011
 5302.00    0.45401   0.65334    0.011
 5303.00    0.55036   0.65546    0.011
 5304.00    0.71565   0.65708    0.011
 5305.00    0.75354   0.65799    0.011
 5306.00    0.66439   0.65815    0.011
 5307.00    0.63362   0.65751    0.010
 5308.00    0.65421   0.65645    0.010
 5309.00    0.60973   0.65519    0.010
 5310.00    0.51482   0.65310    0.010
 5311.00    0.55500   0.65057    0.010
 5312.00    0.68723   0.64746    0.010
 5313.00    0.77559   0.64403    0.010
 5314.00    0.83775   0.64035    0.010
 5315.00    0.79192   0.63614    0.010
 5316.00    0.68982   0.63210    0.010
 5317.00    0.65615   0.62769    0.010
 5318.00    0.65340   0.62379    0.010
 5319.00    0.59644   0.61938    0.010
 5320.00    0.51843   0.61587    0.010
 5321.00    0.55078   0.61299    0.010
 5322.00    0.61961   0.61110    0.010
 5323.00    0.57538   0.61032    0.010
 5324.00    0.49979   0.60960    0.010
 5325.00    0.41632   0.61051    0.010
 5326.00    0.33104   0.61175    0.010
 5327.00    0.32302   0.61357    0.010
 5328.00    0.32909   0.61514    0.010
 5329.00    0.56559   0.61759    0.010
 5330.00    0.83441   0.62050    0.010
 5331.00    0.82231   0.62247    0.010
 5332.00    0.78187   0.62409    0.010
 5333.00    0.78644   0.62515    0.010
 5334.00    0.79390   0.62622    0.010
 5335.00    0.81408   0.62760    0.010
 5336.00    0.83431   0.62806    0.010
 5337.00    0.72224   0.62857    0.010
 5338.00    0.61858   0.62929    0.010
 5339.00    0.75536   0.62993    0.010
 5340.00    0.86778   0.63087    0.010
 5341.00    0.63059   0.63218    0.010
 5342.00    0.41771   0.63456    0.010
 5343.00    0.43224   0.63710    0.010
 5344.00    0.46112   0.63985    0.010
 5345.00    0.58776   0.64281    0.010
 5346.00    0.69061   0.64557    0.010
 5347.00    0.66783   0.64880    0.010
 5348.00    0.63721   0.65186    0.010
 5349.00    0.57332   0.65412    0.010
 5350.00    0.51179   0.65652    0.010
 5351.00    0.45857   0.65822    0.010
 5352.00    0.43721   0.65919    0.010
 5353.00    0.50972   0.65898    0.010
 5354.00    0.57584   0.65806    0.010
 5355.00    0.62589   0.65645    0.011
 5356.00    0.64072   0.65394    0.011
 5357.00    0.57933   0.65128    0.011
 5358.00    0.55823   0.64774    0.010
 5359.00    0.61280   0.64456    0.010
 5360.00    0.63452   0.64092    0.010
 5361.00    0.60238   0.63742    0.010
 5362.00    0.56109   0.63415    0.010
 5363.00    0.50664   0.63136    0.010
 5364.00    0.54318   0.62979    0.010
 5365.00    0.69484   0.62855    0.010
 5366.00    0.70703   0.62914    0.010
 5367.00    0.56373   0.62953    0.010
 5368.00    0.50556   0.63070   -2.000
 5369.00    0.53110   0.63215   -2.000
 5370.00    0.44558   0.63345   -2.000
 5371.00    0.26376   0.63544   -2.000
 5372.00    0.16534   0.63742   -2.000
 5373.00    0.13064   0.63974   -2.000
 5374.00    0.20627   0.64090   -2.000
 5375.00    0.35599   0.64187   -2.000
 5376.00    0.51114   0.64201   -2.000
 5377.00    0.66948   0.64165   -2.000
 5378.00    0.71757   0.64130   -2.000
 5379.00    0.70911   0.64025   -2.000
 5380.00    0.68444   0.63861   -2.000
 5381.00    0.65256   0.63644   -2.000
 5382.00    0.64067   0.63412   -2.000
 5383.00    0.63642   0.63120    0.010
 5384.00    0.64313   0.62857    0.010
 5385.00    0.65341   0.62594    0.010
 5386.00    0.66414   0.62318    0.010
 5387.00    0.67500   0.62019    0.010
 5388.00    0.58549   0.61731    0.010
 5389.00    0.47362   0.61459    0.010
 5390.00    0.49358   0.61139    0.010
 5391.00    0.53696   0.60950    0.010
 5392.00    0.57918   0.60786    0.010
 5393.00    0.62124   0.60616    0.010
 5394.00    0.51911   0.60444    0.010
 5395.00    0.40304   0.60301    0.010
 5396.00    0.49494   0.60149    0.010
 5397.00    0.59935   0.59946    0.010
 5398.00    0.60509   0.59858    0.010
 5399.00    0.60844   0.59836    0.010
 5400.00    0.64207   0.59850    0.010
 5401.00    0.67508   0.59882    0.010
 5402.00    0.69222   0.59966    0.010
 5403.00    0.69684   0.60060    0.010
 5404.00    0.53176   0.60240    0.010
 5405.00    0.39616   0.60494    0.010
 5406.00    0.52589   0.60790    0.010
 5407.00    0.63252   0.61143    0.010
 5408.00    0.58641   0.61485    0.010
 5409.00    0.54963   0.61826    0.010
 5410.00    0.56082   0.62117    0.010
 5411.00    0.61371   0.62418    0.010
 5412.00    0.83969   0.62681    0.010
 5413.00    0.95594   0.62863    0.010
 5414.00    0.69531   0.62985    0.010
 5415.00    0.50058   0.63050    0.010
 5416.00    0.49647   0.63075    0.010
 5417.00    0.52773   0.63016    0.010
 5418.00    0.64631   0.62946    0.010
 5419.00    0.71197   0.62855    0.010
 5420.00    0.66494   0.62694    0.010
 5421.00    0.65391   0.62522    0.010
 5422.00    0.70946   0.62277    0.010
 5423.00    0.71051   0.62074    0.010
 5424.00    0.62350   0.61975    0.010
 5425.00    0.55570   0.61842    0.010
 5426.00    0.51513   0.61778    0.010
 5427.00    0.46682   0.61712    0.010
 5428.00    0.40884   0.61705    0.010
 5429.00    0.43507   0.61738    0.010
 5430.00    0.55385   0.61814    0.010
 5431.00    0.62721   0.62064    0.010
 5432.00    0.65656   0.62215    0.010
 5433.00    0.65159   0.62357    0.010
 5434.00    0.61730   0.62510    0.010
 5435.00    0.55457   0.62614    0.010
 5436.00    0.47045   0.62732    0.010
 5437.00    0.41014   0.62742    0.010
 5438.00    0.36557   0.62716    0.010
 5439.00    0.39709   0.62582    0.010
 5440.00    0.47269   0.62381    0.010
 5441.00    0.47887   0.62256    0.010
 5442.00    0.45001   0.62078    0.010
 5443.00    0.56087   0.61915    0.010
 5444.00    0.73279   0.61708    0.010
 5445.00    0.62036   0.61499    0.010
 5446.00    0.40129   0.61285    0.010
 5447.00    0.37931   0.61094    0.010
 5448.00    0.42004   0.60957    0.010
 5449.00    0.48824   0.60867    0.010
 5450.00    0.56375   0.60882    0.010
 5451.00    0.64324   0.60873    0.010
 5452.00    0.72361   0.60863    0.010
 5453.00    0.67067   0.60823    0.010
 5454.00    0.59470   0.60816    0.010
 5455.00    0.65079   0.60808    0.010
 5456.00    0.72420   0.60776    0.010
 5457.00    0.65251   0.60881    0.010
 5458.00    0.56741   0.60962    0.010
 5459.00    0.53203   0.60942    0.010
 5460.00    0.49945   0.60917    0.010
 5461.00    0.53203   0.60885    0.010
 5462.00    0.56542   0.60812    0.010
 5463.00    0.53178   0.60676    0.010
 5464.00    0.50591   0.60606    0.010
 5465.00    0.66220   0.60564    0.010
 5466.00    0.80807   0.60391    0.010
 5467.00    0.81999   0.60223    0.010
 5468.00    0.81345   0.60127    0.010
 5469.00    0.64709   0.59932    0.010
 5470.00    0.51277   0.59776    0.010
 5471.00    0.58386   0.59760    0.010
 5472.00    0.64613   0.59775    0.010
 5473.00    0.66417   0.59751    0.010
 5474.00    0.63755   0.59693    0.010
 5475.00    0.42959   0.59786    0.010
 5476.00    0.28225   0.59852    0.010
 5477.00    0.33900   0.59964    0.010
 5478.00    0.42770   0.60190   -2.000
 5479.00    0.60716   0.60349   -2.000
 5480.00    0.69675   0.60451   -2.000
 5481.00    0.56819   0.60514   -2.000
 5482.00    0.40649   0.60671   -2.000
 5483.00    0.17537   0.60773   -2.000
 5484.00   -0.11922   0.60886   -2.000
 5485.00   -0.52937   0.61008   -2.000
 5486.00   -0.84200   0.61024   -2.000
 5487.00   -0.99938   0.61014   -2.000
 5488.00   -1.96695   0.61007   -2.000
 5489.00   -4.06632   0.61032   -2.000
 5490.00   -3.98699   0.60968   -2.000
 5491.00   -1.22922   0.60932   -2.000
 5492.00    0.93822   0.60920   -2.000
 5493.00    2.46593   0.60826   -2.000
 5494.00    2.62321   0.60701   -2.000
 5495.00    1.47050   0.60599   -2.000
 5496.00    0.80742   0.60526   -2.000
 5497.00    0.55702   0.60390   -2.000
 5498.00    0.52151   0.60290   -2.000
 5499.00    0.64548   0.60181   -2.000
 5500.00    0.69069   0.60064   -2.000
 5501.00    0.68455   0.59984   -2.000
 5502.00    0.72451   0.59893   -1.000
 5503.00    0.79077   0.59867   -1.000
 5504.00    0.74638   0.59840    0.029
 5505.00    0.64700   0.59796    0.012
 5506.00    0.72857   0.59806    0.010
 5507.00    0.88791   0.59841    0.010
 5508.00    0.78872   0.59958    0.010
 5509.00    0.59431   0.60080    0.010
 5510.00    0.49197   0.60187    0.010
 5511.00    0.41835   0.60367    0.010
 5512.00    0.42814   0.60490    0.010
 5513.00    0.45965   0.60617    0.010
 5514.00    0.49289   0.60747    0.010
 5515.00    0.52649   0.60848    0.010
 5516.00    0.59321   0.60936    0.010
 5517.00    0.66550   0.60983    0.010
 5518.00    0.61449   0.61019    0.010
 5519.00    0.54786   0.61011    0.010
 5520.00    0.65288   0.60944    0.010
 5521.00    0.77304   0.60846    0.010
 5522.00    0.72167   0.60811    0.010
 5523.00    0.66132   0.60786    0.010
 5524.00    0.55830   0.60768    0.010
 5525.00    0.45593   0.60763    0.010
 5526.00    0.46289   0.60742    0.010
 5527.00    0.47631   0.60764    0.010
 5528.00    0.62862   0.60755    0.010
 5529.00    0.76638   0.60850    0.010
 5530.00    0.72668   0.60978    0.010
 5531.00    0.68181   0.61051    0.010
 5532.00    0.59386   0.61161    0.010
 5533.00    0.52088   0.61254    0.010
 5534.00    0.54113   0.61377    0.010
 5535.00    0.55099   0.61466    0.010
 5536.00    0.51017   0.61565    0.010
 5537.00    0.47124   0.61690    0.010
 5538.00    0.43983   0.61763    0.010
 5539.00    0.43583   0.61838    0.011
 5540.00    0.52230   0.61921    0.027
 5541.00    0.60541   0.61999   -1.000
 5542.00    0.67914   0.62035   -1.000
 5543.00    0.71241   0.62053   -1.000
 5544.00    0.64917   0.62074   -1.000
 5545.00    0.61345   0.62071   -1.000
 5546.00    0.63445   0.62023   -1.000
 5547.00    0.67356   0.61961    0.055
 5548.00    0.74515   0.61909    0.014
 5549.00    0.78107   0.61826    0.010
 5550.00    0.76106   0.61703    0.010
 5551.00    0.71610   0.61572    0.010
 5552.00    0.63679   0.61450    0.010
 5553.00    0.59392   0.61284    0.010
 5554.00    0.59521   0.61124    0.010
 5555.00    0.59305   0.60972    0.010
 5556.00    0.58720   0.60823    0.010
 5557.00    0.57186   0.60684    0.010
 5558.00    0.54758   0.60519    0.010
 5559.00    0.60496   0.60417    0.010
 5560.00    0.73019   0.60300    0.010
 5561.00    0.76186   0.60187    0.010
 5562.00    0.72509   0.60127    0.010
 5563.00    0.63143   0.60064    0.010
 5564.00    0.50121   0.60071    0.010
 5565.00    0.53837   0.60046    0.010
 5566.00    0.66958   0.60027    0.010
 5567.00    0.63730   0.60068    0.010
 5568.00    0.52509   0.60090    0.009
 5569.00    0.55259   0.60111    0.010
 5570.00    0.63912   0.60123    0.010
 5571.00    0.69408   0.60141    0.010
 5572.00    0.73761   0.60101    0.010
 5573.00    0.71767   0.60018    0.010
 5574.00    0.67829   0.59938    0.010
 5575.00    0.60960   0.59803    0.010
 5576.00    0.53344   0.59629    0.010
 5577.00    0.57489   0.59431    0.010
 5578.00    0.64070   0.59241    0.010
 5579.00    0.55584   0.59008    0.010
 5580.00    0.44640   0.58756    0.010
 5581.00    0.49300   0.58544    0.010
 5582.00    0.55867   0.58299    0.010
 5583.00    0.50832   0.58167    0.010
 5584.00    0.44822   0.58095    0.010
 5585.00    0.58401   0.58002    0.010
 5586.00    0.72929   0.57943    0.010
 5587.00    0.77639   0.57881    0.010
 5588.00    0.81836   0.57918    0.010
 5589.00    0.64349   0.57995    0.010
 5590.00    0.48020   0.58076    0.010
 5591.00    0.54715   0.58176    0.010
 5592.00    0.61009   0.58282    0.010
 5593.00    0.62649   0.58377    0.010
 5594.00    0.64507   0.58496    0.010
 5595.00    0.68131   0.58657    0.010
 5596.00    0.72707   0.58828    0.010
 5597.00    0.83035   0.59018    0.010
 5598.00    0.86629   0.59141    0.010
 5599.00    0.58117   0.59347    0.010
 5600.00    0.39489   0.59564    0.010
 5601.00    0.59259   0.59710    0.010
 5602.00    0.73291   0.59834    0.010
 5603.00    0.68763   0.59846    0.010
 5604.00    0.67299   0.59925    0.010
 5605.00    0.74226   0.59984    0.010
 5606.00    0.77370   0.59959    0.010
 5607.00    0.71637   0.59879    0.010
 5608.00    0.65670   0.59690    0.010
 5609.00    0.59227   0.59551    0.009
 5610.00    0.59134   0.59393    0.009
 5611.00    0.70251   0.59252    0.010
 5612.00    0.80509   0.59138    0.010
 5613.00    0.89440   0.58986    0.010
 5614.00    0.87061   0.58888    0.009
 5615.00    0.69335   0.58756    0.009
 5616.00    0.59095   0.58718    0.009
 5617.00    0.57800   0.58762    0.009
 5618.00    0.57595   0.58765    0.009
 5619.00    0.58538   0.58779    0.009
 5620.00    0.57601   0.58800    0.009
 5621.00    0.54918   0.58904    0.009
 5622.00    0.52161   0.59010    0.009
 5623.00    0.49344   0.59072    0.009
 5624.00    0.59541   0.59108    0.009
 5625.00    0.79121   0.59132    0.009
 5626.00    0.79114   0.59202    0.009
 5627.00    0.66711   0.59237    0.010
 5628.00    0.62497   0.59226    0.010
 5629.00    0.62814   0.59181    0.010
 5630.00    0.69832   0.59135    0.010
 5631.00    0.80073   0.59079    0.010
 5632.00    0.72509   0.59010    0.010
 5633.00    0.57547   0.58967    0.010
 5634.00    0.58389   0.58903    0.010
 5635.00    0.64845   0.58878    0.010
 5636.00    0.67861   0.58833    0.010
 5637.00    0.69845   0.58803    0.010
 5638.00    0.71412   0.58831    0.010
 5639.00    0.72876   0.58855    0.010
 5640.00    0.66230   0.58909    0.010
 5641.00    0.57946   0.58911    0.010
 5642.00    0.54824   0.58922    0.010
 5643.00    0.52520   0.58949    0.010
 5644.00    0.52103   0.58955    0.010
 5645.00    0.51908   0.58944    0.009
 5646.00    0.54967   0.58877    0.009
 5647.00    0.58286   0.58817    0.009
 5648.00    0.67762   0.58745    0.009
 5649.00    0.77512   0.58637    0.009
 5650.00    0.70126   0.58508    0.009
 5651.00    0.62874   0.58395    0.009
 5652.00    0.71698   0.58318    0.009
 5653.00    0.79801   0.58202    0.009
 5654.00    0.74627   0.58115    0.009
 5655.00    0.69588   0.58096    0.009
 5656.00    0.66045   0.58108    0.009
 5657.00    0.63481   0.58127    0.009
 5658.00    0.68507   0.58117    0.009
 5659.00    0.71626   0.58217    0.009
 5660.00    0.63547   0.58398    0.009
 5661.00    0.56142   0.58543    0.009
 5662.00    0.51877   0.58648    0.009
 5663.00    0.49916   0.58777    0.009
 5664.00    0.56713   0.58978    0.009
 5665.00    0.60017   0.59156    0.009
 5666.00    0.52237   0.59303    0.009
 5667.00    0.48625   0.59425    0.009
 5668.00    0.56225   0.59538    0.009
 5669.00    0.63497   0.59642    0.009
 5670.00    0.70012   0.59671    0.010
 5671.00    0.69869   0.59695    0.010
 5672.00    0.56431   0.59717    0.010
 5673.00    0.49545   0.59707    0.010
 5674.00    0.54057   0.59657    0.010
 5675.00    0.60081   0.59561    0.010
 5676.00    0.68411   0.59492    0.010
 5677.00    0.68869   0.59416    0.010
 5678.00    0.58798   0.59338    0.010
 5679.00    0.58478   0.59290    0.010
 5680.00    0.69641   0.59267    0.010
 5681.00    0.80421   0.59234    0.010
 5682.00    0.90803   0.59183    0.010
 5683.00    0.85678   0.59173    0.010
 5684.00    0.66349   0.59206    0.009
 5685.00    0.57018   0.59265    0.009
 5686.00    0.55760   0.59251    0.009
 5687.00    0.49129   0.59240    0.009
 5688.00    0.38679   0.59213    0.009
 5689.00    0.40239   0.59155    0.009
 5690.00    0.49286   0.59112    0.009
 5691.00    0.55695   0.58990    0.009
 5692.00    0.60665   0.58887    0.009
 5693.00    0.61984   0.58730    0.009
 5694.00    0.61573   0.58531    0.009
 5695.00    0.60777   0.58366    0.009
 5696.00    0.59822   0.58145    0.009
 5697.00    0.59983   0.57959    0.009
 5698.00    0.60532   0.57795    0.009
 5699.00    0.55412   0.57624    0.009
 5700.00    0.48626   0.57519    0.010
 5701.00    0.51368   0.57391    0.009
 5702.00    0.56431   0.57300    0.009
 5703.00    0.58725   0.57338    0.009
 5704.00    0.60474   0.57371    0.009
 5705.00    0.57347   0.57479    0.009
 5706.00    0.53471   0.57621    0.009
 5707.00    0.70579   0.57754    0.009
 5708.00    0.90065   0.58021    0.009
 5709.00    0.78617   0.58269    0.009
 5710.00    0.64825   0.58532    0.009
 5711.00    0.56028   0.58825    0.009
 5712.00    0.47434   0.59056    0.009
 5713.00    0.46179   0.59335    0.009
 5714.00    0.45191   0.59582    0.009
 5715.00    0.52882   0.59764    0.009
 5716.00    0.59514   0.59938    0.009
 5717.00    0.47926   0.60060    0.009
 5718.00    0.36939   0.60171    0.009
 5719.00    0.32297   0.60248    0.009
 5720.00    0.29549   0.60281    0.009
 5721.00    0.41000   0.60286    0.009
 5722.00    0.51076   0.60259    0.009
 5723.00    0.53295   0.60285    0.009
 5724.00    0.53742   0.60300    0.009
 5725.00    0.46139   0.60285    0.009
 5726.00    0.41629   0.60233    0.009
 5727.00    0.48631   0.60176    0.009
 5728.00    0.53973   0.60218    0.009
 5729.00    0.54153   0.60260    0.009
 5730.00    0.55259   0.60260    0.009
 5731.00    0.58815   0.60219    0.009
 5732.00    0.61570   0.60187    0.009
 5733.00    0.62507   0.60209    0.009
 5734.00    0.64516   0.60237    0.009
 5735.00    0.68633   0.60235    0.009
 5736.00    0.68381   0.60201    0.009
 5737.00    0.60646   0.60155    0.009
 5738.00    0.56795   0.60091    0.009
 5739.00    0.58768   0.60084    0.009
 5740.00    0.59969   0.60077    0.000
 5741.00    0.60151   0.60030    0.000
 5742.00    0.60006   0.59941    0.000
 5743.00    0.59483   0.59806    0.000
 5744.00    0.59280   0.59763    0.000
 5745.00    0.59405   0.59766    0.000
 5746.00    0.61603   0.59737    0.000
 5747.00    0.65674   0.59638    0.000
 5748.00    0.68703   0.59517    0.000
 5749.00    0.70902   0.59470    0.000
 5750.00    0.64860   0.59486    0.000
 5751.00    0.53047   0.59506    0.000
 5752.00    0.47339   0.59464    0.000
 5753.00    0.45381   0.59419    0.000
 5754.00    0.49933   0.59428    0.000
 5755.00    0.57977   0.59459    0.000
 5756.00    0.58979   0.59505    0.000
 5757.00    0.56700   0.59525    0.000
 5758.00    0.51104   0.59548    0.000
 5759.00    0.44176   0.59630    0.000
 5760.00    0.52101   0.59682    0.000
 5761.00    0.65111   0.59715    0.000
 5762.00    0.60882   0.59721    0.000
 5763.00    0.51685   0.59729    0.000
 5764.00    0.48793   0.59749    0.000
 5765.00    0.47402   0.59713    0.000
 5766.00    0.47685   0.59651    0.000
 5767.00    0.48290   0.59536    0.000
 5768.00    0.53845   0.59421    0.000
 5769.00    0.60137   0.59273    0.000
 5770.00    0.60873   0.59060    0.000
 5771.00    0.61003   0.58860    0.000
 5772.00    0.64352   0.58657    0.000
 5773.00    0.67931   0.58459    0.000
 5774.00    0.63037   0.58261    0.000
 5775.00    0.57830   0.58011    0.000
 5776.00    0.52516   0.57807    0.000
 5777.00    0.47444   0.57727    0.000
 5778.00    0.51046   0.57664    0.000
 5779.00    0.54465   0.57643    0.000
 5780.00    0.54937   0.57590    0.000
 5781.00    0.55575   0.57582    0.000
 5782.00    0.57889   0.57761    0.000
 5783.00    0.59466   0.57917    0.000
 5784.00    0.55705   0.58109    0.000
 5785.00    0.52483   0.58282    0.000
 5786.00    0.52246   0.58420    0.000
 5787.00    0.51429   0.58689    0.000
 5788.00    0.48033   0.58900    0.000
 5789.00    0.48619   0.59123    0.000
 5790.00    0.63713   0.59351    0.000
 5791.00    0.72308   0.59476   -2.000
 5792.00    0.61060   0.59632   -2.000
 5793.00    0.54469   0.59745   -2.000
 5794.00    0.59968   0.59861   -2.000
 5795.00    0.60619   0.60008   -2.000
 5796.00    0.50450   0.60054   -2.000
 5797.00    0.46238   0.60089   -2.000
 5798.00    0.53548   0.60104   -2.000
 5799.00    0.58476   0.60086   -2.000
 5800.00    0.59385   0.60116   -2.000
 5801.00    0.56750   0.60104   -2.000
 5802.00    0.48876   0.60079   -2.000
 5803.00    0.46742   0.60068   -2.000
 5804.00    0.52067   0.60005   -2.000
 5805.00    0.58111   0.59979   -2.000
 5806.00    0.64979   0.59959   -2.000
 5807.00    0.63557   0.59937   -2.000
 5808.00    0.53763   0.59965   -2.000
 5809.00    0.51452   0.59956   -2.000
 5810.00    0.55805   0.59954   -2.000
 5811.00    0.59446   0.59965    0.000
 5812.00    0.62530   0.59994    0.000
 5813.00    0.62211   0.60079    0.000
 5814.00    0.59542   0.60132    0.000
 5815.00    0.55772   0.60179    0.000
 5816.00    0.51335   0.60223    0.000
 5817.00    0.45963   0.60272    0.000
 5818.00    0.40095   0.60341    0.000
 5819.00    0.40290   0.60389    0.000
 5820.00    0.43262   0.60435    0.000
 5821.00    0.53555   0.60457    0.000
 5822.00    0.66737   0.60471    0.000
 5823.00    0.74392   0.60474    0.000
 5824.00    0.80189   0.60467    0.000
 5825.00    0.82343   0.60465    0.000
 5826.00    0.83469   0.60457    0.000
 5827.00    0.76716   0.60443    0.000
 5828.00    0.68131   0.60398    0.000
 5829.00    0.68106   0.60351    0.000
 5830.00    0.69681   0.60322    0.000
 5831.00    0.64940   0.60315    0.000
 5832.00    0.59288   0.60290    0.000
 5833.00    0.65452   0.60210    0.000
 5834.00    0.72854   0.60138    0.000
 5835.00    0.72178   0.60087    0.000
 5836.00    0.70957   0.60031    0.000
 5837.00    0.68713   0.59924    0.000
 5838.00    0.66434   0.59770    0.000
 5839.00    0.65949   0.59625    0.000
 5840.00    0.65374   0.59489    0.000
 5841.00    0.61913   0.59322    0.000
 5842.00    0.58454   0.59079    0.000
 5843.00    0.55028   0.58819    0.000
 5844.00    0.52647   0.58619    0.000
 5845.00    0.60397   0.58439    0.000
 5846.00    0.66988   0.58234    0.000
 5847.00    0.65458   0.57943    0.000
 5848.00    0.62488   0.57684    0.000
 5849.00    0.51739   0.57562    0.000
 5850.00    0.43920   0.57471    0.000
 5851.00    0.48793   0.57374    0.000
 5852.00    0.53026   0.57187    0.000
 5853.00    0.54974   0.57069    0.000
 5854.00    0.56011   0.57116    0.000
 5855.00    0.54317   0.57169    0.000
 5856.00    0.55224   0.57204    0.000
 5857.00    0.62763   0.57155    0.000
 5858.00    0.67081   0.57176    0.000
 5859.00    0.64325   0.57304    0.000
 5860.00    0.60514   0.57405    0.000
 5861.00    0.54695   0.57449    0.000
 5862.00    0.50670   0.57425    0.000
 5863.00    0.49625   0.57461    0.000
 5864.00    0.49710   0.57504    0.000
 5865.00    0.51442   0.57511    0.000
 5866.00    0.54632   0.57449    0.000
 5867.00    0.59689   0.57340    0.000
 5868.00    0.62206   0.57272    0.000
 5869.00    0.61856   0.57129    0.000
 5870.00    0.61630   0.56954    0.000
 5871.00    0.61527   0.56733    0.000
 5872.00    0.61306   0.56488    0.000
 5873.00    0.60980   0.56233    0.000
 5874.00    0.56903   0.55830    0.000
 5875.00    0.49925   0.55390    0.000
 5876.00    0.47625   0.54964    0.000
 5877.00    0.48508   0.54524    0.000
 5878.00    0.50116   0.54023    0.000
 5879.00    0.52156   0.53352    0.000
 5880.00    0.52944   0.52635    0.000
 5881.00    0.53081   0.52095    0.000
 5882.00    0.58345   0.51633    0.000
 5883.00    0.65920   0.51112    0.000
 5884.00    0.60798   0.50552    0.000
 5885.00    0.50754   0.49953    0.000
 5886.00    0.51083   0.49678    0.000
 5887.00    0.54833   0.49694    0.000
 5888.00    0.53779   0.49657    0.000
 5889.00    0.51396   0.49683    0.000
 5890.00    0.52894   0.49685    0.000
 5891.00    0.55274   0.49907    0.000
 5892.00    0.57917   0.50491    0.000
 5893.00    0.60608   0.51018    0.000
 5894.00    0.60420   0.51492    0.000
 5895.00    0.59829   0.51929    0.000
 5896.00    0.61577   0.52397    0.000
 5897.00    0.63559   0.53043    0.000
 5898.00    0.59917   0.53628    0.000
 5899.00    0.55917   0.54062    0.000
 5900.00    0.60208   0.54422    0.000
 5901.00    0.64725   0.54744    0.008
 5902.00    0.63244   0.55097    0.008
 5903.00    0.61737   0.55380    0.008
 5904.00    0.59480   0.55540    0.008
 5905.00    0.57742   0.55672    0.008
 5906.00    0.63383   0.55767    0.008
 5907.00    0.68548   0.55886    0.008
 5908.00    0.69276   0.55962    0.008
 5909.00    0.69197   0.55950    0.008
 5910.00    0.63634   0.56003    0.008
 5911.00    0.58243   0.56031    0.008
 5912.00    0.53760   0.56072    0.008
 5913.00    0.50670   0.56128    0.008
 5914.00    0.53477   0.56105    0.008
 5915.00    0.56429   0.56153    0.008
 5916.00    0.59884   0.56207    0.008
 5917.00    0.61234   0.56218    0.008
 5918.00    0.56393   0.56271    0.008
 5919.00    0.52539   0.56274    0.008
 5920.00    0.51162   0.56270    0.008
 5921.00    0.51120   0.56328    0.008
 5922.00    0.53962   0.56326    0.008
 5923.00    0.55401   0.56340    0.008
 5924.00    0.54210   0.56346    0.008
 5925.00    0.54605   0.56297    0.008
 5926.00    0.57599   0.56353    0.008
 5927.00    0.59856   0.56383    0.008
 5928.00    0.61057   0.56379    0.008
 5929.00    0.57234   0.56390    0.008
 5930.00    0.47066   0.56350    0.008
 5931.00    0.45763   0.56397    0.008
 5932.00    0.54325   0.56454    0.008
 5933.00    0.56668   0.56446    0.008
 5934.00    0.52906   0.56453    0.008
 5935.00    0.51160   0.56433    0.008
 5936.00    0.51158   0.56435    0.008
 5937.00    0.52307   0.56461    0.008
 5938.00    0.54333   0.56436    0.008
 5939.00    0.62801   0.56403    0.008
 5940.00    0.75584   0.56383    0.008
 5941.00    0.79226   0.56357    0.008
 5942.00    0.77501   0.56328    0.008
 5943.00    0.69227   0.56265    0.008
 5944.00    0.57601   0.56216    0.008
 5945.00    0.51951   0.56212    0.008
 5946.00    0.48952   0.56217    0.008
 5947.00    0.51711   0.56186    0.008
 5948.00    0.56662   0.56129    0.008
 5949.00    0.58663   0.56152    0.008
 5950.00    0.59710   0.56225    0.008
 5951.00    0.62445   0.56280    0.008
 5952.00    0.65638   0.56313    0.008
 5953.00    0.64502   0.56334    0.008
 5954.00    0.62404   0.56451    0.008
 5955.00    0.61016   0.56579    0.008
 5956.00    0.59752   0.56646    0.008
 5957.00    0.55110   0.56732    0.008
 5958.00    0.50011   0.56795    0.008
 5959.00    0.49520   0.56900    0.008
 5960.00    0.49472   0.56989    0.008
 5961.00    0.43318   0.57002    0.008
 5962.00    0.36800   0.57058    0.008
 5963.00    0.42027   0.57070    0.008
 5964.00    0.47571   0.57069    0.008
 5965.00    0.55786   0.57058    0.008
 5966.00    0.63742   0.56978    0.008
 5967.00    0.65072   0.56942    0.008
 5968.00    0.66265   0.56874    0.008
 5969.00    0.65610   0.56775    0.008
 5970.00    0.64710   0.56694    0.008
 5971.00    0.61626   0.56565    0.008
 5972.00    0.58602   0.56483    0.008
 5973.00    0.55975   0.56404    0.008
 5974.00    0.54250   0.56290    0.008
 5975.00    0.57143   0.56244    0.008
 5976.00    0.59691   0.56184    0.008
 5977.00    0.60813   0.56143    0.008
 5978.00    0.60153   0.56136    0.008
 5979.00    0.53387   0.56081    0.008
 5980.00    0.48356   0.56124    0.008
 5981.00    0.48335   0.56188    0.008
 5982.00    0.48677   0.56202    0.008
 5983.00    0.49915   0.56250    0.008
 5984.00    0.52560   0.56259    0.008
 5985.00    0.58196   0.56320    0.008
 5986.00    0.62062   0.56404    0.008
 5987.00    0.62660   0.56396    0.008
 5988.00    0.64120   0.56420    0.008
 5989.00    0.66971   0.56426    0.008
 5990.00    0.68448   0.56401    0.008
 5991.00    0.67983   0.56404    0.008
 5992.00    0.67605   0.56331    0.008
 5993.00    0.67335   0.56268    0.008
 5994.00    0.64795   0.56241    0.008
 5995.00    0.59765   0.56135    0.008
 5996.00    0.57055   0.56088    0.008
 5997.00    0.56590   0.56015    0.008
 5998.00    0.57563   0.55869    0.008
 5999.00    0.59764   0.55846    0.008
 6000.00    0.61166   0.55778    0.008
 6001.00    0.61968   0.55717    0.008
 6002.00    0.63864   0.55690    0.008
 6003.00    0.66483   0.55539    0.008
 6004.00    0.66164   0.55529    0.008
 6005.00    0.64145   0.55567    0.008
 6006.00    0.58966   0.55507    0.008
 6007.00    0.52194   0.55492    0.008
 6008.00    0.49805   0.55413    0.008
 6009.00    0.49328   0.55406    0.008
 6010.00    0.49358   0.55515    0.008
 6011.00    0.49577   0.55494    0.008
 6012.00    0.50437   0.55489    0.008
 6013.00    0.51501   0.55535    0.008
 6014.00    0.53275   0.55569    0.008
 6015.00    0.55237   0.55700    0.008
 6016.00    0.57241   0.55775    0.008
 6017.00    0.59255   0.55838    0.008
 6018.00    0.63318   0.56002    0.008
 6019.00    0.67734   0.56105    0.008
 6020.00    0.65223   0.56257    0.008
 6021.00    0.61807   0.56418    0.008
 6022.00    0.61640   0.56528    0.008
 6023.00    0.61772   0.56708    0.008
 6024.00    0.62660   0.56840    0.008
 6025.00    0.63589   0.56981    0.008
 6026.00    0.60652   0.57121    0.008
 6027.00    0.57696   0.57196    0.008
 6028.00    0.61375   0.57326    0.008
 6029.00    0.64969   0.57422    0.008
 6030.00    0.66574   0.57495    0.008
 6031.00    0.68074   0.57568    0.008
 6032.00    0.68237   0.57605    0.008
 6033.00    0.68396   0.57687    0.008
 6034.00    0.68517   0.57733    0.008
 6035.00    0.68387   0.57754    0.008
 6036.00    0.66652   0.57802    0.008
 6037.00    0.65126   0.57821    0.008
 6038.00    0.64642   0.57861    0.008
 6039.00    0.63146   0.57882    0.008
 6040.00    0.57550   0.57865    0.008
 6041.00    0.53642   0.57871    0.008
 6042.00    0.55403   0.57862    0.008
 6043.00    0.58049   0.57832    0.008
 6044.00    0.63207   0.57792    0.008
 6045.00    0.67245   0.57737    0.008
 6046.00    0.68571   0.57683    0.008
 6047.00    0.68598   0.57618    0.008
 6048.00    0.65909   0.57529    0.008
 6049.00    0.64388   0.57443    0.008
 6050.00    0.64992   0.57377    0.008
 6051.00    0.65075   0.57315    0.008
 6052.00    0.64330   0.57219    0.008
 6053.00    0.64176   0.57150    0.008
 6054.00    0.64846   0.57140    0.008
 6055.00    0.67755   0.57108    0.008
 6056.00    0.73410   0.57097    0.008
 6057.00    0.76603   0.57077    0.008
 6058.00    0.77132   0.57086    0.008
 6059.00    0.73063   0.57185    0.008
 6060.00    0.64605   0.57199    0.008
 6061.00    0.59460   0.57246    0.008
 6062.00    0.57100   0.57346    0.008
 6063.00    0.58858   0.57386    0.008
 6064.00    0.63667   0.57473    0.008
 6065.00    0.65646   0.57467    0.008
 6066.00    0.65784   0.57462    0.008
 6067.00    0.65956   0.57554    0.008
 6068.00    0.66147   0.57513    0.008
 6069.00    0.64788   0.57440    0.008
 6070.00    0.62662   0.57377    0.008
 6071.00    0.62712   0.57275    0.008
 6072.00    0.63696   0.57207    0.008
 6073.00    0.65464   0.57072    0.008
 6074.00    0.67522   0.56913    0.008
 6075.00    0.67702   0.56843    0.008
 6076.00    0.67296   0.56729    0.008
 6077.00    0.71114   0.56573    0.008
 6078.00    0.76028   0.56477    0.008
 6079.00    0.77291   0.56401    0.008
 6080.00    0.77782   0.56348    0.008
 6081.00    0.80327   0.56294    0.008
 6082.00    0.83216   0.56216    0.008
 6083.00    0.81773   0.56205    0.008
 6084.00    0.79785   0.56205    0.008
 6085.00    0.71143   0.56152    0.008
 6086.00    0.61917   0.56138    0.008
 6087.00    0.62190   0.56169    0.008
 6088.00    0.62955   0.56185    0.008
 6089.00    0.68851   0.56119    0.008
 6090.00    0.74642   0.56056    0.008
 6091.00    0.65975   0.56096    0.008
 6092.00    0.57668   0.56102    0.008
 6093.00    0.57008   0.56078    0.008
 6094.00    0.56958   0.56009    0.008
 6095.00    0.64312   0.55951    0.008
 6096.00    0.70462   0.56044    0.008
 6097.00    0.66632   0.56019    0.008
 6098.00    0.62874   0.55941    0.008
 6099.00    0.59566   0.56015    0.008
 6100.00    0.56918   0.56043    0.008
 6101.00    0.57485   0.56126    0.008
 6102.00    0.58531   0.56158    0.008
 6103.00    0.61469   0.56056    0.008
 6104.00    0.62926   0.56175    0.008
 6105.00    0.59510   0.56298    0.008
 6106.00    0.57494   0.56257    0.008
 6107.00    0.59374   0.56258    0.008
 6108.00    0.61462   0.56196    0.008
 6109.00    0.64044   0.56139    0.008
 6110.00    0.65552   0.56187    0.008
 6111.00    0.64853   0.56076    0.008
 6112.00    0.64734   0.55940    0.008
 6113.00    0.65653   0.55914    0.008
 6114.00    0.65855   0.55776    0.008
 6115.00    0.64935   0.55699    0.008
 6116.00    0.63833   0.55653    0.008
 6117.00    0.62481   0.55506    0.008
 6118.00    0.65307   0.55497    0.008
 6119.00    0.73187   0.55466    0.008
 6120.00    0.80505   0.55364    0.008
 6121.00    0.87224   0.55336    0.009
 6122.00    0.94218   0.55261    0.010
 6123.00    1.01470   0.55216    0.010
 6124.00    1.04142   0.55189    0.010
 6125.00    1.03013   0.55126    0.010
 6126.00    0.97093   0.55084    0.009
 6127.00    0.87675   0.55028    0.009
 6128.00    0.78844   0.54933    0.008
 6129.00    0.70389   0.54806    0.008
 6130.00    0.66287   0.54812    0.008
 6131.00    0.64626   0.54866    0.008
 6132.00    0.66778   0.54820    0.008
 6133.00    0.70791   0.54805    0.008
 6134.00    0.72433   0.54823    0.008
 6135.00    0.73075   0.54916    0.008
 6136.00    0.68004   0.54989    0.008
 6137.00    0.60872   0.54952    0.008
 6138.00    0.51681   0.55033    0.008
 6139.00    0.41863   0.55171    0.008
 6140.00    0.40754   0.55226    0.008
 6141.00    0.41855   0.55177    0.008
 6142.00    0.50589   0.55080    0.008
 6143.00    0.60899   0.55081    0.008
 6144.00    0.61823   0.55038    0.008
 6145.00    0.61221   0.54886    0.008
 6146.00    0.61976   0.54696    0.008
 6147.00    0.62895   0.54474    0.008
 6148.00    0.64835   0.54263    0.008
 6149.00    0.66860   0.53978    0.008
 6150.00    0.65788   0.53644    0.008
 6151.00    0.64566   0.53389    0.008
 6152.00    0.61836   0.53111    0.008
 6153.00    0.59116   0.52750    0.008
 6154.00    0.58240   0.52417    0.008
 6155.00    0.57550   0.52154    0.008
 6156.00    0.60517   0.51928    0.008
 6157.00    0.63250   0.51725    0.008
 6158.00    0.63286   0.51530    0.008
 6159.00    0.62856   0.51447    0.008
 6160.00    0.58701   0.51436    0.008
 6161.00    0.54432   0.51308    0.008
 6162.00    0.49480   0.51267    0.008
 6163.00    0.45971   0.51417    0.008
 6164.00    0.49318   0.51542    0.008
 6165.00    0.52991   0.51646    0.008
 6166.00    0.57931   0.51768    0.008
 6167.00    0.62116   0.51928    0.008
 6168.00    0.63862   0.52131    0.008
 6169.00    0.64874   0.52232    0.008
 6170.00    0.63884   0.52332    0.008
 6171.00    0.62715   0.52541    0.008
 6172.00    0.61131   0.52656    0.008
 6173.00    0.60747   0.52719    0.008
 6174.00    0.62794   0.52801    0.008
 6175.00    0.64587   0.52794    0.008
 6176.00    0.65929   0.52815    0.008
 6177.00    0.65840   0.52823    0.008
 6178.00    0.63543   0.52721    0.008
 6179.00    0.62793   0.52677    0.008
 6180.00    0.64139   0.52597    0.008
 6181.00    0.64322   0.52497    0.007
 6182.00    0.63121   0.52481    0.007
 6183.00    0.58418   0.52304    0.007
 6184.00    0.50032   0.52200    0.008
 6185.00    0.45878   0.52281    0.008
 6186.00    0.45650   0.52198    0.008
 6187.00    0.48095   0.52157    0.008
 6188.00    0.52726   0.52202    0.008
 6189.00    0.56654   0.52230    0.008
 6190.00    0.60076   0.52353    0.008
 6191.00    0.62713   0.52341    0.008
 6192.00    0.64855   0.52335    0.008
 6193.00    0.66574   0.52533    0.008
 6194.00    0.68058   0.52622    0.008
 6195.00    0.46079   0.52647    0.009
 6196.00    0.12833   0.52713   -2.000
 6197.00   -0.38024   0.52724   -2.000
 6198.00   -0.96182   0.52765   -2.000
 6199.00   -1.14900   0.52746   -2.000
 6200.00   -1.19639   0.52636   -2.000
 6201.00   -0.40753   0.52616   -2.000
 6202.00    0.63158   0.52541   -2.000
 6203.00    1.18891   0.52370   -2.000
 6204.00    1.62657   0.52258   -2.000
 6205.00    1.57328   0.52056   -2.000
 6206.00    1.42114   0.51851   -2.000
 6207.00    1.14898   0.51710   -2.000
 6208.00    0.85789   0.51472    0.008
 6209.00    0.79015   0.51328    0.008
 6210.00    0.74857   0.51211    0.008
 6211.00    0.74227   0.50976    0.008
 6212.00    0.73877   0.50871    0.008
 6213.00    0.72987   0.50766    0.008
 6214.00    0.72075   0.50624    0.008
 6215.00    0.65410   0.50594    0.008
 6216.00    0.58750   0.50490    0.008
 6217.00    0.55280   0.50434    0.008
 6218.00    0.51784   0.50467    0.008
 6219.00    0.47820   0.50374    0.008
 6220.00    0.44215   0.50344    0.008
 6221.00    0.44565   0.50365    0.008
 6222.00    0.45579   0.50273    0.008
 6223.00    0.51723   0.50265    0.008
 6224.00    0.56405   0.50277    0.008
 6225.00    0.52532   0.50234    0.008
 6226.00    0.48588   0.50281    0.008
 6227.00    0.44313   0.50258    0.008
 6228.00    0.42119   0.50236    0.008
 6229.00    0.47815   0.50260    0.008
 6230.00    0.54318   0.50181    0.008
 6231.00    0.63381   0.50169    0.008
 6232.00    0.69359   0.50150    0.008
 6233.00    0.67054   0.50123    0.008
 6234.00    0.64329   0.50167    0.008
 6235.00    0.60636   0.50056    0.007
 6236.00    0.57340   0.50015    0.007
 6237.00    0.54836   0.50035    0.007
 6238.00    0.54336   0.49920    0.007
 6239.00    0.57318   0.49917    0.007
 6240.00    0.60635   0.49895    0.007
 6241.00    0.64463   0.49817    0.007
 6242.00    0.66094   0.49835    0.007
 6243.00    0.64793   0.49753    0.007
 6244.00    0.62204   0.49674    0.007
 6245.00    0.58100   0.49673    0.008
 6246.00    0.55629   0.49608    0.008
 6247.00    0.54851   0.49598    0.008
 6248.00    0.53872   0.49605    0.008
 6249.00    0.52711   0.49562    0.008
 6250.00    0.51259   0.49550    0.008
 6251.00    0.49572   0.49590    0.008
 6252.00    0.47241   0.49680    0.008
 6253.00    0.44454   0.49722    0.008
 6254.00    0.45060   0.49798    0.008
 6255.00    0.47778   0.49979    0.008
 6256.00    0.53912   0.50110    0.008
 6257.00    0.61903   0.50205    0.008
 6258.00    0.55673   0.50332    0.008
 6259.00    0.42723   0.50508    0.008
 6260.00    0.25173   0.50703    0.009
 6261.00    0.05747   0.50801    0.009
 6262.00    0.08470   0.50913    0.010
 6263.00    0.18900   0.51073    0.010
 6264.00    0.41722   0.51180    0.010
 6265.00    0.68177   0.51255    0.009
 6266.00    0.86333   0.51303    0.009
 6267.00    1.02473   0.51397    0.008
 6268.00    0.97475   0.51500    0.008
 6269.00    0.88328   0.51490    0.008
 6270.00    0.79215   0.51546    0.007
 6271.00    0.70107   0.51630    0.007
 6272.00    0.70253   0.51618    0.008
 6273.00    0.71441   0.51691    0.008
 6274.00    0.67243   0.51729    0.008
 6275.00    0.62639   0.51748    0.008
 6276.00    0.57442   0.51868    0.008
 6277.00    0.52220   0.51857    0.008
 6278.00    0.46745   0.51895    0.008
 6279.00    0.41430   0.52003    0.008
 6280.00    0.42701   0.51973    0.000
 6281.00    0.44321   0.52026    0.000
 6282.00    0.51896   0.52043    0.000
 6283.00    0.59268   0.52006    0.000
 6284.00    0.64514   0.52060    0.000
 6285.00    0.69247   0.51973    0.000
 6286.00    0.70151   0.51912    0.000
 6287.00    0.70953   0.51928    0.000
 6288.00    0.71169   0.51821    0.000
 6289.00    0.70053   0.51756    0.000
 6290.00    0.62905   0.51694    0.000
 6291.00    0.57151   0.51621    0.000
 6292.00    0.56575   0.51622    0.000
 6293.00    0.57061   0.51546    0.000
 6294.00    0.60844   0.51492    0.000
 6295.00    0.64619   0.51533    0.000
 6296.00    0.68372   0.51540    0.000
 6297.00    0.71996   0.51539    0.000
 6298.00    0.75326   0.51550    0.000
 6299.00    0.76660   0.51596    0.000
 6300.00    0.74081   0.51666    0.000
 6301.00    0.70567   0.51671    0.000
 6302.00    0.65455   0.51671    0.000
 6303.00    0.62076   0.51702    0.000
 6304.00    0.61290   0.51705    0.000
 6305.00    0.61425   0.51733    0.000
 6306.00    0.62770   0.51722    0.000
 6307.00    0.65270   0.51651    0.000
 6308.00    0.69111   0.51691    0.000
 6309.00    0.68989   0.51712    0.000
 6310.00    0.64817   0.51643    0.000
 6311.00    0.61002   0.51647    0.000
 6312.00    0.57507   0.51683    0.000
 6313.00    0.56484   0.51746    0.000
 6314.00    0.57425   0.51793    0.000
 6315.00    0.58639   0.51800    0.000
 6316.00    0.60045   0.51898    0.000
 6317.00    0.60431   0.52013    0.000
 6318.00    0.60192   0.52076    0.000
 6319.00    0.61719   0.52109    0.000
 6320.00    0.64191   0.52205    0.000
 6321.00    0.64133   0.52337    0.007
 6322.00    0.62899   0.52334    0.007
 6323.00    0.64802   0.52365    0.007
 6324.00    0.67961   0.52421    0.007
 6325.00    0.66277   0.52391    0.007
 6326.00    0.62938   0.52437    0.007
 6327.00    0.61173   0.52389    0.007
 6328.00    0.59859   0.52292    0.007
 6329.00    0.63023   0.52356    0.008
 6330.00    0.67250   0.52318    0.008
 6331.00    0.69849   0.52229    0.008
 6332.00    0.72136   0.52239    0.008
 6333.00    0.65892   0.52197    0.008
 6334.00    0.58381   0.52199    0.008
 6335.00    0.61369   0.52186    0.008
 6336.00    0.65496   0.52084    0.008
 6337.00    0.64429   0.52144    0.008
 6338.00    0.62994   0.52204    0.008
 6339.00    0.62066   0.52120    0.008
 6340.00    0.61156   0.52134    0.008
 6341.00    0.60215   0.52156    0.008
 6342.00    0.59395   0.52112    0.008
 6343.00    0.62860   0.52072    0.008
 6344.00    0.66144   0.51972    0.007
 6345.00    0.66536   0.51935    0.007
 6346.00    0.67062   0.51901    0.007
 6347.00    0.68929   0.51726    0.007
 6348.00    0.70580   0.51624    0.007
 6349.00    0.70677   0.51580    0.007
 6350.00    0.70716   0.51419    0.007
 6351.00    0.70446   0.51278    0.007
 6352.00    0.71125   0.51204    0.007
 6353.00    0.76004   0.51137    0.007
 6354.00    0.79190   0.51086    0.008
 6355.00    0.76227   0.51025    0.008
 6356.00    0.72154   0.51036    0.008
 6357.00    0.64701   0.51145    0.008
 6358.00    0.58956   0.51193    0.008
 6359.00    0.57633   0.51238    0.008
 6360.00    0.55534   0.51416    0.008
 6361.00    0.51709   0.51588    0.008
 6362.00    0.49872   0.51714    0.008
 6363.00    0.51873   0.51885    0.008
 6364.00    0.54060   0.52060    0.008
 6365.00    0.56563   0.52242    0.008
 6366.00    0.57744   0.52403    0.008
 6367.00    0.56975   0.52491    0.008
 6368.00    0.55074   0.52623    0.008
 6369.00    0.51705   0.52757    0.008
 6370.00    0.49466   0.52779    0.008
 6371.00    0.48518   0.52829    0.008
 6372.00    0.48243   0.52904    0.008
 6373.00    0.48647   0.52904    0.007
 6374.00    0.52217   0.52907    0.007
 6375.00    0.58600   0.52908    0.007
 6376.00    0.62615   0.52886    0.007
 6377.00    0.64775   0.52878    0.007
 6378.00    0.67080   0.52836    0.007
 6379.00    0.69484   0.52793    0.008
 6380.00    0.69607   0.52786    0.008
 6381.00    0.68352   0.52730    0.008
 6382.00    0.65862   0.52650    0.008
 6383.00    0.62719   0.52633    0.008
 6384.00    0.61264   0.52618    0.008
 6385.00    0.60582   0.52532    0.008
 6386.00    0.61098   0.52482    0.008
 6387.00    0.62086   0.52511    0.008
 6388.00    0.65453   0.52463    0.008
 6389.00    0.69616   0.52357    0.008
 6390.00    0.66298   0.52392    0.008
 6391.00    0.60874   0.52430    0.008
 6392.00    0.57431   0.52371    0.008
 6393.00    0.54448   0.52385    0.008
 6394.00    0.50671   0.52398    0.008
 6395.00    0.46747   0.52442    0.008
 6396.00    0.49584   0.52502    0.008
 6397.00    0.53394   0.52415    0.008
 6398.00    0.49814   0.52492    0.008
 6399.00    0.45464   0.52602    0.008
 6400.00    0.42926   0.52433    0.008
 6401.00    0.40510   0.52476    0.008
 6402.00    0.42834   0.52607    0.008
 6403.00    0.45311   0.52502    0.008
 6404.00    0.50783   0.52510    0.008
 6405.00    0.56190   0.52528    0.008
 6406.00    0.59603   0.52479    0.008
 6407.00    0.62915   0.52509    0.008
 6408.00    0.64709   0.52445    0.008
 6409.00    0.66938   0.52418    0.008
 6410.00    0.73368   0.52481    0.008
 6411.00    0.78121   0.52429    0.008
 6412.00    0.71161   0.52435    0.008
 6413.00    0.64298   0.52494    0.008
 6414.00    0.57958   0.52467    0.008
 6415.00    0.53454   0.52501    0.008
 6416.00    0.56883   0.52547    0.008
 6417.00    0.59861   0.52544    0.008
 6418.00    0.61237   0.52593    0.008
 6419.00    0.62668   0.52597    0.008
 6420.00    0.64263   0.52582    0.008
 6421.00    0.65822   0.52637    0.008
 6422.00    0.67286   0.52648    0.008
 6423.00    0.68356   0.52685    0.008
 6424.00    0.68561   0.52723    0.008
 6425.00    0.66370   0.52686    0.008
 6426.00    0.59624   0.52753    0.008
 6427.00    0.54959   0.52766    0.008
 6428.00    0.53745   0.52686    0.008
 6429.00    0.54430   0.52802    0.008
 6430.00    0.57877   0.52846    0.008
 6431.00    0.59127   0.52785    0.008
 6432.00    0.57567   0.52883    0.008
 6433.00    0.55889   0.52910    0.008
 6434.00    0.54079   0.52920    0.008
 6435.00    0.54044   0.52962    0.008
 6436.00    0.55775   0.52908    0.008
 6437.00    0.56640   0.52969    0.008
 6438.00    0.56748   0.52937    0.008
 6439.00    0.57433   0.52777    0.008
 6440.00    0.58564   0.52851    0.008
 6441.00    0.60545   0.52842    0.008
 6442.00    0.63103   0.52728    0.008
 6443.00    0.64259   0.52749    0.008
 6444.00    0.64581   0.52672    0.008
 6445.00    0.60252   0.52613    0.008
 6446.00    0.53510   0.52631    0.008
 6447.00    0.47667   0.52578    0.008
 6448.00    0.42227   0.52594    0.008
 6449.00    0.41147   0.52601    0.008
 6450.00    0.41754   0.52576    0.008
 6451.00    0.44376   0.52612    0.008
 6452.00    0.47661   0.52632    0.008
 6453.00    0.50010   0.52689    0.008
 6454.00    0.52100   0.52741    0.008
 6455.00    0.48415   0.52743    0.008
 6456.00    0.43420   0.52780    0.008
 6457.00    0.42981   0.52814    0.008
 6458.00    0.43367   0.52853    0.008
 6459.00    0.47672   0.52881    0.008
 6460.00    0.52522   0.52860    0.008
 6461.00    0.54804   0.52899    0.008
 6462.00    0.56830   0.52923    0.008
 6463.00    0.60142   0.52871    0.008
 6464.00    0.63536   0.52884    0.008
 6465.00    0.63501   0.52908    0.008
 6466.00    0.63377   0.52867    0.008
 6467.00    0.66151   0.52829    0.008
 6468.00    0.68853   0.52785    0.008
 6469.00    0.69577   0.52721    0.008
 6470.00    0.69991   0.52669    0.008
 6471.00    0.66035   0.52571    0.008
 6472.00    0.62003   0.52453    0.008
 6473.00    0.57276   0.52394    0.008
 6474.00    0.52941   0.52303    0.008
 6475.00    0.51259   0.52142    0.008
 6476.00    0.50192   0.52004    0.008
 6477.00    0.52347   0.51893    0.008
 6478.00    0.54788   0.51733    0.008
 6479.00    0.58439   0.51525    0.008
 6480.00    0.61156   0.51327    0.008
 6481.00    0.60615   0.51161    0.008
 6482.00    0.59681   0.50930    0.008
 6483.00    0.57591   0.50662    0.008
 6484.00    0.56530   0.50492    0.008
 6485.00    0.58039   0.50286    0.008
 6486.00    0.58647   0.50064    0.008
 6487.00    0.57313   0.49933    0.008
 6488.00    0.54866   0.49754    0.008
 6489.00    0.50339   0.49655    0.008
 6490.00    0.47045   0.49637    0.008
 6491.00    0.45766   0.49541    0.008
 6492.00    0.45824   0.49600    0.008
 6493.00    0.47798   0.49719    0.008
 6494.00    0.48996   0.49745    0.008
 6495.00    0.49216   0.49924    0.008
 6496.00    0.51504   0.50124    0.008
 6497.00    0.56090   0.50284    0.008
 6498.00    0.57602   0.50525    0.008
 6499.00    0.56104   0.50710    0.008
 6500.00    0.54711   0.50905    0.008
 6501.00    0.53409   0.51106    0.008
 6502.00    0.52060   0.51239    0.007
 6503.00    0.50673   0.51404    0.008
 6504.00    0.51989   0.51516    0.008
 6505.00    0.55112   0.51579    0.007
 6506.00    0.54685   0.51688    0.008
 6507.00    0.52177   0.51737    0.008
 6508.00    0.52655   0.51765    0.008
 6509.00    0.54659   0.51807    0.008
 6510.00    0.55574   0.51819    0.008
 6511.00    0.56007   0.51869    0.008
 6512.00    0.53436   0.51871    0.008
 6513.00    0.49722   0.51847    0.008
 6514.00    0.54142   0.51920    0.008
 6515.00    0.61187   0.51922    0.008
 6516.00    0.55323   0.51893    0.008
 6517.00    0.45972   0.51969    0.008
 6518.00    0.47191   0.51979    0.008
 6519.00    0.50750   0.51967    0.008
 6520.00    0.58364   0.52024    0.008
 6521.00    0.66692   0.52037    0.008
 6522.00    0.62641   0.52058    0.008
 6523.00    0.56925   0.52074    0.008
 6524.00    0.60104   0.52057    0.008
 6525.00    0.64132   0.52101    0.008
 6526.00    0.64480   0.52105    0.008
 6527.00    0.64610   0.52060    0.007
 6528.00    0.55610   0.52076    0.000
 6529.00    0.46465   0.52051    0.000
 6530.00    0.49340   0.52001    0.000
 6531.00    0.52372   0.51970    0.000
 6532.00    0.59344   0.51869    0.000
 6533.00    0.65640   0.51790    0.000
 6534.00    0.62883   0.51707    0.000
 6535.00    0.60432   0.51546    0.000
 6536.00    0.60702   0.51430    0.000
 6537.00    0.61489   0.51261    0.000
 6538.00    0.65657   0.51026    0.000
 6539.00    0.68565   0.50859    0.000
 6540.00    0.65031   0.50613    0.000
 6541.00    0.61335   0.50329    0.000
 6542.00    0.56970   0.50086    0.000
 6543.00    0.56181   0.49754    0.000
 6544.00    0.67613   0.49448    0.000
 6545.00    0.77750   0.49129    0.000
 6546.00    0.84156   0.48723    0.000
 6547.00    0.85899   0.48415    0.000
 6548.00    0.76175   0.47996    0.000
 6549.00    0.68047   0.47514    0.000
 6550.00    0.63304   0.47269    0.000
 6551.00    0.58600   0.46897    0.000
 6552.00    0.53966   0.46457    0.000
 6553.00    0.52935   0.46268    0.000
 6554.00    0.57705   0.45999    0.000
 6555.00    0.62240   0.45734    0.000
 6556.00    0.66444   0.45659    0.000
 6557.00    0.71505   0.45551    0.000
 6558.00    0.77632   0.45576    0.000
 6559.00    0.86479   0.45664    0.000
 6560.00    0.98307   0.45673    0.000
 6561.00    1.11555   0.45950    0.000
 6562.00    1.26176   0.46234    0.000
 6563.00    1.31968   0.46328    0.000
 6564.00    1.30240   0.46712    0.000
 6565.00    1.21619   0.47160    0.000
 6566.00    1.07828   0.47358    0.000
 6567.00    0.99909   0.47672    0.000
 6568.00    0.95860   0.48074    0.000
 6569.00    0.90631   0.48298    0.000
 6570.00    0.84721   0.48551    0.000
 6571.00    0.74648   0.48880    0.000
 6572.00    0.62481   0.49066    0.000
 6573.00    0.53558   0.49263    0.000
 6574.00    0.46048   0.49509    0.000
 6575.00    0.42830   0.49623    0.000
 6576.00    0.41215   0.49766    0.000
 6577.00    0.41711   0.49944    0.000
 6578.00    0.42875   0.49984    0.000
 6579.00    0.48033   0.50049    0.000
 6580.00    0.54246   0.50147    0.000
 6581.00    0.65508   0.50144    0.000
 6582.00    0.77862   0.50168    0.000
 6583.00    0.82875   0.50203    0.000
 6584.00    0.86629   0.50173    0.000
 6585.00    0.80161   0.50179    0.000
 6586.00    0.72364   0.50179    0.000
 6587.00    0.67234   0.50138    0.000
 6588.00    0.62348   0.50153    0.000
 6589.00    0.62295   0.50166    0.000
 6590.00    0.62509   0.50119    0.000
 6591.00    0.61011   0.50141    0.000
 6592.00    0.59519   0.50182    0.000
 6593.00    0.62121   0.50142    0.000
 6594.00    0.64500   0.50171    0.000
 6595.00    0.61747   0.50233    0.000
 6596.00    0.58671   0.50220    0.000
 6597.00    0.51479   0.50252    0.000
 6598.00    0.45506   0.50297    0.000
 6599.00    0.49979   0.50290    0.000
 6600.00    0.53983   0.50318    0.000
 6601.00    0.55002   0.50370    0.000
 6602.00    0.55654   0.50386    0.000
 6603.00    0.54472   0.50404    0.000
 6604.00    0.54210   0.50454    0.000
 6605.00    0.57659   0.50492    0.000
 6606.00    0.59507   0.50512    0.000
 6607.00    0.55989   0.50555    0.000
 6608.00    0.52874   0.50596    0.000
 6609.00    0.50896   0.50622    0.008
 6610.00    0.48556   0.50637    0.008
 6611.00    0.45340   0.50642    0.008
 6612.00    0.45934   0.50672    0.008
 6613.00    0.54478   0.50646    0.008
 6614.00    0.63243   0.50584    0.008
 6615.00    0.72410   0.50580    0.008
 6616.00    0.77425   0.50520    0.008
 6617.00    0.75855   0.50431    0.008
 6618.00    0.72795   0.50384    0.008
 6619.00    0.67662   0.50287    0.008
 6620.00    0.60861   0.50207    0.008
 6621.00    0.52017   0.50146    0.008
 6622.00    0.49737   0.50028    0.008
 6623.00    0.54544   0.49966    0.008
 6624.00    0.61374   0.49918    0.008
 6625.00    0.70131   0.49816    0.008
 6626.00    0.71510   0.49776    0.008
 6627.00    0.66691   0.49752    0.008
 6628.00    0.58784   0.49694    0.008
 6629.00    0.48592   0.49677    0.008
 6630.00    0.46685   0.49667    0.008
 6631.00    0.50160   0.49632    0.008
 6632.00    0.51315   0.49642    0.008
 6633.00    0.51151   0.49654    0.008
 6634.00    0.52697   0.49617    0.009
 6635.00    0.55090   0.49635    0.009
 6636.00    0.55366   0.49673    0.009
 6637.00    0.54736   0.49625    0.008
 6638.00    0.52824   0.49632    0.008
 6639.00    0.50441   0.49672    0.009
 6640.00    0.46357   0.49603    0.008
 6641.00    0.41743   0.49590    0.008
 6642.00    0.43608   0.49628    0.008
 6643.00    0.47151   0.49555    0.008
 6644.00    0.57037   0.49513    0.008
 6645.00    0.68262   0.49516    0.008
 6646.00    0.68321   0.49452    0.008
 6647.00    0.66519   0.49408    0.008
 6648.00    0.62517   0.49364    0.008
 6649.00    0.58240   0.49291    0.008
 6650.00    0.64123   0.49256    0.008
 6651.00    0.70891   0.49188    0.008
 6652.00    0.59647   0.49111    0.008
 6653.00    0.47478   0.49091    0.008
 6654.00    0.50186   0.49016    0.008
 6655.00    0.53099   0.48954    0.008
 6656.00    0.51773   0.48963    0.009
 6657.00    0.50516   0.48888    0.009
 6658.00    0.50717   0.48841    0.009
 6659.00    0.50652   0.48889    0.009
 6660.00    0.47378   0.48824    0.009
 6661.00    0.44445   0.48780    0.008
 6662.00    0.44338   0.48848    0.008
 6663.00    0.45252   0.48800    0.008
 6664.00    0.52481   0.48753    0.009
 6665.00    0.58426   0.48805    0.009
 6666.00    0.58141   0.48767    0.008
 6667.00    0.59357   0.48723    0.008
 6668.00    0.66499   0.48736    0.008
 6669.00    0.72054   0.48685    0.008
 6670.00    0.72398   0.48659    0.008
 6671.00    0.72005   0.48659    0.008
 6672.00    0.69564   0.48590    0.008
 6673.00    0.67950   0.48587    0.008
 6674.00    0.68297   0.48602    0.008
 6675.00    0.66796   0.48529    0.009
 6676.00    0.61502   0.48545    0.009
 6677.00    0.57595   0.48595    0.009
 6678.00    0.56166   0.48534    0.009
 6679.00    0.56136   0.48541    0.009
 6680.00    0.58294   0.48619    0.009
 6681.00    0.58692   0.48593    0.009
 6682.00    0.56675   0.48575    0.009
 6683.00    0.54068   0.48625    0.009
 6684.00    0.50750   0.48609    0.009
 6685.00    0.51662   0.48583    0.009
 6686.00    0.57080   0.48606    0.009
 6687.00    0.59407   0.48575    0.009
 6688.00    0.58831   0.48549    0.009
 6689.00    0.60766   0.48556    0.009
 6690.00    0.64779   0.48502    0.009
 6691.00    0.65466   0.48490    0.009
 6692.00    0.63730   0.48488    0.009
 6693.00    0.60860   0.48412    0.009
 6694.00    0.57264   0.48409    0.009
 6695.00    0.54112   0.48397    0.008
 6696.00    0.51208   0.48310    0.000
 6697.00    0.54740   0.48306    0.000
 6698.00    0.61407   0.48269    0.000
 6699.00    0.60171   0.48180    0.000
 6700.00    0.55610   0.48164    0.000
 6701.00    0.52911   0.48087    0.000
 6702.00    0.50882   0.47989    0.000
 6703.00    0.55428   0.47957    0.000
 6704.00    0.61976   0.47852    0.000
 6705.00    0.62098   0.47749    0.000
 6706.00    0.60592   0.47714    0.000
 6707.00    0.58478   0.47614    0.000
 6708.00    0.56238   0.47523    0.000
 6709.00    0.60063   0.47492    0.000
 6710.00    0.64869   0.47430    0.000
 6711.00    0.64061   0.47372    0.000
 6712.00    0.62575   0.47359    0.000
 6713.00    0.56077   0.47356    0.000
 6714.00    0.49164   0.47341    0.000
 6715.00    0.57725   0.47349    0.000
 6716.00    0.67019   0.47397    0.000
 6717.00    0.68953   0.47420    0.000
 6718.00    0.70469   0.47450    0.000
 6719.00    0.54337   0.47514    0.000
 6720.00    0.38820   0.47551    0.000
 6721.00    0.35287   0.47595    0.000
 6722.00    0.32687   0.47640    0.000
 6723.00    0.40780   0.47652    0.000
 6724.00    0.48403   0.47693    0.000
 6725.00    0.52275   0.47719    0.000
 6726.00    0.57508   0.47697    0.000
 6727.00    0.70909   0.47709    0.000
 6728.00    0.82445   0.47710    0.000
 6729.00    0.85142   0.47669    0.000
 6730.00    0.87627   0.47651    0.000
 6731.00    0.89294   0.47621    0.000
 6732.00    0.86697   0.47571    0.000
 6733.00    0.70366   0.47536    0.000
 6734.00    0.53099   0.47487    0.000
 6735.00    0.33284   0.47439    0.000
 6736.00    0.22601   0.47402    0.000
 6737.00    0.33257   0.47354    0.000
 6738.00    0.42953   0.47318    0.000
 6739.00    0.50705   0.47295    0.000
 6740.00    0.54935   0.47265    0.000
 6741.00    0.52966   0.47244    0.000
 6742.00    0.50547   0.47261    0.000
 6743.00    0.47436   0.47267    0.000
 6744.00    0.50136   0.47248    0.000
 6745.00    0.60692   0.47308    0.000
 6746.00    0.68430   0.47366    0.000
 6747.00    0.72813   0.47345    0.000
 6748.00    0.73454   0.47434    0.000
 6749.00    0.70165   0.47526    0.000
 6750.00    0.60313   0.47502    0.000
 6751.00    0.44385   0.47599    0.000
 6752.00    0.37280   0.47697    0.000
 6753.00    0.37376   0.47669    0.010
 6754.00    0.32019   0.47747    0.011
 6755.00    0.22744   0.47823    0.011
 6756.00    0.22511   0.47793    0.011
 6757.00    0.27979   0.47843    0.011
 6758.00    0.47502   0.47891    0.011
 6759.00    0.74770   0.47859    0.011
 6760.00    0.78217   0.47891    0.012
 6761.00    0.70248   0.47920    0.011
 6762.00    0.62546   0.47893    0.012
 6763.00    0.54954   0.47918    0.012
 6764.00    0.64641   0.47941    0.011
 6765.00    0.80438   0.47918    0.011
 6766.00    0.81370   0.47938    0.011
 6767.00    0.77863   0.47958    0.011
 6768.00    0.69838   0.47926    0.011
 6769.00    0.60694   0.47924    0.011
 6770.00    0.63839   0.47939    0.011
 6771.00    0.69451   0.47891    0.011
 6772.00    0.66728   0.47847    0.011
 6773.00    0.62696   0.47841    0.011
 6774.00    0.53791   0.47782    0.011
 6775.00    0.44316   0.47705    0.011
 6776.00    0.45221   0.47681    0.011
 6777.00    0.46944   0.47619    0.011
 6778.00    0.54400   0.47531    0.011
 6779.00    0.62104   0.47509    0.011
 6780.00    0.64604   0.47466    0.011
 6781.00    0.66935   0.47387    0.011
 6782.00    0.64003   0.47388    0.011
 6783.00    0.60843   0.47379    0.011
 6784.00    0.53547   0.47319    0.011
 6785.00    0.47520   0.47351    0.011
 6786.00    0.55382   0.47379    0.010
 6787.00    0.61013   0.47338    0.010
 6788.00    0.49482   0.47388    0.011
 6789.00    0.40633   0.47439    0.011
 6790.00    0.47427   0.47411    0.011
 6791.00    0.51113   0.47464    0.011
 6792.00    0.40426   0.47513    0.011
 6793.00    0.31234   0.47504    0.011
 6794.00    0.27701   0.47555    0.011
 6795.00    0.28610   0.47575    0.011
 6796.00    0.43544   0.47584    0.011
 6797.00    0.55016   0.47632    0.011
 6798.00    0.57214   0.47612    0.011
 6799.00    0.59806   0.47640    0.011
 6800.00    0.63305   0.47681    0.011
 6801.00    0.59073   0.47626    0.011
 6802.00    0.39468   0.47670    0.011
 6803.00    0.25370   0.47705    0.011
 6804.00    0.20813   0.47637    0.011
 6805.00    0.20099   0.47691    0.011
 6806.00    0.25212   0.47720    0.010
 6807.00    0.34117   0.47665    0.010
 6808.00    0.48078   0.47722    0.010
 6809.00    0.50146   0.47743    0.010
 6810.00    0.38257   0.47717    0.010
 6811.00    0.26649   0.47770    0.011
 6812.00    0.15331   0.47780    0.011
 6813.00    0.19881   0.47778    0.011
 6814.00    0.38919   0.47826    0.011
 6815.00    0.54228   0.47828    0.011
 6816.00    0.66536   0.47832    0.011
 6817.00    0.69157   0.47866    0.011
 6818.00    0.64918   0.47864    0.011
 6819.00    0.60562   0.47860    0.011
 6820.00    0.56133   0.47874    0.011
 6821.00    0.51266   0.47861    0.011
 6822.00    0.46163   0.47841    0.011
 6823.00    0.42626   0.47838    0.011
 6824.00    0.39829   0.47810    0.011
 6825.00    0.40905   0.47769    0.011
 6826.00    0.43556   0.47749    0.011
 6827.00    0.45875   0.47705    0.011
 6828.00    0.48079   0.47656    0.011
 6829.00    0.54856   0.47626    0.011
 6830.00    0.62971   0.47567    0.011
 6831.00    0.65367   0.47521    0.011
 6832.00    0.66378   0.47495    0.011
 6833.00    0.64125   0.47437    0.011
 6834.00    0.61234   0.47396    0.010
 6835.00    0.56030   0.47378    0.010
 6836.00    0.50474   0.47341    0.011
 6837.00    0.31333   0.47309    0.011
 6838.00    0.10667   0.47295    0.011
 6839.00    0.35874   0.47283    0.012
 6840.00    0.64510   0.47252    0.012
 6841.00    0.55053   0.47236    0.012
 6842.00    0.44084   0.47244    0.012
 6843.00    0.59873   0.47194    0.011
 6844.00    0.75322   0.47167    0.011
 6845.00    0.69912   0.47184    0.011
 6846.00    0.63315   0.47108    0.011
 6847.00    0.36692   0.47069    0.011
 6848.00    0.14356   0.47091    0.010
 6849.00    0.36867   0.46998    0.011
 6850.00    0.55629   0.46958    0.011
 6851.00    0.46536   0.46992    0.010
 6852.00    0.43164   0.46900    0.010
 6853.00    0.72221   0.46862    0.010
 6854.00    0.94539   0.46913    0.011
 6855.00    0.86437   0.46850    0.010
 6856.00    0.74754   0.46813    0.010
 6857.00    0.49817   0.46870    0.010
 6858.00    0.35039   0.46854    0.011
 6859.00    0.51725   0.46815    0.011
 6860.00    0.60766   0.46863    0.011
 6861.00    0.49692   0.46894    0.011
 6862.00    0.41989   0.46864    0.011
 6863.00    0.41902   0.46891    0.011
 6864.00    0.44571   0.46952    0.011
 6865.00    0.52635   0.46941    0.011
 6866.00    0.56423   0.46951    0.011
 6867.00    0.52914   0.47023    0.011
 6868.00    0.50319   0.47038    0.011
 6869.00    0.49092   0.47046    0.011
 6870.00    0.51427   0.47114    0.011
 6871.00    0.58440   0.47148    0.011
 6872.00    0.65410   0.47172    0.011
 6873.00    0.72329   0.47236    0.011
 6874.00    0.66043   0.47271    0.011
 6875.00    0.46283   0.47318    0.011
 6876.00    0.39179   0.47395    0.010
 6877.00    0.43467   0.47421    0.010
 6878.00    0.46291   0.47480    0.010
 6879.00    0.47954   0.47579    0.010
 6880.00    0.51682   0.47597    0.010
 6881.00    0.56851   0.47653    0.010
 6882.00    0.68189   0.47771    0.011
 6883.00    0.83303   0.47789    0.011
 6884.00    0.77812   0.47828    0.011
 6885.00    0.61310   0.47945    0.011
 6886.00    0.52771   0.47971    0.011
 6887.00    0.47928   0.47990    0.011
 6888.00    0.51540   0.48081    0.011
 6889.00    0.58532   0.48117    0.011
 6890.00    0.59199   0.48126    0.011
 6891.00    0.57709   0.48181    0.011
 6892.00    0.49614   0.48223    0.011
 6893.00    0.39625   0.48231    0.011
 6894.00    0.45551   0.48253    0.011
 6895.00    0.55246   0.48296    0.011
 6896.00    0.56628   0.48302    0.011
 6897.00    0.56426   0.48300    0.011
 6898.00    0.54529   0.48337    0.010
 6899.00    0.52382   0.48327    0.010
 6900.00    0.44063   0.48313    0.011
 6901.00    0.35077   0.48345    0.011
 6902.00    0.54209   0.48300    0.011
 6903.00    0.75328   0.48278    0.011
 6904.00    0.74741   0.48310    0.011
 6905.00    0.73375   0.48233    0.011
 6906.00    0.99404   0.48204    0.013
 6907.00    1.24192   0.48236    0.015
 6908.00    1.02844   0.48143    0.015
 6909.00    0.82796   0.48114    0.015
 6910.00    0.83322   0.48143    0.015
 6911.00    0.82372   0.48051    0.015
 6912.00    0.66647   0.48027    0.013
 6913.00    0.51023   0.48054    0.011
 6914.00    0.36122   0.47982    0.011
 6915.00    0.26326   0.47962    0.010
 6916.00    0.44680   0.47982    0.010
 6917.00    0.60058   0.47944    0.011
 6918.00    0.62307   0.47925    0.011
 6919.00    0.62227   0.47941    0.011
 6920.00    0.53697   0.47938    0.011
 6921.00    0.47605   0.47918    0.010
 6922.00    0.48916   0.47934    0.011
 6923.00    0.50024   0.47962    0.011
 6924.00    0.50609   0.47942    0.011
 6925.00    0.52446   0.47964    0.011
 6926.00    0.57067   0.48016    0.011
 6927.00    0.54246   0.47985    0.011
 6928.00    0.37085   0.48007    0.011
 6929.00    0.32390   0.48075    0.011
 6930.00    0.48650   0.48026    0.011
 6931.00    0.58566   0.48041    0.011
 6932.00    0.59140   0.48119    0.011
 6933.00    0.62903   0.48053    0.011
 6934.00    0.70794   0.48058    0.012
 6935.00    0.71688   0.48136    0.012
 6936.00    0.64598   0.48053    0.011
 6937.00    0.60437   0.48053    0.011
 6938.00    0.59224   0.48139    0.011
 6939.00    0.63090   0.48044    0.011
 6940.00    0.71463   0.48044    0.011
 6941.00    0.70701   0.48144    0.011
 6942.00    0.62796   0.48051    0.011
 6943.00    0.53179   0.48058    0.011
 6944.00    0.42386   0.48177    0.011
 6945.00    0.48850   0.48105    0.011
 6946.00    0.65717   0.48124    0.011
 6947.00    0.63561   0.48252    0.011
 6948.00    0.51396   0.48206    0.011
 6949.00    0.49515   0.48242    0.011
 6950.00    0.52327   0.48367    0.011
 6951.00    0.50384   0.48346    0.011
 6952.00    0.46574   0.48396    0.011
 6953.00    0.59403   0.48505    0.011
 6954.00    0.77797   0.48492    0.012
 6955.00    0.73268   0.48546    0.011
 6956.00    0.62301   0.48624    0.011
 6957.00    0.65594   0.48595    0.011
 6958.00    0.72186   0.48640    0.011
 6959.00    0.72366   0.48682    0.011
 6960.00    0.71356   0.48617    0.012
 6961.00    0.54181   0.48638    0.011
 6962.00    0.34693   0.48650    0.011
 6963.00    0.40819   0.48545    0.011
 6964.00    0.49598   0.48535    0.011
 6965.00    0.43377   0.48535    0.011
 6966.00    0.36157   0.48410    0.011
 6967.00    0.30781   0.48375    0.011
 6968.00    0.25469   0.48389    0.011
 6969.00    0.44781   0.48273    0.011
 6970.00    0.63080   0.48231    0.011
 6971.00    0.50387   0.48287    0.011
 6972.00    0.38055   0.48212    0.011
 6973.00    0.31089   0.48176    0.011
 6974.00    0.24169   0.48275    0.011
 6975.00    0.17685   0.48259    0.011
 6976.00    0.14429   0.48241    0.012
 6977.00    0.33631   0.48357    0.012
 6978.00    0.47526   0.48388    0.011
 6979.00    0.32941   0.48385    0.011
 6980.00    0.24282   0.48485    0.011
 6981.00    0.41159   0.48529    0.011
 6982.00    0.54190   0.48526    0.011
 6983.00    0.53569   0.48590    0.011
 6984.00    0.52354   0.48621    0.011
 6985.00    0.49367   0.48604    0.011
 6986.00    0.45916   0.48629    0.011
 6987.00    0.41291   0.48637    0.011
 6988.00    0.39401   0.48600    0.011
 6989.00    0.43496   0.48593    0.011
 6990.00    0.49318   0.48581    0.011
 6991.00    0.58420   0.48532    0.011
 6992.00    0.57640   0.48507    0.011
 6993.00    0.40501   0.48480    0.011
 6994.00    0.29514   0.48434    0.011
 6995.00    0.27457   0.48401    0.011
 6996.00    0.29812   0.48367    0.012
 6997.00    0.37798   0.48341    0.012
 6998.00    0.40822   0.48305    0.012
 6999.00    0.38265   0.48263    0.011
 7000.00    0.37708   0.48263    0.011
 7001.00    0.39136   0.48231    0.011
 7002.00    0.44684   0.48180    0.011
 7003.00    0.53837   0.48207    0.011
 7004.00    0.50188   0.48177    0.011
 7005.00    0.36671   0.48122    0.011
 7006.00    0.18424   0.48172    0.011
 7007.00   -0.03027   0.48145    0.000
 7008.00    0.00199   0.48090    0.010
 7009.00    0.18078   0.48160    0.011
 7010.00    0.28872   0.48149    0.011
 7011.00    0.35997   0.48100    0.011
 7012.00    0.30647   0.48179    0.011
 7013.00    0.19697   0.48190    0.011
 7014.00    0.23935   0.48156    0.011
 7015.00    0.34035   0.48236    0.012
 7016.00    0.28791   0.48271    0.012
 7017.00    0.18511   0.48253    0.012
 7018.00    0.21114   0.48330    0.012
 7019.00    0.27261   0.48390    0.012
 7020.00    0.33860   0.48382    0.012
 7021.00    0.40561   0.48456    0.012
 7022.00    0.33367   0.48542    0.011
 7023.00    0.23662   0.48537    0.011
 7024.00    0.28508   0.48610    0.011
 7025.00    0.35370   0.48729    0.011
 7026.00    0.50907   0.48718    0.011
 7027.00    0.67306   0.48788    0.011
 7028.00    0.54897   0.48942    0.011
 7029.00    0.40683   0.48926    0.011
 7030.00    0.36535   0.48983    0.011
 7031.00    0.32700   0.49159    0.011
 7032.00    0.36382   0.49139    0.011
 7033.00    0.40182   0.49163    0.011
 7034.00    0.47220   0.49327    0.011
 7035.00    0.54116   0.49292    0.012
 7036.00    0.59013   0.49264    0.012
 7037.00    0.63124   0.49366    0.012
 7038.00    0.59995   0.49290    0.012
 7039.00    0.56962   0.49193    0.012
 7040.00    0.54582   0.49193    0.012
 7041.00    0.52318   0.49053    0.012
 7042.00    0.50655   0.48882    0.012
 7043.00    0.51330   0.48772    0.012
 7044.00    0.61847   0.48563    0.012
 7045.00    0.65069   0.48333    0.012
 7046.00    0.42912   0.48144    0.012
 7047.00    0.27268   0.47893    0.012
 7048.00    0.30683   0.47634    0.011
 7049.00    0.35468   0.47424    0.011
 7050.00    0.43673   0.47179   -2.000
 7051.00    0.49168   0.46926   -2.000
 7052.00    0.48836   0.46750   -2.000
 7053.00    0.50234   0.46562   -2.000
 7054.00    0.54866   0.46345   -2.000
 7055.00    0.57603   0.46238   -2.000
 7056.00    0.57250   0.46134   -2.000
 7057.00    0.47865   0.45971   -2.000
 7058.00    0.25562   0.45937   -2.000
 7059.00    0.16840   0.45921   -2.000
 7060.00    0.25207   0.45815   -2.000
 7061.00    0.23755   0.45835   -2.000
 7062.00    0.11415   0.45883   -2.000
 7063.00   -0.72395   0.45821   -2.000
 7064.00   -2.26108   0.45860   -2.000
 7065.00   -1.99239   0.45933   -2.000
 7066.00   -0.16609   0.45888   -2.000
 7067.00    0.64012   0.45902   -2.000
 7068.00    0.67131   0.45959   -2.000
 7069.00    0.61070   0.45897   -2.000
 7070.00    0.48879   0.45848   -2.000
 7071.00    0.46942   0.45856   -2.000
 7072.00    0.51003   0.45750   -2.000
 7073.00    0.60046   0.45620   -2.000
 7074.00    0.71629   0.45572   -2.000
 7075.00    0.65889   0.45414   -2.000
 7076.00    0.52499   0.45211   -2.000
 7077.00    0.60768   0.45127   -2.000
 7078.00    0.77250   0.44937   -2.000
 7079.00    0.71045   0.44698   -2.000
 7080.00    0.57534   0.44611   -2.000
 7081.00    0.60699   0.44427   -2.000
 7082.00    0.68356   0.44200   -2.000
 7083.00    0.75392   0.44142   -2.000
 7084.00    0.82290   0.44003   -2.000
 7085.00    0.70678   0.43827   -2.000
 7086.00    0.55814   0.43812   -2.000
 7087.00    0.52870   0.43739   -2.000
 7088.00    0.51523   0.43630   -2.000
 7089.00    0.56725   0.43652   -2.000
 7090.00    0.62550   0.43643   -2.000
 7091.00    0.60194   0.43597   -2.000
 7092.00    0.57359   0.43635   -2.000
 7093.00    0.60027   0.43671   -2.000
 7094.00    0.62710   0.43668   -2.000
 7095.00    0.48984   0.43704   -2.000
 7096.00    0.35929   0.43757   -2.000
 7097.00    0.39573   0.43777   -2.000
 7098.00    0.43579   0.43802   -2.000
 7099.00    0.52390   0.43851   -2.000
 7100.00    0.58936   0.43879   -2.000
 7101.00    0.45412   0.43893   -2.000
 7102.00    0.34085   0.43924   -2.000
 7103.00    0.37109   0.43949   -2.000
 7104.00    0.41122   0.43954   -2.000
 7105.00    0.50177   0.43963   -2.000
 7106.00    0.58818   0.43977   -2.000
 7107.00    0.65761   0.43969   -2.000
 7108.00    0.69219   0.43952   -2.000
 7109.00    0.60797   0.43947   -2.000
 7110.00    0.54785   0.43915   -2.000
 7111.00    0.55696   0.43868   -2.000
 7112.00    0.54726   0.43837   -2.000
 7113.00    0.49140   0.43773   -2.000
 7114.00    0.47183   0.43695   -2.000
 7115.00    0.52905   0.43639   -2.000
 7116.00    0.57165   0.43551   -2.000
 7117.00    0.58736   0.43452   -2.000
 7118.00    0.58471   0.43378   -2.000
 7119.00    0.55256   0.43287   -2.000
 7120.00    0.57341   0.43193   -2.000
 7121.00    0.66895   0.43112   -2.000
 7122.00    0.62094   0.43048   -2.000
 7123.00    0.39488   0.42990   -2.000
 7124.00    0.38176   0.42913   -2.000
 7125.00    0.60145   0.42893   -2.000
 7126.00    0.58488   0.42890   -2.000
 7127.00    0.34049   0.42820   -2.000
 7128.00    0.31645   0.42843   -2.000
 7129.00    0.47980   0.42897   -2.000
 7130.00    0.57323   0.42830   -2.000
 7131.00    0.61431   0.42879   -2.000
 7132.00    0.58988   0.42978   -2.000
 7133.00    0.52235   0.42909   -2.000
 7134.00    0.58668   0.42963   -2.000
 7135.00    0.72696   0.43086   -2.000
 7136.00    0.69274   0.43016   -2.000
 7137.00    0.57096   0.43065   -2.000
 7138.00    0.61383   0.43202   -2.000
 7139.00    0.72820   0.43135   -2.000
 7140.00    0.63546   0.43173   -2.000
 7141.00    0.46557   0.43319   -2.000
 7142.00    0.42729   0.43270   -2.000
 7143.00    0.43060   0.43291   -2.000
 7144.00    0.46996   0.43436   -2.000
 7145.00    0.51883   0.43418   -2.000
 7146.00    0.41915   0.43419   -2.000
 7147.00    0.28745   0.43544   -2.000
 7148.00    0.47674   0.43558   -2.000
 7149.00    0.72089   0.43538   -2.000
 7150.00    0.76451   0.43628   -2.000
 7151.00    0.78218   0.43668   -2.000
 7152.00    0.71348   0.43633   -2.000
 7153.00    0.63694   0.43683   -2.000
 7154.00    0.51771   0.43746   -2.000
 7155.00    0.39613   0.43708   -2.000
 7156.00    0.51972   0.43727   -2.000
 7157.00    0.64406   0.43804   -2.000
 7158.00    0.36897   0.43777   -2.000
 7159.00    0.09974   0.43784   -2.000
 7160.00   -0.03650   0.43868   -2.000
 7161.00   -0.16166   0.43855   -2.000
 7162.00   -0.14725   0.43862   -2.000
 7163.00   -0.07968   0.43941   -2.000
 7164.00    0.44153   0.43933   -2.000
 7165.00    0.88079   0.43937   -2.000
 7166.00    0.80064   0.44004   -2.000
 7167.00    0.70463   0.43988   -2.000
 7168.00    0.52980   0.43978   -2.000
 7169.00    0.41550   0.44019   -2.000
 7170.00    0.54482   0.43992   -2.000
 7171.00    0.68059   0.43969   -2.000
 7172.00    0.83795   0.43977   -2.000
 7173.00    0.89985   0.43939   -2.000
 7174.00    0.69252   0.43911   -2.000
 7175.00    0.54149   0.43887   -2.000
 7176.00    0.52627   0.43848   -2.000
 7177.00    0.48958   0.43831   -2.000
 7178.00    0.40817   0.43783   -2.000
 7179.00    0.42578   0.43751   -2.000
 7180.00    0.62269   0.43757   -2.000
 7181.00    0.68216   0.43699   -2.000
 7182.00    0.52408   0.43677   -2.000
 7183.00    0.49717   0.43712   -2.000
 7184.00    0.65250   0.43659   -2.000
 7185.00    0.67599   0.43642   -2.000
 7186.00    0.53827   0.43698   -2.000
 7187.00    0.41768   0.43664   -2.000
 7188.00    0.31555   0.43647   -2.000
 7189.00    0.39451   0.43705   -2.000
 7190.00    0.64564   0.43694   -2.000
 7191.00    0.73054   0.43676   -2.000
 7192.00    0.67608   0.43721   -2.000
 7193.00    0.65864   0.43734   -2.000
 7194.00    0.66852   0.43716   -2.000
 7195.00    0.63362   0.43738   -2.000
 7196.00    0.56969   0.43775   -2.000
 7197.00    0.45900   0.43766   -2.000
 7198.00    0.32178   0.43762   -2.000
 7199.00    0.13411   0.43824   -2.000
 7200.00   -0.07848   0.43844   -2.000
 7201.00    0.03825   0.43823   -2.000
 7202.00    0.29559   0.43904   -2.000
 7203.00    0.44987   0.43966   -2.000
 7204.00    0.56644   0.43942   -2.000
 7205.00    0.62277   0.44037   -2.000
 7206.00    0.66045   0.44140   -2.000
 7207.00    0.58775   0.44126   -2.000
 7208.00    0.48657   0.44223   -2.000
 7209.00    0.49044   0.44360   -2.000
 7210.00    0.51640   0.44370   -2.000
 7211.00    0.55022   0.44453   -2.000
 7212.00    0.58534   0.44607   -2.000
 7213.00    0.55526   0.44650   -2.000
 7214.00    0.51703   0.44709   -2.000
 7215.00    0.49535   0.44860   -2.000
 7216.00    0.47509   0.44937   -2.000
 7217.00    0.37766   0.44972   -2.000
 7218.00    0.27631   0.45103   -2.000
