###################################################################
## OUTPUT of StarlightChains_v04.for    [Cid@UFSC - 01/Apr/2007] ##
###################################################################

## Some input info
KUG0210-078._25_26.txt                   [arq_obs]
Base.CB07.vall.4m                        [arq_base]
Masks.EmLines.NEW.gm                     [arq_masks]
StCv04.C11.config                        [arq_config]
   66                                    [N_base]
    0                                    [N_YAV_components = # of components with extra extinction!]
    0                                    [i_FitPowerLaw (1/0 = Yes/No)]
-9.99                                    [alpha_PowerLaw]
CCM                                      [red_law_option]
 1.458241                                [q_norm = A(l_norm)/A(V)]

## (Re)Sampling Parameters
 3741.00                                 [l_ini (A)]
 7218.00                                 [l_fin (A)]
    1.00                                 [dl    (A)]     (OBS: dl_cushion =    50.00 A)

## Normalization info
 4020.00                                 [l_norm (A) - for base]
 4010.00                                 [llow_norm (A) - window for f_obs]
 4060.00                                 [lupp_norm (A) - window for f_obs]
2.147219E-17                             [fobs_norm (in input units)]

## S/N
 3691.00                                 [llow_SN (A) - window for S/N]
 7268.00                                 [lupp_SN (A) - window for S/N]
   5.053                                 [S/N in S/N window]
   6.389                                 [S/N in norm. window]
   0.023                                 [S/N_err in S/N window]
   0.029                                 [S/N_err in norm. window]
  1.0000                                 [fscale_chi2]

## etc...
    -2007299                             [idum_orig]
  2420                                   [NOl_eff]
  2387                                   [Nl_eff]
    33    NSIGMA                         [Ntot_cliped & clip_method]
  5826380                                [Nglobal_steps]
   7                                     [N_chains]
  41                                     [NEX0s_base = N_base in EX0s-fits]
 0   0   1       33   2.0   5.192E+03    [Clip-Bug, RC-Crash & Burn-In warning-flags, n_censored_weights, wei_nsig_threshold & wei_limit]
   369    364.047    360.963      3.084  [idt_all, wdt_TotTime, wdt_UsrTime & wdt_SysTime (sec)]

## Synthesis Results - Best model ##

 1.17019E-04                             [chi2/Nl_eff]
    16.62432                             [adev (%)]

    83.11768                             [sum-of-x (%)]
 1.66045E-16                             [Flux_tot (units of input spectrum!)]
 1.22779E-13                             [Mini_tot (???)]
 8.48991E-14                             [Mcor_tot (???)]

-106.38                                  [v0_min  (km/s)]
  33.60                                  [vd_min  (km/s)]
 1.6607                                  [AV_min  (mag)]
 0.0000                                  [YAV_min (mag)]

# j     x_j(%)      Mini_j(%)     Mcor_j(%)     age_j(yr)     Z_j      (L/M)_j    YAV?  Mstars   component_j        a/Fe...       SSP_chi2r SSP_adev(%)   SSP_AV   SSP_x(%)
  1      0.0000     0.0000E+00    0.0000E+00    1.000000E+06  0.00400  1.094E-02    0   1.0000   age020_m42            0.0000     2.6566E-04    18.5087   4.0000    42.8451
  2      0.0000     0.0000E+00    0.0000E+00    3.160000E+06  0.00400  4.007E-02    0   0.9999   age045_m42            0.0000     1.8194E-04    16.1119   3.0325    58.1536
  3      0.0000     0.0000E+00    0.0000E+00    5.010000E+06  0.00400  2.539E-02    0   0.9488   age055_m42            0.0000     1.9439E-04    16.6920   3.4560    54.2397
  4      0.0000     0.0000E+00    0.0000E+00    6.610000E+06  0.00400  2.620E-02    0   0.9220   age061_m42            0.0000     1.6174E-04    15.6603   2.7968    62.5731
  5      0.0000     0.0000E+00    0.0000E+00    1.000000E+07  0.00400  1.322E-02    0   0.8862   age070_m42            0.0000     1.7402E-04    15.8913   2.6703    59.7527
  6      0.0000     0.0000E+00    0.0000E+00    1.445000E+07  0.00400  7.883E-03    0   0.8571   age078_m42            0.0000     1.8587E-04    16.4417   3.0791    56.1213
  7      0.0000     0.0000E+00    0.0000E+00    2.512000E+07  0.00400  5.251E-03    0   0.8174   age090_m42            0.0000     1.7007E-04    15.7640   2.5145    60.7906
  8      0.0000     0.0000E+00    0.0000E+00    4.000000E+07  0.00400  3.649E-03    0   0.7851   age104_m42            0.0000     1.6487E-04    15.4330   2.2350    62.7095
  9      0.0000     0.0000E+00    0.0000E+00    5.500000E+07  0.00400  3.098E-03    0   0.7629   age110_m42            0.0000     1.4952E-04    15.0839   2.2167    67.4662
 10      0.0000     0.0000E+00    0.0000E+00    1.015200E+08  0.00400  2.228E-03    0   0.7207   age116_m42            0.0000     1.3386E-04    15.5953   2.0391    73.1536
 11      0.0000     0.0000E+00    0.0000E+00    2.861200E+08  0.00400  1.093E-03    0   0.6648   age125_m42            0.0000     1.2561E-04    15.3438   1.3844    77.8572
 12      0.0000     0.0000E+00    0.0000E+00    5.088000E+08  0.00400  6.597E-04    0   0.6365   age130_m42            0.0000     1.2133E-04    16.8216   1.2131    83.2583
 13      0.0000     0.0000E+00    0.0000E+00    1.434000E+09  0.00400  2.132E-04    0   0.5798   age139_m42            0.0000     1.4968E-04    15.0726   0.5851    74.3545
 14      0.0000     0.0000E+00    0.0000E+00    4.250000E+09  0.00400  5.895E-05    0   0.5377   age158_m42            0.0000     2.0000E-04    15.8027   0.5558    60.1187
 15      0.0000     0.0000E+00    0.0000E+00    7.500000E+09  0.00400  3.510E-05    0   0.5212   age171_m42            0.0000     2.1935E-04    16.3244   0.4841    56.6693
 16      0.0000     0.0000E+00    0.0000E+00    1.300000E+10  0.00400  2.005E-05    0   0.5034   age193_m42            0.0000     2.4179E-04    17.0979   0.4604    52.8365
 17      0.0000     0.0000E+00    0.0000E+00    1.800000E+10  0.00400  1.525E-05    0   0.4967   age213_m42            0.0000     2.4028E-04    17.0588   0.4311    52.7282
 18      0.0000     0.0000E+00    0.0000E+00    1.000000E+06  0.00800  1.238E-02    0   1.0000   age020_m52            0.0000     2.6464E-04    18.3474   4.0000    43.0157
 19      0.0000     0.0000E+00    0.0000E+00    3.160000E+06  0.00800  3.074E-02    0   0.9966   age045_m52            0.0000     2.3294E-04    17.4349   4.0000    46.5875
 20      0.0000     0.0000E+00    0.0000E+00    5.010000E+06  0.00800  2.668E-02    0   0.9443   age055_m52            0.0000     2.0012E-04    17.0014   3.5839    52.6948
 21      0.0000     0.0000E+00    0.0000E+00    6.610000E+06  0.00800  2.136E-02    0   0.9177   age061_m52            0.0000     2.1025E-04    17.5601   2.4369    53.5392
 22      0.0000     0.0000E+00    0.0000E+00    1.000000E+07  0.00800  1.215E-02    0   0.8827   age070_m52            0.0000     1.8575E-04    16.5802   2.9476    56.9911
 23      0.0000     0.0000E+00    0.0000E+00    1.445000E+07  0.00800  8.717E-03    0   0.8552   age078_m52            0.0000     1.7952E-04    16.1575   3.0001    58.0585
 24      0.0000     0.0000E+00    0.0000E+00    2.512000E+07  0.00800  5.592E-03    0   0.8162   age090_m52            0.0000     1.6542E-04    15.5776   2.5410    62.5081
 25      0.1010     4.2179E-02    4.7829E-02    4.000000E+07  0.00800  3.896E-03    0   0.7841   age104_m52            0.0000     1.5385E-04    15.0443   2.3355    66.2457
 26      0.0000     0.0000E+00    0.0000E+00    1.015200E+08  0.00800  2.148E-03    0   0.7226   age116_m52            0.0000     1.3301E-04    15.2649   2.0244    73.2136
 27      2.9724     4.8728E+00    4.7095E+00    2.861200E+08  0.00800  9.925E-04    0   0.6683   age125_m52            0.0000     1.2193E-04    16.7558   1.2853    83.7874
 28      0.0000     0.0000E+00    0.0000E+00    9.047900E+08  0.00800  3.141E-04    0   0.6138   age135_m52            0.0000     1.4520E-04    15.8773   0.6842    80.6547
 29      0.3821     3.6167E+00    3.0613E+00    1.434000E+09  0.00800  1.719E-04    0   0.5853   age139_m52            0.0000     1.7357E-04    15.1543   0.4243    69.5079
 30      0.0000     0.0000E+00    0.0000E+00    2.500000E+09  0.00800  7.872E-05    0   0.5600   age150_m52            0.0000     2.0237E-04    15.7228   0.3421    62.5067
 31      0.0000     0.0000E+00    0.0000E+00    4.250000E+09  0.00800  4.336E-05    0   0.5426   age158_m52            0.0000     2.1393E-04    16.0463   0.4149    59.6406
 32      0.0000     0.0000E+00    0.0000E+00    6.250000E+09  0.00800  3.159E-05    0   0.5319   age166_m52            0.0000     2.3052E-04    16.3992   0.2904    57.5667
 33      0.0000     0.0000E+00    0.0000E+00    1.300000E+10  0.00800  1.361E-05    0   0.5073   age193_m52            0.0000     2.5487E-04    17.0593  -0.0559    54.1164
 34      0.0000     0.0000E+00    0.0000E+00    1.800000E+10  0.00800  9.886E-06    0   0.4990   age213_m52            0.0000     2.6556E-04    17.2739  -0.1361    53.1704
 35      0.0000     0.0000E+00    0.0000E+00    1.000000E+06  0.02000  1.544E-02    0   1.0000   age020_m62            0.0000     2.5854E-04    17.7176   4.0000    43.7074
 36      0.0000     0.0000E+00    0.0000E+00    3.160000E+06  0.02000  3.762E-02    0   0.9858   age045_m62            0.0000     2.3196E-04    17.3537   4.0000    46.8507
 37      0.0000     0.0000E+00    0.0000E+00    5.010000E+06  0.02000  3.296E-02    0   0.9342   age055_m62            0.0000     1.7375E-04    16.0666   3.2479    59.1423
 38      0.0000     0.0000E+00    0.0000E+00    8.710000E+06  0.02000  1.154E-02    0   0.8861   age067_m62            0.0000     2.2415E-04    20.1281   2.7073    50.2872
 39      0.0000     0.0000E+00    0.0000E+00    1.445000E+07  0.02000  7.663E-03    0   0.8472   age078_m62            0.0000     1.9657E-04    17.3586   2.6872    55.6543
 40      0.0000     0.0000E+00    0.0000E+00    2.512000E+07  0.02000  4.532E-03    0   0.8099   age090_m62            0.0000     1.8090E-04    16.5708   2.5684    58.4129
 41      0.0000     0.0000E+00    0.0000E+00    5.500000E+07  0.02000  2.733E-03    0   0.7595   age110_m62            0.0000     1.4784E-04    14.8958   2.2720    67.0965
 42     29.0200     3.4491E+01    3.4841E+01    1.609000E+08  0.02000  1.369E-03    0   0.6985   age120_m62            0.0000     1.1703E-04    16.8289   1.6325    83.0433
 43      0.0000     0.0000E+00    0.0000E+00    2.861200E+08  0.02000  9.013E-04    0   0.6714   age125_m62            0.0000     1.1643E-04    18.9932   1.1721    91.7618
 44      3.7332     1.2081E+01    1.1267E+01    5.088000E+08  0.02000  5.028E-04    0   0.6449   age130_m62            0.0000     1.2481E-04    19.1304   0.8345    92.5217
 45      0.0000     0.0000E+00    0.0000E+00    9.047900E+08  0.02000  2.428E-04    0   0.6179   age135_m62            0.0000     1.5065E-04    16.1960   0.6591    79.1079
 46      0.0000     0.0000E+00    0.0000E+00    1.434000E+09  0.02000  1.263E-04    0   0.5908   age139_m62            0.0000     1.7943E-04    15.5442   0.4965    69.6630
 47      0.0000     0.0000E+00    0.0000E+00    2.500000E+09  0.02000  5.985E-05    0   0.5673   age150_m62            0.0000     2.1038E-04    16.0062   0.3337    62.9565
 48      0.0000     0.0000E+00    0.0000E+00    4.250000E+09  0.02000  3.271E-05    0   0.5468   age158_m62            0.0000     2.3937E-04    16.6535   0.1877    58.2612
 49      0.0000     0.0000E+00    0.0000E+00    1.000000E+10  0.02000  1.360E-05    0   0.5167   age181_m62            0.0000     2.6147E-04    17.1158  -0.0926    56.2024
 50      0.0000     0.0000E+00    0.0000E+00    1.800000E+10  0.02000  7.124E-06    0   0.5013   age213_m62            0.0000     2.7494E-04    17.4445  -0.2741    55.0065
 51      0.0000     0.0000E+00    0.0000E+00    1.000000E+06  0.05000  2.592E-02    0   0.9998   age020_m72            0.0000     2.5450E-04    17.3377   4.0000    44.0593
 52      0.0000     0.0000E+00    0.0000E+00    3.160000E+06  0.05000  4.845E-02    0   0.9577   age045_m72            0.0000     1.9916E-04    16.9829   3.7044    52.7333
 53      0.0000     0.0000E+00    0.0000E+00    5.010000E+06  0.05000  3.072E-02    0   0.9147   age055_m72            0.0000     1.9829E-04    17.0388   3.2556    53.9071
 54      0.0000     0.0000E+00    0.0000E+00    6.610000E+06  0.05000  1.455E-02    0   0.8877   age061_m72            0.0000     2.3422E-04    21.1953   2.7753    49.1620
 55      0.0000     0.0000E+00    0.0000E+00    1.000000E+07  0.05000  9.074E-03    0   0.8524   age070_m72            0.0000     2.0049E-04    17.0697   3.4249    53.6263
 56      0.0000     0.0000E+00    0.0000E+00    2.512000E+07  0.05000  4.250E-03    0   0.7902   age090_m72            0.0000     1.6071E-04    15.4758   2.8425    62.5074
 57      0.0000     0.0000E+00    0.0000E+00    4.000000E+07  0.05000  3.087E-03    0   0.7618   age104_m72            0.0000     1.4499E-04    15.0493   2.4848    67.2444
 58     46.9091     4.4897E+01    4.6073E+01    1.015200E+08  0.05000  1.700E-03    0   0.7096   age116_m72            0.0000     1.1632E-04    16.3375   1.8033    81.8284
 59      0.0000     0.0000E+00    0.0000E+00    2.861200E+08  0.05000  7.384E-04    0   0.6633   age125_m72            0.0000     1.1974E-04    19.7268   0.9993    94.0628
 60      0.0000     0.0000E+00    0.0000E+00    5.088000E+08  0.05000  3.819E-04    0   0.6372   age130_m72            0.0000     1.3262E-04    17.9913   0.7432    87.9078
 61      0.0000     0.0000E+00    0.0000E+00    9.047900E+08  0.05000  1.676E-04    0   0.6110   age135_m72            0.0000     1.7886E-04    16.3474   0.5152    72.0461
 62      0.0000     0.0000E+00    0.0000E+00    1.434000E+09  0.05000  8.837E-05    0   0.5874   age139_m72            0.0000     2.0939E-04    16.1066   0.2992    64.7854
 63      0.0000     0.0000E+00    0.0000E+00    2.500000E+09  0.05000  4.233E-05    0   0.5598   age150_m72            0.0000     2.3823E-04    16.6825   0.1424    59.8332
 64      0.0000     0.0000E+00    0.0000E+00    6.250000E+09  0.05000  1.435E-05    0   0.5249   age166_m72            0.0000     2.6714E-04    17.3540  -0.1653    55.3503
 65      0.0000     0.0000E+00    0.0000E+00    1.300000E+10  0.05000  6.513E-06    0   0.5036   age193_m72            0.0000     2.8210E-04    17.8015  -0.4174    55.1396
 66      0.0000     0.0000E+00    0.0000E+00    1.800000E+10  0.05000  4.527E-06    0   0.4945   age213_m72            0.0000     2.8362E-04    18.0209  -0.6296    56.2127


## Synthesis Results - Average & Chains ##

# j      x_j: min, <> & last-chain-values for 1 ...  7 chains
  1      0.0000      0.9165      0.0000      0.9305      0.2028      0.1792      1.5927      0.2341      0.0000
  2      0.0000      0.8509      0.0000      0.5102      0.0000      0.5925      0.1184      1.0476      0.0000
  3      0.0000      0.9663      0.5393      2.3741      2.2964      0.9863      0.3505      0.1543      1.3508
  4      0.0000      0.7645      0.4877      0.5693      0.0000      0.0000      0.8326      0.8258      0.0216
  5      0.0000      0.8317      0.3971      2.3777      1.4093      0.0000      0.3275      0.0000      2.4984
  6      0.0000      0.7110      0.0362      0.0000      0.2628      0.0000      2.0497      0.0000      1.4272
  7      0.0000      1.0256      0.0000      1.8775      1.8610      2.3108      0.0000      1.7423      1.0819
  8      0.0000      0.7354      1.5898      0.0000      2.3030      2.0940      0.0000      0.0000      0.0000
  9      0.0000      1.2076      0.0000      0.0000      4.4286      0.4198      3.0322      0.1918      1.2582
 10      0.0000      0.8862      1.2464      0.0000      1.2855      0.3864      2.1607      0.0000      0.0000
 11      0.0000      0.7498      1.0825      0.4968      2.2433      0.7514      0.0000      1.8706      0.0000
 12      0.0000      0.9005      1.7091      4.9527      0.1990      1.4117      3.3571      0.0607      0.0000
 13      0.0000      1.0726      2.2024      1.6585      0.0000      0.8944      1.0684      1.7837      1.4323
 14      0.0000      1.2392      0.1689      0.3787      0.3170      2.1058      2.4788      0.0000      2.2291
 15      0.0000      3.2887      0.7549      1.9681      4.4204      4.3996      0.4157      0.0000      2.2778
 16      0.0000      3.0874      0.0000      4.1465      3.1086      3.0842      2.0784      3.2818      2.4717
 17      0.0000      3.5625      0.8737      3.9248      4.6296      3.0063      2.3307      1.4161      0.7668
 18      0.0000      0.6926      0.0000      0.0000      0.0000      0.0000      1.1909      0.0497      0.6707
 19      0.0000      0.7228      0.0000      0.7781      0.3164      0.8460      0.0000      0.8148      0.0000
 20      0.0000      0.7863      0.0000      0.0000      0.8327      1.4248      0.0000      0.6791      1.4911
 21      0.0000      1.0970      2.7867      0.4863      0.2056      0.9987      0.4146      4.3805      1.2296
 22      0.0000      0.5840      1.0857      0.3964      0.6491      0.5691      0.0000      0.1935      0.0000
 23      0.0000      0.8707      1.7331      0.0000      2.6308      0.9617      0.0000      0.4689      0.0000
 24      0.0000      0.8586      0.2911      0.0000      0.3367      1.7889      2.6604      3.9697      0.0000
 25      0.1010      1.0973      1.9221      0.0000      0.0000      0.0000      1.5070      1.3758      4.8175
 26      0.0000      1.1049      3.1851      1.6111      2.3921      2.3644      1.5612      1.6193      0.0000
 27      2.9724      1.1023      4.8177      0.0592      2.1531      1.6808      0.6863      2.2500      2.9651
 28      0.0000      1.1247      0.0775      1.6101      0.0000      0.7168      1.0407      0.8124      3.8137
 29      0.3821      0.9390      0.5407      0.9672      0.5185      0.0301      0.6274      1.4587      0.0000
 30      0.0000      0.8236      0.0000      0.0000      1.5174      0.0000      0.0000      3.1517      0.1322
 31      0.0000      1.4784      0.5786      0.2617      1.6119      1.8051      0.0000      0.0000      2.0720
 32      0.0000      1.8706      0.6372      2.1672      2.3110      0.0431      0.9384      2.3296      1.1583
 33      0.0000      4.0781      1.1151      5.6382      3.7377      4.1350      1.7744      0.1809      2.4419
 34      0.0000      5.5017      2.0784      2.6250      8.2482      0.8101      0.0000      1.0974      3.9650
 35      0.0000      0.8300      0.3291      0.0000      0.0000      0.0000      0.0000      3.4852      0.1964
 36      0.0000      0.8505      2.0572      0.0000      1.2789      0.4943      0.4442      0.6912      0.2435
 37      0.0000      0.8283      0.1462      0.4198      0.0000      0.1305      1.1013      0.0000      1.8500
 38      0.0000      0.9778      0.0000      1.0664      0.3275      0.4710      1.1786      0.0000      2.2078
 39      0.0000      0.7996      0.4859      0.9500      0.0000      0.8005      0.6542      0.0000      0.2375
 40      0.0000      1.0078      0.0371      4.2081      1.7653      0.7529      3.5869      1.1426      0.0653
 41      0.0000      0.9445      0.9560      0.0000      1.4830      1.6199      0.0000      2.7682      1.2656
 42     29.0200      0.8835      1.5152      3.2245      1.1753      0.7158      2.4929      2.7880      0.0000
 43      0.0000      0.7462      0.0000      0.5201      1.0556      0.0000      0.0000      1.1194      4.0409
 44      3.7332      1.2514      3.2339      2.8996      1.8365      4.0852      2.4006      3.2721      0.7556
 45      0.0000      0.9272      3.9222      2.5710      0.3902      1.1113      0.9131      1.4501      0.0000
 46      0.0000      0.9565      1.5266      1.9681      0.0000      2.3382      0.5107      5.3523      4.5767
 47      0.0000      3.8831      3.9037      5.2093      1.7547      3.4775      2.6328      0.0000      7.2444
 48      0.0000      1.7989      4.3641      0.8113      1.2038      3.5009      4.7888      1.8580      0.0000
 49      0.0000      2.3629      4.6624      0.6836      1.0321      1.6929      0.0000      0.8213      3.1830
 50      0.0000      1.8218      0.0000      1.6619      2.3892      1.3336      3.9667      0.0000      0.5312
 51      0.0000      0.7186      0.9050      0.0000      0.4894      0.0000      1.0465      0.6462      1.4391
 52      0.0000      0.6667      0.0000      0.0000      0.0000      0.5412      0.0000      0.0000      0.3037
 53      0.0000      1.0382      2.0544      1.4148      0.6497      2.7635      0.8804      0.0000      0.0000
 54      0.0000      0.8223      0.0000      0.0000      0.0000      0.0000      0.0000      0.7840      0.3027
 55      0.0000      0.8827      0.1674      0.0000      1.8774      0.8349      0.0000      0.0000      0.7055
 56      0.0000      0.9587      0.0000      0.1712      0.2558      2.1535      0.0000      0.8291      0.0082
 57      0.0000      0.5509      0.0000      0.0000      0.7800      0.3268      0.0000      0.0000      0.1994
 58     46.9091      1.0451      4.2346      3.2121      0.6507      1.1517      5.9462      0.0000      0.0000
 59      0.0000      0.5778      0.1944      0.7033      1.3764      1.1528      0.3314      1.4352      0.8395
 60      0.0000      1.0538      1.5651      0.3400      0.4175      1.7665      2.6568      0.0000      2.4025
 61      0.0000      0.6909      1.2023      0.0000      0.0000      0.0000      0.8335      6.1195      2.9649
 62      0.0000      1.6430      2.6529      0.1567      2.3277      1.3668      2.9583      1.0740      0.0000
 63      0.0000      0.9978      1.6432      3.0440      0.5485      0.0465      3.9790      2.0390      0.6191
 64      0.0000      0.7605      1.2409      0.2698      1.3413      0.8481      1.9063      2.5956      1.7631
 65      0.0000      0.8579      3.1079      1.1343      0.0000      0.0000      0.0000      3.4888      0.0000
 66      0.0000      1.0377      3.5997      0.6376      1.4477      2.3797      1.8143      0.0000      3.2222

# j      m_j: min, <> & last-chain-values for 1 ...  7 chains
  1  0.0000E+00  6.5234E-03  0.0000E+00  7.7054E-03  1.3114E-03  1.5413E-03  1.4597E-02  2.7097E-03  0.0000E+00
  2  0.0000E+00  1.6534E-03  0.0000E+00  1.1535E-03  0.0000E+00  1.3908E-03  2.9617E-04  3.3099E-03  0.0000E+00
  3  0.0000E+00  2.8118E-03  1.6012E-03  8.0373E-03  6.0706E-03  3.4672E-03  1.3133E-03  7.2991E-04  4.2508E-03
  4  0.0000E+00  2.0949E-03  1.3635E-03  1.8148E-03  0.0000E+00  0.0000E+00  2.9376E-03  3.6793E-03  6.3875E-05
  5  0.0000E+00  4.3414E-03  2.1146E-03  1.4440E-02  6.6831E-03  0.0000E+00  2.2011E-03  0.0000E+00  1.4104E-02
  6  0.0000E+00  6.0201E-03  3.1290E-04  0.0000E+00  2.0215E-03  0.0000E+00  2.2345E-02  0.0000E+00  1.3068E-02
  7  0.0000E+00  1.2432E-02  0.0000E+00  2.6478E-02  2.0494E-02  3.3838E-02  0.0000E+00  3.4339E-02  1.4182E-02
  8  0.0000E+00  1.2321E-02  2.7175E-02  0.0000E+00  3.5052E-02  4.2382E-02  0.0000E+00  0.0000E+00  0.0000E+00
  9  0.0000E+00  2.3156E-02  0.0000E+00  0.0000E+00  7.7148E-02  9.7244E-03  7.4866E-02  5.9812E-03  2.6092E-02
 10  0.0000E+00  2.2323E-02  3.2030E-02  0.0000E+00  2.9415E-02  1.1759E-02  7.0077E-02  0.0000E+00  0.0000E+00
 11  0.0000E+00  3.5513E-02  5.2309E-02  2.7374E-02  9.6525E-02  4.2990E-02  0.0000E+00  1.4405E-01  0.0000E+00
 12  0.0000E+00  6.7652E-02  1.3101E-01  4.3291E-01  1.3582E-02  1.2813E-01  3.2476E-01  7.4107E-03  0.0000E+00
 13  0.0000E+00  2.2713E-01  4.7583E-01  4.0861E-01  0.0000E+00  2.2881E-01  2.9133E-01  6.1416E-01  3.2803E-01
 14  0.0000E+00  8.8015E-01  1.2240E-01  3.1290E-01  2.0455E-01  1.8068E+00  2.2670E+00  0.0000E+00  1.7122E+00
 15  0.0000E+00  3.8027E+00  8.9054E-01  2.6476E+00  4.6434E+00  6.1454E+00  6.1896E-01  0.0000E+00  2.8484E+00
 16  0.0000E+00  6.0361E+00  0.0000E+00  9.4315E+00  5.5213E+00  7.2842E+00  5.2321E+00  1.0432E+01  5.2262E+00
 17  0.0000E+00  9.0354E+00  2.2609E+00  1.1581E+01  1.0667E+01  9.2108E+00  7.6111E+00  5.8396E+00  2.1033E+00
 18  0.0000E+00  4.3564E-03  0.0000E+00  0.0000E+00  0.0000E+00  0.0000E+00  9.6446E-03  5.0845E-04  4.5623E-03
 19  0.0000E+00  1.8246E-03  0.0000E+00  2.2854E-03  7.2564E-04  2.5800E-03  0.0000E+00  3.3447E-03  0.0000E+00
 20  0.0000E+00  2.1670E-03  0.0000E+00  0.0000E+00  2.0849E-03  4.7439E-03  0.0000E+00  3.0432E-03  4.4444E-03
 21  0.0000E+00  3.6701E-03  9.5116E-03  1.8930E-03  6.2487E-04  4.0363E-03  1.7861E-03  2.3829E-02  4.4488E-03
 22  0.0000E+00  3.3036E-03  6.2664E-03  2.6087E-03  3.3362E-03  3.8895E-03  0.0000E+00  1.7800E-03  0.0000E+00
 23  0.0000E+00  6.6518E-03  1.3508E-02  0.0000E+00  1.8258E-02  8.8753E-03  0.0000E+00  5.8242E-03  0.0000E+00
 24  0.0000E+00  9.7583E-03  3.3754E-03  0.0000E+00  3.4765E-03  2.4561E-02  3.8934E-02  7.3360E-02  0.0000E+00
 25  4.7829E-02  1.7197E-02  3.0733E-02  0.0000E+00  0.0000E+00  0.0000E+00  3.0411E-02  3.5057E-02  8.1650E-02
 26  0.0000E+00  2.8944E-02  8.5125E-02  4.9102E-02  5.6926E-02  7.4822E-02  5.2659E-02  6.8972E-02  0.0000E+00
 27  4.7095E+00  5.7797E-02  2.5772E-01  3.6089E-03  1.0256E-01  1.0646E-01  4.6335E-02  1.9182E-01  1.6814E-01
 28  0.0000E+00  1.7114E-01  1.2039E-02  2.8504E-01  0.0000E+00  1.3177E-01  2.0391E-01  2.0101E-01  6.2760E-01
 29  3.0613E+00  2.4897E-01  1.4625E-01  2.9836E-01  1.2488E-01  9.6363E-03  2.1420E-01  6.2886E-01  0.0000E+00
 30  0.0000E+00  4.5622E-01  0.0000E+00  0.0000E+00  7.6360E-01  0.0000E+00  0.0000E+00  2.8387E+00  7.9169E-02
 31  0.0000E+00  1.4406E+00  5.7521E-01  2.9673E-01  1.4269E+00  2.1249E+00  0.0000E+00  0.0000E+00  2.1835E+00
 32  0.0000E+00  2.4526E+00  8.5235E-01  3.3058E+00  2.7527E+00  6.8332E-02  1.5842E+00  4.9664E+00  1.6424E+00
 33  0.0000E+00  1.1837E+01  3.3019E+00  1.9039E+01  9.8557E+00  1.4499E+01  6.6314E+00  8.5379E-01  7.6650E+00
 34  0.0000E+00  2.1624E+01  8.3346E+00  1.2003E+01  2.9452E+01  3.8465E+00  0.0000E+00  7.0132E+00  1.6854E+01
 35  0.0000E+00  4.1858E-03  1.6933E-03  0.0000E+00  0.0000E+00  0.0000E+00  0.0000E+00  2.8579E-02  1.0711E-03
 36  0.0000E+00  1.7354E-03  4.2827E-03  0.0000E+00  2.3707E-03  1.2183E-03  1.1672E-03  2.2932E-03  5.3730E-04
 37  0.0000E+00  1.8282E-03  3.2914E-04  1.0781E-03  0.0000E+00  3.4789E-04  3.1296E-03  0.0000E+00  4.4158E-03
 38  0.0000E+00  5.8466E-03  0.0000E+00  7.4180E-03  1.7790E-03  3.4021E-03  9.0739E-03  0.0000E+00  1.4277E-02
 39  0.0000E+00  6.8838E-03  4.2677E-03  9.5149E-03  0.0000E+00  8.3250E-03  7.2520E-03  0.0000E+00  2.2108E-03
 40  0.0000E+00  1.4025E-02  5.2721E-04  6.8128E-02  2.2317E-02  1.2657E-02  6.4270E-02  2.5852E-02  9.8312E-04
 41  0.0000E+00  2.0438E-02  2.1106E-02  0.0000E+00  2.9155E-02  4.2348E-02  0.0000E+00  9.7400E-02  2.9619E-02
 42  3.4841E+01  3.5104E-02  6.1417E-02  1.4905E-01  4.2421E-02  3.4358E-02  1.2753E-01  1.8011E-01  0.0000E+00
 43  0.0000E+00  4.3284E-02  0.0000E+00  3.5100E-02  5.5626E-02  0.0000E+00  0.0000E+00  1.0558E-01  2.5349E-01
 44  1.1267E+01  1.2498E-01  3.2952E-01  3.3693E-01  1.6663E-01  4.9289E-01  3.0872E-01  5.3137E-01  8.1617E-02
 45  0.0000E+00  1.8375E-01  7.9299E-01  5.9275E-01  7.0244E-02  2.6604E-01  2.3300E-01  4.6723E-01  0.0000E+00
 46  0.0000E+00  3.4842E-01  5.6734E-01  8.3404E-01  0.0000E+00  1.0289E+00  2.3953E-01  3.1699E+00  1.8029E+00
 47  0.0000E+00  2.8662E+00  2.9396E+00  4.4733E+00  1.1766E+00  3.1007E+00  2.5021E+00  0.0000E+00  5.7827E+00
 48  0.0000E+00  2.3417E+00  5.7958E+00  1.2286E+00  1.4236E+00  5.5051E+00  8.0264E+00  3.9324E+00  0.0000E+00
 49  0.0000E+00  6.9906E+00  1.4073E+01  2.3528E+00  2.7739E+00  6.0504E+00  0.0000E+00  3.9508E+00  1.0184E+01
 50  0.0000E+00  9.9823E+00  0.0000E+00  1.0594E+01  1.1893E+01  8.8279E+00  2.7987E+01  0.0000E+00  3.1478E+00
 51  0.0000E+00  2.1584E-03  2.7734E-03  0.0000E+00  1.3355E-03  0.0000E+00  4.0471E-03  3.1560E-03  4.6746E-03
 52  0.0000E+00  1.0262E-03  0.0000E+00  0.0000E+00  0.0000E+00  1.0063E-03  0.0000E+00  0.0000E+00  5.0558E-04
 53  0.0000E+00  2.4071E-03  4.8598E-03  3.8163E-03  1.3685E-03  7.7403E-03  2.6284E-03  0.0000E+00  0.0000E+00
 54  0.0000E+00  3.9066E-03  0.0000E+00  0.0000E+00  0.0000E+00  0.0000E+00  0.0000E+00  6.0560E-03  1.5554E-03
 55  0.0000E+00  6.4572E-03  1.2495E-03  0.0000E+00  1.2476E-02  7.3779E-03  0.0000E+00  0.0000E+00  5.5814E-03
 56  0.0000E+00  1.3881E-02  0.0000E+00  2.8829E-03  3.3646E-03  3.7664E-02  0.0000E+00  1.9518E-02  1.2794E-04
 57  0.0000E+00  1.0586E-02  0.0000E+00  0.0000E+00  1.3616E-02  7.5873E-03  0.0000E+00  0.0000E+00  4.1440E-03
 58  4.6073E+01  3.3971E-02  1.4043E-01  1.2147E-01  1.9214E-02  4.5221E-02  2.4886E-01  0.0000E+00  0.0000E+00
 59  0.0000E+00  4.0417E-02  1.3871E-02  5.7231E-02  8.7464E-02  9.7408E-02  2.9846E-02  1.6323E-01  6.3509E-02
 60  0.0000E+00  1.3692E-01  2.0746E-01  5.1394E-02  4.9283E-02  2.7725E-01  4.4446E-01  0.0000E+00  3.3757E-01
 61  0.0000E+00  1.9614E-01  3.4821E-01  0.0000E+00  0.0000E+00  0.0000E+00  3.0465E-01  2.8246E+00  9.1025E-01
 62  0.0000E+00  8.5040E-01  1.4009E+00  9.4366E-02  1.0945E+00  8.5462E-01  1.9716E+00  9.0387E-01  0.0000E+00
 63  0.0000E+00  1.0275E+00  1.7264E+00  3.6470E+00  5.1317E-01  5.7811E-02  5.2760E+00  3.4141E+00  6.8954E-01
 64  0.0000E+00  2.1660E+00  3.6060E+00  8.9404E-01  3.4709E+00  2.9183E+00  6.9913E+00  1.2021E+01  5.4311E+00
 65  0.0000E+00  5.1655E+00  1.9091E+01  7.9460E+00  0.0000E+00  0.0000E+00  0.0000E+00  3.4155E+01  0.0000E+00
 66  0.0000E+00  8.8268E+00  3.1239E+01  6.3093E+00  1.1187E+01  2.4452E+01  1.9870E+01  0.0000E+00  2.9641E+01

# AV, chi2 & Mass for <> & i_chain = 1 ...  7 solutions
AV       1.6607      0.1925      0.3017      0.4768      0.2087      0.2830      0.3688      0.2529      0.6199
chi2 1.1702E-04  4.6470E-04  3.0420E-04  3.1091E-04  4.4968E-04  3.2069E-04  3.3456E-04  3.5460E-04  3.6205E-04
Mass 8.4899E-14  3.5711E-13  4.0534E-13  4.4967E-13  4.0173E-13  3.3382E-13  3.5144E-13  2.3818E-13  5.8628E-13
-106.38                                  [v0_min (km/s) before EX0s...]
  33.60                                  [vd_min (km/s) before EX0s...]


## Synthetic spectrum (Best Model) ##l_obs f_obs f_syn wei
 3478    [Nl_obs]
 3741.00    0.00001   0.52773    0.000
 3742.00   -0.04678   0.51895    0.000
 3743.00    0.11585   0.49943    0.000
 3744.00    0.09775   0.46757    0.000
 3745.00   -0.02564   0.42630    0.000
 3746.00    0.01910   0.37730   -1.000
 3747.00    0.14923   0.32246   -1.000
 3748.00    0.39404   0.27902   -1.000
 3749.00    0.68927   0.27222   -1.000
 3750.00    0.91473   0.30726   -1.000
 3751.00    1.11386   0.36354   -1.000
 3752.00    1.00414   0.42059   -1.000
 3753.00    0.79542   0.47105   -1.000
 3754.00    0.33494   0.51141   -1.000
 3755.00   -0.19301   0.53749    0.000
 3756.00   -0.05011   0.54773    0.000
 3757.00    0.24003   0.55000   -1.000
 3758.00    0.04279   0.55619   -1.000
 3759.00   -0.23953   0.56527    0.000
 3760.00    0.28076   0.56781   -1.000
 3761.00    0.90767   0.56290   -1.000
 3762.00    0.47596   0.55077   -1.000
 3763.00   -0.05523   0.53154    0.000
 3764.00   -0.16231   0.50461    0.000
 3765.00   -0.24492   0.46539    0.000
 3766.00   -0.22745   0.41668    0.000
 3767.00   -0.20584   0.36366    0.000
 3768.00    0.02992   0.31202   -1.000
 3769.00    0.26301   0.28132    4.764
 3770.00    0.43098   0.29367    0.181
 3771.00    0.57900   0.34201    0.095
 3772.00    0.46571   0.39976    0.091
 3773.00    0.37740   0.45251    0.088
 3774.00    0.50846   0.49991    0.086
 3775.00    0.62655   0.54238    0.085
 3776.00    0.66065   0.57862    0.089
 3777.00    0.68738   0.60869    0.092
 3778.00    0.67685   0.63409    0.088
 3779.00    0.74915   0.65392    0.086
 3780.00    1.16047   0.66531    0.090
 3781.00    1.41450   0.67031    0.092
 3782.00    1.13508   0.67451    0.091
 3783.00    0.88088   0.67832    0.089
 3784.00    0.69882   0.67430    0.087
 3785.00    0.67532   0.66114    0.087
 3786.00    1.03919   0.64582    0.090
 3787.00    1.15548   0.63054    0.093
 3788.00    0.74996   0.61330    0.094
 3789.00    0.61337   0.59214    0.094
 3790.00    0.96938   0.56471    0.093
 3791.00    1.32126   0.52800    0.092
 3792.00    1.66653   0.48168    0.094
 3793.00    1.71190   0.42845    0.095
 3794.00    1.33601   0.37186    0.094
 3795.00    1.00664   0.31584    0.092
 3796.00    0.73476   0.27411    0.090
 3797.00    0.42864   0.27068    0.088
 3798.00    0.08523   0.31078    0.085
 3799.00    0.13960   0.37196    0.086
 3800.00    0.57622   0.43310    0.091
 3801.00    0.81622   0.48788    0.093
 3802.00    0.88962   0.53492    0.094
 3803.00    0.86077   0.57240    0.093
 3804.00    0.75564   0.60050    0.091
 3805.00    0.41963   0.62326    0.088
 3806.00   -0.06773   0.64642    0.000
 3807.00   -0.10695   0.67064    0.000
 3808.00    0.11101   0.69196    0.081
 3809.00    0.10248   0.70725    0.081
 3810.00   -0.01924   0.71376    0.000
 3811.00    0.08967   0.71041    0.083
 3812.00    0.29833   0.70259    0.086
 3813.00    0.56875   0.69877    0.085
 3814.00    0.86207   0.70228    0.083
 3815.00    0.86530   0.71067    0.081
 3816.00    0.77733   0.71478    0.080
 3817.00    0.94615   0.70352    0.095
 3818.00    1.18233   0.68338    0.127
 3819.00    0.91808   0.67543    0.101
 3820.00    0.54660   0.68452    0.078
 3821.00    0.30640   0.69245    0.076
 3822.00    0.08847   0.68355    0.076
 3823.00    0.62314   0.66083    0.083
 3824.00    1.25439   0.63762    0.093
 3825.00    1.17625   0.61846    0.088
 3826.00    1.03444   0.59720    0.083
 3827.00    0.92376   0.57069    0.092
 3828.00    0.81475   0.53955    0.105
 3829.00    0.46213   0.50169    0.092
 3830.00    0.11214   0.45276    0.082
 3831.00    0.39619   0.39478    0.083
 3832.00    0.66134   0.33568    0.085
 3833.00    0.50655   0.28617    0.084
 3834.00    0.39822   0.26604    0.084
 3835.00    0.86762   0.28742    0.087
 3836.00    1.24185   0.33563    0.090
 3837.00    0.81171   0.39039    0.092
 3838.00    0.46189   0.44341    0.092
 3839.00    0.61734   0.49289    0.087
 3840.00    0.72520   0.53985    0.083
 3841.00    0.59829   0.58216    0.081
 3842.00    0.56009   0.61476    0.080
 3843.00    0.87704   0.63785    0.083
 3844.00    1.04024   0.65782    0.086
 3845.00    0.69232   0.67854    0.084
 3846.00    0.47462   0.69553    0.083
 3847.00    0.62262   0.70411    0.000
 3848.00    0.79531   0.70915    0.000
 3849.00    1.02730   0.72072    0.000
 3850.00    1.26019   0.73727    0.000
 3851.00    1.49493   0.74453    0.000
 3852.00    1.55497   0.74151    0.000
 3853.00    1.29988   0.73654    0.000
 3854.00    1.03114   0.72966    0.000
 3855.00    0.74089   0.73223    0.000
 3856.00    0.76710   0.74901    0.000
 3857.00    1.23141   0.75951    0.000
 3858.00    1.54890   0.75922    0.000
 3859.00    1.68751   0.75999    0.000
 3860.00    1.58532   0.75903    0.000
 3861.00    1.22447   0.75297    0.000
 3862.00    0.95841   0.75380    0.000
 3863.00    0.78218   0.76138    0.000
 3864.00    0.60750   0.76407    0.000
 3865.00    0.43413   0.76330    0.000
 3866.00    0.23150   0.76457    0.000
 3867.00    0.00734   0.76708    0.000
 3868.00    0.10072   0.76611    0.000
 3869.00    0.39921   0.75732    0.000
 3870.00    0.68215   0.74147    0.000
 3871.00    0.95631   0.72802    0.000
 3872.00    0.74397   0.72567    0.000
 3873.00    0.29233   0.72842    0.000
 3874.00    0.32935   0.72435    0.000
 3875.00    0.57416   0.70887    0.000
 3876.00    0.53312   0.68430    0.000
 3877.00    0.38796   0.66100    0.000
 3878.00    0.49328   0.64679    0.000
 3879.00    0.67582   0.63166    0.000
 3880.00    0.69550   0.60544    0.000
 3881.00    0.67337   0.57220    0.081
 3882.00    0.48478   0.53627    0.077
 3883.00    0.26139   0.49315    0.074
 3884.00    0.28832   0.43950    0.074
 3885.00    0.35653   0.38080    0.075
 3886.00    0.54026   0.32419    0.076
 3887.00    0.73829   0.28187    0.075
 3888.00    1.03701   0.27643    0.076
 3889.00    1.34434   0.31441    0.077
 3890.00    0.92545   0.37361    0.075
 3891.00    0.47036   0.43166    0.074
 3892.00    0.78885   0.48146    0.076
 3893.00    1.11588   0.52336    0.079
 3894.00    1.17644   0.56079    0.077
 3895.00    1.21415   0.59573    0.074
 3896.00    0.78463   0.62478    0.070
 3897.00    0.40058   0.64407    0.067
 3898.00    0.55417   0.65534    0.068
 3899.00    0.68653   0.66907    0.068
 3900.00    0.64588   0.69168    0.067
 3901.00    0.57987   0.71207    0.065
 3902.00    0.35892   0.72301    0.063
 3903.00    0.19859   0.72760    0.062
 3904.00    0.33004   0.72907    0.060
 3905.00    0.47778   0.73753    0.060
 3906.00    0.68932   0.75686    0.062
 3907.00    0.79278   0.77582    0.064
 3908.00    0.54393   0.78735    0.063
 3909.00    0.37230   0.79302    0.063
 3910.00    0.41356   0.79298    0.065
 3911.00    0.49863   0.78616    0.068
 3912.00    0.68713   0.77855    0.069
 3913.00    0.76730   0.78054    0.071
 3914.00    0.62638   0.78838    0.071
 3915.00    0.51307   0.79079    0.072
 3916.00    0.44879   0.78702    0.074
 3917.00    0.49336   0.78105    0.075
 3918.00    0.70706   0.77574    0.075
 3919.00    0.85267   0.77438    0.075
 3920.00    0.90537   0.77890    0.076
 3921.00    0.67708   0.78530    0.075
 3922.00    0.11124   0.78919    0.072
 3923.00    0.12812   0.78926    0.072
 3924.00    0.76214   0.78343    0.075
 3925.00    1.00314   0.77483    0.077
 3926.00    0.87699   0.76881    0.077
 3927.00    0.91250   0.76341    0.077
 3928.00    1.08114   0.75430    0.076
 3929.00    0.96097   0.74019    0.074
 3930.00    0.63143   0.71550    0.072
 3931.00    0.46531   0.67277    0.071
 3932.00    0.40319   0.63666    0.072
 3933.00    0.59195   0.64781    0.073
 3934.00    0.92033   0.69251    0.074
 3935.00    0.85007   0.72885    0.073
 3936.00    0.58684   0.74604    0.071
 3937.00    0.50492   0.75474    0.070
 3938.00    0.49880   0.76540    0.069
 3939.00    0.68235   0.77553    0.070
 3940.00    0.93375   0.77807    0.072
 3941.00    0.90883   0.77315    0.071
 3942.00    0.80038   0.76531    0.070
 3943.00    1.03745   0.76309    0.071
 3944.00    1.36129   0.76987    0.071
 3945.00    1.52533   0.77500    0.073
 3946.00    1.65679   0.77149    0.075
 3947.00    1.33003   0.76647    0.074
 3948.00    0.92990   0.76521    0.072
 3949.00    0.85360   0.76411    0.074
 3950.00    0.81597   0.75939    0.075
 3951.00    0.53960   0.75329    0.074
 3952.00    0.24380   0.74972    0.072
 3953.00    0.42695   0.74491    0.073
 3954.00    0.63210   0.73304    0.073
 3955.00    0.72638   0.71739    0.073
 3956.00    0.81522   0.70507    0.074
 3957.00    0.69374   0.69503    0.073
 3958.00    0.57634   0.67858    0.072
 3959.00    0.53646   0.65088    0.072
 3960.00    0.52843   0.61825    0.000
 3961.00    0.87923   0.58870    0.000
 3962.00    1.17440   0.55865    0.000
 3963.00    1.03230   0.52074    0.000
 3964.00    0.89180   0.47417    0.000
 3965.00    0.76072   0.41905    0.000
 3966.00    0.66799   0.35577    0.000
 3967.00    0.75530   0.29459    0.000
 3968.00    0.81412   0.25673    0.000
 3969.00    0.76375   0.26004    0.000
 3970.00    0.75735   0.30158    0.000
 3971.00    0.89144   0.35964    0.000
 3972.00    0.89102   0.41663    0.000
 3973.00    0.52626   0.46908    0.000
 3974.00    0.40784   0.51706    0.000
 3975.00    0.86140   0.55898    0.000
 3976.00    1.10547   0.59534    0.000
 3977.00    0.92879   0.62740    0.000
 3978.00    0.73883   0.65495    0.000
 3979.00    0.52566   0.67651    0.000
 3980.00    0.51035   0.69124    0.000
 3981.00    0.79797   0.70312    0.071
 3982.00    0.92937   0.71633    0.071
 3983.00    0.85069   0.73063    0.069
 3984.00    0.81514   0.74437    0.069
 3985.00    0.83067   0.75606    0.069
 3986.00    0.90840   0.76597    0.069
 3987.00    1.05107   0.77312    0.068
 3988.00    0.99434   0.77676    0.067
 3989.00    0.75394   0.78048    0.067
 3990.00    0.60040   0.78702    0.067
 3991.00    0.51738   0.79443    0.066
 3992.00    0.62779   0.79847    0.066
 3993.00    0.87641   0.79818    0.067
 3994.00    1.07131   0.79569    0.068
 3995.00    1.23252   0.79225    0.070
 3996.00    1.37822   0.79098    0.070
 3997.00    1.51542   0.79599    0.070
 3998.00    1.67430   0.80540    0.070
 3999.00    1.84351   0.80957    0.070
 4000.00    1.46064   0.80459    0.069
 4001.00    0.85084   0.79878    0.068
 4002.00    0.86825   0.79756    0.068
 4003.00    1.10595   0.79433    0.069
 4004.00    1.17048   0.79008    0.070
 4005.00    1.18372   0.79445    0.071
 4006.00    1.10182   0.80317    0.070
 4007.00    0.99655   0.80690    0.069
 4008.00    0.89836   0.80726    0.068
 4009.00    0.80157   0.80824    0.067
 4010.00    1.21571   0.80831    0.069
 4011.00    1.70925   0.80827    0.072
 4012.00    1.41258   0.81134    0.070
 4013.00    1.02506   0.81555    0.067
 4014.00    1.22105   0.81816    0.069
 4015.00    1.46217   0.81916    0.071
 4016.00    1.25765   0.82044    0.070
 4017.00    1.03437   0.82479    0.070
 4018.00    0.99288   0.82939    0.070
 4019.00    0.95795   0.82865    0.070
 4020.00    1.13803   0.82305    0.069
 4021.00    1.32562   0.81469    0.068
 4022.00    1.64552   0.80078    0.069
 4023.00    1.91292   0.78169    0.069
 4024.00    1.61541   0.76837    0.069
 4025.00    1.36053   0.77127    0.069
 4026.00    1.42931   0.78528    0.068
 4027.00    1.43381   0.79732    0.067
 4028.00    1.06757   0.80134    0.067
 4029.00    0.74662   0.79888    0.066
 4030.00    0.63322   0.79553    0.064
 4031.00    0.58869   0.79517    0.063
 4032.00    0.80248   0.79848    0.063
 4033.00    0.93907   0.80506    0.063
 4034.00    0.83362   0.81424    0.062
 4035.00    0.76508   0.82481    0.062
 4036.00    0.79476   0.83212    0.063
 4037.00    0.78055   0.83363    0.063
 4038.00    0.66613   0.83117    0.062
 4039.00    0.60817   0.82801    0.062
 4040.00    0.66185   0.82759    0.063
 4041.00    0.79846   0.82694    0.064
 4042.00    1.07794   0.81782    0.065
 4043.00    1.25146   0.80010    0.066
 4044.00    1.26516   0.78753    0.066
 4045.00    1.17780   0.79365    0.065
 4046.00    0.95648   0.80962    0.064
 4047.00    0.87059   0.81824    0.064
 4048.00    0.94281   0.82101    0.064
 4049.00    1.00000   0.82358    0.065
 4050.00    1.04171   0.82236    0.067
 4051.00    0.96343   0.81697    0.067
 4052.00    0.77620   0.81121    0.065
 4053.00    0.79749   0.80861    0.065
 4054.00    0.98568   0.80928    0.065
 4055.00    1.06132   0.80812    0.066
 4056.00    1.05770   0.80514    0.066
 4057.00    0.90557   0.80691    0.066
 4058.00    0.66170   0.81351    0.067
 4059.00    0.76252   0.81654    0.067
 4060.00    1.04933   0.80934    0.067
 4061.00    1.13813   0.79444    0.067
 4062.00    1.13412   0.78471    0.067
 4063.00    1.05200   0.78951    0.066
 4064.00    0.93831   0.79793    0.064
 4065.00    0.88158   0.79713    0.065
 4066.00    0.84449   0.79623    0.066
 4067.00    1.10232   0.80344    0.067
 4068.00    1.44578   0.80677    0.069
 4069.00    1.41609   0.79636    0.069
 4070.00    1.29677   0.78404    0.068
 4071.00    0.75400   0.78579    0.066
 4072.00    0.12917   0.79460    0.063
 4073.00    0.49302   0.79366    0.064
 4074.00    1.00584   0.78012    0.065
 4075.00    0.86229   0.76352    0.064
 4076.00    0.64613   0.75668    0.063
 4077.00    0.62363   0.76455    0.062
 4078.00    0.61530   0.77834    0.062
 4079.00    0.60224   0.78711    0.062
 4080.00    0.58901   0.78683    0.063
 4081.00    0.51295   0.77902    0.062
 4082.00    0.44523   0.76873    0.062
 4083.00    0.70465   0.75903    0.061
 4084.00    0.95058   0.75138    0.061
 4085.00    0.97417   0.74747    0.061
 4086.00    0.99820   0.74493    0.062
 4087.00    1.02679   0.73862    0.062
 4088.00    1.05372   0.72608    0.062
 4089.00    1.06852   0.70902    0.062
 4090.00    1.05818   0.68926    0.062
 4091.00    0.90685   0.66764    0.062
 4092.00    0.79371   0.64426    0.000
 4093.00    0.85152   0.61507    0.000
 4094.00    0.92584   0.57806    0.000
 4095.00    1.06078   0.53749    0.000
 4096.00    1.14138   0.49535    0.000
 4097.00    1.05485   0.44916    0.000
 4098.00    0.95391   0.39528    0.000
 4099.00    0.81533   0.33766    0.000
 4100.00    0.72128   0.30107    0.000
 4101.00    0.72727   0.31119    0.000
 4102.00    0.75963   0.35900    0.000
 4103.00    0.84331   0.41666    0.000
 4104.00    0.88306   0.47080    0.000
 4105.00    0.84825   0.51861    0.000
 4106.00    0.86254   0.55837    0.000
 4107.00    0.94981   0.59038    0.000
 4108.00    0.96453   0.61556    0.000
 4109.00    0.88445   0.63683    0.000
 4110.00    0.75449   0.65836    0.000
 4111.00    0.56709   0.68140    0.000
 4112.00    0.75952   0.70361    0.000
 4113.00    1.33749   0.72227    0.060
 4114.00    1.43290   0.73710    0.061
 4115.00    1.09627   0.74759    0.060
 4116.00    0.83212   0.75137    0.059
 4117.00    0.62516   0.75125    0.058
 4118.00    0.59281   0.75340    0.058
 4119.00    0.68163   0.75808    0.058
 4120.00    0.70249   0.76284    0.058
 4121.00    0.68200   0.76818    0.059
 4122.00    0.75185   0.77656    0.059
 4123.00    0.86970   0.78620    0.060
 4124.00    0.79701   0.78867    0.060
 4125.00    0.63647   0.77493    0.059
 4126.00    0.72080   0.75103    0.060
 4127.00    0.90238   0.73991    0.061
 4128.00    0.88237   0.74140    0.061
 4129.00    0.79413   0.73789    0.060
 4130.00    0.83308   0.74046    0.059
 4131.00    0.90822   0.75950    0.059
 4132.00    0.71779   0.77978    0.058
 4133.00    0.46501   0.79309    0.057
 4134.00    0.70824   0.80198    0.057
 4135.00    1.04510   0.80541    0.059
 4136.00    0.97491   0.80628    0.059
 4137.00    0.84528   0.80982    0.058
 4138.00    0.87514   0.81373    0.058
 4139.00    0.92195   0.81238    0.058
 4140.00    1.01892   0.80080    0.058
 4141.00    1.11936   0.77949    0.059
 4142.00    0.75073   0.76352    0.058
 4143.00    0.36592   0.76810    0.056
 4144.00    0.54453   0.78568    0.057
 4145.00    0.71878   0.79984    0.057
 4146.00    0.71194   0.80595    0.057
 4147.00    0.70690   0.80537    0.057
 4148.00    0.72970   0.80187    0.057
 4149.00    0.74953   0.80082    0.057
 4150.00    0.74011   0.80240    0.057
 4151.00    0.73305   0.80290    0.057
 4152.00    0.74282   0.80094    0.056
 4153.00    0.73825   0.79911    0.056
 4154.00    0.65539   0.79961    0.055
 4155.00    0.58361   0.80180    0.054
 4156.00    0.56033   0.80585    0.054
 4157.00    0.57624   0.81137    0.054
 4158.00    0.73316   0.81432    0.054
 4159.00    0.87951   0.81238    0.054
 4160.00    0.99396   0.80938    0.054
 4161.00    0.95423   0.80784    0.053
 4162.00    0.51853   0.80758    0.053
 4163.00    0.20012   0.81036    0.053
 4164.00    0.14079   0.81341    0.052
 4165.00    0.20660   0.81183    0.052
 4166.00    0.51210   0.80911    0.053
 4167.00    0.69412   0.81086    0.054
 4168.00    0.66973   0.81300    0.053
 4169.00    0.73145   0.80601    0.054
 4170.00    0.91929   0.78838    0.054
 4171.00    1.01895   0.77157    0.055
 4172.00    1.00502   0.76988    0.055
 4173.00    0.86397   0.78374    0.055
 4174.00    0.57865   0.79689    0.054
 4175.00    0.53917   0.79625    0.053
 4176.00    0.74575   0.78554    0.054
 4177.00    0.74962   0.77942    0.054
 4178.00    0.57456   0.78715    0.054
 4179.00    0.53567   0.79959    0.053
 4180.00    0.60270   0.80469    0.053
 4181.00    0.66199   0.80558    0.053
 4182.00    0.71599   0.80855    0.054
 4183.00    0.76816   0.81284    0.054
 4184.00    0.81923   0.81302    0.054
 4185.00    0.73602   0.80528    0.054
 4186.00    0.58258   0.79867    0.054
 4187.00    0.52261   0.80267    0.054
 4188.00    0.50505   0.81003    0.054
 4189.00    0.49866   0.81231    0.053
 4190.00    0.49662   0.81328    0.053
 4191.00    0.53219   0.81826    0.053
 4192.00    0.58025   0.82231    0.053
 4193.00    0.68169   0.81851    0.053
 4194.00    0.79802   0.81031    0.053
 4195.00    0.81414   0.80343    0.054
 4196.00    0.80728   0.79686    0.054
 4197.00    0.70050   0.79122    0.054
 4198.00    0.57534   0.79106    0.055
 4199.00    0.56898   0.79297    0.054
 4200.00    0.57942   0.79290    0.053
 4201.00    0.32144   0.79556    0.053
 4202.00    0.03608   0.80126    0.052
 4203.00    0.43087   0.80449    0.052
 4204.00    0.86997   0.80651    0.052
 4205.00    0.86237   0.81118    0.052
 4206.00    0.84111   0.81612    0.051
 4207.00    0.85798   0.81716    0.052
 4208.00    0.87857   0.81512    0.053
 4209.00    1.00837   0.81545    0.054
 4210.00    1.11124   0.81946    0.054
 4211.00    0.82225   0.82141    0.053
 4212.00    0.57572   0.81594    0.053
 4213.00    0.73063   0.80368    0.052
 4214.00    0.83419   0.79528    0.051
 4215.00    0.58472   0.80119    0.051
 4216.00    0.37309   0.81446    0.050
 4217.00    0.36257   0.82268    0.050
 4218.00    0.44464   0.82522    0.050
 4219.00    0.92215   0.82604    0.050
 4220.00    1.28724   0.82352    0.050
 4221.00    1.25621   0.81585    0.050
 4222.00    1.16239   0.80521    0.050
 4223.00    0.88265   0.79174    0.049
 4224.00    0.66968   0.77612    0.047
 4225.00    0.62521   0.76696    0.047
 4226.00    0.56387   0.77533    0.047
 4227.00    0.46589   0.79707    0.048
 4228.00    0.46863   0.81532    0.048
 4229.00    0.66133   0.82154    0.047
 4230.00    0.78444   0.81312    0.047
 4231.00    0.79300   0.79354    0.046
 4232.00    0.78478   0.78339    0.045
 4233.00    0.75233   0.79075    0.045
 4234.00    0.73368   0.79930    0.045
 4235.00    0.73257   0.80329    0.045
 4236.00    0.75978   0.80642    0.045
 4237.00    0.81869   0.80724    0.045
 4238.00    0.94098   0.80816    0.045
 4239.00    1.12582   0.81154    0.045
 4240.00    1.07047   0.81232    0.045
 4241.00    0.80610   0.81217    0.045
 4242.00    0.72088   0.81897    0.045
 4243.00    0.77301   0.82608    0.046
 4244.00    0.90073   0.82162    0.047
 4245.00    1.07939   0.81038    0.047
 4246.00    0.96472   0.80504    0.048
 4247.00    0.67686   0.80512    0.048
 4248.00    0.56728   0.80084    0.048
 4249.00    0.54948   0.79523    0.048
 4250.00    0.59269   0.79758    0.048
 4251.00    0.66312   0.80199    0.049
 4252.00    0.77466   0.80074    0.048
 4253.00    0.90197   0.80022    0.048
 4254.00    1.11343   0.80757    0.048
 4255.00    1.35231   0.81594    0.049
 4256.00    1.20987   0.81438    0.049
 4257.00    0.96333   0.80411    0.049
 4258.00    0.85865   0.79351    0.049
 4259.00    0.78575   0.78918    0.048
 4260.00    0.80080   0.79605    0.048
 4261.00    0.83158   0.81081    0.049
 4262.00    0.80911   0.82301    0.049
 4263.00    0.77936   0.82821    0.048
 4264.00    0.78993   0.82532    0.049
 4265.00    0.80443   0.81441    0.049
 4266.00    0.70592   0.80456    0.049
 4267.00    0.60050   0.80222    0.048
 4268.00    0.77439   0.79874    0.049
 4269.00    0.95527   0.78639    0.050
 4270.00    1.03094   0.77416    0.049
 4271.00    1.09411   0.77424    0.048
 4272.00    0.82692   0.78132    0.048
 4273.00    0.58616   0.78655    0.048
 4274.00    0.70882   0.79424    0.048
 4275.00    0.82453   0.80605    0.048
 4276.00    0.87698   0.81470    0.048
 4277.00    0.90523   0.81645    0.049
 4278.00    0.77229   0.81330    0.050
 4279.00    0.67010   0.80881    0.050
 4280.00    0.72710   0.80478    0.050
 4281.00    0.78259   0.80173    0.051
 4282.00    0.83182   0.80130   -2.000
 4283.00    0.89911   0.80208   -2.000
 4284.00    1.02872   0.80226   -2.000
 4285.00    1.10991   0.80226   -2.000
 4286.00    1.05035   0.79853   -2.000
 4287.00    0.96283   0.78642   -2.000
 4288.00    0.80593   0.77262   -2.000
 4289.00    0.64920   0.77231   -2.000
 4290.00    0.49286   0.78647   -2.000
 4291.00    0.42072   0.79736   -2.000
 4292.00    0.50491   0.79473   -2.000
 4293.00    0.64517   0.78864   -2.000
 4294.00    0.87636   0.78761   -2.000
 4295.00    0.92796   0.78758   -2.000
 4296.00    0.72405   0.78339   -2.000
 4297.00    0.58893   0.77055   -2.000
 4298.00    0.53990   0.75472    0.049
 4299.00    0.48262   0.74978    0.049
 4300.00    0.41622   0.75165    0.049
 4301.00    0.55795   0.75122    0.049
 4302.00    0.90217   0.75620    0.049
 4303.00    0.91766   0.76669    0.049
 4304.00    0.65112   0.76946    0.048
 4305.00    0.61242   0.76074    0.048
 4306.00    0.74589   0.74907    0.049
 4307.00    0.76742   0.74650    0.049
 4308.00    0.71460   0.75641    0.048
 4309.00    0.69714   0.76934    0.047
 4310.00    0.70025   0.77434    0.047
 4311.00    0.78979   0.76919    0.047
 4312.00    0.92314   0.76049    0.047
 4313.00    0.82052   0.76047    0.046
 4314.00    0.61434   0.77537    0.045
 4315.00    0.66225   0.79275    0.045
 4316.00    0.80588   0.79752    0.045
 4317.00    0.80575   0.79165    0.045
 4318.00    0.75965   0.78206    0.045
 4319.00    0.80167   0.77238    0.045
 4320.00    0.86725   0.76621    0.046
 4321.00    0.72357   0.75971    0.046
 4322.00    0.53409   0.74314    0.045
 4323.00    0.59794   0.71672    0.046
 4324.00    0.70584   0.69600    0.046
 4325.00    0.77345   0.69580    0.046
 4326.00    0.83571   0.70862    0.046
 4327.00    0.80810   0.71305    0.046
 4328.00    0.77208   0.70030    0.046
 4329.00    0.76703   0.67930    0.045
 4330.00    0.76376   0.65970    0.000
 4331.00    0.74131   0.64033    0.000
 4332.00    0.71863   0.61735    0.000
 4333.00    0.72093   0.59048    0.000
 4334.00    0.72268   0.55517    0.000
 4335.00    0.71131   0.50553    0.000
 4336.00    0.69993   0.44758    0.000
 4337.00    0.68835   0.39051    0.000
 4338.00    0.68132   0.34117    0.000
 4339.00    0.71413   0.32227    0.000
 4340.00    0.73887   0.35126    0.000
 4341.00    0.71143   0.40606    0.000
 4342.00    0.67501   0.45772    0.000
 4343.00    0.59324   0.50373    0.000
 4344.00    0.53492   0.54661    0.000
 4345.00    0.57235   0.58284    0.000
 4346.00    0.64272   0.61532    0.000
 4347.00    0.82455   0.64656    0.000
 4348.00    0.95443   0.66644    0.000
 4349.00    0.93602   0.66665    0.000
 4350.00    0.88541   0.66292    0.000
 4351.00    0.75628   0.67770    0.044
 4352.00    0.67475   0.70577    0.044
 4353.00    0.69335   0.72971    0.044
 4354.00    0.70484   0.74665    0.044
 4355.00    0.70334   0.75882    0.044
 4356.00    0.75684   0.76407    0.044
 4357.00    0.89821   0.76415    0.044
 4358.00    0.96356   0.76716    0.045
 4359.00    0.92235   0.77620    0.044
 4360.00    0.84732   0.78618    0.045
 4361.00    0.73057   0.79362    0.045
 4362.00    0.78796   0.80127    0.045
 4363.00    1.03475   0.80943    0.046
 4364.00    1.06275   0.81134    0.046
 4365.00    0.88087   0.80317    0.045
 4366.00    0.78674   0.79268    0.045
 4367.00    0.76683   0.79050    0.045
 4368.00    0.78752   0.79612    0.045
 4369.00    0.83844   0.80317    0.045
 4370.00    0.88452   0.80835    0.046
 4371.00    0.92744   0.80731    0.046
 4372.00    0.95786   0.79712    0.046
 4373.00    0.98114   0.78625    0.045
 4374.00    0.89375   0.78810    0.045
 4375.00    0.75116   0.80279    0.044
 4376.00    0.71055   0.81740    0.045
 4377.00    0.71394   0.82253    0.046
 4378.00    0.51949   0.81990    0.046
 4379.00    0.25182   0.81490    0.045
 4380.00    0.26542   0.80345    0.044
 4381.00    0.36721   0.77762    0.044
 4382.00    0.41045   0.74775    0.044
 4383.00    0.43837   0.73855    0.044
 4384.00    0.53248   0.75563    0.044
 4385.00    0.64073   0.77588    0.045
 4386.00    0.58858   0.78360    0.045
 4387.00    0.50931   0.78595    0.044
 4388.00    0.64095   0.78692    0.044
 4389.00    0.79953   0.78872    0.044
 4390.00    0.71815   0.79829    0.045
 4391.00    0.61536   0.80824    0.045
 4392.00    0.56548   0.80453    0.044
 4393.00    0.51841   0.79416    0.043
 4394.00    0.67855   0.79774    0.044
 4395.00    0.83977   0.81580    0.045
 4396.00    0.75907   0.82755    0.045
 4397.00    0.68248   0.82259    0.045
 4398.00    0.69623   0.81017    0.046
 4399.00    0.70202   0.80538    0.046
 4400.00    0.60949   0.81263    0.045
 4401.00    0.54361   0.81709    0.045
 4402.00    0.70192   0.80615    0.046
 4403.00    0.80724   0.79303    0.046
 4404.00    0.58038   0.79536    0.046
 4405.00    0.39928   0.80525    0.045
 4406.00    0.44326   0.80867    0.045
 4407.00    0.50559   0.81075    0.046
 4408.00    0.64118   0.81867    0.045
 4409.00    0.71440   0.82767    0.045
 4410.00    0.58076   0.83342    0.045
 4411.00    0.48750   0.83402    0.045
 4412.00    0.50734   0.82390    0.045
 4413.00    0.53386   0.80557    0.044
 4414.00    0.57638   0.79163    0.045
 4415.00    0.61145   0.78888    0.045
 4416.00    0.63112   0.79747    0.045
 4417.00    0.62056   0.81455    0.045
 4418.00    0.55558   0.82917    0.045
 4419.00    0.54328   0.83142    0.045
 4420.00    0.61390   0.82356    0.045
 4421.00    0.66289   0.81726    0.045
 4422.00    0.68197   0.81986    0.045
 4423.00    0.66840   0.82492    0.044
 4424.00    0.61512   0.82544    0.045
 4425.00    0.56577   0.82280    0.045
 4426.00    0.52063   0.82149    0.045
 4427.00    0.54517   0.82204    0.045
 4428.00    0.63561   0.81967    0.045
 4429.00    0.71749   0.81772    0.045
 4430.00    0.79224   0.82054    0.045
 4431.00    0.75193   0.81894    0.045
 4432.00    0.62716   0.80821    0.046
 4433.00    0.63296   0.79869    0.046
 4434.00    0.72294   0.79985    0.045
 4435.00    0.73028   0.81118    0.045
 4436.00    0.69100   0.82631    0.045
 4437.00    0.66311   0.83769    0.045
 4438.00    0.64081   0.83916    0.046
 4439.00    0.65582   0.82988    0.045
 4440.00    0.68667   0.81464    0.044
 4441.00    0.63694   0.80027    0.045
 4442.00    0.55793   0.79670    0.045
 4443.00    0.52053   0.80941    0.045
 4444.00    0.49592   0.82641    0.044
 4445.00    0.53387   0.83313    0.044
 4446.00    0.58783   0.83327    0.044
 4447.00    0.72825   0.83217    0.045
 4448.00    0.88669   0.82695    0.045
 4449.00    0.70557   0.82190    0.044
 4450.00    0.46865   0.82299    0.044
 4451.00    0.43520   0.82492    0.043
 4452.00    0.42684   0.81883    0.042
 4453.00    0.47447   0.80752    0.043
 4454.00    0.52687   0.80325    0.043
 4455.00    0.58639   0.80806    0.043
 4456.00    0.64626   0.81236    0.042
 4457.00    0.72135   0.81175    0.042
 4458.00    0.79620   0.80888    0.042
 4459.00    0.84061   0.80432    0.042
 4460.00    0.87972   0.80173    0.043
 4461.00    0.81181   0.80807    0.000
 4462.00    0.74073   0.81765    0.000
 4463.00    0.63247   0.82067    0.000
 4464.00    0.54671   0.81920    0.000
 4465.00    0.64334   0.81607    0.000
 4466.00    0.73726   0.80811    0.000
 4467.00    0.81476   0.79800    0.000
 4468.00    0.85417   0.79016    0.000
 4469.00    0.71086   0.78301    0.000
 4470.00    0.58912   0.78279    0.000
 4471.00    0.55163   0.79893    0.000
 4472.00    0.56321   0.82024    0.000
 4473.00    0.73437   0.83121    0.000
 4474.00    0.85568   0.83507    0.000
 4475.00    0.83982   0.84056    0.000
 4476.00    0.83076   0.84423    0.000
 4477.00    0.83771   0.83377    0.000
 4478.00    0.88120   0.79820    0.000
 4479.00    0.99913   0.75276    0.000
 4480.00    1.01923   0.74189    0.000
 4481.00    0.86592   0.77749    0.000
 4482.00    0.74558   0.81878    0.041
 4483.00    0.67638   0.83986    0.041
 4484.00    0.66212   0.84655    0.041
 4485.00    0.72269   0.84362    0.041
 4486.00    0.79872   0.83101    0.041
 4487.00    0.89329   0.81593    0.041
 4488.00    0.94358   0.80854    0.042
 4489.00    0.94704   0.81092    0.041
 4490.00    0.90919   0.81994    0.041
 4491.00    0.83280   0.82800    0.041
 4492.00    0.76763   0.82686    0.041
 4493.00    0.71167   0.82117    0.041
 4494.00    0.74086   0.82082    0.041
 4495.00    0.83166   0.82717    0.041
 4496.00    0.84496   0.83597    0.041
 4497.00    0.80905   0.84148    0.041
 4498.00    0.82342   0.83811    0.041
 4499.00    0.86572   0.82758    0.041
 4500.00    0.88024   0.82510    0.041
 4501.00    0.88135   0.83868    0.041
 4502.00    0.83730   0.85471    0.041
 4503.00    0.77440   0.85990    0.041
 4504.00    0.82577   0.85506    0.041
 4505.00    0.91791   0.84362    0.040
 4506.00    0.96215   0.83114    0.040
 4507.00    0.99195   0.82926    0.040
 4508.00    0.95566   0.83978    0.040
 4509.00    0.90280   0.84905    0.040
 4510.00    0.95777   0.84826    0.039
 4511.00    1.03465   0.84167    0.039
 4512.00    0.96920   0.83193    0.039
 4513.00    0.88104   0.82204    0.040
 4514.00    0.82416   0.82121    0.040
 4515.00    0.77100   0.82875    0.039
 4516.00    0.74010   0.83369    0.040
 4517.00    0.71101   0.83277    0.040
 4518.00    0.65773   0.83123    0.039
 4519.00    0.60336   0.83075    0.038
 4520.00    0.66794   0.82488    0.038
 4521.00    0.73495   0.81627    0.039
 4522.00    0.85166   0.81607    0.039
 4523.00    0.95775   0.82000    0.039
 4524.00    0.86471   0.81936    0.039
 4525.00    0.77467   0.81513    0.040
 4526.00    0.71825   0.80939    0.039
 4527.00    0.67161   0.80538    0.039
 4528.00    0.70148   0.80770    0.039
 4529.00    0.72398   0.81481    0.039
 4530.00    0.70285   0.82019    0.039
 4531.00    0.69939   0.81423    0.038
 4532.00    0.77865   0.79964    0.039
 4533.00    0.84313   0.79582    0.039
 4534.00    0.85112   0.81159    0.039
 4535.00    0.84202   0.83448    0.038
 4536.00    0.77841   0.84762    0.039
 4537.00    0.74021   0.84601    0.039
 4538.00    0.77063   0.83541    0.038
 4539.00    0.78421   0.82485    0.038
 4540.00    0.75873   0.82412    0.038
 4541.00    0.73660   0.83333    0.038
 4542.00    0.72118   0.83875    0.039
 4543.00    0.70623   0.83559    0.039
 4544.00    0.69213   0.83338    0.039
 4545.00    0.65926   0.83320    0.039
 4546.00    0.59771   0.82164    0.038
 4547.00    0.56916   0.79540    0.038
 4548.00    0.58490   0.78233    0.038
 4549.00    0.64173   0.80018    0.039
 4550.00    0.74713   0.82148    0.000
 4551.00    0.84879   0.82371    0.000
 4552.00    0.94656   0.81339    0.000
 4553.00    0.89847   0.80120    0.000
 4554.00    0.71627   0.80019    0.000
 4555.00    0.61904   0.81386    0.000
 4556.00    0.59066   0.82576    0.000
 4557.00    0.64616   0.82931    0.000
 4558.00    0.76147   0.83497    0.000
 4559.00    0.78484   0.84364    0.000
 4560.00    0.75068   0.84595    0.000
 4561.00    0.78809   0.83664    0.000
 4562.00    0.86465   0.82295    0.000
 4563.00    0.92555   0.81810    0.000
 4564.00    0.97901   0.82549    0.000
 4565.00    0.94421   0.83877    0.000
 4566.00    0.87322   0.84894    0.000
 4567.00    0.86352   0.85162    0.000
 4568.00    0.87530   0.84621    0.000
 4569.00    0.88886   0.83179    0.000
 4570.00    0.90295   0.81993    0.000
 4571.00    0.89501   0.82593    0.000
 4572.00    0.88166   0.83963    0.000
 4573.00    0.81130   0.84200    0.000
 4574.00    0.72963   0.83645    0.000
 4575.00    0.72515   0.83495    0.000
 4576.00    0.73262   0.83674    0.000
 4577.00    0.78634   0.83299    0.000
 4578.00    0.84535   0.82453    0.000
 4579.00    0.87116   0.82028    0.000
 4580.00    0.89442   0.81840    0.000
 4581.00    0.88920   0.80978    0.000
 4582.00    0.88280   0.80250    0.000
 4583.00    0.83088   0.80949    0.000
 4584.00    0.77903   0.82228    0.000
 4585.00    0.74695   0.82733    0.000
 4586.00    0.72108   0.82729    0.000
 4587.00    0.80371   0.82989    0.000
 4588.00    0.87810   0.83412    0.000
 4589.00    0.86422   0.83228    0.000
 4590.00    0.84482   0.82666    0.000
 4591.00    0.78363   0.82579    0.000
 4592.00    0.73497   0.82874    0.000
 4593.00    0.75836   0.82890    0.000
 4594.00    0.77732   0.82785    0.000
 4595.00    0.77607   0.82941    0.000
 4596.00    0.77127   0.83307    0.000
 4597.00    0.75325   0.83643    0.000
 4598.00    0.76248   0.83645    0.000
 4599.00    0.85693   0.83445    0.000
 4600.00    0.93524   0.83520    0.000
 4601.00    0.97072   0.83748    0.000
 4602.00    0.98287   0.83726    0.000
 4603.00    0.94184   0.83475    0.000
 4604.00    0.91970   0.83422    0.000
 4605.00    0.93482   0.84004    0.000
 4606.00    0.91748   0.85050    0.000
 4607.00    0.84430   0.85894    0.000
 4608.00    0.81185   0.85941    0.000
 4609.00    0.84074   0.85374    0.000
 4610.00    0.88485   0.84851    0.000
 4611.00    0.94911   0.84552    0.000
 4612.00    0.94613   0.84554    0.000
 4613.00    0.86481   0.84743    0.000
 4614.00    0.82197   0.84634    0.000
 4615.00    0.81869   0.84333    0.000
 4616.00    0.80671   0.83907    0.000
 4617.00    0.78684   0.83142    0.000
 4618.00    0.82391   0.82737    0.000
 4619.00    0.90646   0.83243    0.000
 4620.00    0.95252   0.84056    0.000
 4621.00    0.97294   0.84707    0.000
 4622.00    0.96029   0.85079    0.000
 4623.00    0.92726   0.84935    0.000
 4624.00    0.86798   0.84571    0.000
 4625.00    0.79457   0.84459    0.000
 4626.00    0.84176   0.84075    0.000
 4627.00    0.94536   0.83085    0.000
 4628.00    0.97844   0.82820    0.000
 4629.00    0.98310   0.83948    0.000
 4630.00    0.94289   0.84833    0.000
 4631.00    0.88725   0.84214    0.000
 4632.00    0.86947   0.82943    0.000
 4633.00    0.86265   0.82364    0.000
 4634.00    0.80596   0.82770    0.000
 4635.00    0.73732   0.83327    0.000
 4636.00    0.78415   0.83390    0.000
 4637.00    0.85329   0.83244    0.000
 4638.00    0.87466   0.83237    0.000
 4639.00    0.88887   0.83613    0.000
 4640.00    0.81383   0.84211    0.000
 4641.00    0.72898   0.84385    0.000
 4642.00    0.76405   0.84082    0.000
 4643.00    0.80783   0.83527    0.000
 4644.00    0.71976   0.82697    0.000
 4645.00    0.62670   0.81988    0.000
 4646.00    0.62339   0.81910    0.000
 4647.00    0.62386   0.82476    0.000
 4648.00    0.74789   0.83390    0.000
 4649.00    0.86817   0.84195    0.000
 4650.00    0.92728   0.84648    0.000
 4651.00    0.97753   0.84738    0.000
 4652.00    0.93720   0.84300    0.000
 4653.00    0.89454   0.83498    0.000
 4654.00    0.83487   0.82897    0.000
 4655.00    0.78512   0.83022    0.000
 4656.00    0.79083   0.84097    0.000
 4657.00    0.80776   0.85516    0.000
 4658.00    0.87474   0.86277    0.000
 4659.00    0.91095   0.85988    0.000
 4660.00    0.83447   0.84864    0.000
 4661.00    0.76327   0.83640    0.000
 4662.00    0.70827   0.83187    0.000
 4663.00    0.68612   0.83194    0.000
 4664.00    0.74962   0.82367    0.000
 4665.00    0.79319   0.80891    0.000
 4666.00    0.79208   0.80365    0.000
 4667.00    0.74598   0.81162    0.000
 4668.00    0.61254   0.82423    0.000
 4669.00    0.54592   0.83497    0.000
 4670.00    0.59249   0.83959    0.000
 4671.00    0.67788   0.83804    0.000
 4672.00    0.82086   0.83650    0.000
 4673.00    0.87306   0.84007    0.000
 4674.00    0.80686   0.84694    0.000
 4675.00    0.80301   0.85018    0.000
 4676.00    0.87078   0.84600    0.000
 4677.00    0.91302   0.83894    0.000
 4678.00    0.92940   0.83431    0.000
 4679.00    0.89498   0.83270    0.000
 4680.00    0.81517   0.83385    0.000
 4681.00    0.77450   0.83902    0.000
 4682.00    0.76467   0.84458    0.000
 4683.00    0.78597   0.84636    0.000
 4684.00    0.82884   0.84553    0.000
 4685.00    0.80761   0.84325    0.000
 4686.00    0.74745   0.84097    0.000
 4687.00    0.73791   0.84073    0.000
 4688.00    0.75521   0.84095    0.000
 4689.00    0.85433   0.83932    0.000
 4690.00    0.99111   0.83849    0.000
 4691.00    0.96662   0.84040    0.000
 4692.00    0.87824   0.84393    0.000
 4693.00    0.83339   0.84855    0.000
 4694.00    0.80325   0.85202    0.000
 4695.00    0.76631   0.84962    0.000
 4696.00    0.72744   0.84080    0.000
 4697.00    0.79688   0.83293    0.000
 4698.00    0.89167   0.83208    0.000
 4699.00    0.90518   0.83390    0.000
 4700.00    0.90339   0.83175    0.000
 4701.00    0.82726   0.82828    0.000
 4702.00    0.74030   0.83076    0.000
 4703.00    0.74753   0.83768    0.000
 4704.00    0.76471   0.84040    0.000
 4705.00    0.77495   0.83654    0.000
 4706.00    0.78470   0.83151    0.000
 4707.00    0.86878   0.83011    0.000
 4708.00    0.95538   0.83414    0.000
 4709.00    0.89425   0.84124    0.000
 4710.00    0.83422   0.84256    0.000
 4711.00    0.81719   0.83514    0.000
 4712.00    0.80183   0.82747    0.000
 4713.00    0.81215   0.82805    0.000
 4714.00    0.82347   0.83612    0.000
 4715.00    0.84453   0.84544    0.000
 4716.00    0.86290   0.85193    0.000
 4717.00    0.86228   0.85667    0.000
 4718.00    0.85915   0.85988    0.000
 4719.00    0.84234   0.85938    0.000
 4720.00    0.83093   0.85594    0.000
 4721.00    0.84303   0.85393    0.000
 4722.00    0.85951   0.85689    0.000
 4723.00    0.89166   0.86117    0.000
 4724.00    0.92173   0.85870    0.000
 4725.00    0.94550   0.84651    0.000
 4726.00    0.94088   0.83278    0.000
 4727.00    0.86355   0.82637    0.000
 4728.00    0.80267   0.82519    0.000
 4729.00    0.77808   0.82527    0.000
 4730.00    0.75205   0.82939    0.000
 4731.00    0.72327   0.83797    0.000
 4732.00    0.73629   0.84492    0.000
 4733.00    0.81905   0.84768    0.000
 4734.00    0.88087   0.84533    0.000
 4735.00    0.91208   0.84144    0.000
 4736.00    0.88827   0.84297    0.000
 4737.00    0.79374   0.84650    0.000
 4738.00    0.75301   0.84597    0.000
 4739.00    0.77322   0.84465    0.000
 4740.00    0.80099   0.84636    0.000
 4741.00    0.83629   0.84973    0.000
 4742.00    0.88228   0.85162    0.000
 4743.00    0.93769   0.85119    0.000
 4744.00    0.96878   0.85253    0.000
 4745.00    0.98098   0.85563    0.000
 4746.00    0.95463   0.85591    0.000
 4747.00    0.90195   0.85494    0.000
 4748.00    0.93788   0.85568    0.000
 4749.00    1.02681   0.85528    0.000
 4750.00    1.01089   0.85169    0.000
 4751.00    0.94025   0.84743    0.000
 4752.00    0.87956   0.84424    0.000
 4753.00    0.82336   0.84167    0.000
 4754.00    0.79463   0.84024    0.000
 4755.00    0.77660   0.84159    0.000
 4756.00    0.86649   0.84493    0.000
 4757.00    0.99212   0.84851    0.000
 4758.00    0.98181   0.85014    0.000
 4759.00    0.93371   0.84661    0.000
 4760.00    0.86876   0.83851    0.000
 4761.00    0.79996   0.83141    0.035
 4762.00    0.78437   0.82708    0.036
 4763.00    0.77853   0.82338    0.036
 4764.00    0.76334   0.82208    0.036
 4765.00    0.74685   0.82642    0.035
 4766.00    0.74126   0.83439    0.036
 4767.00    0.73679   0.84228    0.036
 4768.00    0.79467   0.84639    0.036
 4769.00    0.85659   0.84361    0.037
 4770.00    0.85475   0.83894    0.036
 4771.00    0.85097   0.84025    0.036
 4772.00    0.83369   0.84721    0.036
 4773.00    0.81520   0.85250    0.035
 4774.00    0.76147   0.85299    0.035
 4775.00    0.71304   0.85342    0.035
 4776.00    0.74112   0.85420    0.035
 4777.00    0.77494   0.85125    0.036
 4778.00    0.86286   0.84678    0.035
 4779.00    0.92644   0.84510    0.035
 4780.00    0.82343   0.84364    0.034
 4781.00    0.74938   0.83992    0.034
 4782.00    0.82874   0.83824    0.034
 4783.00    0.89029   0.83953    0.035
 4784.00    0.87600   0.83828    0.035
 4785.00    0.85762   0.83658    0.035
 4786.00    0.82489   0.83829    0.034
 4787.00    0.81085   0.83951    0.034
 4788.00    0.85203   0.83908    0.035
 4789.00    0.86711   0.83985    0.035
 4790.00    0.81646   0.84272    0.035
 4791.00    0.78018   0.84912    0.035
 4792.00    0.77506   0.85782    0.035
 4793.00    0.81021   0.86269    0.035
 4794.00    0.92113   0.86078    0.035
 4795.00    0.98128   0.85498    0.036
 4796.00    0.95801   0.84792    0.036
 4797.00    0.93577   0.84130    0.036
 4798.00    0.91504   0.83866    0.037
 4799.00    0.94545   0.84310    0.037
 4800.00    1.04069   0.85110    0.037
 4801.00    1.03585   0.85496    0.036
 4802.00    0.91925   0.85049    0.036
 4803.00    0.87474   0.84163    0.035
 4804.00    0.90125   0.83681    0.036
 4805.00    0.89670   0.83644    0.036
 4806.00    0.86516   0.83664    0.036
 4807.00    0.82968   0.83830    0.036
 4808.00    0.79118   0.84116    0.036
 4809.00    0.78149   0.84166    0.036
 4810.00    0.79120   0.84040    0.035
 4811.00    0.85619   0.84040    0.036
 4812.00    0.95376   0.84112    0.036
 4813.00    0.98759   0.84118    0.036
 4814.00    0.98867   0.84270    0.035
 4815.00    1.03562   0.84707    0.036
 4816.00    1.10300   0.85128    0.037
 4817.00    1.02703   0.85324    0.036
 4818.00    0.89622   0.85267    0.035
 4819.00    0.87704   0.84964    0.035
 4820.00    0.89415   0.84185    0.036
 4821.00    0.86265   0.82636    0.036
 4822.00    0.81792   0.81370    0.036
 4823.00    0.83935   0.81647    0.036
 4824.00    0.87556   0.82821    0.036
 4825.00    0.84876   0.83424    0.036
 4826.00    0.81072   0.83267    0.035
 4827.00    0.85121   0.83025    0.036
 4828.00    0.90241   0.82928    0.036
 4829.00    0.87296   0.82593    0.036
 4830.00    0.83567   0.82030    0.036
 4831.00    0.82997   0.81912    0.036
 4832.00    0.82619   0.82267    0.035
 4833.00    0.83597   0.82374    0.036
 4834.00    0.84636   0.82061    0.036
 4835.00    0.90455   0.81777    0.035
 4836.00    0.95690   0.81486    0.035
 4837.00    0.85690   0.80803    0.035
 4838.00    0.76037   0.80040    0.035
 4839.00    0.71114   0.79719    0.035
 4840.00    0.67366   0.79468    0.035
 4841.00    0.74236   0.78859    0.034
 4842.00    0.80323   0.78351    0.034
 4843.00    0.81223   0.78263    0.034
 4844.00    0.81098   0.77963    0.034
 4845.00    0.75682   0.76707    0.034
 4846.00    0.72113   0.74758    0.034
 4847.00    0.76231   0.73257    0.034
 4848.00    0.79791   0.72600    0.000
 4849.00    0.81426   0.71871    0.000
 4850.00    0.81209   0.70532    0.000
 4851.00    0.75617   0.68687    0.000
 4852.00    0.70180   0.66047    0.000
 4853.00    0.65127   0.62717    0.000
 4854.00    0.65914   0.59729    0.000
 4855.00    0.79161   0.57394    0.000
 4856.00    0.82575   0.54599    0.000
 4857.00    0.67768   0.50325    0.000
 4858.00    0.60166   0.44581    0.000
 4859.00    0.64229   0.39562    0.000
 4860.00    0.68904   0.38969    0.000
 4861.00    0.74451   0.43131    0.000
 4862.00    0.74165   0.48492    0.000
 4863.00    0.66589   0.53012    0.000
 4864.00    0.57613   0.56954    0.000
 4865.00    0.47094   0.60356    0.000
 4866.00    0.47431   0.63141    0.000
 4867.00    0.58312   0.65464    0.000
 4868.00    0.67153   0.66999    0.000
 4869.00    0.74247   0.67660    0.000
 4870.00    0.75113   0.68636    0.000
 4871.00    0.71280   0.70687    0.000
 4872.00    0.63940   0.72840    0.000
 4873.00    0.54276   0.74136    0.000
 4874.00    0.53055   0.74963    0.000
 4875.00    0.56733   0.76015    0.033
 4876.00    0.63296   0.77413    0.033
 4877.00    0.71318   0.78946    0.033
 4878.00    0.70752   0.79899    0.033
 4879.00    0.66425   0.79848    0.033
 4880.00    0.71091   0.79611    0.033
 4881.00    0.79137   0.79809    0.033
 4882.00    0.84678   0.79926    0.033
 4883.00    0.89421   0.79646    0.033
 4884.00    0.85939   0.79495    0.033
 4885.00    0.80264   0.79936    0.033
 4886.00    0.74956   0.80682    0.033
 4887.00    0.69727   0.80964    0.033
 4888.00    0.71568   0.80368    0.033
 4889.00    0.74634   0.79577    0.032
 4890.00    0.74852   0.80103    0.033
 4891.00    0.74696   0.81985    0.033
 4892.00    0.74641   0.83840    0.033
 4893.00    0.74596   0.84995    0.033
 4894.00    0.77411   0.85509    0.033
 4895.00    0.80387   0.85595    0.033
 4896.00    0.75667   0.85333    0.033
 4897.00    0.70847   0.84612    0.034
 4898.00    0.74406   0.83786    0.033
 4899.00    0.77989   0.83630    0.033
 4900.00    0.82138   0.83871    0.033
 4901.00    0.85883   0.83861    0.033
 4902.00    0.84400   0.83957    0.033
 4903.00    0.82438   0.84672    0.033
 4904.00    0.76323   0.85571    0.033
 4905.00    0.72053   0.85729    0.033
 4906.00    0.79665   0.85042    0.033
 4907.00    0.86333   0.84032    0.033
 4908.00    0.88257   0.83141    0.033
 4909.00    0.87825   0.82810    0.033
 4910.00    0.77808   0.83221    0.033
 4911.00    0.71739   0.83956    0.032
 4912.00    0.78997   0.84718    0.032
 4913.00    0.83523   0.85507    0.032
 4914.00    0.80274   0.85826    0.033
 4915.00    0.78725   0.85085    0.033
 4916.00    0.81312   0.83320    0.033
 4917.00    0.83678   0.81174    0.033
 4918.00    0.85584   0.79551    0.034
 4919.00    0.84271   0.79080    0.034
 4920.00    0.77084   0.79618    0.033
 4921.00    0.73522   0.79899    0.033
 4922.00    0.75740   0.79882    0.033
 4923.00    0.75738   0.80873    0.033
 4924.00    0.72632   0.83087    0.033
 4925.00    0.72712   0.84947    0.033
 4926.00    0.76717   0.85858    0.033
 4927.00    0.81381   0.86405    0.033
 4928.00    0.86760   0.86647    0.033
 4929.00    0.90201   0.86469    0.033
 4930.00    0.91784   0.85735    0.033
 4931.00    0.89060   0.84429    0.033
 4932.00    0.82698   0.83561    0.033
 4933.00    0.76979   0.84009    0.033
 4934.00    0.71738   0.84663    0.033
 4935.00    0.72342   0.84169    0.033
 4936.00    0.76762   0.82927    0.033
 4937.00    0.74989   0.82379    0.033
 4938.00    0.69675   0.83248    0.033
 4939.00    0.70584   0.84704    0.033
 4940.00    0.74589   0.85601    0.000
 4941.00    0.78273   0.86043    0.000
 4942.00    0.81818   0.86311    0.000
 4943.00    0.82922   0.86135    0.000
 4944.00    0.83125   0.85752    0.000
 4945.00    0.81134   0.85724    0.000
 4946.00    0.78457   0.85907    0.000
 4947.00    0.92486   0.86076    0.000
 4948.00    1.10873   0.86292    0.000
 4949.00    1.03729   0.86413    0.000
 4950.00    0.91148   0.86163    0.000
 4951.00    0.92224   0.85706    0.000
 4952.00    0.95602   0.85441    0.000
 4953.00    0.89309   0.85171    0.000
 4954.00    0.81787   0.83991    0.000
 4955.00    0.77557   0.81794    0.000
 4956.00    0.73620   0.80798    0.000
 4957.00    0.73341   0.82367    0.000
 4958.00    0.73255   0.84631    0.000
 4959.00    0.77351   0.85685    0.000
 4960.00    0.81542   0.85757    0.000
 4961.00    0.86926   0.85696    0.000
 4962.00    0.91963   0.85422    0.000
 4963.00    0.89473   0.84619    0.000
 4964.00    0.87197   0.83834    0.000
 4965.00    0.87540   0.83591    0.000
 4966.00    0.87265   0.83705    0.000
 4967.00    0.81817   0.83959    0.000
 4968.00    0.77548   0.84299    0.000
 4969.00    0.80641   0.84750    0.000
 4970.00    0.83751   0.85221    0.000
 4971.00    0.86943   0.85571    0.000
 4972.00    0.85911   0.85810    0.000
 4973.00    0.68063   0.85803    0.000
 4974.00    0.58126   0.85474    0.000
 4975.00    0.74356   0.84939    0.000
 4976.00    0.84070   0.84360    0.000
 4977.00    0.75568   0.83959    0.000
 4978.00    0.71455   0.83698    0.000
 4979.00    0.77836   0.83025    0.000
 4980.00    0.81819   0.81756    0.000
 4981.00    0.80846   0.80721    0.000
 4982.00    0.79676   0.80718    0.000
 4983.00    0.78150   0.81563    0.000
 4984.00    0.77416   0.82777    0.000
 4985.00    0.77925   0.84029    0.000
 4986.00    0.77099   0.84720    0.000
 4987.00    0.74433   0.84546    0.000
 4988.00    0.74520   0.83837    0.000
 4989.00    0.77948   0.83253    0.000
 4990.00    0.80501   0.83322    0.000
 4991.00    0.82119   0.83648    0.000
 4992.00    0.80229   0.83869    0.000
 4993.00    0.75029   0.84338    0.000
 4994.00    0.74873   0.84871    0.000
 4995.00    0.78918   0.84954    0.000
 4996.00    0.83319   0.84535    0.000
 4997.00    0.87982   0.83638    0.000
 4998.00    0.88673   0.82515    0.000
 4999.00    0.86807   0.81571    0.000
 5000.00    0.77028   0.81231    0.000
 5001.00    0.62794   0.81487    0.000
 5002.00    0.55766   0.81670    0.000
 5003.00    0.52269   0.81158    0.000
 5004.00    0.58768   0.80511    0.000
 5005.00    0.69501   0.80792    0.000
 5006.00    0.75137   0.82062    0.000
 5007.00    0.78924   0.83178    0.000
 5008.00    0.74667   0.83455    0.000
 5009.00    0.67941   0.83094    0.000
 5010.00    0.72182   0.82217    0.000
 5011.00    0.79222   0.81119    0.000
 5012.00    0.80443   0.80312    0.000
 5013.00    0.80456   0.80149    0.000
 5014.00    0.76495   0.80551    0.000
 5015.00    0.71883   0.80282    0.000
 5016.00    0.71245   0.79148    0.000
 5017.00    0.71094   0.78887    0.000
 5018.00    0.74398   0.80184    0.000
 5019.00    0.77994   0.81277    0.000
 5020.00    0.72294   0.81405    0.000
 5021.00    0.66139   0.81751    0.000
 5022.00    0.68843   0.82785    0.000
 5023.00    0.71614   0.83589    0.000
 5024.00    0.70165   0.83471    0.000
 5025.00    0.68750   0.82715    0.000
 5026.00    0.67996   0.82364    0.000
 5027.00    0.67673   0.82869    0.000
 5028.00    0.72370   0.83366    0.000
 5029.00    0.77287   0.83561    0.032
 5030.00    0.83970   0.83969    0.032
 5031.00    0.88799   0.84665    0.032
 5032.00    0.82389   0.84728    0.032
 5033.00    0.78240   0.83549    0.031
 5034.00    0.84898   0.82263    0.032
 5035.00    0.88893   0.82274    0.033
 5036.00    0.82518   0.82654    0.033
 5037.00    0.78451   0.81660    0.033
 5038.00    0.81870   0.78967    0.033
 5039.00    0.83240   0.76847    0.032
 5040.00    0.78986   0.77833    0.032
 5041.00    0.73014   0.81105    0.032
 5042.00    0.63002   0.83702    0.032
 5043.00    0.61675   0.84963    0.032
 5044.00    0.78002   0.85403    0.032
 5045.00    0.89592   0.84819    0.032
 5046.00    0.92802   0.83443    0.032
 5047.00    0.94250   0.82385    0.032
 5048.00    0.92973   0.82180    0.032
 5049.00    0.89047   0.82316    0.032
 5050.00    0.81521   0.82548    0.032
 5051.00    0.78601   0.83036    0.032
 5052.00    0.81195   0.83241    0.032
 5053.00    0.82782   0.81979    0.032
 5054.00    0.83308   0.80479    0.032
 5055.00    0.80561   0.80976    0.032
 5056.00    0.74766   0.83188    0.031
 5057.00    0.76462   0.84714    0.031
 5058.00    0.84304   0.85232    0.032
 5059.00    0.83736   0.85486    0.032
 5060.00    0.77092   0.85553    0.032
 5061.00    0.76521   0.85056    0.031
 5062.00    0.79802   0.83752    0.031
 5063.00    0.78999   0.82560    0.030
 5064.00    0.75930   0.82501    0.030
 5065.00    0.77013   0.82908    0.030
 5066.00    0.80096   0.82966    0.031
 5067.00    0.81441   0.83083    0.031
 5068.00    0.82061   0.83444    0.031
 5069.00    0.80578   0.83393    0.031
 5070.00    0.78346   0.82926    0.031
 5071.00    0.76280   0.82877    0.031
 5072.00    0.74263   0.83204    0.031
 5073.00    0.75213   0.83166    0.031
 5074.00    0.76905   0.83052    0.031
 5075.00    0.77350   0.83326    0.031
 5076.00    0.77543   0.83193    0.031
 5077.00    0.76995   0.81918    0.031
 5078.00    0.76330   0.80674    0.031
 5079.00    0.78128   0.80663    0.030
 5080.00    0.80218   0.81357    0.030
 5081.00    0.78156   0.81885    0.030
 5082.00    0.75759   0.82376    0.030
 5083.00    0.73598   0.82966    0.030
 5084.00    0.71446   0.83276    0.029
 5085.00    0.72528   0.83229    0.029
 5086.00    0.73755   0.83286    0.029
 5087.00    0.80366   0.83616    0.028
 5088.00    0.86639   0.83925    0.028
 5089.00    0.86634   0.84149    0.028
 5090.00    0.86581   0.84418    0.029
 5091.00    0.85990   0.84636    0.029
 5092.00    0.85406   0.84584    0.029
 5093.00    0.84887   0.84204    0.030
 5094.00    0.83553   0.83492    0.030
 5095.00    0.77428   0.82491    0.030
 5096.00    0.72403   0.81453    0.029
 5097.00    0.72516   0.80666    0.029
 5098.00    0.72910   0.80550    0.029
 5099.00    0.74376   0.81381    0.029
 5100.00    0.76332   0.82572    0.029
 5101.00    0.79844   0.83303    0.029
 5102.00    0.83075   0.83376    0.029
 5103.00    0.85550   0.83234    0.029
 5104.00    0.84917   0.82918    0.030
 5105.00    0.77100   0.82399    0.030
 5106.00    0.71596   0.82118    0.030
 5107.00    0.70721   0.82166    0.030
 5108.00    0.70704   0.82243    0.030
 5109.00    0.72184   0.82565    0.030
 5110.00    0.75623   0.83113    0.030
 5111.00    0.82052   0.83508    0.030
 5112.00    0.82218   0.83800    0.030
 5113.00    0.73991   0.84078    0.031
 5114.00    0.69699   0.84342    0.031
 5115.00    0.70052   0.84739    0.031
 5116.00    0.75008   0.85004    0.032
 5117.00    0.84754   0.84830    0.032
 5118.00    0.85332   0.84300    0.032
 5119.00    0.77496   0.83649    0.031
 5120.00    0.74554   0.82854    0.031
 5121.00    0.75572   0.81857    0.031
 5122.00    0.78077   0.81181    0.031
 5123.00    0.81642   0.81253    0.031
 5124.00    0.77744   0.81568    0.031
 5125.00    0.69184   0.81551    0.031
 5126.00    0.68979   0.81313    0.031
 5127.00    0.73335   0.81262    0.031
 5128.00    0.74978   0.81671    0.031
 5129.00    0.75333   0.82399    0.031
 5130.00    0.76018   0.82863    0.032
 5131.00    0.76836   0.82916    0.032
 5132.00    0.78902   0.83150    0.032
 5133.00    0.81402   0.83738    0.031
 5134.00    0.80245   0.83821    0.031
 5135.00    0.78009   0.83098    0.031
 5136.00    0.73516   0.82181    0.031
 5137.00    0.68471   0.81583    0.031
 5138.00    0.68233   0.81787    0.031
 5139.00    0.68946   0.82252    0.031
 5140.00    0.73767   0.81891    0.031
 5141.00    0.79221   0.81316    0.030
 5142.00    0.83004   0.81422    0.030
 5143.00    0.86596   0.81558    0.031
 5144.00    0.80491   0.81372    0.030
 5145.00    0.73645   0.81250    0.030
 5146.00    0.68991   0.81359    0.030
 5147.00    0.64426   0.81502    0.030
 5148.00    0.68083   0.81522    0.030
 5149.00    0.71657   0.81435    0.030
 5150.00    0.68839   0.81287    0.030
 5151.00    0.66319   0.81050    0.029
 5152.00    0.68961   0.81015    0.030
 5153.00    0.71445   0.81601    0.030
 5154.00    0.72263   0.82606    0.030
 5155.00    0.72694   0.83511    0.029
 5156.00    0.70212   0.84054    0.029
 5157.00    0.68335   0.84177    0.029
 5158.00    0.69924   0.84103    0.029
 5159.00    0.70883   0.83868    0.029
 5160.00    0.68974   0.83366    0.029
 5161.00    0.67669   0.82940    0.030
 5162.00    0.68618   0.82442    0.029
 5163.00    0.70933   0.80962    0.029
 5164.00    0.77510   0.78246    0.029
 5165.00    0.79385   0.75264    0.029
 5166.00    0.68805   0.73486    0.029
 5167.00    0.60918   0.74089    0.029
 5168.00    0.59156   0.76137    0.029
 5169.00    0.58651   0.76872    0.029
 5170.00    0.60619   0.75498    0.029
 5171.00    0.59489   0.75014    0.029
 5172.00    0.53043   0.77307    0.029
 5173.00    0.51464   0.80334    0.029
 5174.00    0.57202   0.81798    0.029
 5175.00    0.60155   0.82071    0.029
 5176.00    0.59431   0.82188    0.029
 5177.00    0.59787   0.82208    0.029
 5178.00    0.61399   0.81857    0.029
 5179.00    0.61458   0.80891    0.029
 5180.00    0.59923   0.78774    0.029
 5181.00    0.60294   0.75936    0.029
 5182.00    0.62390   0.74835    0.028
 5183.00    0.64183   0.76747    0.029
 5184.00    0.65734   0.79779    0.029
 5185.00    0.66927   0.81617    0.029
 5186.00    0.67871   0.82074    0.029
 5187.00    0.67230   0.82309    0.029
 5188.00    0.65614   0.82548    0.029
 5189.00    0.67610   0.81658    0.030
 5190.00    0.71546   0.80101    0.000
 5191.00    0.71022   0.79750    0.000
 5192.00    0.68415   0.80470    0.000
 5193.00    0.70773   0.80876    0.000
 5194.00    0.75129   0.80809    0.000
 5195.00    0.75174   0.80812    0.000
 5196.00    0.73739   0.81221    0.000
 5197.00    0.73418   0.82071    0.000
 5198.00    0.73420   0.82676    0.000
 5199.00    0.78243   0.82722    0.000
 5200.00    0.84216   0.82484    0.000
 5201.00    0.80039   0.82051    0.000
 5202.00    0.73908   0.80978    0.000
 5203.00    0.72909   0.79558    0.000
 5204.00    0.72677   0.78856    0.000
 5205.00    0.76524   0.78890    0.000
 5206.00    0.80818   0.78854    0.000
 5207.00    0.77688   0.79033    0.000
 5208.00    0.74022   0.79968    0.000
 5209.00    0.78266   0.81253    0.000
 5210.00    0.82806   0.82411    0.000
 5211.00    0.74617   0.83118    0.030
 5212.00    0.66748   0.82976    0.030
 5213.00    0.72689   0.81935    0.030
 5214.00    0.78167   0.80941    0.030
 5215.00    0.76148   0.81089    0.030
 5216.00    0.74625   0.82250    0.029
 5217.00    0.78139   0.83500    0.029
 5218.00    0.81579   0.84211    0.029
 5219.00    0.84475   0.84466    0.029
 5220.00    0.86660   0.84222    0.029
 5221.00    0.84879   0.83336    0.029
 5222.00    0.82402   0.81923    0.029
 5223.00    0.76829   0.80058    0.029
 5224.00    0.71086   0.77832    0.029
 5225.00    0.64716   0.76723    0.029
 5226.00    0.59736   0.78265    0.029
 5227.00    0.59008   0.81238    0.029
 5228.00    0.60502   0.83261    0.028
 5229.00    0.67776   0.83678    0.028
 5230.00    0.73676   0.82743    0.028
 5231.00    0.76503   0.81107    0.028
 5232.00    0.76971   0.80112    0.028
 5233.00    0.72869   0.80538    0.029
 5234.00    0.72284   0.81852    0.029
 5235.00    0.77644   0.82987    0.029
 5236.00    0.82810   0.83497    0.029
 5237.00    0.87690   0.83744    0.029
 5238.00    0.88777   0.83978    0.029
 5239.00    0.84925   0.84160    0.029
 5240.00    0.83372   0.84231    0.029
 5241.00    0.84455   0.84308    0.029
 5242.00    0.84206   0.84643    0.029
 5243.00    0.82611   0.84702    0.029
 5244.00    0.80823   0.83647    0.029
 5245.00    0.78864   0.82100    0.029
 5246.00    0.76433   0.81569    0.029
 5247.00    0.73630   0.81758    0.029
 5248.00    0.72508   0.81544    0.030
 5249.00    0.72549   0.81365    0.030
 5250.00    0.75631   0.81935    0.030
 5251.00    0.80557   0.82583    0.030
 5252.00    0.80950   0.82354    0.030
 5253.00    0.78943   0.81896    0.030
 5254.00    0.78711   0.82457    0.030
 5255.00    0.79292   0.83844    0.030
 5256.00    0.79072   0.84802    0.030
 5257.00    0.78534   0.84690    0.030
 5258.00    0.75052   0.83727    0.030
 5259.00    0.70579   0.82513    0.030
 5260.00    0.77573   0.81243    0.030
 5261.00    0.87813   0.79485    0.031
 5262.00    0.82941   0.77756    0.031
 5263.00    0.74541   0.76940    0.032
 5264.00    0.71313   0.77522    0.031
 5265.00    0.69053   0.79009    0.031
 5266.00    0.64700   0.79434    0.031
 5267.00    0.60043   0.77833    0.032
 5268.00    0.53086   0.76633    0.032
 5269.00    0.45886   0.77948    0.032
 5270.00    0.50109   0.80292    0.031
 5271.00    0.55110   0.81482    0.031
 5272.00    0.61955   0.81192    0.031
 5273.00    0.68863   0.80137    0.030
 5274.00    0.76395   0.80105    0.030
 5275.00    0.83765   0.81931    0.030
 5276.00    0.85892   0.83910    0.030
 5277.00    0.88030   0.84368    0.030
 5278.00    0.90325   0.83686    0.030
 5279.00    0.91999   0.82892    0.030
 5280.00    0.87628   0.82242    0.030
 5281.00    0.83123   0.81534    0.030
 5282.00    0.77679   0.81470    0.029
 5283.00    0.72756   0.82857    0.028
 5284.00    0.70661   0.84840    0.028
 5285.00    0.70412   0.85835    0.028
 5286.00    0.78183   0.85725    0.028
 5287.00    0.84300   0.85505    0.028
 5288.00    0.84502   0.85586    0.028
 5289.00    0.85257   0.85568    0.029
 5290.00    0.87670   0.85251    0.029
 5291.00    0.88155   0.84905    0.029
 5292.00    0.83708   0.84725    0.029
 5293.00    0.80483   0.84265    0.028
 5294.00    0.79946   0.83068    0.028
 5295.00    0.80295   0.81455    0.028
 5296.00    0.82332   0.80649    0.029
 5297.00    0.83694   0.81353    0.029
 5298.00    0.83934   0.82485    0.029
 5299.00    0.81901   0.82888    0.029
 5300.00    0.76553   0.82966    0.029
 5301.00    0.74052   0.83643    0.029
 5302.00    0.75205   0.84772    0.028
 5303.00    0.76982   0.85411    0.028
 5304.00    0.79466   0.85169    0.029
 5305.00    0.79801   0.84647    0.029
 5306.00    0.77992   0.84664    0.029
 5307.00    0.79951   0.85175    0.029
 5308.00    0.85226   0.85604    0.030
 5309.00    0.89638   0.85617    0.030
 5310.00    0.93383   0.85252    0.030
 5311.00    0.93024   0.84703    0.030
 5312.00    0.89870   0.84166    0.030
 5313.00    0.84701   0.83119    0.029
 5314.00    0.78330   0.81581    0.030
 5315.00    0.82365   0.81009    0.030
 5316.00    0.91822   0.82115    0.029
 5317.00    0.87705   0.83549    0.029
 5318.00    0.77457   0.84135    0.029
 5319.00    0.73951   0.84237    0.029
 5320.00    0.73065   0.84072    0.029
 5321.00    0.75564   0.83368    0.029
 5322.00    0.79183   0.82380    0.029
 5323.00    0.80779   0.81985    0.029
 5324.00    0.81815   0.81737    0.029
 5325.00    0.75996   0.80161    0.029
 5326.00    0.68613   0.77906    0.028
 5327.00    0.67895   0.77545    0.029
 5328.00    0.68393   0.79604    0.029
 5329.00    0.67544   0.81965    0.029
 5330.00    0.66506   0.83099    0.029
 5331.00    0.65200   0.83427    0.029
 5332.00    0.63867   0.83866    0.029
 5333.00    0.69129   0.84337    0.028
 5334.00    0.74814   0.84291    0.028
 5335.00    0.77030   0.83855    0.028
 5336.00    0.79152   0.83307    0.028
 5337.00    0.84906   0.82355    0.028
 5338.00    0.90326   0.81277    0.028
 5339.00    0.86198   0.81292    0.028
 5340.00    0.81986   0.82599    0.029
 5341.00    0.76571   0.83846    0.028
 5342.00    0.71961   0.84130    0.028
 5343.00    0.74884   0.83553    0.027
 5344.00    0.78053   0.82974    0.027
 5345.00    0.82890   0.82961    0.027
 5346.00    0.86038   0.82981    0.028
 5347.00    0.80265   0.82784    0.028
 5348.00    0.75339   0.83122    0.027
 5349.00    0.74015   0.84121    0.027
 5350.00    0.72758   0.84944    0.027
 5351.00    0.71732   0.85278    0.028
 5352.00    0.71760   0.85643    0.028
 5353.00    0.74889   0.86200    0.028
 5354.00    0.78237   0.86544    0.028
 5355.00    0.82135   0.86598    0.028
 5356.00    0.84611   0.86520    0.028
 5357.00    0.84009   0.86368    0.028
 5358.00    0.84886   0.86009    0.028
 5359.00    0.88542   0.85137    0.028
 5360.00    0.90952   0.83907    0.028
 5361.00    0.91322   0.83191    0.029
 5362.00    0.90083   0.83173    0.029
 5363.00    0.86529   0.83349    0.029
 5364.00    0.84827   0.83414    0.029
 5365.00    0.85465   0.83469    0.029
 5366.00    0.83013   0.83285    0.029
 5367.00    0.77116   0.82361    0.029
 5368.00    0.69830   0.80781   -2.000
 5369.00    0.61178   0.79822   -2.000
 5370.00    0.63433   0.80710   -2.000
 5371.00    0.75145   0.82854   -2.000
 5372.00    0.74643   0.84628   -2.000
 5373.00    0.64808   0.85298   -2.000
 5374.00    0.64115   0.85175   -2.000
 5375.00    0.69561   0.84910   -2.000
 5376.00    0.81217   0.85001   -2.000
 5377.00    0.96527   0.85128   -2.000
 5378.00    0.97539   0.84819   -2.000
 5379.00    0.91220   0.84313   -2.000
 5380.00    0.86121   0.83921   -2.000
 5381.00    0.81564   0.83704   -2.000
 5382.00    0.83333   0.83933   -2.000
 5383.00    0.87518   0.84462    0.030
 5384.00    0.86768   0.84590    0.029
 5385.00    0.84418   0.84299    0.029
 5386.00    0.82246   0.83956    0.029
 5387.00    0.80121   0.83532    0.029
 5388.00    0.82249   0.82970    0.028
 5389.00    0.85325   0.82639    0.028
 5390.00    0.80357   0.82633    0.028
 5391.00    0.73960   0.82675    0.027
 5392.00    0.71864   0.82594    0.027
 5393.00    0.70352   0.82182    0.027
 5394.00    0.70554   0.81200    0.027
 5395.00    0.70922   0.80374    0.027
 5396.00    0.69841   0.80942    0.027
 5397.00    0.68672   0.82245    0.027
 5398.00    0.69392   0.82740    0.027
 5399.00    0.70206   0.82472    0.027
 5400.00    0.78421   0.82306    0.027
 5401.00    0.86057   0.81909    0.027
 5402.00    0.78793   0.80694    0.027
 5403.00    0.72209   0.79369    0.028
 5404.00    0.74848   0.79237    0.027
 5405.00    0.76962   0.80344    0.027
 5406.00    0.74346   0.81305    0.027
 5407.00    0.71658   0.81206    0.027
 5408.00    0.68495   0.80919    0.027
 5409.00    0.66436   0.81640    0.027
 5410.00    0.70058   0.82956    0.027
 5411.00    0.72391   0.83650    0.028
 5412.00    0.69373   0.83501    0.027
 5413.00    0.67766   0.83441    0.028
 5414.00    0.71006   0.84095    0.028
 5415.00    0.75893   0.84875    0.029
 5416.00    0.85545   0.84972    0.029
 5417.00    0.90279   0.84461    0.030
 5418.00    0.82867   0.83883    0.030
 5419.00    0.79576   0.83764    0.030
 5420.00    0.85058   0.83948    0.030
 5421.00    0.87322   0.83563    0.030
 5422.00    0.83634   0.82686    0.029
 5423.00    0.81018   0.82658    0.029
 5424.00    0.80134   0.83715    0.029
 5425.00    0.80273   0.84434    0.029
 5426.00    0.81859   0.83546    0.029
 5427.00    0.80556   0.81604    0.028
 5428.00    0.75648   0.80853    0.028
 5429.00    0.73729   0.81695    0.028
 5430.00    0.75098   0.82201    0.028
 5431.00    0.77946   0.81642    0.028
 5432.00    0.82228   0.81011    0.029
 5433.00    0.82125   0.81016    0.028
 5434.00    0.78273   0.81604    0.028
 5435.00    0.74210   0.82672    0.028
 5436.00    0.69987   0.83989    0.028
 5437.00    0.70988   0.85065    0.028
 5438.00    0.75443   0.85616    0.027
 5439.00    0.79792   0.85712    0.027
 5440.00    0.84078   0.85599    0.027
 5441.00    0.80748   0.85330    0.027
 5442.00    0.73572   0.84539    0.026
 5443.00    0.72362   0.82958    0.026
 5444.00    0.73761   0.81164    0.026
 5445.00    0.78766   0.80494    0.026
 5446.00    0.85123   0.81514    0.027
 5447.00    0.82805   0.83061    0.026
 5448.00    0.77726   0.83934    0.026
 5449.00    0.77428   0.84038    0.026
 5450.00    0.78401   0.83690    0.027
 5451.00    0.78909   0.82913    0.027
 5452.00    0.79316   0.81652    0.026
 5453.00    0.74012   0.80408    0.027
 5454.00    0.67721   0.80389    0.027
 5455.00    0.73364   0.81811    0.027
 5456.00    0.80572   0.83455    0.027
 5457.00    0.80519   0.84158    0.027
 5458.00    0.79796   0.83900    0.027
 5459.00    0.81100   0.83202    0.027
 5460.00    0.82518   0.82384    0.027
 5461.00    0.81389   0.81833    0.027
 5462.00    0.80183   0.81977    0.027
 5463.00    0.76905   0.82261    0.028
 5464.00    0.73884   0.82108    0.028
 5465.00    0.76910   0.82156    0.028
 5466.00    0.79643   0.82759    0.027
 5467.00    0.78624   0.83147    0.028
 5468.00    0.77970   0.82965    0.028
 5469.00    0.80474   0.82759    0.028
 5470.00    0.82715   0.82555    0.028
 5471.00    0.83264   0.82073    0.028
 5472.00    0.83557   0.81656    0.029
 5473.00    0.82566   0.81195    0.028
 5474.00    0.80737   0.80228    0.028
 5475.00    0.75509   0.79694    0.028
 5476.00    0.70916   0.80636    0.028
 5477.00    0.68465   0.81973    0.028
 5478.00    0.67065   0.82088   -2.000
 5479.00    0.68652   0.81212   -2.000
 5480.00    0.69600   0.80895   -2.000
 5481.00    0.68999   0.81705   -2.000
 5482.00    0.70604   0.82994   -2.000
 5483.00    0.76831   0.83820   -2.000
 5484.00    0.79515   0.83494   -2.000
 5485.00    0.75749   0.82419   -2.000
 5486.00    0.60415   0.81852   -2.000
 5487.00    0.26668   0.82178   -2.000
 5488.00   -0.02441   0.82668   -2.000
 5489.00   -0.25070   0.82904   -2.000
 5490.00   -0.06555   0.82849   -2.000
 5491.00    0.62542   0.82517   -2.000
 5492.00    1.13875   0.82460   -2.000
 5493.00    1.45958   0.82796   -2.000
 5494.00    1.43290   0.82808   -2.000
 5495.00    1.07403   0.82381   -2.000
 5496.00    0.85356   0.82473   -2.000
 5497.00    0.74975   0.83174   -2.000
 5498.00    0.73153   0.83296   -2.000
 5499.00    0.77684   0.82455   -2.000
 5500.00    0.78082   0.81590   -2.000
 5501.00    0.75784   0.81455   -2.000
 5502.00    0.74054   0.81711   -1.000
 5503.00    0.72647   0.81477   -1.000
 5504.00    0.72590   0.80826   -1.000
 5505.00    0.73203   0.80869   -1.000
 5506.00    0.73726   0.81746   -1.000
 5507.00    0.74211   0.82253   -1.000
 5508.00    0.74122   0.82013   -1.000
 5509.00    0.73823   0.81504   -1.000
 5510.00    0.72562   0.81040    0.068
 5511.00    0.71001   0.80913    0.029
 5512.00    0.74344   0.81184    0.026
 5513.00    0.78963   0.81629    0.027
 5514.00    0.77856   0.82115    0.027
 5515.00    0.75532   0.82741    0.028
 5516.00    0.71588   0.83525    0.027
 5517.00    0.67371   0.84036    0.027
 5518.00    0.71481   0.83999    0.027
 5519.00    0.76646   0.83754    0.028
 5520.00    0.74510   0.83645    0.028
 5521.00    0.71730   0.83629    0.027
 5522.00    0.76123   0.83479    0.027
 5523.00    0.80890   0.83039    0.027
 5524.00    0.76679   0.82307    0.027
 5525.00    0.72334   0.81338    0.026
 5526.00    0.70485   0.80610    0.026
 5527.00    0.68901   0.80900    0.026
 5528.00    0.73026   0.82001    0.026
 5529.00    0.76558   0.82824    0.026
 5530.00    0.72844   0.82921    0.026
 5531.00    0.69762   0.82540    0.026
 5532.00    0.71946   0.81931    0.026
 5533.00    0.74048   0.81578    0.026
 5534.00    0.75649   0.81907    0.025
 5535.00    0.77281   0.82525    0.025
 5536.00    0.79063   0.82897    0.025
 5537.00    0.79881   0.83285    0.025
 5538.00    0.76871   0.83787    0.025
 5539.00    0.75827   0.84014    0.025
 5540.00    0.81268   0.83646    0.025
 5541.00    0.84485   0.82927    0.025
 5542.00    0.81500   0.82457    0.025
 5543.00    0.79127   0.82407    0.025
 5544.00    0.78215   0.82586    0.025
 5545.00    0.78331   0.83015    0.025
 5546.00    0.80567   0.83613    0.025
 5547.00    0.81600   0.84068    0.025
 5548.00    0.80473   0.84274    0.025
 5549.00    0.79776   0.84286    0.025
 5550.00    0.79751   0.84017    0.025
 5551.00    0.78014   0.83521    0.025
 5552.00    0.73919   0.83069    0.026
 5553.00    0.73756   0.82996    0.026
 5554.00    0.78356   0.83130    0.026
 5555.00    0.79727   0.83061    0.026
 5556.00    0.77646   0.82908    0.026
 5557.00    0.76333   0.82927    0.026
 5558.00    0.75744   0.82949    0.026
 5559.00    0.78152   0.82749    0.026
 5560.00    0.83050   0.82389    0.026
 5561.00    0.82167   0.82163    0.026
 5562.00    0.77056   0.82160    0.026
 5563.00    0.73166   0.82080    0.026
 5564.00    0.70060   0.81852    0.026
 5565.00    0.70931   0.81752    0.026
 5566.00    0.74036   0.81740    0.025
 5567.00    0.78052   0.81704    0.025
 5568.00    0.82512   0.81945    0.026
 5569.00    0.83901   0.82318    0.026
 5570.00    0.83993   0.82151    0.026
 5571.00    0.78830   0.81863    0.025
 5572.00    0.71766   0.82235    0.025
 5573.00    0.70637   0.82716    0.025
 5574.00    0.71324   0.82759    0.025
 5575.00    0.71828   0.82688    0.025
 5576.00    0.72285   0.82663    0.025
 5577.00    0.72725   0.82717    0.025
 5578.00    0.73161   0.82934    0.025
 5579.00    0.73030   0.82971    0.025
 5580.00    0.72805   0.82801    0.025
 5581.00    0.74341   0.82697    0.025
 5582.00    0.76092   0.82471    0.025
 5583.00    0.74294   0.81740    0.025
 5584.00    0.72198   0.80506    0.024
 5585.00    0.74637   0.79274    0.025
 5586.00    0.77295   0.78774    0.025
 5587.00    0.73070   0.79165    0.025
 5588.00    0.68798   0.80054    0.025
 5589.00    0.67938   0.80849    0.025
 5590.00    0.67221   0.81119    0.025
 5591.00    0.69349   0.81000    0.025
 5592.00    0.70892   0.81046    0.025
 5593.00    0.65647   0.81763    0.025
 5594.00    0.61967   0.82643    0.025
 5595.00    0.70856   0.82602    0.026
 5596.00    0.78251   0.81748    0.027
 5597.00    0.76614   0.81118    0.027
 5598.00    0.75646   0.80846    0.027
 5599.00    0.77865   0.80496    0.027
 5600.00    0.78397   0.80239    0.027
 5601.00    0.72376   0.80576    0.027
 5602.00    0.68126   0.81595    0.027
 5603.00    0.69608   0.82699    0.026
 5604.00    0.70972   0.83417    0.026
 5605.00    0.72012   0.83720    0.026
 5606.00    0.73895   0.83732    0.026
 5607.00    0.77757   0.83607    0.026
 5608.00    0.80186   0.83562    0.026
 5609.00    0.79712   0.83766    0.026
 5610.00    0.79600   0.84007    0.025
 5611.00    0.80129   0.83586    0.026
 5612.00    0.80116   0.82007    0.025
 5613.00    0.79268   0.80157    0.025
 5614.00    0.78101   0.79705    0.025
 5615.00    0.76499   0.80680    0.025
 5616.00    0.74907   0.81574    0.024
 5617.00    0.73328   0.81719    0.024
 5618.00    0.74613   0.81723    0.024
 5619.00    0.78914   0.82078    0.024
 5620.00    0.79380   0.82367    0.024
 5621.00    0.76283   0.81845    0.024
 5622.00    0.75276   0.80685    0.023
 5623.00    0.75980   0.80105    0.023
 5624.00    0.75016   0.80599    0.023
 5625.00    0.72848   0.81406    0.023
 5626.00    0.71764   0.82025    0.023
 5627.00    0.71366   0.82579    0.024
 5628.00    0.73059   0.83020    0.024
 5629.00    0.75909   0.83174    0.024
 5630.00    0.77716   0.83053    0.024
 5631.00    0.79023   0.82773    0.024
 5632.00    0.80696   0.82446    0.024
 5633.00    0.82523   0.82063    0.024
 5634.00    0.84508   0.81581    0.024
 5635.00    0.86549   0.81168    0.024
 5636.00    0.85724   0.81059    0.024
 5637.00    0.84040   0.81123    0.025
 5638.00    0.82605   0.81039    0.025
 5639.00    0.81232   0.80851    0.024
 5640.00    0.81961   0.80936    0.025
 5641.00    0.83115   0.81152    0.025
 5642.00    0.77506   0.81261    0.025
 5643.00    0.70826   0.81311    0.025
 5644.00    0.73216   0.81449    0.025
 5645.00    0.76673   0.81678    0.025
 5646.00    0.73691   0.81795    0.025
 5647.00    0.70195   0.81743    0.024
 5648.00    0.71117   0.81801    0.024
 5649.00    0.72236   0.82179    0.025
 5650.00    0.75972   0.82600    0.025
 5651.00    0.79676   0.82563    0.024
 5652.00    0.80331   0.82027    0.024
 5653.00    0.80846   0.81609    0.024
 5654.00    0.78761   0.81455    0.024
 5655.00    0.76526   0.80694    0.024
 5656.00    0.72626   0.79403    0.024
 5657.00    0.69002   0.79070    0.023
 5658.00    0.67526   0.79952    0.023
 5659.00    0.66690   0.80554    0.023
 5660.00    0.69620   0.80397    0.023
 5661.00    0.72253   0.80446    0.023
 5662.00    0.73502   0.81155    0.023
 5663.00    0.74441   0.81862    0.023
 5664.00    0.74197   0.81928    0.023
 5665.00    0.74496   0.81510    0.023
 5666.00    0.76514   0.81160    0.023
 5667.00    0.77806   0.81169    0.023
 5668.00    0.77145   0.81394    0.023
 5669.00    0.76472   0.81769    0.023
 5670.00    0.75768   0.82404    0.023
 5671.00    0.75472   0.83029    0.023
 5672.00    0.75989   0.83180    0.024
 5673.00    0.77710   0.82987    0.024
 5674.00    0.81521   0.82964    0.024
 5675.00    0.83538   0.83042    0.024
 5676.00    0.82820   0.82854    0.024
 5677.00    0.82250   0.82530    0.025
 5678.00    0.81878   0.82310    0.025
 5679.00    0.81403   0.81979    0.025
 5680.00    0.80807   0.81436    0.025
 5681.00    0.80099   0.81230    0.025
 5682.00    0.79276   0.81576    0.025
 5683.00    0.77305   0.81849    0.025
 5684.00    0.74280   0.81550    0.024
 5685.00    0.72906   0.81000    0.024
 5686.00    0.72864   0.80827    0.024
 5687.00    0.73129   0.81198    0.024
 5688.00    0.73612   0.81812    0.024
 5689.00    0.71834   0.82390    0.024
 5690.00    0.68645   0.82847    0.023
 5691.00    0.71234   0.83018    0.023
 5692.00    0.76969   0.82858    0.024
 5693.00    0.79100   0.82657    0.024
 5694.00    0.79524   0.82579    0.024
 5695.00    0.80419   0.82333    0.024
 5696.00    0.81507   0.81815    0.024
 5697.00    0.81192   0.81404    0.024
 5698.00    0.80388   0.81067    0.024
 5699.00    0.81321   0.80617    0.024
 5700.00    0.82763   0.80429    0.024
 5701.00    0.81864   0.80828    0.024
 5702.00    0.80395   0.81328    0.024
 5703.00    0.78214   0.81224    0.023
 5704.00    0.75894   0.80541    0.023
 5705.00    0.72485   0.79813    0.023
 5706.00    0.68909   0.79297    0.023
 5707.00    0.69680   0.79122    0.023
 5708.00    0.70943   0.79343    0.022
 5709.00    0.67671   0.79590    0.023
 5710.00    0.64055   0.79932    0.023
 5711.00    0.68119   0.80765    0.023
 5712.00    0.72496   0.81645    0.023
 5713.00    0.73494   0.82085    0.023
 5714.00    0.74559   0.82233    0.023
 5715.00    0.79433   0.82256    0.024
 5716.00    0.83927   0.82282    0.024
 5717.00    0.81912   0.82422    0.024
 5718.00    0.80103   0.82609    0.023
 5719.00    0.80463   0.82878    0.024
 5720.00    0.81079   0.83227    0.024
 5721.00    0.83603   0.83431    0.024
 5722.00    0.85213   0.83332    0.024
 5723.00    0.81609   0.82930    0.024
 5724.00    0.78170   0.82244    0.024
 5725.00    0.75479   0.81673    0.024
 5726.00    0.73864   0.81802    0.023
 5727.00    0.76252   0.82328    0.024
 5728.00    0.79155   0.82351    0.024
 5729.00    0.83661   0.81872    0.024
 5730.00    0.85962   0.81780    0.024
 5731.00    0.82434   0.82325    0.024
 5732.00    0.78922   0.82881    0.023
 5733.00    0.75450   0.83013    0.023
 5734.00    0.73177   0.82780    0.022
 5735.00    0.73262   0.82464    0.022
 5736.00    0.73895   0.82304    0.022
 5737.00    0.75466   0.82317    0.022
 5738.00    0.76404   0.82398    0.022
 5739.00    0.76394   0.82409    0.023
 5740.00    0.76096   0.82253    0.000
 5741.00    0.75418   0.82170    0.000
 5742.00    0.76049   0.82491    0.000
 5743.00    0.78199   0.82949    0.000
 5744.00    0.79821   0.82892    0.000
 5745.00    0.80901   0.82178    0.000
 5746.00    0.82349   0.81551    0.000
 5747.00    0.84129   0.81757    0.000
 5748.00    0.83639   0.82402    0.000
 5749.00    0.81343   0.82509    0.000
 5750.00    0.81880   0.81780    0.000
 5751.00    0.84402   0.80830    0.000
 5752.00    0.83298   0.80545    0.000
 5753.00    0.79968   0.81263    0.000
 5754.00    0.78713   0.82360    0.000
 5755.00    0.78573   0.83052    0.000
 5756.00    0.78664   0.83100    0.000
 5757.00    0.78864   0.82615    0.000
 5758.00    0.78835   0.81821    0.000
 5759.00    0.78714   0.80977    0.000
 5760.00    0.77513   0.80419    0.000
 5761.00    0.75941   0.80636    0.000
 5762.00    0.77711   0.81651    0.000
 5763.00    0.80445   0.82659    0.000
 5764.00    0.80605   0.83081    0.000
 5765.00    0.80153   0.83117    0.000
 5766.00    0.79572   0.83036    0.000
 5767.00    0.78966   0.82882    0.000
 5768.00    0.80903   0.82710    0.000
 5769.00    0.83218   0.82489    0.000
 5770.00    0.81457   0.82211    0.000
 5771.00    0.79251   0.82040    0.000
 5772.00    0.76489   0.81972    0.000
 5773.00    0.73686   0.81996    0.000
 5774.00    0.76802   0.82189    0.000
 5775.00    0.80137   0.82382    0.000
 5776.00    0.80271   0.82248    0.000
 5777.00    0.80423   0.81504    0.000
 5778.00    0.81687   0.80238    0.000
 5779.00    0.82936   0.79131    0.000
 5780.00    0.83937   0.78847    0.000
 5781.00    0.84683   0.79036    0.000
 5782.00    0.82850   0.79014    0.000
 5783.00    0.81065   0.78942    0.000
 5784.00    0.79629   0.79490    0.000
 5785.00    0.78533   0.80513    0.000
 5786.00    0.79328   0.81310    0.000
 5787.00    0.80064   0.81547    0.000
 5788.00    0.80539   0.81250    0.000
 5789.00    0.80945   0.80967    0.000
 5790.00    0.81099   0.81275    0.000
 5791.00    0.81370   0.81946   -2.000
 5792.00    0.81997   0.82511   -2.000
 5793.00    0.80943   0.82724   -2.000
 5794.00    0.75523   0.82355   -2.000
 5795.00    0.71721   0.81618   -2.000
 5796.00    0.71529   0.81387   -2.000
 5797.00    0.73047   0.82054   -2.000
 5798.00    0.77873   0.82980   -2.000
 5799.00    0.81379   0.83516   -2.000
 5800.00    0.82659   0.83526   -2.000
 5801.00    0.81768   0.83004   -2.000
 5802.00    0.77669   0.82236   -2.000
 5803.00    0.75951   0.81754   -2.000
 5804.00    0.77328   0.81725   -2.000
 5805.00    0.77976   0.81938   -2.000
 5806.00    0.77790   0.82147   -2.000
 5807.00    0.77604   0.82310   -2.000
 5808.00    0.77420   0.82494   -2.000
 5809.00    0.78302   0.82608   -2.000
 5810.00    0.80132   0.82525   -2.000
 5811.00    0.80300   0.82312    0.000
 5812.00    0.79164   0.81973    0.000
 5813.00    0.77147   0.81493    0.000
 5814.00    0.74522   0.81232    0.000
 5815.00    0.74837   0.81585    0.000
 5816.00    0.76931   0.82337    0.000
 5817.00    0.79425   0.82905    0.000
 5818.00    0.82132   0.83114    0.000
 5819.00    0.81872   0.83079    0.000
 5820.00    0.80254   0.82865    0.000
 5821.00    0.79371   0.82648    0.000
 5822.00    0.78778   0.82613    0.000
 5823.00    0.80048   0.82723    0.000
 5824.00    0.81945   0.82809    0.000
 5825.00    0.81870   0.82861    0.000
 5826.00    0.81239   0.82957    0.000
 5827.00    0.80656   0.83045    0.000
 5828.00    0.80084   0.83006    0.000
 5829.00    0.79144   0.82879    0.000
 5830.00    0.78136   0.82786    0.000
 5831.00    0.80670   0.82590    0.000
 5832.00    0.83715   0.82244    0.000
 5833.00    0.81958   0.82099    0.000
 5834.00    0.79700   0.82295    0.000
 5835.00    0.78887   0.82408    0.000
 5836.00    0.78172   0.82277    0.000
 5837.00    0.80288   0.82301    0.000
 5838.00    0.82497   0.82653    0.000
 5839.00    0.84548   0.83036    0.000
 5840.00    0.86445   0.83197    0.000
 5841.00    0.83462   0.83153    0.000
 5842.00    0.80555   0.82943    0.000
 5843.00    0.78772   0.82565    0.000
 5844.00    0.77148   0.82085    0.000
 5845.00    0.77059   0.81697    0.000
 5846.00    0.77097   0.81604    0.000
 5847.00    0.78030   0.81742    0.000
 5848.00    0.78603   0.81777    0.000
 5849.00    0.77230   0.81462    0.000
 5850.00    0.76462   0.80816    0.000
 5851.00    0.78312   0.80263    0.000
 5852.00    0.79902   0.80293    0.000
 5853.00    0.80560   0.80590    0.000
 5854.00    0.80581   0.80351    0.000
 5855.00    0.78692   0.79602    0.000
 5856.00    0.76368   0.79287    0.000
 5857.00    0.72930   0.79820    0.000
 5858.00    0.71501   0.80625    0.000
 5859.00    0.74479   0.81054    0.000
 5860.00    0.77294   0.80997    0.000
 5861.00    0.79794   0.80935    0.000
 5862.00    0.81445   0.81142    0.000
 5863.00    0.81685   0.81213    0.000
 5864.00    0.81205   0.80926    0.000
 5865.00    0.79677   0.80766    0.000
 5866.00    0.78099   0.81106    0.000
 5867.00    0.76458   0.81643    0.000
 5868.00    0.75912   0.81941    0.000
 5869.00    0.76602   0.81863    0.000
 5870.00    0.77380   0.81586    0.000
 5871.00    0.78245   0.81245    0.000
 5872.00    0.78957   0.80740    0.000
 5873.00    0.79533   0.80155    0.000
 5874.00    0.80402   0.79857    0.000
 5875.00    0.81500   0.80081    0.000
 5876.00    0.82396   0.80442    0.000
 5877.00    0.83157   0.80321    0.000
 5878.00    0.81681   0.80027    0.000
 5879.00    0.78873   0.80072    0.000
 5880.00    0.77003   0.80318    0.000
 5881.00    0.75621   0.80276    0.000
 5882.00    0.76159   0.80045    0.000
 5883.00    0.77561   0.80003    0.000
 5884.00    0.75013   0.79916    0.000
 5885.00    0.70933   0.78858    0.000
 5886.00    0.68833   0.75877    0.000
 5887.00    0.67386   0.71675    0.000
 5888.00    0.67801   0.69336    0.000
 5889.00    0.68731   0.70822    0.000
 5890.00    0.69353   0.74082    0.000
 5891.00    0.69904   0.75997    0.000
 5892.00    0.66887   0.75389    0.000
 5893.00    0.63221   0.72994    0.000
 5894.00    0.61575   0.71622    0.000
 5895.00    0.60212   0.73219    0.000
 5896.00    0.58271   0.76108    0.000
 5897.00    0.56271   0.78038    0.000
 5898.00    0.60266   0.78950    0.000
 5899.00    0.64642   0.79421    0.000
 5900.00    0.68022   0.79655    0.000
 5901.00    0.71374   0.79841    0.022
 5902.00    0.74854   0.79994    0.022
 5903.00    0.78206   0.79984    0.022
 5904.00    0.77951   0.79964    0.022
 5905.00    0.77821   0.80162    0.022
 5906.00    0.79466   0.80422    0.022
 5907.00    0.80881   0.80565    0.022
 5908.00    0.80151   0.80708    0.021
 5909.00    0.79448   0.80869    0.021
 5910.00    0.78932   0.80672    0.021
 5911.00    0.78862   0.79968    0.021
 5912.00    0.81143   0.79243    0.021
 5913.00    0.83080   0.79000    0.021
 5914.00    0.83561   0.79228    0.021
 5915.00    0.83974   0.79675    0.021
 5916.00    0.84152   0.80077    0.021
 5917.00    0.83811   0.80349    0.021
 5918.00    0.81940   0.80513    0.021
 5919.00    0.80349   0.80445    0.022
 5920.00    0.79455   0.80210    0.021
 5921.00    0.79085   0.80146    0.021
 5922.00    0.79844   0.80340    0.021
 5923.00    0.80047   0.80634    0.021
 5924.00    0.79208   0.80859    0.022
 5925.00    0.79352   0.80811    0.022
 5926.00    0.81106   0.80420    0.022
 5927.00    0.81893   0.79909    0.022
 5928.00    0.81291   0.79730    0.022
 5929.00    0.79854   0.80106    0.022
 5930.00    0.77363   0.80592    0.022
 5931.00    0.77130   0.80540    0.022
 5932.00    0.79408   0.80048    0.022
 5933.00    0.80054   0.79850    0.022
 5934.00    0.79098   0.80198    0.022
 5935.00    0.79719   0.80678    0.022
 5936.00    0.81707   0.81010    0.022
 5937.00    0.82328   0.81032    0.021
 5938.00    0.81907   0.80533    0.021
 5939.00    0.81147   0.79831    0.021
 5940.00    0.80160   0.79568    0.021
 5941.00    0.79279   0.79834    0.031
 5942.00    0.78460   0.80317    0.124
 5943.00    0.77362   0.80745   -1.000
 5944.00    0.76120   0.80872   -1.000
 5945.00    0.75075   0.80526   -1.000
 5946.00    0.74117   0.79893   -1.000
 5947.00    0.73944   0.79588   -1.000
 5948.00    0.74069   0.79879   -1.000
 5949.00    0.74560   0.80132   -1.000
 5950.00    0.75170   0.79866   -1.000
 5951.00    0.75588   0.79630   -1.000
 5952.00    0.75954   0.79830   -1.000
 5953.00    0.77660   0.79863    0.052
 5954.00    0.79662   0.79241    0.024
 5955.00    0.81171   0.78632    0.022
 5956.00    0.82591   0.78772    0.022
 5957.00    0.84434   0.79588    0.022
 5958.00    0.86334   0.80387    0.022
 5959.00    0.86573   0.80714    0.022
 5960.00    0.86653   0.80825    0.022
 5961.00    0.83718   0.80865    0.022
 5962.00    0.80603   0.80735    0.022
 5963.00    0.80161   0.80427    0.022
 5964.00    0.79798   0.80298    0.021
 5965.00    0.81221   0.80563    0.021
 5966.00    0.82620   0.80936    0.021
 5967.00    0.83392   0.81185    0.021
 5968.00    0.84312   0.81369    0.021
 5969.00    0.87231   0.81478    0.021
 5970.00    0.89879   0.81460    0.021
 5971.00    0.90091   0.81352    0.021
 5972.00    0.90133   0.81048    0.021
 5973.00    0.89064   0.80437    0.021
 5974.00    0.88058   0.79674    0.020
 5975.00    0.87378   0.78966    0.020
 5976.00    0.86737   0.78562    0.020
 5977.00    0.86254   0.78873    0.020
 5978.00    0.85388   0.79734    0.020
 5979.00    0.83208   0.80419    0.020
 5980.00    0.81177   0.80284    0.021
 5981.00    0.79574   0.79509    0.021
 5982.00    0.78125   0.78880    0.021
 5983.00    0.77055   0.79001    0.021
 5984.00    0.76922   0.79583    0.021
 5985.00    0.78784   0.80011    0.021
 5986.00    0.80337   0.80286    0.021
 5987.00    0.81321   0.80494    0.021
 5988.00    0.81346   0.80376    0.021
 5989.00    0.79827   0.80051    0.021
 5990.00    0.78899   0.80124    0.021
 5991.00    0.78811   0.80699    0.022
 5992.00    0.77746   0.81155    0.022
 5993.00    0.75467   0.81052    0.022
 5994.00    0.74829   0.80515    0.022
 5995.00    0.75995   0.79927    0.021
 5996.00    0.79259   0.79670    0.021
 5997.00    0.84556   0.79838    0.021
 5998.00    0.86364   0.80171    0.021
 5999.00    0.85193   0.80269    0.021
 6000.00    0.83634   0.80004    0.021
 6001.00    0.81782   0.79815    0.021
 6002.00    0.82238   0.79981    0.021
 6003.00    0.84217   0.80064    0.021
 6004.00    0.84423   0.79680    0.021
 6005.00    0.83602   0.79025    0.020
 6006.00    0.81440   0.78729    0.020
 6007.00    0.78601   0.79260    0.020
 6008.00    0.75465   0.80130    0.020
 6009.00    0.72198   0.80394    0.020
 6010.00    0.69999   0.79893    0.020
 6011.00    0.68199   0.79358    0.020
 6012.00    0.69203   0.79358    0.020
 6013.00    0.71098   0.79561    0.020
 6014.00    0.73299   0.79476    0.021
 6015.00    0.75581   0.79319    0.021
 6016.00    0.76893   0.79360    0.021
 6017.00    0.77994   0.79332    0.021
 6018.00    0.76635   0.79178    0.021
 6019.00    0.74852   0.79198    0.021
 6020.00    0.72827   0.79396    0.021
 6021.00    0.70771   0.79562    0.021
 6022.00    0.71020   0.79744    0.021
 6023.00    0.71481   0.80052    0.021
 6024.00    0.72601   0.80279    0.021
 6025.00    0.73757   0.80354    0.022
 6026.00    0.75924   0.80541    0.021
 6027.00    0.78114   0.80770    0.021
 6028.00    0.80451   0.80813    0.021
 6029.00    0.82742   0.80808    0.021
 6030.00    0.83959   0.80988    0.021
 6031.00    0.85095   0.81213    0.021
 6032.00    0.85202   0.81274    0.021
 6033.00    0.85182   0.81237    0.021
 6034.00    0.84061   0.81234    0.021
 6035.00    0.83079   0.81243    0.020
 6036.00    0.82978   0.81159    0.020
 6037.00    0.82938   0.80945    0.020
 6038.00    0.83202   0.80709    0.020
 6039.00    0.83216   0.80594    0.020
 6040.00    0.82217   0.80691    0.020
 6041.00    0.81454   0.81009    0.020
 6042.00    0.81480   0.81301    0.020
 6043.00    0.81817   0.81382    0.020
 6044.00    0.83035   0.81380    0.020
 6045.00    0.84981   0.81416    0.021
 6046.00    0.88689   0.81426    0.021
 6047.00    0.90863   0.81404    0.021
 6048.00    0.89831   0.81432    0.021
 6049.00    0.87700   0.81401    0.021
 6050.00    0.83574   0.81137    0.021
 6051.00    0.80070   0.80764    0.021
 6052.00    0.77555   0.80510    0.021
 6053.00    0.76688   0.80329    0.021
 6054.00    0.78121   0.80150    0.021
 6055.00    0.79490   0.80132    0.021
 6056.00    0.80780   0.80372    0.021
 6057.00    0.81200   0.80709    0.021
 6058.00    0.80678   0.80903    0.021
 6059.00    0.80735   0.80838    0.021
 6060.00    0.81343   0.80528    0.021
 6061.00    0.81805   0.80040    0.021
 6062.00    0.82143   0.79424    0.021
 6063.00    0.80678   0.79048    0.021
 6064.00    0.77876   0.79481    0.021
 6065.00    0.76975   0.80509    0.020
 6066.00    0.77311   0.81303    0.020
 6067.00    0.77719   0.81579    0.020
 6068.00    0.78167   0.81616    0.020
 6069.00    0.78772   0.81665    0.020
 6070.00    0.79454   0.81775    0.020
 6071.00    0.80759   0.81860    0.020
 6072.00    0.82332   0.81851    0.020
 6073.00    0.83719   0.81718    0.020
 6074.00    0.85039   0.81417    0.020
 6075.00    0.86133   0.80876    0.021
 6076.00    0.87157   0.80243    0.021
 6077.00    0.87742   0.79943    0.021
 6078.00    0.88213   0.79950    0.021
 6079.00    0.88598   0.79767    0.021
 6080.00    0.88965   0.79484    0.021
 6081.00    0.86933   0.79552    0.021
 6082.00    0.84498   0.79777    0.021
 6083.00    0.82326   0.79805    0.021
 6084.00    0.80187   0.79843    0.021
 6085.00    0.81457   0.80080    0.021
 6086.00    0.83027   0.80201    0.021
 6087.00    0.82744   0.79879    0.021
 6088.00    0.82366   0.79415    0.021
 6089.00    0.82277   0.79271    0.021
 6090.00    0.82230   0.79390    0.021
 6091.00    0.84828   0.79638    0.021
 6092.00    0.87275   0.80094    0.021
 6093.00    0.86502   0.80512    0.020
 6094.00    0.85790   0.80528    0.020
 6095.00    0.85810   0.80350    0.020
 6096.00    0.85753   0.80440    0.020
 6097.00    0.85049   0.80749    0.020
 6098.00    0.84139   0.80682    0.020
 6099.00    0.81944   0.79667    0.020
 6100.00    0.79714   0.78124    0.020
 6101.00    0.77316   0.77587    0.020
 6102.00    0.75223   0.78588    0.020
 6103.00    0.74338   0.79831    0.020
 6104.00    0.73473   0.80285    0.020
 6105.00    0.72674   0.80173    0.020
 6106.00    0.72562   0.80167    0.020
 6107.00    0.74362   0.80442    0.021
 6108.00    0.76043   0.80507    0.021
 6109.00    0.77442   0.80242    0.021
 6110.00    0.78928   0.80213    0.021
 6111.00    0.80596   0.80591    0.021
 6112.00    0.82459   0.80910    0.021
 6113.00    0.84670   0.80769    0.021
 6114.00    0.85777   0.80388    0.021
 6115.00    0.85155   0.80281    0.020
 6116.00    0.85360   0.80304    0.020
 6117.00    0.86705   0.79908    0.021
 6118.00    0.86379   0.79025    0.021
 6119.00    0.84034   0.78038    0.020
 6120.00    0.81355   0.77680    0.020
 6121.00    0.78321   0.78420    0.020
 6122.00    0.77132   0.79502    0.020
 6123.00    0.77678   0.79920    0.020
 6124.00    0.79625   0.79712    0.020
 6125.00    0.82736   0.79328    0.020
 6126.00    0.84853   0.79101    0.020
 6127.00    0.86244   0.79326    0.020
 6128.00    0.86125   0.79925    0.020
 6129.00    0.85036   0.80475    0.020
 6130.00    0.82850   0.80736    0.020
 6131.00    0.80048   0.80579    0.020
 6132.00    0.78256   0.79754    0.020
 6133.00    0.76958   0.78177    0.020
 6134.00    0.77739   0.76357    0.020
 6135.00    0.79396   0.75558    0.021
 6136.00    0.81604   0.76682    0.021
 6137.00    0.84011   0.78656    0.021
 6138.00    0.83263   0.79548    0.021
 6139.00    0.81553   0.79139    0.021
 6140.00    0.81033   0.78894    0.021
 6141.00    0.80816   0.79586    0.021
 6142.00    0.82205   0.80464    0.021
 6143.00    0.83926   0.80733    0.021
 6144.00    0.83283   0.80373    0.021
 6145.00    0.82256   0.79645    0.021
 6146.00    0.83211   0.78811    0.020
 6147.00    0.84406   0.78305    0.020
 6148.00    0.83778   0.78431    0.020
 6149.00    0.82997   0.79053    0.020
 6150.00    0.80900   0.79660    0.020
 6151.00    0.78740   0.79763    0.020
 6152.00    0.79427   0.79254    0.020
 6153.00    0.80165   0.78577    0.020
 6154.00    0.81462   0.78169    0.020
 6155.00    0.82577   0.78015    0.020
 6156.00    0.80113   0.78066    0.020
 6157.00    0.77675   0.77955    0.020
 6158.00    0.75534   0.77015    0.020
 6159.00    0.73358   0.75342    0.020
 6160.00    0.70908   0.74231    0.020
 6161.00    0.68957   0.74582    0.020
 6162.00    0.70008   0.75837    0.021
 6163.00    0.70957   0.76988    0.021
 6164.00    0.71427   0.77680    0.021
 6165.00    0.71630   0.77904    0.021
 6166.00    0.70796   0.77330    0.021
 6167.00    0.69922   0.76234    0.021
 6168.00    0.68923   0.75919    0.021
 6169.00    0.68630   0.76816    0.020
 6170.00    0.70270   0.77813    0.021
 6171.00    0.71984   0.78112    0.021
 6172.00    0.73870   0.78032    0.021
 6173.00    0.75276   0.77959    0.021
 6174.00    0.75710   0.77923    0.020
 6175.00    0.76407   0.78035    0.020
 6176.00    0.77565   0.78323    0.020
 6177.00    0.77939   0.78513    0.020
 6178.00    0.77104   0.78565    0.020
 6179.00    0.76070   0.78738    0.020
 6180.00    0.74767   0.78979    0.020
 6181.00    0.74150   0.79046    0.020
 6182.00    0.74351   0.78916    0.020
 6183.00    0.75424   0.78556    0.019
 6184.00    0.77415   0.77983    0.020
 6185.00    0.78905   0.77495    0.020
 6186.00    0.79928   0.77263    0.020
 6187.00    0.80964   0.77004    0.020
 6188.00    0.82009   0.76322    0.021
 6189.00    0.81130   0.75572    0.021
 6190.00    0.78865   0.75759    0.020
 6191.00    0.78505   0.76890    0.020
 6192.00    0.79349   0.77945    0.020
 6193.00    0.81878   0.78487    0.021
 6194.00    0.85336   0.78763    0.021
 6195.00    0.89171   0.78771    0.022
 6196.00    0.93186   0.78225   -2.000
 6197.00    0.89423   0.77377   -2.000
 6198.00    0.82436   0.77072   -2.000
 6199.00    0.67849   0.77630   -2.000
 6200.00    0.50568   0.78429   -2.000
 6201.00    0.52843   0.78844   -2.000
 6202.00    0.60970   0.78860   -2.000
 6203.00    0.73532   0.78805   -2.000
 6204.00    0.87196   0.78841   -2.000
 6205.00    0.88846   0.78872   -2.000
 6206.00    0.88077   0.78814   -2.000
 6207.00    0.82517   0.78646   -2.000
 6208.00    0.76201   0.78365    0.021
 6209.00    0.77415   0.77998    0.020
 6210.00    0.79512   0.77354    0.020
 6211.00    0.79490   0.76346    0.020
 6212.00    0.79300   0.75484    0.020
 6213.00    0.77068   0.75273    0.019
 6214.00    0.74747   0.75721    0.019
 6215.00    0.74094   0.76418    0.019
 6216.00    0.73458   0.76699    0.020
 6217.00    0.72751   0.76371    0.020
 6218.00    0.72101   0.76018    0.020
 6219.00    0.72497   0.76133    0.020
 6220.00    0.72932   0.76539    0.021
 6221.00    0.73789   0.76757    0.021
 6222.00    0.74696   0.76745    0.021
 6223.00    0.75986   0.76853    0.021
 6224.00    0.77273   0.77073    0.021
 6225.00    0.78541   0.77140    0.021
 6226.00    0.79278   0.76821    0.021
 6227.00    0.77554   0.75881    0.021
 6228.00    0.76066   0.74687    0.021
 6229.00    0.75477   0.74231    0.021
 6230.00    0.74998   0.74793    0.021
 6231.00    0.74864   0.75889    0.021
 6232.00    0.74494   0.77088    0.021
 6233.00    0.73488   0.77874    0.020
 6234.00    0.73013   0.77863    0.020
 6235.00    0.73759   0.77139    0.019
 6236.00    0.74586   0.76108    0.019
 6237.00    0.75574   0.75259    0.019
 6238.00    0.75983   0.75056    0.019
 6239.00    0.75391   0.75332    0.019
 6240.00    0.74733   0.75306    0.019
 6241.00    0.73977   0.74926    0.019
 6242.00    0.73806   0.74861    0.019
 6243.00    0.74415   0.75074    0.019
 6244.00    0.75155   0.75262    0.019
 6245.00    0.76049   0.75705    0.020
 6246.00    0.76424   0.76458    0.020
 6247.00    0.76261   0.77065    0.020
 6248.00    0.75901   0.77098    0.020
 6249.00    0.75360   0.76466    0.021
 6250.00    0.74405   0.75601    0.020
 6251.00    0.73116   0.75134    0.020
 6252.00    0.73050   0.75145    0.020
 6253.00    0.73851   0.75151    0.021
 6254.00    0.74577   0.74765    0.021
 6255.00    0.75256   0.74164    0.021
 6256.00    0.75126   0.73940    0.020
 6257.00    0.74558   0.74484    0.020
 6258.00    0.73514   0.75444    0.020
 6259.00    0.72245   0.76278    0.021
 6260.00    0.68853   0.77002    0.022
 6261.00    0.64597   0.77468    0.023
 6262.00    0.63390   0.77225    0.024
 6263.00    0.63245   0.76640    0.024
 6264.00    0.66187   0.76558    0.024
 6265.00    0.70035   0.76868    0.023
 6266.00    0.78276   0.76942    0.022
 6267.00    0.87585   0.76816    0.021
 6268.00    0.89098   0.76859    0.021
 6269.00    0.89080   0.77098    0.020
 6270.00    0.85575   0.77357    0.020
 6271.00    0.81536   0.77497    0.020
 6272.00    0.79833   0.77504    0.020
 6273.00    0.78394   0.77510    0.020
 6274.00    0.80584   0.77527    0.020
 6275.00    0.83047   0.77456    0.021
 6276.00    0.81930   0.77262    0.020
 6277.00    0.80670   0.76877    0.020
 6278.00    0.80745   0.76449    0.020
 6279.00    0.80813   0.76374    0.020
 6280.00    0.80194   0.76749    0.000
 6281.00    0.79483   0.77306    0.000
 6282.00    0.77197   0.77680    0.000
 6283.00    0.75150   0.77784    0.000
 6284.00    0.75609   0.77950    0.000
 6285.00    0.76066   0.78317    0.000
 6286.00    0.76503   0.78630    0.000
 6287.00    0.77045   0.78594    0.000
 6288.00    0.78184   0.78132    0.000
 6289.00    0.79517   0.77556    0.000
 6290.00    0.81729   0.77201    0.000
 6291.00    0.83717   0.77200    0.000
 6292.00    0.84870   0.77379    0.000
 6293.00    0.85542   0.77199    0.000
 6294.00    0.84718   0.76580    0.000
 6295.00    0.84014   0.76176    0.000
 6296.00    0.83628   0.76376    0.000
 6297.00    0.83065   0.76792    0.000
 6298.00    0.82104   0.76823    0.000
 6299.00    0.80862   0.76428    0.000
 6300.00    0.79073   0.76199    0.000
 6301.00    0.78409   0.76446    0.000
 6302.00    0.79668   0.76761    0.000
 6303.00    0.81029   0.76919    0.000
 6304.00    0.82540   0.77300    0.000
 6305.00    0.84045   0.78012    0.000
 6306.00    0.85541   0.78521    0.000
 6307.00    0.85708   0.78423    0.000
 6308.00    0.84334   0.77871    0.000
 6309.00    0.83803   0.77346    0.000
 6310.00    0.84133   0.77177    0.000
 6311.00    0.85459   0.77140    0.000
 6312.00    0.87685   0.76834    0.000
 6313.00    0.87687   0.76447    0.000
 6314.00    0.85921   0.76194    0.000
 6315.00    0.84902   0.75819    0.000
 6316.00    0.84403   0.75479    0.000
 6317.00    0.82818   0.75779    0.000
 6318.00    0.80566   0.76560    0.000
 6319.00    0.78522   0.77124    0.000
 6320.00    0.76590   0.77355    0.000
 6321.00    0.76580   0.77607    0.019
 6322.00    0.77464   0.77937    0.019
 6323.00    0.78696   0.78120    0.019
 6324.00    0.80066   0.78091    0.020
 6325.00    0.79732   0.78018    0.020
 6326.00    0.78815   0.78066    0.020
 6327.00    0.78393   0.78063    0.020
 6328.00    0.78113   0.77918    0.020
 6329.00    0.79879   0.77960    0.020
 6330.00    0.82132   0.78244    0.020
 6331.00    0.82325   0.78253    0.020
 6332.00    0.82124   0.77548    0.020
 6333.00    0.82613   0.76460    0.020
 6334.00    0.83204   0.75954    0.020
 6335.00    0.84522   0.76336    0.020
 6336.00    0.85920   0.76957    0.020
 6337.00    0.84256   0.77402    0.020
 6338.00    0.82373   0.77799    0.020
 6339.00    0.78816   0.77964    0.019
 6340.00    0.75199   0.77525    0.019
 6341.00    0.75606   0.76679    0.019
 6342.00    0.76094   0.75911    0.019
 6343.00    0.78889   0.75138    0.019
 6344.00    0.81495   0.74290    0.019
 6345.00    0.81087   0.74194    0.019
 6346.00    0.80629   0.75307    0.019
 6347.00    0.79662   0.76881    0.019
 6348.00    0.79312   0.77812    0.019
 6349.00    0.83406   0.78097    0.020
 6350.00    0.86957   0.78035    0.020
 6351.00    0.87505   0.77605    0.020
 6352.00    0.87548   0.76998    0.020
 6353.00    0.85357   0.76667    0.020
 6354.00    0.83665   0.76654    0.020
 6355.00    0.83790   0.76420    0.020
 6356.00    0.83480   0.75801    0.020
 6357.00    0.81849   0.75289    0.020
 6358.00    0.80506   0.75049    0.020
 6359.00    0.79913   0.74790    0.020
 6360.00    0.80008   0.74576    0.020
 6361.00    0.81635   0.74770    0.020
 6362.00    0.82636   0.75368    0.020
 6363.00    0.82426   0.76045    0.020
 6364.00    0.82000   0.76667    0.020
 6365.00    0.81208   0.77238    0.020
 6366.00    0.81843   0.77481    0.019
 6367.00    0.84586   0.76927    0.020
 6368.00    0.85863   0.75853    0.020
 6369.00    0.85240   0.75524    0.019
 6370.00    0.84207   0.76426    0.019
 6371.00    0.82706   0.77714    0.019
 6372.00    0.81766   0.78385    0.019
 6373.00    0.81391   0.78452    0.019
 6374.00    0.82738   0.78396    0.019
 6375.00    0.85616   0.78153    0.019
 6376.00    0.86401   0.77728    0.020
 6377.00    0.85546   0.77413    0.020
 6378.00    0.85207   0.77361    0.020
 6379.00    0.85222   0.77494    0.020
 6380.00    0.85676   0.77633    0.020
 6381.00    0.86393   0.77580    0.020
 6382.00    0.85852   0.77437    0.020
 6383.00    0.84648   0.77548    0.020
 6384.00    0.83809   0.77908    0.020
 6385.00    0.83138   0.78207    0.020
 6386.00    0.83018   0.78330    0.020
 6387.00    0.83115   0.78416    0.020
 6388.00    0.83671   0.78418    0.020
 6389.00    0.84381   0.77982    0.020
 6390.00    0.85826   0.76983    0.019
 6391.00    0.87479   0.76119    0.019
 6392.00    0.86180   0.76284    0.019
 6393.00    0.84196   0.77289    0.019
 6394.00    0.83078   0.78214    0.019
 6395.00    0.82121   0.78474    0.020
 6396.00    0.82807   0.77807    0.020
 6397.00    0.83728   0.76501    0.020
 6398.00    0.84588   0.75782    0.020
 6399.00    0.85441   0.76481    0.019
 6400.00    0.85468   0.77785    0.020
 6401.00    0.85441   0.78594    0.020
 6402.00    0.86102   0.78769    0.020
 6403.00    0.86786   0.78510    0.020
 6404.00    0.88157   0.77924    0.020
 6405.00    0.89443   0.77297    0.020
 6406.00    0.88101   0.77189    0.020
 6407.00    0.86787   0.77592    0.020
 6408.00    0.85879   0.77678    0.020
 6409.00    0.85090   0.77267    0.020
 6410.00    0.85437   0.77068    0.020
 6411.00    0.85747   0.77249    0.020
 6412.00    0.85791   0.77479    0.020
 6413.00    0.86003   0.77639    0.020
 6414.00    0.87115   0.77703    0.020
 6415.00    0.88182   0.77608    0.020
 6416.00    0.89056   0.77294    0.020
 6417.00    0.89207   0.76711    0.019
 6418.00    0.86789   0.76160    0.019
 6419.00    0.84668   0.76312    0.019
 6420.00    0.83438   0.77285    0.019
 6421.00    0.83024   0.78300    0.019
 6422.00    0.84690   0.78690    0.019
 6423.00    0.85431   0.78709    0.019
 6424.00    0.84148   0.78859    0.019
 6425.00    0.83163   0.79058    0.019
 6426.00    0.82743   0.78833    0.019
 6427.00    0.81848   0.77884    0.019
 6428.00    0.80165   0.76616    0.020
 6429.00    0.80362   0.76029    0.020
 6430.00    0.83293   0.76526    0.021
 6431.00    0.85462   0.77450    0.021
 6432.00    0.86659   0.78149    0.020
 6433.00    0.87614   0.78505    0.020
 6434.00    0.88299   0.78481    0.021
 6435.00    0.88378   0.77900    0.021
 6436.00    0.87856   0.76980    0.020
 6437.00    0.88391   0.76678    0.020
 6438.00    0.89852   0.77473    0.020
 6439.00    0.89862   0.78546    0.020
 6440.00    0.88752   0.79063    0.020
 6441.00    0.88780   0.79088    0.020
 6442.00    0.89583   0.79017    0.019
 6443.00    0.89360   0.79045    0.019
 6444.00    0.88529   0.79041    0.019
 6445.00    0.88218   0.78537    0.019
 6446.00    0.88178   0.77110    0.019
 6447.00    0.89139   0.75297    0.019
 6448.00    0.90551   0.74588    0.020
 6449.00    0.88315   0.75507    0.020
 6450.00    0.84667   0.76943    0.020
 6451.00    0.81278   0.77700    0.020
 6452.00    0.77973   0.77300    0.020
 6453.00    0.76914   0.76216    0.020
 6454.00    0.76474   0.75761    0.019
 6455.00    0.78172   0.76602    0.020
 6456.00    0.80354   0.78017    0.020
 6457.00    0.80521   0.78898    0.020
 6458.00    0.80323   0.78750    0.020
 6459.00    0.80558   0.77632    0.020
 6460.00    0.80852   0.76330    0.021
 6461.00    0.80916   0.76055    0.020
 6462.00    0.80957   0.76916    0.020
 6463.00    0.83495   0.77899    0.020
 6464.00    0.86190   0.78459    0.020
 6465.00    0.85792   0.78647    0.019
 6466.00    0.85302   0.78507    0.019
 6467.00    0.84010   0.78130    0.019
 6468.00    0.82817   0.77730    0.019
 6469.00    0.84394   0.77535    0.019
 6470.00    0.86001   0.77698    0.019
 6471.00    0.88040   0.77940    0.019
 6472.00    0.89805   0.77830    0.019
 6473.00    0.89018   0.77596    0.019
 6474.00    0.88239   0.77709    0.020
 6475.00    0.87505   0.78014    0.020
 6476.00    0.86912   0.78133    0.020
 6477.00    0.87060   0.77989    0.020
 6478.00    0.87315   0.77423    0.020
 6479.00    0.88027   0.76417    0.020
 6480.00    0.88159   0.75628    0.020
 6481.00    0.86270   0.75676    0.020
 6482.00    0.84487   0.76352    0.020
 6483.00    0.83014   0.77032    0.020
 6484.00    0.82220   0.77450    0.020
 6485.00    0.83123   0.77667    0.020
 6486.00    0.83480   0.77620    0.020
 6487.00    0.82663   0.77219    0.020
 6488.00    0.82373   0.76643    0.019
 6489.00    0.83071   0.76084    0.019
 6490.00    0.84226   0.75245    0.019
 6491.00    0.86129   0.73727    0.019
 6492.00    0.87532   0.72021    0.019
 6493.00    0.88217   0.71171    0.019
 6494.00    0.87639   0.71481    0.019
 6495.00    0.85469   0.72459    0.019
 6496.00    0.82705   0.73479    0.019
 6497.00    0.79282   0.74315    0.019
 6498.00    0.77960   0.75155    0.020
 6499.00    0.78696   0.75946    0.020
 6500.00    0.79786   0.76467    0.020
 6501.00    0.81182   0.76751    0.020
 6502.00    0.82467   0.76964    0.020
 6503.00    0.83669   0.77160    0.020
 6504.00    0.86499   0.77213    0.020
 6505.00    0.90417   0.76991    0.021
 6506.00    0.91398   0.76701    0.021
 6507.00    0.90656   0.76715    0.020
 6508.00    0.90284   0.77023    0.020
 6509.00    0.90101   0.77262    0.020
 6510.00    0.89173   0.77275    0.020
 6511.00    0.87914   0.77122    0.020
 6512.00    0.88245   0.76710    0.019
 6513.00    0.89180   0.76070    0.019
 6514.00    0.88495   0.75533    0.019
 6515.00    0.87288   0.75287    0.019
 6516.00    0.84244   0.75326    0.019
 6517.00    0.80703   0.75744    0.019
 6518.00    0.80519   0.76451    0.019
 6519.00    0.81078   0.76982    0.019
 6520.00    0.82841   0.77078    0.019
 6521.00    0.84817   0.76986    0.019
 6522.00    0.86293   0.76921    0.020
 6523.00    0.87702   0.76682    0.020
 6524.00    0.88050   0.76197    0.020
 6525.00    0.88296   0.75865    0.020
 6526.00    0.86400   0.75965    0.020
 6527.00    0.84378   0.76242    0.020
 6528.00    0.84537   0.76268    0.000
 6529.00    0.84743   0.75894    0.000
 6530.00    0.83809   0.75397    0.000
 6531.00    0.82936   0.75229    0.000
 6532.00    0.83574   0.75531    0.000
 6533.00    0.84223   0.75931    0.000
 6534.00    0.85024   0.75965    0.000
 6535.00    0.85742   0.75699    0.000
 6536.00    0.85721   0.75629    0.000
 6537.00    0.85655   0.75836    0.000
 6538.00    0.85286   0.75845    0.000
 6539.00    0.85036   0.75373    0.000
 6540.00    0.85391   0.74625    0.000
 6541.00    0.85754   0.73878    0.000
 6542.00    0.86155   0.73065    0.000
 6543.00    0.86357   0.72092    0.000
 6544.00    0.85881   0.71369    0.000
 6545.00    0.85367   0.71310    0.000
 6546.00    0.84743   0.71555    0.000
 6547.00    0.84880   0.71423    0.000
 6548.00    0.86884   0.70779    0.000
 6549.00    0.88385   0.69907    0.000
 6550.00    0.88817   0.68999    0.000
 6551.00    0.88620   0.67923    0.000
 6552.00    0.87267   0.66587    0.000
 6553.00    0.85667   0.65276    0.000
 6554.00    0.83669   0.64268    0.000
 6555.00    0.81447   0.63407    0.000
 6556.00    0.78910   0.62283    0.000
 6557.00    0.77867   0.60465    0.000
 6558.00    0.78680   0.57082    0.000
 6559.00    0.79879   0.51533    0.000
 6560.00    0.81500   0.46181    0.000
 6561.00    0.82796   0.45449    0.000
 6562.00    0.83777   0.50108    0.000
 6563.00    0.85080   0.56208    0.000
 6564.00    0.86656   0.60519    0.000
 6565.00    0.87954   0.62913    0.000
 6566.00    0.89043   0.64181    0.000
 6567.00    0.87953   0.65020    0.000
 6568.00    0.85425   0.65947    0.000
 6569.00    0.82375   0.66824    0.000
 6570.00    0.79025   0.67307    0.000
 6571.00    0.77114   0.67558    0.000
 6572.00    0.75927   0.68042    0.000
 6573.00    0.77314   0.69074    0.000
 6574.00    0.79821   0.70502    0.000
 6575.00    0.80663   0.71755    0.000
 6576.00    0.80884   0.72434    0.000
 6577.00    0.81974   0.72563    0.000
 6578.00    0.83341   0.72427    0.000
 6579.00    0.85797   0.72481    0.000
 6580.00    0.88542   0.72972    0.000
 6581.00    0.89636   0.73623    0.000
 6582.00    0.90374   0.74032    0.000
 6583.00    0.91919   0.74144    0.000
 6584.00    0.93602   0.74263    0.000
 6585.00    0.95758   0.74675    0.000
 6586.00    0.97975   0.75222    0.000
 6587.00    0.97287   0.75540    0.000
 6588.00    0.96333   0.75362    0.000
 6589.00    0.92797   0.74491    0.000
 6590.00    0.89118   0.73194    0.000
 6591.00    0.86856   0.72476    0.000
 6592.00    0.84618   0.73003    0.000
 6593.00    0.81676   0.74123    0.000
 6594.00    0.78864   0.74802    0.000
 6595.00    0.79023   0.74839    0.000
 6596.00    0.79411   0.74705    0.000
 6597.00    0.82708   0.74922    0.000
 6598.00    0.85694   0.75542    0.000
 6599.00    0.86017   0.76118    0.000
 6600.00    0.86572   0.76264    0.000
 6601.00    0.88611   0.75992    0.000
 6602.00    0.90040   0.75536    0.000
 6603.00    0.88437   0.75142    0.000
 6604.00    0.86970   0.74887    0.000
 6605.00    0.86056   0.74599    0.000
 6606.00    0.85592   0.74225    0.000
 6607.00    0.86632   0.74204    0.000
 6608.00    0.87432   0.74877    0.000
 6609.00    0.87552   0.75713    0.020
 6610.00    0.87459   0.75978    0.020
 6611.00    0.86852   0.75812    0.019
 6612.00    0.86598   0.75893    0.019
 6613.00    0.87079   0.76268    0.019
 6614.00    0.86888   0.76446    0.019
 6615.00    0.85478   0.76367    0.019
 6616.00    0.85803   0.76379    0.019
 6617.00    0.88880   0.76575    0.020
 6618.00    0.91119   0.76726    0.020
 6619.00    0.92192   0.76629    0.020
 6620.00    0.92238   0.76210    0.020
 6621.00    0.91026   0.75534    0.020
 6622.00    0.89186   0.74925    0.020
 6623.00    0.86668   0.74818    0.020
 6624.00    0.85420   0.75186    0.020
 6625.00    0.85382   0.75577    0.020
 6626.00    0.85135   0.75734    0.020
 6627.00    0.84712   0.75682    0.020
 6628.00    0.84432   0.75485    0.020
 6629.00    0.84258   0.75134    0.020
 6630.00    0.83526   0.74586    0.020
 6631.00    0.82430   0.74063    0.020
 6632.00    0.82064   0.74067    0.020
 6633.00    0.82113   0.74696    0.019
 6634.00    0.84144   0.75448    0.019
 6635.00    0.87156   0.75866    0.019
 6636.00    0.88606   0.75850    0.019
 6637.00    0.89389   0.75645    0.019
 6638.00    0.88424   0.75637    0.019
 6639.00    0.86819   0.75728    0.019
 6640.00    0.85619   0.75428    0.019
 6641.00    0.84546   0.74919    0.019
 6642.00    0.83869   0.74871    0.020
 6643.00    0.83294   0.75266    0.020
 6644.00    0.83044   0.75556    0.020
 6645.00    0.82862   0.75593    0.020
 6646.00    0.83218   0.75618    0.020
 6647.00    0.83664   0.75683    0.020
 6648.00    0.85194   0.75604    0.020
 6649.00    0.86861   0.75396    0.020
 6650.00    0.85716   0.75304    0.020
 6651.00    0.84327   0.75395    0.020
 6652.00    0.84237   0.75506    0.020
 6653.00    0.84215   0.75528    0.020
 6654.00    0.83474   0.75480    0.020
 6655.00    0.82755   0.75461    0.019
 6656.00    0.84550   0.75480    0.019
 6657.00    0.86268   0.75397    0.019
 6658.00    0.86364   0.75149    0.019
 6659.00    0.86248   0.74757    0.019
 6660.00    0.83578   0.74225    0.019
 6661.00    0.80944   0.73830    0.019
 6662.00    0.78606   0.73895    0.019
 6663.00    0.76804   0.74181    0.019
 6664.00    0.78317   0.74341    0.020
 6665.00    0.79936   0.74479    0.020
 6666.00    0.82069   0.74822    0.020
 6667.00    0.83710   0.75337    0.020
 6668.00    0.83409   0.75748    0.020
 6669.00    0.83619   0.75883    0.020
 6670.00    0.85505   0.75868    0.020
 6671.00    0.86475   0.75872    0.020
 6672.00    0.84906   0.75871    0.020
 6673.00    0.84051   0.75563    0.020
 6674.00    0.84895   0.74531    0.020
 6675.00    0.86073   0.73105    0.020
 6676.00    0.87938   0.72470    0.020
 6677.00    0.88446   0.73115    0.020
 6678.00    0.86528   0.74139    0.019
 6679.00    0.84969   0.74720    0.019
 6680.00    0.83969   0.74992    0.019
 6681.00    0.82569   0.75228    0.019
 6682.00    0.80622   0.75379    0.019
 6683.00    0.80810   0.75396    0.019
 6684.00    0.83576   0.75324    0.019
 6685.00    0.86076   0.75227    0.020
 6686.00    0.88294   0.75218    0.020
 6687.00    0.87483   0.75318    0.020
 6688.00    0.83829   0.75412    0.020
 6689.00    0.82209   0.75427    0.020
 6690.00    0.82273   0.75399    0.020
 6691.00    0.83908   0.75327    0.020
 6692.00    0.86688   0.75037    0.020
 6693.00    0.88050   0.74480    0.020
 6694.00    0.88503   0.73982    0.020
 6695.00    0.87149   0.73917    0.020
 6696.00    0.84783   0.74274    0.000
 6697.00    0.84121   0.74808    0.000
 6698.00    0.84288   0.75250    0.000
 6699.00    0.85452   0.75364    0.000
 6700.00    0.87035   0.75119    0.000
 6701.00    0.87562   0.74718    0.000
 6702.00    0.87709   0.74481    0.000
 6703.00    0.87831   0.74604    0.000
 6704.00    0.87945   0.74936    0.000
 6705.00    0.88880   0.75178    0.000
 6706.00    0.90023   0.75186    0.000
 6707.00    0.89036   0.74993    0.000
 6708.00    0.87611   0.74800    0.000
 6709.00    0.88794   0.74730    0.000
 6710.00    0.90400   0.74602    0.000
 6711.00    0.90203   0.74270    0.000
 6712.00    0.89789   0.73797    0.000
 6713.00    0.89962   0.73232    0.000
 6714.00    0.90184   0.72681    0.000
 6715.00    0.89260   0.72518    0.000
 6716.00    0.88281   0.73028    0.000
 6717.00    0.86949   0.73835    0.000
 6718.00    0.85617   0.74313    0.000
 6719.00    0.84538   0.74426    0.000
 6720.00    0.83620   0.74541    0.000
 6721.00    0.85824   0.74718    0.000
 6722.00    0.87506   0.74701    0.000
 6723.00    0.83205   0.74460    0.000
 6724.00    0.79394   0.74302    0.000
 6725.00    0.79485   0.74404    0.000
 6726.00    0.79643   0.74645    0.000
 6727.00    0.80197   0.74896    0.000
 6728.00    0.81096   0.75067    0.000
 6729.00    0.83629   0.75062    0.000
 6730.00    0.86384   0.74897    0.000
 6731.00    0.89996   0.74706    0.000
 6732.00    0.92742   0.74657    0.000
 6733.00    0.92699   0.74782    0.000
 6734.00    0.92628   0.74818    0.000
 6735.00    0.92482   0.74524    0.000
 6736.00    0.91637   0.74077    0.000
 6737.00    0.89159   0.73873    0.000
 6738.00    0.86670   0.74023    0.000
 6739.00    0.84158   0.74170    0.000
 6740.00    0.82078   0.74040    0.000
 6741.00    0.80758   0.73886    0.000
 6742.00    0.80558   0.73946    0.000
 6743.00    0.82085   0.74034    0.000
 6744.00    0.83379   0.73972    0.000
 6745.00    0.84359   0.73807    0.000
 6746.00    0.84880   0.73640    0.000
 6747.00    0.84855   0.73559    0.000
 6748.00    0.83964   0.73609    0.000
 6749.00    0.82165   0.73644    0.000
 6750.00    0.80484   0.73549    0.000
 6751.00    0.78913   0.73570    0.000
 6752.00    0.77743   0.73856    0.000
 6753.00    0.76900   0.74187    0.021
 6754.00    0.77547   0.74471    0.022
 6755.00    0.79264   0.74784    0.023
 6756.00    0.81897   0.75099    0.023
 6757.00    0.85108   0.75319    0.023
 6758.00    0.85108   0.75368    0.023
 6759.00    0.83340   0.75232    0.023
 6760.00    0.86401   0.75076    0.024
 6761.00    0.91776   0.75049    0.024
 6762.00    0.94866   0.74984    0.025
 6763.00    0.97009   0.74629    0.026
 6764.00    0.97377   0.74104    0.025
 6765.00    0.97117   0.73835    0.025
 6766.00    0.99883   0.73978    0.025
 6767.00    1.03551   0.74190    0.024
 6768.00    1.06464   0.74167    0.024
 6769.00    1.09190   0.74116    0.024
 6770.00    1.06258   0.74369    0.023
 6771.00    1.02190   0.74872    0.022
 6772.00    0.98455   0.75338    0.022
 6773.00    0.94771   0.75593    0.021
 6774.00    0.91389   0.75622    0.021
 6775.00    0.88042   0.75585    0.021
 6776.00    0.87502   0.75672    0.021
 6777.00    0.87184   0.75741    0.022
 6778.00    0.89187   0.75512    0.022
 6779.00    0.91291   0.74932    0.022
 6780.00    0.89803   0.74113    0.023
 6781.00    0.88241   0.73333    0.023
 6782.00    0.84991   0.72946    0.023
 6783.00    0.82098   0.73040    0.023
 6784.00    0.85647   0.73450    0.023
 6785.00    0.88966   0.73990    0.023
 6786.00    0.89763   0.74423    0.023
 6787.00    0.90300   0.74611    0.022
 6788.00    0.88846   0.74667    0.023
 6789.00    0.87848   0.74647    0.023
 6790.00    0.89510   0.74452    0.022
 6791.00    0.90402   0.74160    0.022
 6792.00    0.87731   0.74038    0.022
 6793.00    0.85848   0.74147    0.022
 6794.00    0.86949   0.74343    0.022
 6795.00    0.88289   0.74504    0.022
 6796.00    0.90388   0.74607    0.022
 6797.00    0.91821   0.74713    0.021
 6798.00    0.91473   0.74840    0.021
 6799.00    0.91010   0.74920    0.022
 6800.00    0.90284   0.74867    0.022
 6801.00    0.89480   0.74708    0.023
 6802.00    0.88524   0.74609    0.023
 6803.00    0.86798   0.74603    0.023
 6804.00    0.83736   0.74574    0.023
 6805.00    0.81256   0.74564    0.023
 6806.00    0.79659   0.74596    0.022
 6807.00    0.80366   0.74569    0.022
 6808.00    0.84142   0.74556    0.022
 6809.00    0.86890   0.74633    0.022
 6810.00    0.88429   0.74654    0.022
 6811.00    0.88345   0.74463    0.022
 6812.00    0.86581   0.74185    0.022
 6813.00    0.83932   0.74198    0.022
 6814.00    0.80477   0.74597    0.023
 6815.00    0.80164   0.74951    0.022
 6816.00    0.82381   0.74917    0.022
 6817.00    0.82289   0.74664    0.022
 6818.00    0.80561   0.74566    0.021
 6819.00    0.80783   0.74800    0.021
 6820.00    0.82216   0.75217    0.022
 6821.00    0.84889   0.75527    0.022
 6822.00    0.88234   0.75600    0.021
 6823.00    0.87409   0.75490    0.022
 6824.00    0.84619   0.75194    0.022
 6825.00    0.81852   0.74711    0.022
 6826.00    0.79094   0.74330    0.022
 6827.00    0.79109   0.74362    0.022
 6828.00    0.80086   0.74678    0.022
 6829.00    0.80381   0.74899    0.023
 6830.00    0.80475   0.74920    0.023
 6831.00    0.81752   0.74996    0.023
 6832.00    0.83315   0.75241    0.023
 6833.00    0.83104   0.75390    0.022
 6834.00    0.82545   0.75232    0.022
 6835.00    0.85019   0.74833    0.022
 6836.00    0.87955   0.74303    0.022
 6837.00    0.86195   0.73715    0.022
 6838.00    0.83907   0.73148    0.023
 6839.00    0.84690   0.72805    0.023
 6840.00    0.85703   0.72968    0.023
 6841.00    0.85488   0.73654    0.023
 6842.00    0.85225   0.74468    0.023
 6843.00    0.84160   0.74994    0.022
 6844.00    0.83225   0.75176    0.022
 6845.00    0.87642   0.75195    0.022
 6846.00    0.91709   0.75146    0.022
 6847.00    0.89867   0.75044    0.022
 6848.00    0.88124   0.74947    0.022
 6849.00    0.87426   0.74926    0.022
 6850.00    0.86653   0.74928    0.022
 6851.00    0.85325   0.74668    0.022
 6852.00    0.84008   0.74057    0.022
 6853.00    0.82758   0.73554    0.022
 6854.00    0.81550   0.73518    0.022
 6855.00    0.80526   0.73754    0.022
 6856.00    0.79905   0.73967    0.022
 6857.00    0.80778   0.73945    0.022
 6858.00    0.81368   0.73585    0.022
 6859.00    0.81086   0.73292    0.022
 6860.00    0.82005   0.73634    0.022
 6861.00    0.86082   0.74432    0.022
 6862.00    0.86787   0.74978    0.021
 6863.00    0.79873   0.74932    0.021
 6864.00    0.76496   0.74397    0.021
 6865.00    0.80041   0.73690    0.022
 6866.00    0.83142   0.73422    0.022
 6867.00    0.85486   0.73859    0.023
 6868.00    0.85802   0.74306    0.023
 6869.00    0.83089   0.74179    0.023
 6870.00    0.81450   0.73903    0.023
 6871.00    0.81224   0.73939    0.023
 6872.00    0.81746   0.74112    0.023
 6873.00    0.83134   0.74266    0.023
 6874.00    0.83827   0.74533    0.023
 6875.00    0.83813   0.74895    0.022
 6876.00    0.83918   0.75088    0.022
 6877.00    0.84129   0.74966    0.022
 6878.00    0.82519   0.74598    0.022
 6879.00    0.79464   0.74105    0.022
 6880.00    0.79426   0.73763    0.022
 6881.00    0.81493   0.73890    0.022
 6882.00    0.84053   0.74338    0.022
 6883.00    0.86915   0.74631    0.022
 6884.00    0.85352   0.74777    0.022
 6885.00    0.81424   0.75091    0.022
 6886.00    0.79714   0.75419    0.022
 6887.00    0.79034   0.75596    0.023
 6888.00    0.79594   0.75791    0.023
 6889.00    0.80649   0.75904    0.022
 6890.00    0.79228   0.75770    0.022
 6891.00    0.76964   0.75634    0.023
 6892.00    0.78894   0.75568    0.023
 6893.00    0.82027   0.75374    0.023
 6894.00    0.84671   0.75248    0.023
 6895.00    0.87200   0.75465    0.023
 6896.00    0.87211   0.75687    0.023
 6897.00    0.86742   0.75520    0.023
 6898.00    0.87708   0.75331    0.023
 6899.00    0.88886   0.75574    0.023
 6900.00    0.88033   0.75930    0.023
 6901.00    0.86960   0.75891    0.023
 6902.00    0.87369   0.75602    0.023
 6903.00    0.87883   0.75576    0.023
 6904.00    0.85798   0.75907    0.022
 6905.00    0.83620   0.76198    0.022
 6906.00    0.83805   0.76226    0.022
 6907.00    0.83989   0.76145    0.022
 6908.00    0.83861   0.76045    0.022
 6909.00    0.83673   0.75816    0.022
 6910.00    0.82549   0.75407    0.023
 6911.00    0.81298   0.74986    0.023
 6912.00    0.78764   0.74847    0.023
 6913.00    0.76875   0.75012    0.023
 6914.00    0.79615   0.75159    0.023
 6915.00    0.82399   0.75191    0.024
 6916.00    0.85421   0.75315    0.024
 6917.00    0.87510   0.75585    0.024
 6918.00    0.85486   0.75839    0.024
 6919.00    0.83546   0.75891    0.024
 6920.00    0.81911   0.75602    0.023
 6921.00    0.80660   0.74989    0.023
 6922.00    0.80576   0.74358    0.023
 6923.00    0.80621   0.74125    0.023
 6924.00    0.80998   0.74415    0.023
 6925.00    0.81389   0.74923    0.022
 6926.00    0.81810   0.75279    0.022
 6927.00    0.82699   0.75418    0.023
 6928.00    0.84491   0.75416    0.023
 6929.00    0.85025   0.75250    0.023
 6930.00    0.83443   0.74952    0.023
 6931.00    0.82816   0.74825    0.023
 6932.00    0.83599   0.75075    0.024
 6933.00    0.83737   0.75424    0.024
 6934.00    0.83040   0.75543    0.024
 6935.00    0.80909   0.75507    0.024
 6936.00    0.77141   0.75560    0.024
 6937.00    0.76449   0.75775    0.024
 6938.00    0.78850   0.75961    0.024
 6939.00    0.79371   0.75859    0.024
 6940.00    0.78224   0.75432    0.024
 6941.00    0.76729   0.74836    0.024
 6942.00    0.74962   0.74331    0.024
 6943.00    0.73712   0.74285    0.024
 6944.00    0.72818   0.74745    0.024
 6945.00    0.75911   0.75309    0.023
 6946.00    0.81408   0.75666    0.023
 6947.00    0.84953   0.75699    0.023
 6948.00    0.87470   0.75359    0.023
 6949.00    0.87863   0.74896    0.024
 6950.00    0.87287   0.74625    0.024
 6951.00    0.86379   0.74581    0.024
 6952.00    0.85342   0.74742    0.024
 6953.00    0.82187   0.75109    0.024
 6954.00    0.78323   0.75525    0.024
 6955.00    0.81336   0.75792    0.025
 6956.00    0.86280   0.75897    0.025
 6957.00    0.84403   0.75944    0.025
 6958.00    0.80948   0.76011    0.025
 6959.00    0.81429   0.76107    0.025
 6960.00    0.82641   0.76198    0.025
 6961.00    0.83448   0.76257    0.025
 6962.00    0.84197   0.76183    0.025
 6963.00    0.82167   0.75998    0.024
 6964.00    0.79849   0.76017    0.024
 6965.00    0.81489   0.76345    0.024
 6966.00    0.83393   0.76629    0.024
 6967.00    0.80765   0.76559    0.024
 6968.00    0.77992   0.76220    0.024
 6969.00    0.77511   0.76033    0.024
 6970.00    0.77123   0.76203    0.024
 6971.00    0.79616   0.76338    0.024
 6972.00    0.81976   0.76073    0.024
 6973.00    0.82358   0.75504    0.025
 6974.00    0.82438   0.74710    0.025
 6975.00    0.79609   0.73706    0.025
 6976.00    0.77260   0.72998    0.025
 6977.00    0.78255   0.73276    0.025
 6978.00    0.79004   0.74393    0.025
 6979.00    0.78437   0.75538    0.025
 6980.00    0.77571   0.76273    0.025
 6981.00    0.75415   0.76669    0.025
 6982.00    0.75106   0.76824    0.025
 6983.00    0.81360   0.76778    0.025
 6984.00    0.85884   0.76617    0.025
 6985.00    0.85250   0.76351    0.025
 6986.00    0.85461   0.75957    0.025
 6987.00    0.87818   0.75666    0.025
 6988.00    0.87506   0.75775    0.025
 6989.00    0.81363   0.76195    0.025
 6990.00    0.78193   0.76511    0.025
 6991.00    0.80661   0.76487    0.025
 6992.00    0.81959   0.76314    0.025
 6993.00    0.81321   0.76274    0.024
 6994.00    0.81658   0.76335    0.025
 6995.00    0.83411   0.76236    0.025
 6996.00    0.86146   0.75801    0.025
 6997.00    0.90135   0.75252    0.025
 6998.00    0.89047   0.75106    0.025
 6999.00    0.82248   0.75484    0.025
 7000.00    0.79507   0.75835    0.025
 7001.00    0.80791   0.75690    0.025
 7002.00    0.80377   0.75279    0.026
 7003.00    0.78477   0.75084    0.026
 7004.00    0.76402   0.75220    0.026
 7005.00    0.74192   0.75526    0.025
 7006.00    0.74145   0.75851    0.025
 7007.00    0.75563   0.76025    0.024
 7008.00    0.76988   0.75981    0.024
 7009.00    0.78416   0.75928    0.025
 7010.00    0.75912   0.76035    0.025
 7011.00    0.71372   0.76014    0.025
 7012.00    0.72338   0.75408    0.025
 7013.00    0.75775   0.74362    0.025
 7014.00    0.78910   0.73796    0.025
 7015.00    0.81929   0.74365    0.025
 7016.00    0.80039   0.75572    0.026
 7017.00    0.76538   0.76516    0.026
 7018.00    0.75954   0.76867    0.026
 7019.00    0.76172   0.76634    0.026
 7020.00    0.78390   0.75895    0.026
 7021.00    0.81059   0.75081    0.026
 7022.00    0.78244   0.74787    0.026
 7023.00    0.74438   0.75090    0.026
 7024.00    0.77350   0.75550    0.026
 7025.00    0.81191   0.75846    0.026
 7026.00    0.76116   0.76045    0.026
 7027.00    0.70155   0.76275    0.026
 7028.00    0.73180   0.76451    0.025
 7029.00    0.76768   0.76438    0.025
 7030.00    0.78014   0.76313    0.026
 7031.00    0.79188   0.76278    0.026
 7032.00    0.78596   0.76388    0.026
 7033.00    0.78130   0.76494    0.026
 7034.00    0.81136   0.76257    0.026
 7035.00    0.83364   0.75549    0.026
 7036.00    0.74666   0.75047    0.025
 7037.00    0.66951   0.75527    0.025
 7038.00    0.68293   0.76738    0.026
 7039.00    0.70378   0.77808    0.026
 7040.00    0.77473   0.78218    0.026
 7041.00    0.83151   0.77949    0.026
 7042.00    0.81418   0.77356    0.026
 7043.00    0.79915   0.77045    0.026
 7044.00    0.79380   0.77338    0.026
 7045.00    0.78447   0.77947    0.026
 7046.00    0.76128   0.78376    0.026
 7047.00    0.74269   0.78369    0.026
 7048.00    0.73755   0.77870    0.026
 7049.00    0.74043   0.76831    0.026
 7050.00    0.76337   0.75416   -2.000
 7051.00    0.78763   0.74187   -2.000
 7052.00    0.81471   0.73655   -2.000
 7053.00    0.83633   0.73865   -2.000
 7054.00    0.84776   0.74442   -2.000
 7055.00    0.86283   0.74805   -2.000
 7056.00    0.88386   0.74565   -2.000
 7057.00    0.90170   0.73929   -2.000
 7058.00    0.91497   0.73502   -2.000
 7059.00    0.90123   0.73569   -2.000
 7060.00    0.85349   0.73916   -2.000
 7061.00    0.82784   0.74289   -2.000
 7062.00    0.82668   0.74483   -2.000
 7063.00    0.83796   0.74255   -2.000
 7064.00    0.86140   0.73617   -2.000
 7065.00    0.84834   0.72917   -2.000
 7066.00    0.80378   0.72655   -2.000
 7067.00    0.81478   0.73104   -2.000
 7068.00    0.86800   0.73963   -2.000
 7069.00    0.84556   0.74660   -2.000
 7070.00    0.77260   0.74953   -2.000
 7071.00    0.78135   0.74989   -2.000
 7072.00    0.83789   0.74936   -2.000
 7073.00    0.87316   0.74859   -2.000
 7074.00    0.89760   0.74852   -2.000
 7075.00    0.91934   0.74955   -2.000
 7076.00    0.93989   0.75097   -2.000
 7077.00    0.95601   0.75267   -2.000
 7078.00    0.97044   0.75418   -2.000
 7079.00    0.93756   0.75242   -2.000
 7080.00    0.88946   0.74487   -2.000
 7081.00    0.87048   0.73352   -2.000
 7082.00    0.85934   0.72417   -2.000
 7083.00    0.79741   0.72094   -2.000
 7084.00    0.72426   0.72105   -2.000
 7085.00    0.78014   0.71980   -2.000
 7086.00    0.85870   0.71717   -2.000
 7087.00    0.67644   0.71509   -2.000
 7088.00    0.45924   0.71447   -2.000
 7089.00    0.67943   0.71502   -2.000
 7090.00    0.94118   0.71540   -2.000
 7091.00    0.87212   0.71529   -2.000
 7092.00    0.78365   0.71532   -2.000
 7093.00    0.81365   0.71573   -2.000
 7094.00    0.84638   0.71671   -2.000
 7095.00    0.85261   0.71901   -2.000
 7096.00    0.85708   0.72359   -2.000
 7097.00    0.81777   0.72813   -2.000
 7098.00    0.77313   0.72914   -2.000
 7099.00    0.65755   0.72698   -2.000
 7100.00    0.56899   0.72507   -2.000
 7101.00    0.71989   0.72661   -2.000
 7102.00    0.83020   0.73060   -2.000
 7103.00    0.67527   0.73250   -2.000
 7104.00    0.56731   0.73080   -2.000
 7105.00    0.69859   0.72867   -2.000
 7106.00    0.79951   0.72772   -2.000
 7107.00    0.77552   0.72566   -2.000
 7108.00    0.74387   0.72157   -2.000
 7109.00    0.68614   0.71896   -2.000
 7110.00    0.65785   0.72089   -2.000
 7111.00    0.71415   0.72560   -2.000
 7112.00    0.74562   0.72962   -2.000
 7113.00    0.71619   0.73191   -2.000
 7114.00    0.71102   0.73280   -2.000
 7115.00    0.75718   0.73230   -2.000
 7116.00    0.75921   0.73116   -2.000
 7117.00    0.68011   0.73041   -2.000
 7118.00    0.65649   0.72966   -2.000
 7119.00    0.72199   0.72841   -2.000
 7120.00    0.81316   0.72801   -2.000
 7121.00    0.94051   0.72839   -2.000
 7122.00    0.98162   0.72622   -2.000
 7123.00    0.91578   0.72067   -2.000
 7124.00    0.77245   0.71626   -2.000
 7125.00    0.54440   0.71612   -2.000
 7126.00    0.45987   0.71664   -2.000
 7127.00    0.51374   0.71349   -2.000
 7128.00    0.56422   0.70914   -2.000
 7129.00    0.61182   0.70908   -2.000
 7130.00    0.59678   0.71399   -2.000
 7131.00    0.53484   0.72036   -2.000
 7132.00    0.58900   0.72515   -2.000
 7133.00    0.71956   0.72760   -2.000
 7134.00    0.79487   0.72886   -2.000
 7135.00    0.83835   0.72865   -2.000
 7136.00    0.80927   0.72613   -2.000
 7137.00    0.74377   0.72429   -2.000
 7138.00    0.70213   0.72610   -2.000
 7139.00    0.67083   0.72929   -2.000
 7140.00    0.63183   0.73066   -2.000
 7141.00    0.58995   0.73035   -2.000
 7142.00    0.66107   0.72972   -2.000
 7143.00    0.76789   0.72896   -2.000
 7144.00    0.74687   0.72629   -2.000
 7145.00    0.69215   0.72099   -2.000
 7146.00    0.71657   0.71733   -2.000
 7147.00    0.75805   0.71877   -2.000
 7148.00    0.76436   0.72345   -2.000
 7149.00    0.76467   0.72919   -2.000
 7150.00    0.69323   0.73458   -2.000
 7151.00    0.61250   0.73681   -2.000
 7152.00    0.63008   0.73531   -2.000
 7153.00    0.65657   0.73413   -2.000
 7154.00    0.60019   0.73619   -2.000
 7155.00    0.53926   0.73837   -2.000
 7156.00    0.67626   0.73667   -2.000
 7157.00    0.81633   0.73266   -2.000
 7158.00    0.85734   0.73095   -2.000
 7159.00    0.88686   0.73248   -2.000
 7160.00    0.65527   0.73236   -2.000
 7161.00    0.43284   0.72626   -2.000
 7162.00    0.32569   0.71830   -2.000
 7163.00    0.25633   0.71694   -2.000
 7164.00    0.50944   0.72391   -2.000
 7165.00    0.76660   0.73281   -2.000
 7166.00    1.04948   0.73752   -2.000
 7167.00    1.23935   0.73818   -2.000
 7168.00    0.96738   0.73883   -2.000
 7169.00    0.73679   0.74169   -2.000
 7170.00    0.67274   0.74475   -2.000
 7171.00    0.62819   0.74489   -2.000
 7172.00    0.64878   0.74139   -2.000
 7173.00    0.68527   0.73642   -2.000
 7174.00    0.76662   0.73431   -2.000
 7175.00    0.81155   0.73648   -2.000
 7176.00    0.76865   0.73776   -2.000
 7177.00    0.74554   0.73303   -2.000
 7178.00    0.76366   0.72562   -2.000
 7179.00    0.79169   0.72409   -2.000
 7180.00    0.83768   0.73125   -2.000
 7181.00    0.82628   0.74051   -2.000
 7182.00    0.72407   0.74433   -2.000
 7183.00    0.67346   0.74081   -2.000
 7184.00    0.69452   0.73205   -2.000
 7185.00    0.71661   0.72298   -2.000
 7186.00    0.73995   0.71915   -2.000
 7187.00    0.74395   0.72192   -2.000
 7188.00    0.72708   0.72771   -2.000
 7189.00    0.71851   0.73125   -2.000
 7190.00    0.71782   0.73124   -2.000
 7191.00    0.70335   0.73133   -2.000
 7192.00    0.67732   0.73395   -2.000
 7193.00    0.71945   0.73599   -2.000
 7194.00    0.81189   0.73450   -2.000
 7195.00    0.82943   0.73295   -2.000
 7196.00    0.79842   0.73496   -2.000
 7197.00    0.77978   0.73789   -2.000
 7198.00    0.76815   0.73805   -2.000
 7199.00    0.68877   0.73687   -2.000
 7200.00    0.57593   0.73843   -2.000
 7201.00    0.49165   0.74302   -2.000
 7202.00    0.41957   0.74564   -2.000
 7203.00    0.45163   0.74094   -2.000
 7204.00    0.52179   0.73030   -2.000
 7205.00    0.60544   0.72223   -2.000
 7206.00    0.69327   0.72291   -2.000
 7207.00    0.67922   0.73072   -2.000
 7208.00    0.63887   0.73996   -2.000
 7209.00    0.61941   0.74470   -2.000
 7210.00    0.60433   0.74298   -2.000
 7211.00    0.67005   0.73830   -2.000
 7212.00    0.74920   0.73498   -2.000
 7213.00    0.59147   0.73510   -2.000
 7214.00    0.40415   0.73908   -2.000
 7215.00    0.42035   0.74481   -2.000
 7216.00    0.45418   0.74798   -2.000
 7217.00    0.51233   0.74690   -2.000
 7218.00    0.57172   0.74394   -2.000
