###################################################################
## OUTPUT of StarlightChains_v04.for    [Cid@UFSC - 01/Apr/2007] ##
###################################################################

## Some input info
KUG0210-078._33_50.txt                   [arq_obs]
Base.CB07.vall.4m                        [arq_base]
Masks.EmLines.NEW.gm                     [arq_masks]
StCv04.C11.config                        [arq_config]
   66                                    [N_base]
    0                                    [N_YAV_components = # of components with extra extinction!]
    0                                    [i_FitPowerLaw (1/0 = Yes/No)]
-9.99                                    [alpha_PowerLaw]
CCM                                      [red_law_option]
 1.458241                                [q_norm = A(l_norm)/A(V)]

## (Re)Sampling Parameters
 3741.00                                 [l_ini (A)]
 7218.00                                 [l_fin (A)]
    1.00                                 [dl    (A)]     (OBS: dl_cushion =    50.00 A)

## Normalization info
 4020.00                                 [l_norm (A) - for base]
 4010.00                                 [llow_norm (A) - window for f_obs]
 4060.00                                 [lupp_norm (A) - window for f_obs]
8.610049E-18                             [fobs_norm (in input units)]

## S/N
 3691.00                                 [llow_SN (A) - window for S/N]
 7268.00                                 [lupp_SN (A) - window for S/N]
   2.560                                 [S/N in S/N window]
   3.969                                 [S/N in norm. window]
   0.007                                 [S/N_err in S/N window]
   0.011                                 [S/N_err in norm. window]
  1.0000                                 [fscale_chi2]

## etc...
    -2007525                             [idum_orig]
  2391                                   [NOl_eff]
  2198                                   [Nl_eff]
   193    NSIGMA                         [Ntot_cliped & clip_method]
  6181000                                [Nglobal_steps]
   7                                     [N_chains]
   7                                     [NEX0s_base = N_base in EX0s-fits]
 0   0   1      195   2.0   5.331E+03    [Clip-Bug, RC-Crash & Burn-In warning-flags, n_censored_weights, wei_nsig_threshold & wei_limit]
    54     53.304     52.622      0.682  [idt_all, wdt_TotTime, wdt_UsrTime & wdt_SysTime (sec)]

## Synthesis Results - Best model ##

 1.88277E-04                             [chi2/Nl_eff]
    54.83433                             [adev (%)]

   110.75914                             [sum-of-x (%)]
 1.14905E-17                             [Flux_tot (units of input spectrum!)]
 8.27757E-16                             [Mini_tot (???)]
 7.31205E-16                             [Mcor_tot (???)]

  21.77                                  [v0_min  (km/s)]
  21.28                                  [vd_min  (km/s)]
 0.1388                                  [AV_min  (mag)]
 0.0000                                  [YAV_min (mag)]

# j     x_j(%)      Mini_j(%)     Mcor_j(%)     age_j(yr)     Z_j      (L/M)_j    YAV?  Mstars   component_j        a/Fe...       SSP_chi2r SSP_adev(%)   SSP_AV   SSP_x(%)
  1      0.0000     0.0000E+00    0.0000E+00    1.000000E+06  0.00400  1.094E-02    0   1.0000   age020_m42            0.0000     5.2391E-02    43.1902   4.0000    24.0297
  2      0.0000     0.0000E+00    0.0000E+00    3.160000E+06  0.00400  4.007E-02    0   0.9999   age045_m42            0.0000     1.1400E-01    49.5402   4.0000    16.0468
  3      0.0000     0.0000E+00    0.0000E+00    5.010000E+06  0.00400  2.539E-02    0   0.9488   age055_m42            0.0000     1.0634E-01    46.8547   4.0000    19.1541
  4      0.0000     0.0000E+00    0.0000E+00    6.610000E+06  0.00400  2.620E-02    0   0.9220   age061_m42            0.0000     1.5679E-01    50.5207   4.0000    15.1961
  5      0.0000     5.4500E-06    5.4676E-06    1.000000E+07  0.00400  1.322E-02    0   0.8862   age070_m42            0.0000     2.6644E-01    54.6061   4.0000    12.4517
  6      0.0000     0.0000E+00    0.0000E+00    1.445000E+07  0.00400  7.883E-03    0   0.8571   age078_m42            0.0000     2.2295E-01    51.8142   4.0000    15.0313
  7      0.0000     0.0000E+00    0.0000E+00    2.512000E+07  0.00400  5.251E-03    0   0.8174   age090_m42            0.0000     1.2014E-01    55.7143   4.0000    11.4910
  8      0.0000     0.0000E+00    0.0000E+00    4.000000E+07  0.00400  3.649E-03    0   0.7851   age104_m42            0.0000     1.1559E-01    57.2012   4.0000    10.0515
  9      0.0000     0.0000E+00    0.0000E+00    5.500000E+07  0.00400  3.098E-03    0   0.7629   age110_m42            0.0000     1.1986E-01    55.6657   4.0000    11.1932
 10      0.0000     0.0000E+00    0.0000E+00    1.015200E+08  0.00400  2.228E-03    0   0.7207   age116_m42            0.0000     7.7047E-02    55.0790   4.0000    11.4699
 11      0.0000     0.0000E+00    0.0000E+00    2.861200E+08  0.00400  1.093E-03    0   0.6648   age125_m42            0.0000     7.9384E-05    58.0819   3.6671     9.8314
 12      0.0000     0.0000E+00    0.0000E+00    5.088000E+08  0.00400  6.597E-04    0   0.6365   age130_m42            0.0000     7.2914E-03    59.5952   4.0000     8.1333
 13      0.0000     0.0000E+00    0.0000E+00    1.434000E+09  0.00400  2.132E-04    0   0.5798   age139_m42            0.0000     8.8774E-02    64.2729   4.0000     4.5999
 14      0.0000     3.0554E-03    1.8598E-03    4.250000E+09  0.00400  5.895E-05    0   0.5377   age158_m42            0.0000     1.3873E-02    65.6887   4.0000     3.4276
 15      0.0000     0.0000E+00    0.0000E+00    7.500000E+09  0.00400  3.510E-05    0   0.5212   age171_m42            0.0000     2.1509E-02    66.5051   4.0000     3.0301
 16      0.0000     9.9936E-03    5.6951E-03    1.300000E+10  0.00400  2.005E-05    0   0.5034   age193_m42            0.0000     2.7384E-03    67.3380   4.0000     2.7084
 17      0.0000     0.0000E+00    0.0000E+00    1.800000E+10  0.00400  1.525E-05    0   0.4967   age213_m42            0.0000     5.1527E-03    67.3478   4.0000     2.6636
 18      0.0000     0.0000E+00    0.0000E+00    1.000000E+06  0.00800  1.238E-02    0   1.0000   age020_m52            0.0000     4.3704E-02    43.2004   4.0000    24.0292
 19      0.0000     0.0000E+00    0.0000E+00    3.160000E+06  0.00800  3.074E-02    0   0.9966   age045_m52            0.0000     1.1337E-01    43.7081   4.0000    23.1093
 20      0.0000     0.0000E+00    0.0000E+00    5.010000E+06  0.00800  2.668E-02    0   0.9443   age055_m52            0.0000     1.0231E-01    46.1034   4.0000    20.0337
 21      0.0000     0.0000E+00    0.0000E+00    6.610000E+06  0.00800  2.136E-02    0   0.9177   age061_m52            0.0000     1.5311E-01    57.6405   4.0000     9.3024
 22      0.0000     0.0000E+00    0.0000E+00    1.000000E+07  0.00800  1.215E-02    0   0.8827   age070_m52            0.0000     8.0915E-02    53.8261   4.0000    13.7437
 23      0.0000     0.0000E+00    0.0000E+00    1.445000E+07  0.00800  8.717E-03    0   0.8552   age078_m52            0.0000     1.0503E-01    52.1779   4.0000    14.8713
 24      0.0000     0.0000E+00    0.0000E+00    2.512000E+07  0.00800  5.592E-03    0   0.8162   age090_m52            0.0000     8.8074E-02    55.5575   4.0000    12.0094
 25      0.0000     0.0000E+00    0.0000E+00    4.000000E+07  0.00800  3.896E-03    0   0.7841   age104_m52            0.0000     6.2455E-02    56.1505   4.0000    11.4488
 26      0.0000     0.0000E+00    0.0000E+00    1.015200E+08  0.00800  2.148E-03    0   0.7226   age116_m52            0.0000     7.4653E-02    55.8780   4.0000    11.1716
 27      0.0000     0.0000E+00    0.0000E+00    2.861200E+08  0.00800  9.925E-04    0   0.6683   age125_m52            0.0000     1.0359E-03    59.2506   4.0000     8.5366
 28      0.0000     0.0000E+00    0.0000E+00    9.047900E+08  0.00800  3.141E-04    0   0.6138   age135_m52            0.0000     3.5520E-03    63.4626   4.0000     5.4482
 29      0.0000     0.0000E+00    0.0000E+00    1.434000E+09  0.00800  1.719E-04    0   0.5853   age139_m52            0.0000     5.4738E-04    66.0475   4.0000     3.7313
 30      0.0000     0.0000E+00    0.0000E+00    2.500000E+09  0.00800  7.872E-05    0   0.5600   age150_m52            0.0000     1.1344E-02    66.6264   4.0000     3.1333
 31      0.0000     0.0000E+00    0.0000E+00    4.250000E+09  0.00800  4.336E-05    0   0.5426   age158_m52            0.0000     2.5514E-02    66.5558   4.0000     3.0895
 32      0.0000     0.0000E+00    0.0000E+00    6.250000E+09  0.00800  3.159E-05    0   0.5319   age166_m52            0.0000     6.0580E-02    67.1927   4.0000     2.7467
 33      0.0000     0.0000E+00    0.0000E+00    1.300000E+10  0.00800  1.361E-05    0   0.5073   age193_m52            0.0000     6.1040E-03    68.7789   4.0000     2.0570
 34      0.0000     0.0000E+00    0.0000E+00    1.800000E+10  0.00800  9.886E-06    0   0.4990   age213_m52            0.0000     2.0448E-03    68.9897   4.0000     1.9305
 35      0.0000     0.0000E+00    0.0000E+00    1.000000E+06  0.02000  1.544E-02    0   1.0000   age020_m62            0.0000     3.7658E-02    43.2154   4.0000    24.0345
 36      0.0000     0.0000E+00    0.0000E+00    3.160000E+06  0.02000  3.762E-02    0   0.9858   age045_m62            0.0000     8.9272E-02    43.6838   4.0000    23.3070
 37      0.0000     0.0000E+00    0.0000E+00    5.010000E+06  0.02000  3.296E-02    0   0.9342   age055_m62            0.0000     2.0030E-01    47.0545   4.0000    18.9113
 38      0.0000     0.0000E+00    0.0000E+00    8.710000E+06  0.02000  1.154E-02    0   0.8861   age067_m62            0.0000     7.6870E-05    58.1942   3.6689    11.5670
 39      0.0506     8.2681E-02    7.9297E-02    1.445000E+07  0.02000  7.663E-03    0   0.8472   age078_m62            0.0000     1.5523E-02    57.5754   4.0000    10.9334
 40      0.0000     0.0000E+00    0.0000E+00    2.512000E+07  0.02000  4.532E-03    0   0.8099   age090_m62            0.0000     7.2838E-05    55.2623   3.6327    13.6028
 41      0.0000     0.0000E+00    0.0000E+00    5.500000E+07  0.02000  2.733E-03    0   0.7595   age110_m62            0.0000     3.9561E-02    56.0693   4.0000    11.2970
 42      0.0000     0.0000E+00    0.0000E+00    1.609000E+08  0.02000  1.369E-03    0   0.6985   age120_m62            0.0000     1.0077E-01    56.6047   4.0000    10.6093
 43      0.0000     0.0000E+00    0.0000E+00    2.861200E+08  0.02000  9.013E-04    0   0.6714   age125_m62            0.0000     9.2162E-02    58.0867   4.0000     9.3678
 44      0.0000     0.0000E+00    0.0000E+00    5.088000E+08  0.02000  5.028E-04    0   0.6449   age130_m62            0.0000     3.4815E-02    60.0088   4.0000     7.6907
 45      0.0000     0.0000E+00    0.0000E+00    9.047900E+08  0.02000  2.428E-04    0   0.6179   age135_m62            0.0000     4.8894E-02    62.9467   4.0000     5.3545
 46      0.0000     0.0000E+00    0.0000E+00    1.434000E+09  0.02000  1.263E-04    0   0.5908   age139_m62            0.0000     2.8394E-02    64.9338   4.0000     4.0179
 47      0.0000     0.0000E+00    0.0000E+00    2.500000E+09  0.02000  5.985E-05    0   0.5673   age150_m62            0.0000     1.0615E-02    66.1827   4.0000     3.1959
 48      0.0000     0.0000E+00    0.0000E+00    4.250000E+09  0.02000  3.271E-05    0   0.5468   age158_m62            0.0000     1.7411E-03    66.9896   4.0000     2.6675
 49      0.0000     0.0000E+00    0.0000E+00    1.000000E+10  0.02000  1.360E-05    0   0.5167   age181_m62            0.0000     4.6952E-03    68.1228   4.0000     2.1620
 50      0.0000     0.0000E+00    0.0000E+00    1.800000E+10  0.02000  7.124E-06    0   0.5013   age213_m62            0.0000     9.5579E-05    68.1728   3.8493     2.0864
 51      0.0000     0.0000E+00    0.0000E+00    1.000000E+06  0.05000  2.592E-02    0   0.9998   age020_m72            0.0000     4.0890E-02    43.3522   4.0000    23.9158
 52      0.0000     0.0000E+00    0.0000E+00    3.160000E+06  0.05000  4.845E-02    0   0.9577   age045_m72            0.0000     1.4917E-01    44.4678   4.0000    21.9227
 53      0.0000     1.1381E-05    1.1785E-05    5.010000E+06  0.05000  3.072E-02    0   0.9147   age055_m72            0.0000     4.7045E-03    52.5400   4.0000    15.5103
 54    101.9697     8.7834E+01    8.8266E+01    6.610000E+06  0.05000  1.455E-02    0   0.8877   age061_m72            0.0000     1.8967E-05    51.5373   0.2296   100.6521
 55      8.7388     1.2070E+01    1.1647E+01    1.000000E+07  0.05000  9.074E-03    0   0.8524   age070_m72            0.0000     3.1516E-05    64.3036   0.7718   133.5975
 56      0.0000     0.0000E+00    0.0000E+00    2.512000E+07  0.05000  4.250E-03    0   0.7902   age090_m72            0.0000     1.1249E-03    54.2405   4.0000    14.3265
 57      0.0000     0.0000E+00    0.0000E+00    4.000000E+07  0.05000  3.087E-03    0   0.7618   age104_m72            0.0000     6.2176E-05    49.8251   3.2337    20.4808
 58      0.0000     0.0000E+00    0.0000E+00    1.015200E+08  0.05000  1.700E-03    0   0.7096   age116_m72            0.0000     8.1284E-02    56.3332   4.0000    11.3505
 59      0.0000     0.0000E+00    0.0000E+00    2.861200E+08  0.05000  7.384E-04    0   0.6633   age125_m72            0.0000     1.5911E-02    58.7684   4.0000     8.7846
 60      0.0000     0.0000E+00    0.0000E+00    5.088000E+08  0.05000  3.819E-04    0   0.6372   age130_m72            0.0000     2.9645E-02    60.7714   4.0000     6.7451
 61      0.0000     0.0000E+00    0.0000E+00    9.047900E+08  0.05000  1.676E-04    0   0.6110   age135_m72            0.0000     6.1572E-03    63.6972   4.0000     4.3913
 62      0.0000     0.0000E+00    0.0000E+00    1.434000E+09  0.05000  8.837E-05    0   0.5874   age139_m72            0.0000     9.2423E-05    65.6782   3.9173     3.4330
 63      0.0000     0.0000E+00    0.0000E+00    2.500000E+09  0.05000  4.233E-05    0   0.5598   age150_m72            0.0000     8.9674E-05    63.1102   3.2041     4.4727
 64      0.0000     0.0000E+00    0.0000E+00    6.250000E+09  0.05000  1.435E-05    0   0.5249   age166_m72            0.0000     1.4027E-02    68.3698   4.0000     2.0362
 65      0.0000     0.0000E+00    0.0000E+00    1.300000E+10  0.05000  6.513E-06    0   0.5036   age193_m72            0.0000     9.4606E-05    67.0862   3.4774     2.4320
 66      0.0000     0.0000E+00    0.0000E+00    1.800000E+10  0.05000  4.527E-06    0   0.4945   age213_m72            0.0000     8.8390E-05    61.4645   2.2181     4.9259


## Synthesis Results - Average & Chains ##

# j      x_j: min, <> & last-chain-values for 1 ...  7 chains
  1      0.0000      0.0308      0.0008      0.0000      0.0003      0.0069      0.0002      0.0052      0.0000
  2      0.0000      0.0398      0.0007      0.0000      0.0001      0.0013      0.0002      0.0030      0.0060
  3      0.0000      0.0650      0.0000      0.0005      0.0004      0.0025      0.0002      0.0022      0.0000
  4      0.0000      0.0923      0.0008      0.0001      0.0003      0.0000      0.0002      0.0000      0.0012
  5      0.0000      0.1228      0.0000      0.0003      0.0005      0.0036      0.0003      0.0007      0.0000
  6      0.0000      0.0491      0.0022      0.0001      0.0002      0.0010      0.0001      0.0011      0.0035
  7      0.0000      0.2329      0.0040      0.0003      0.0003      0.0008      0.0001      0.0027      0.0011
  8      0.0000      0.3725      0.0013      0.0001      0.0000      0.0034      0.0001      0.0027      0.0112
  9      0.0000      0.2128      0.0008      0.0000      0.0001      0.0033      0.0001      0.0000      0.0000
 10      0.0000      0.1501      0.0013      0.0001      0.0003      0.0000      0.0004      0.0062      0.0000
 11      0.0000      0.5583      0.0000      0.0001      0.0000      0.0023      0.0421      0.0000      0.0027
 12      0.0000      0.2813      0.0021      0.0002      0.0000      0.0000      0.0000      0.0037      0.0027
 13      0.0000      0.0288      0.0013      0.0001      0.0001      0.0060      0.0005      0.0008      0.0000
 14      0.0000      0.0198      0.0000      0.0001      0.0007      0.0061      0.0004      0.0020      0.0060
 15      0.0000      0.0185      0.0023      0.0000      0.0000      0.0000      0.0003      0.0007      0.0023
 16      0.0000      0.0087      0.0023      0.0000      0.0006      0.0024      0.0002      0.0002      0.0076
 17      0.0000      0.0024      0.0001      0.0002      0.0003      0.0045      0.0001      0.0000      0.0000
 18      0.0000      0.0363      0.0000      0.0000      0.0001      0.0000      0.0004      0.0026      0.0025
 19      0.0000      0.0687      0.0000      0.0000      0.0002      0.0009      0.0003      0.0071      0.0000
 20      0.0000      0.0413      0.0001      0.0001      0.0002      0.0012      0.0002      0.0002      0.0010
 21      0.0000      0.4258      0.0052      0.0001      0.0001      0.0000      0.0000      0.0015      0.0009
 22      0.0000      0.1044      0.0018      0.0001      0.0003      0.0039      0.0001      0.0037      0.0045
 23      0.0000      0.0915      0.0014      0.0001      0.0000      0.0000      0.0002      0.0004      0.0009
 24      0.0000      0.1615      0.0000      0.0003      0.0000      0.0059      0.0003      0.0027      0.0043
 25      0.0000      0.1424      0.0036      0.0002      0.0001      0.0000      0.0003      0.0001      0.0059
 26      0.0000      0.2553      0.0009      0.0001      0.0000      0.0000      0.0001      0.0029      0.0021
 27      0.0000      0.4098      0.0000      0.0004      0.0001      0.0000      0.0000      0.0000      0.0018
 28      0.0000      0.1303      0.0000      0.0000      0.0002      0.0048      0.0001      0.0029      0.0000
 29      0.0000      0.0186      0.0029      0.0002      0.0000      0.0051      0.0003      0.0014      0.0011
 30      0.0000      0.0094      0.0000      0.0000      0.0003      0.0029      0.0001      0.0025      0.0010
 31      0.0000      0.0072      0.0028      0.0001      0.0001      0.0000      0.0000      0.0046      0.0002
 32      0.0000      0.0024      0.0014      0.0001      0.0002      0.0000      0.0003      0.0014      0.0000
 33      0.0000      0.0027      0.0000      0.0000      0.0003      0.0000      0.0001      0.0013      0.0037
 34      0.0000      0.0009      0.0041      0.0001      0.0002      0.0016      0.0000      0.0000      0.0029
 35      0.0000      0.0264      0.0000      0.0001      0.0001      0.0000      0.0002      0.0058      0.0000
 36      0.0000      0.0310      0.0020      0.0002      0.0000      0.0049      0.0002      0.0063      0.0049
 37      0.0000      0.0781      0.0000      0.0002      0.0002      0.0018      0.0000      0.0017      0.0000
 38      0.0000      0.6033      0.0020      0.0004      0.0003      0.0088      0.0003      0.0004      0.0003
 39      0.0506      0.2490      0.0024      0.0002      0.0005      0.0000      0.0000      0.0000      0.0000
 40      0.0000      0.3681      0.0025      0.0000      0.0004      0.0058      0.0001      0.0025      0.0023
 41      0.0000      0.2770      0.0014      0.0003      0.0000      0.0008      0.0002      0.0017      0.0033
 42      0.0000      0.2969      0.0046      0.0001      0.0001      0.0009      0.0000      0.0006      0.0000
 43      0.0000      0.4586      0.0006      0.0003      0.0002      0.0000      0.0001      0.0000      0.0049
 44      0.0000      0.2906      0.0053      0.0000      0.0003      0.0070      0.0000      0.0003      0.0005
 45      0.0000      0.0591      0.0019      0.0000      0.0000      0.0005      0.0005      0.0010      0.0000
 46      0.0000      0.0157      0.0005      0.0000      0.0002      0.0020      0.0000      0.0011      0.0011
 47      0.0000      0.0096      0.0013      0.0004      0.0001      0.0080      0.0006      0.0006      0.0004
 48      0.0000      0.0047      0.0005      0.0001      0.0002      0.0045      0.0000      0.0011      0.0000
 49      0.0000      0.0037      0.0007      0.0000      0.0002      0.0003      0.0001      0.0005      0.0009
 50      0.0000      0.0042      0.0006      0.0001      0.0000      0.0000      0.0001      0.0022      0.0054
 51      0.0000      0.0947      0.0016      0.0003      0.0000      0.0020      0.0001      0.0036      0.0219
 52      0.0000      0.0300      0.0000      0.0002      0.0001      0.0000      0.0005      0.0021      0.0028
 53      0.0000      0.0760      0.0011      0.0002      0.0004      0.0001      0.0000      0.0061      0.0023
 54    101.9697    100.5823    111.3674    106.2621    102.0758    111.1933    105.7784    111.3533    111.1956
 55      8.7388      2.4521      0.1333      5.0758      8.6627      0.2512      5.3387      0.1125      0.2269
 56      0.0000      0.1387      0.0019      0.0001      0.0001      0.0008      0.0001      0.0020      0.0028
 57      0.0000      0.1495      0.0010      0.0002      0.0000      0.0000      0.0000      0.0035      0.0046
 58      0.0000      0.1695      0.0000      0.0000      0.0003      0.0000      0.0002      0.0015      0.0035
 59      0.0000      0.4745      0.0013      0.0000      0.0000      0.0056      0.0000      0.0018      0.0000
 60      0.0000      0.1950      0.0041      0.0000      0.0003      0.0055      0.0000      0.0018      0.0035
 61      0.0000      0.0152      0.0012      0.0001      0.0000      0.0000      0.0005      0.0028      0.0000
 62      0.0000      0.0116      0.0000      0.0000      0.0002      0.0092      0.0003      0.0003      0.0021
 63      0.0000      0.0009      0.0021      0.0001      0.0000      0.0071      0.0001      0.0006      0.0064
 64      0.0000      0.0008      0.0000      0.0001      0.0003      0.0022      0.0000      0.0031      0.0001
 65      0.0000      0.0005      0.0000      0.0001      0.0003      0.0000      0.0001      0.0020      0.0113
 66      0.0000      0.0005      0.0003      0.0000      0.0003      0.0024      0.0000      0.0000      0.0004

# j      m_j: min, <> & last-chain-values for 1 ...  7 chains
  1  0.0000E+00  2.3026E-02  9.7244E-04  5.1711E-05  3.7136E-04  7.9759E-03  2.3043E-04  6.2992E-03  0.0000E+00
  2  0.0000E+00  8.1099E-03  2.5094E-04  0.0000E+00  2.7373E-05  4.2358E-04  7.0082E-05  1.0025E-03  1.7055E-03
  3  0.0000E+00  1.9833E-02  0.0000E+00  2.9316E-04  1.9304E-04  1.1971E-03  1.0305E-04  1.0883E-03  0.0000E+00
  4  0.0000E+00  2.6525E-02  3.7725E-04  3.7743E-05  1.5657E-04  0.0000E+00  1.0411E-04  0.0000E+00  4.7505E-04
  5  5.4676E-06  6.7257E-02  0.0000E+00  2.6111E-04  4.4201E-04  3.0713E-03  3.2873E-04  6.4971E-04  0.0000E+00
  6  0.0000E+00  4.3572E-02  3.2772E-03  1.5083E-04  3.4975E-04  1.3704E-03  1.6903E-04  1.6442E-03  4.3184E-03
  7  0.0000E+00  2.9613E-01  8.5037E-03  5.8161E-04  5.7216E-04  1.5019E-03  1.7250E-04  5.5390E-03  1.9004E-03
  8  0.0000E+00  6.5457E-01  3.9163E-03  3.8218E-04  1.0013E-04  9.1072E-03  3.7851E-04  7.7711E-03  2.7244E-02
  9  0.0000E+00  4.2810E-01  2.7020E-03  2.3070E-05  3.2062E-04  1.0384E-02  3.7667E-04  0.0000E+00  0.0000E+00
 10  0.0000E+00  3.9670E-01  5.7921E-03  4.2529E-04  1.5170E-03  0.0000E+00  1.7289E-03  2.6760E-02  0.0000E+00
 11  0.0000E+00  2.7738E+00  0.0000E+00  4.5278E-04  0.0000E+00  1.7449E-02  3.6432E-01  0.0000E+00  1.8908E-02
 12  0.0000E+00  2.2167E+00  2.7856E-02  2.9294E-03  5.8343E-04  0.0000E+00  0.0000E+00  4.6900E-02  2.9914E-02
 13  0.0000E+00  6.3872E-01  4.7207E-02  4.0398E-03  5.3646E-03  2.0694E-01  1.9288E-02  2.7624E-02  0.0000E+00
 14  1.8598E-03  1.4749E+00  0.0000E+00  1.8118E-02  8.3930E-02  7.0253E-01  4.9156E-02  2.4661E-01  6.1470E-01
 15  0.0000E+00  2.2453E+00  4.6974E-01  3.0901E-03  0.0000E+00  0.0000E+00  5.5487E-02  1.3348E-01  3.7955E-01
 16  5.6951E-03  1.7759E+00  7.9080E-01  0.0000E+00  1.9282E-01  7.4528E-01  7.4785E-02  7.8214E-02  2.1437E+00
 17  0.0000E+00  6.4152E-01  5.3669E-02  1.0494E-01  1.3576E-01  1.8691E+00  2.4205E-02  0.0000E+00  0.0000E+00
 18  0.0000E+00  2.3942E-02  0.0000E+00  1.8184E-05  1.2225E-04  0.0000E+00  4.5567E-04  2.8312E-03  2.2487E-03
 19  0.0000E+00  1.8197E-02  0.0000E+00  5.0195E-06  9.6233E-05  3.8870E-04  1.5176E-04  3.0735E-03  0.0000E+00
 20  0.0000E+00  1.1953E-02  5.4564E-05  4.5201E-05  9.7962E-05  5.3652E-04  1.2315E-04  8.2252E-05  3.9375E-04
 21  0.0000E+00  1.4944E-01  3.0125E-03  6.0935E-05  8.8909E-05  0.0000E+00  2.3129E-05  8.3502E-04  4.2042E-04
 22  0.0000E+00  6.1977E-02  1.8133E-03  8.0029E-05  3.0944E-04  3.5578E-03  1.2919E-04  3.6059E-03  3.7282E-03
 23  0.0000E+00  7.3329E-02  1.9003E-03  1.5076E-04  5.3184E-05  0.0000E+00  2.4671E-04  4.9237E-04  1.0425E-03
 24  0.0000E+00  1.9255E-01  0.0000E+00  5.2692E-04  5.2982E-05  1.0835E-02  5.6038E-04  5.1973E-03  7.1391E-03
 25  0.0000E+00  2.3412E-01  9.8925E-03  4.6619E-04  2.4385E-04  0.0000E+00  9.4023E-04  1.5557E-04  1.3474E-02
 26  0.0000E+00  7.0162E-01  3.9611E-03  5.2670E-04  1.3398E-04  0.0000E+00  3.4943E-04  1.3073E-02  8.0359E-03
 27  0.0000E+00  2.2537E+00  0.0000E+00  3.3873E-03  5.5847E-04  0.0000E+00  2.9738E-04  3.4382E-04  1.3501E-02
 28  0.0000E+00  2.0800E+00  0.0000E+00  0.0000E+00  4.9866E-03  1.1747E-01  1.8772E-03  7.5759E-02  0.0000E+00
 29  0.0000E+00  5.1794E-01  1.3356E-01  1.0627E-02  0.0000E+00  2.2066E-01  1.5834E-02  6.5305E-02  4.2032E-02
 30  0.0000E+00  5.4874E-01  0.0000E+00  2.1523E-03  3.1627E-02  2.5698E-01  1.1568E-02  2.3713E-01  7.9411E-02
 31  0.0000E+00  7.3382E-01  4.6962E-01  1.1326E-02  1.5070E-02  1.5124E-04  0.0000E+00  7.6108E-01  3.0255E-02
 32  0.0000E+00  3.2690E-01  3.2486E-01  1.9986E-02  3.7581E-02  0.0000E+00  6.8581E-02  3.1746E-01  0.0000E+00
 33  0.0000E+00  8.2181E-01  0.0000E+00  5.1124E-04  1.4256E-01  0.0000E+00  5.5473E-02  6.5044E-01  1.5552E+00
 34  0.0000E+00  3.5900E-01  2.7990E+00  5.5088E-02  1.3142E-01  1.0184E+00  2.3374E-02  0.0000E+00  1.6820E+00
 35  0.0000E+00  1.3987E-02  0.0000E+00  9.2238E-05  7.1685E-05  0.0000E+00  2.2316E-04  4.9645E-03  0.0000E+00
 36  0.0000E+00  6.6378E-03  7.2035E-04  6.7362E-05  0.0000E+00  1.6132E-03  6.6027E-05  2.1927E-03  1.4532E-03
 37  0.0000E+00  1.8092E-02  0.0000E+00  7.7612E-05  8.9224E-05  6.3594E-04  0.0000E+00  6.4311E-04  0.0000E+00
 38  0.0000E+00  3.7838E-01  2.0802E-03  4.1615E-04  3.6162E-04  8.5048E-03  2.7860E-04  3.7850E-04  2.6245E-04
 39  7.9297E-02  2.2483E-01  3.5667E-03  3.0604E-04  7.9991E-04  0.0000E+00  7.2548E-05  0.0000E+00  0.0000E+00
 40  0.0000E+00  5.3735E-01  6.0004E-03  9.1882E-05  1.0172E-03  1.3070E-02  3.6393E-04  5.8934E-03  4.6738E-03
 41  0.0000E+00  6.2868E-01  5.1054E-03  1.2379E-03  0.0000E+00  2.7073E-03  6.0212E-04  6.1729E-03  1.0508E-02
 42  0.0000E+00  1.2374E+00  3.1548E-02  8.0733E-04  4.9557E-04  5.9794E-03  0.0000E+00  4.0909E-03  0.0000E+00
 43  0.0000E+00  2.7906E+00  6.0718E-03  2.9078E-03  1.7310E-03  0.0000E+00  1.5508E-03  0.0000E+00  4.1359E-02
 44  0.0000E+00  3.0447E+00  9.2390E-02  4.8231E-04  5.1736E-03  1.1408E-01  8.2038E-04  5.0259E-03  7.8286E-03
 45  0.0000E+00  1.2280E+00  6.7287E-02  0.0000E+00  8.1835E-04  1.4814E-02  1.7635E-02  3.5400E-02  0.0000E+00
 46  0.0000E+00  6.0077E-01  3.3913E-02  1.9786E-03  1.1810E-02  1.1773E-01  2.9697E-03  6.9956E-02  5.6533E-02
 47  0.0000E+00  7.4593E-01  1.7049E-01  5.5134E-02  1.6019E-02  9.5927E-01  8.3809E-02  8.0627E-02  4.2398E-02
 48  0.0000E+00  6.3990E-01  1.0516E-01  1.9074E-02  3.7442E-02  9.5699E-01  3.1676E-03  2.4517E-01  0.0000E+00
 49  0.0000E+00  1.1420E+00  3.6976E-01  0.0000E+00  8.0798E-02  1.4415E-01  2.9492E-02  2.7309E-01  3.7950E-01
 50  0.0000E+00  2.4154E+00  5.3069E-01  5.6196E-02  0.0000E+00  0.0000E+00  9.1487E-02  2.0882E+00  4.2732E+00
 51  0.0000E+00  2.9822E-02  8.5643E-04  1.7334E-04  0.0000E+00  9.9584E-04  6.8612E-05  1.8544E-03  9.5697E-03
 52  0.0000E+00  4.8431E-03  0.0000E+00  6.2593E-05  1.5486E-05  0.0000E+00  1.3421E-04  5.4815E-04  6.1518E-04
 53  1.1785E-05  1.8479E-02  4.3112E-04  6.7017E-05  1.7386E-04  2.0128E-05  0.0000E+00  2.4207E-03  7.6279E-04
 54  8.8266E+01  5.0123E+01  9.2287E+01  9.2672E+01  8.6804E+01  8.5646E+01  9.1737E+01  9.0432E+01  7.6717E+01
 55  1.1647E+01  1.8814E+00  1.7004E-01  6.8158E+00  1.1343E+01  2.9795E-01  7.1289E+00  1.4066E-01  2.4100E-01
 56  0.0000E+00  2.1056E-01  4.8858E-03  1.7746E-04  1.9904E-04  1.7697E-03  2.0301E-04  4.9702E-03  5.8174E-03
 57  0.0000E+00  3.0125E-01  3.2919E-03  7.1059E-04  2.2897E-05  0.0000E+00  1.0344E-04  1.1356E-02  1.2698E-02
 58  0.0000E+00  5.7787E-01  0.0000E+00  4.4651E-05  1.7326E-03  0.0000E+00  1.1241E-03  8.2351E-03  1.6500E-02
 59  0.0000E+00  3.4812E+00  1.6368E-02  0.0000E+00  4.6798E-04  6.3708E-02  0.0000E+00  2.2028E-02  0.0000E+00
 60  0.0000E+00  2.6579E+00  9.3544E-02  2.5262E-04  6.6104E-03  1.1484E-01  0.0000E+00  4.0097E-02  6.5253E-02
 61  0.0000E+00  4.5256E-01  5.9803E-02  5.5520E-03  1.6673E-03  0.0000E+00  2.5370E-02  1.3632E-01  0.0000E+00
 62  0.0000E+00  6.2821E-01  0.0000E+00  4.5008E-03  2.3028E-02  7.7498E-01  2.5877E-02  2.7791E-02  1.5577E-01
 63  0.0000E+00  9.5371E-02  3.7288E-01  1.1671E-02  0.0000E+00  1.1912E+00  1.6942E-02  1.0446E-01  9.5186E-01
 64  0.0000E+00  2.3619E-01  0.0000E+00  2.9450E-02  1.3756E-01  9.9469E-01  1.5474E-03  1.4992E+00  2.7935E-02
 65  0.0000E+00  3.4106E-01  0.0000E+00  8.0407E-02  3.3608E-01  0.0000E+00  5.9383E-02  2.0257E+00  9.8454E+00
 66  0.0000E+00  4.6762E-01  4.0307E-01  0.0000E+00  4.0122E-01  3.3687E+00  0.0000E+00  0.0000E+00  4.7044E-01

# AV, chi2 & Mass for <> & i_chain = 1 ...  7 solutions
AV       0.1388      0.0939      0.0682      0.1051      0.1379      0.0679      0.1094      0.0682      0.0680
chi2 1.8828E-04  3.4466E-03  4.5446E-04  2.9786E-04  3.1724E-04  4.5634E-04  2.6396E-04  4.3804E-04  4.3378E-04
Mass 7.3121E-16  1.1958E-15  6.9475E-16  6.9369E-16  7.4340E-16  7.4713E-16  7.0157E-16  7.0891E-16  8.3415E-16
  21.77                                  [v0_min (km/s) before EX0s...]
  21.28                                  [vd_min (km/s) before EX0s...]


## Synthetic spectrum (Best Model) ##l_obs f_obs f_syn wei
 3478    [Nl_obs]
 3741.00   -0.26644   1.19507    0.000
 3742.00    0.10286   1.20961    0.000
 3743.00    0.34288   1.21003    0.000
 3744.00    0.35225   1.19644    0.000
 3745.00    0.22722   1.16813    0.022
 3746.00    0.31358   1.12625    0.022
 3747.00    0.50729   1.07373    0.022
 3748.00    0.26493   1.00180    0.022
 3749.00   -0.16919   0.91195    0.000
 3750.00   -0.15369   0.84789    0.000
 3751.00    0.03157   0.86133    0.023
 3752.00    0.12277   0.93835    0.022
 3753.00    0.18384   1.02503    0.022
 3754.00    0.02625   1.09307    0.022
 3755.00   -0.18993   1.13897    0.000
 3756.00    0.04922   1.16896    0.021
 3757.00    0.38831   1.19279    0.021
 3758.00    0.59592   1.21227    0.021
 3759.00    0.78056   1.22254    0.021
 3760.00    0.85675   1.22741    0.023
 3761.00    0.91852   1.23086    0.026
 3762.00    0.84024   1.22354    0.023
 3763.00    0.74880   1.21207    0.020
 3764.00    0.86821   1.20373    0.020
 3765.00    0.99977   1.18516    0.020
 3766.00    1.07782   1.14776    0.020
 3767.00    1.15220   1.09608    0.019
 3768.00    0.93589   1.02801    0.019
 3769.00    0.73312   0.93939    0.019
 3770.00    0.85917   0.85200    0.019
 3771.00    0.96753   0.82046    0.018
 3772.00    0.84408   0.87132    0.019
 3773.00    0.70824   0.96127    0.019
 3774.00    0.46357   1.04294    0.019
 3775.00    0.26116   1.10729    0.018
 3776.00    0.33280   1.15362    0.018
 3777.00    0.35336   1.18045    0.019
 3778.00    0.11534   1.19570    0.019
 3779.00   -0.09081   1.21291    0.000
 3780.00   -0.16651   1.23644    0.000
 3781.00   -0.17608   1.25690    0.000
 3782.00    0.03858   1.26659    0.020
 3783.00    0.26851   1.26660    0.020
 3784.00    0.54210   1.25641    0.021
 3785.00    0.64933   1.24488    0.021
 3786.00    0.35014   1.24479    0.021
 3787.00    0.14681   1.24669    0.021
 3788.00    0.14554   1.24313    0.021
 3789.00    0.23647   1.23434    0.021
 3790.00    0.49625   1.21513    0.021
 3791.00    0.68384   1.18312    0.021
 3792.00    0.75587   1.15301    0.021
 3793.00    0.67412   1.12524    0.021
 3794.00    0.37635   1.07919    0.020
 3795.00    0.23397   1.00660    0.020
 3796.00    0.28364   0.91320    0.020
 3797.00    0.14206   0.81760    0.020
 3798.00   -0.20789   0.76666    0.000
 3799.00   -0.37873   0.80071    0.000
 3800.00   -0.37746   0.89307    0.000
 3801.00   -0.50263   0.98821    0.000
 3802.00   -0.73496   1.05890    0.000
 3803.00   -0.71424   1.10843    0.000
 3804.00   -0.50471   1.14554    0.000
 3805.00   -0.30408   1.15627    0.000
 3806.00   -0.10929   1.14072    0.000
 3807.00   -0.08264   1.15000    0.000
 3808.00   -0.15248   1.19620    0.000
 3809.00   -0.04011   1.23337    0.000
 3810.00    0.16333   1.24799    0.018
 3811.00    0.27058   1.25443    0.019
 3812.00    0.33623   1.25770    0.019
 3813.00    0.58214   1.25641    0.019
 3814.00    0.89490   1.25280    0.019
 3815.00    0.84382   1.24835    0.019
 3816.00    0.67837   1.23983    0.019
 3817.00    0.50859   1.21887    0.019
 3818.00    0.33769   1.16085    0.018
 3819.00    0.52717   1.06355    0.019
 3820.00    0.79385   1.01534    0.019
 3821.00    0.64937   1.07036    0.019
 3822.00    0.43509   1.15392    0.019
 3823.00    0.06402   1.20248    0.019
 3824.00   -0.32717   1.21691    0.000
 3825.00   -0.40346   1.21495    0.000
 3826.00   -0.45147   1.20831    0.000
 3827.00   -0.19733   1.19702    0.000
 3828.00    0.07305   1.18007    0.019
 3829.00    0.42960   1.15460    0.020
 3830.00    0.77997   1.11922    0.021
 3831.00    0.46321   1.07236    0.021
 3832.00    0.17320   1.01027    0.021
 3833.00    0.47749   0.93193    0.021
 3834.00    0.76405   0.83755    0.021
 3835.00    0.83002   0.75584    0.021
 3836.00    0.86677   0.74399    0.021
 3837.00    0.65655   0.80658    0.020
 3838.00    0.41919   0.89176    0.020
 3839.00    0.01115   0.97574    0.020
 3840.00   -0.31293   1.05093    0.000
 3841.00   -0.22268   1.10227    0.000
 3842.00   -0.17884   1.13218    0.000
 3843.00   -0.32078   1.15318    0.000
 3844.00   -0.40029   1.17492    0.000
 3845.00   -0.27220   1.19388    0.000
 3846.00   -0.18275   1.20493    0.000
 3847.00   -0.20181   1.20813    0.000
 3848.00   -0.21349   1.20872    0.000
 3849.00   -0.20741   1.21222    0.000
 3850.00   -0.17270   1.20563    0.000
 3851.00   -0.07861   1.19551    0.000
 3852.00   -0.07539   1.20499    0.000
 3853.00   -0.23604   1.21931    0.000
 3854.00   -0.29508   1.21783    0.000
 3855.00   -0.19387   1.20412    0.000
 3856.00   -0.09366   1.19132    0.000
 3857.00    0.00515   1.19818    0.000
 3858.00    0.01690   1.21778    0.000
 3859.00   -0.07743   1.22534    0.000
 3860.00    0.15508   1.21551    0.000
 3861.00    0.73867   1.20468    0.000
 3862.00    1.19372   1.19879    0.000
 3863.00    1.52697   1.18804    0.000
 3864.00    1.38643   1.17437    0.000
 3865.00    0.85008   1.17543    0.000
 3866.00    0.72183   1.18299    0.000
 3867.00    0.89373   1.16946    0.000
 3868.00    0.95796   1.16444    0.000
 3869.00    0.95264   1.19025    0.000
 3870.00    0.75249   1.20382    0.000
 3871.00    0.44224   1.17901    0.000
 3872.00    0.26886   1.14826    0.000
 3873.00    0.16280   1.15434    0.000
 3874.00    0.28111   1.17518    0.000
 3875.00    0.49481   1.16361    0.000
 3876.00    0.69801   1.12541    0.000
 3877.00    0.89739   1.11562    0.000
 3878.00    0.79486   1.13737    0.000
 3879.00    0.59925   1.15076    0.000
 3880.00    0.41758   1.14704    0.000
 3881.00    0.23948   1.12811    0.019
 3882.00    0.34567   1.09753    0.019
 3883.00    0.51130   1.07069    0.019
 3884.00    0.37439   1.04881    0.019
 3885.00    0.18760   1.01274    0.019
 3886.00   -0.14503   0.95181    0.000
 3887.00   -0.49573   0.86631    0.000
 3888.00   -0.34383   0.76503    0.000
 3889.00   -0.14891   0.69540    0.000
 3890.00    0.00446   0.71571    0.019
 3891.00    0.15577   0.80525    0.019
 3892.00    0.38435   0.90039    0.019
 3893.00    0.60897   0.97485    0.019
 3894.00    0.49619   1.02977    0.019
 3895.00    0.38296   1.06833    0.019
 3896.00    0.26039   1.09616    0.018
 3897.00    0.16723   1.11642    0.018
 3898.00    0.42191   1.12291    0.018
 3899.00    0.64422   1.12058    0.018
 3900.00    0.60292   1.13182    0.017
 3901.00    0.53280   1.15479    0.017
 3902.00    0.28671   1.17157    0.016
 3903.00    0.12981   1.17983    0.016
 3904.00    0.40219   1.18473    0.016
 3905.00    0.64488   1.18615    0.016
 3906.00    0.77135   1.18485    0.016
 3907.00    0.85540   1.18451    0.016
 3908.00    0.80117   1.18780    0.017
 3909.00    0.71171   1.19316    0.017
 3910.00    0.52506   1.19305    0.017
 3911.00    0.40883   1.17704    0.018
 3912.00    0.45885   1.15905    0.018
 3913.00    0.50773   1.16515    0.019
 3914.00    0.55427   1.18281    0.019
 3915.00    0.68341   1.19113    0.019
 3916.00    0.95927   1.19068    0.020
 3917.00    1.08996   1.18246    0.020
 3918.00    0.99510   1.15020    0.021
 3919.00    0.85698   1.09785    0.021
 3920.00    0.65982   1.06401    0.022
 3921.00    0.70066   1.07836    0.023
 3922.00    1.02739   1.12476    0.023
 3923.00    1.39142   1.14988    0.024
 3924.00    1.79493   1.14095    0.023
 3925.00    1.74617   1.12401    0.023
 3926.00    1.27490   1.10515    0.023
 3927.00    0.80477   1.09839    0.022
 3928.00    0.33556   1.11497    0.021
 3929.00    0.31575   1.13584    0.020
 3930.00    0.62172   1.15190    0.020
 3931.00    0.58232   1.15706    0.020
 3932.00    0.32313   1.14595    0.020
 3933.00    0.25925   1.12170    0.020
 3934.00    0.30406   1.11030    0.020
 3935.00    0.36895   1.12276    0.020
 3936.00    0.44355   1.13806    0.020
 3937.00    0.55895   1.14942    0.020
 3938.00    0.69139   1.15693    0.020
 3939.00    0.75802   1.16041    0.020
 3940.00    0.80110   1.16363    0.020
 3941.00    0.65150   1.16488    0.020
 3942.00    0.44367   1.16331    0.019
 3943.00    0.77391   1.15728    0.020
 3944.00    1.23929   1.14263    0.020
 3945.00    1.25770   1.12770    0.020
 3946.00    1.18495   1.12936    0.020
 3947.00    1.02662   1.13854    0.020
 3948.00    0.85459   1.14264    0.019
 3949.00    0.90551   1.14568    0.019
 3950.00    0.98304   1.14829    0.019
 3951.00    0.61542   1.14721    0.020
 3952.00    0.21156   1.14062    0.020
 3953.00    0.19732   1.12743    0.020
 3954.00    0.20100   1.10658    0.019
 3955.00    0.33109   1.09576    0.020
 3956.00    0.46666   1.10128    0.020
 3957.00    0.80439   1.11109    0.020
 3958.00    1.12279   1.11549    0.020
 3959.00    1.07502   1.11223    0.020
 3960.00    0.99900   1.09937    0.000
 3961.00    0.60467   1.07540    0.000
 3962.00    0.26561   1.05101    0.000
 3963.00    0.36104   1.02622    0.000
 3964.00    0.42936   0.98136    0.000
 3965.00    0.33689   0.93505    0.000
 3966.00    0.26308   0.91159    0.000
 3967.00    0.27684   0.87794    0.000
 3968.00    0.32704   0.80752    0.000
 3969.00    0.51686   0.71570    0.000
 3970.00    0.63441   0.65206    0.000
 3971.00    0.52098   0.66827    0.000
 3972.00    0.48101   0.74353    0.000
 3973.00    0.64001   0.82127    0.000
 3974.00    0.65519   0.89092    0.000
 3975.00    0.33642   0.95403    0.000
 3976.00    0.17691   0.99824    0.000
 3977.00    0.33728   1.02647    0.000
 3978.00    0.73017   1.04569    0.000
 3979.00    1.52977   1.05802    0.000
 3980.00    1.80372   1.06914    0.000
 3981.00    1.27293   1.07891    0.022
 3982.00    0.73466   1.07750    0.022
 3983.00    0.18632   1.07204    0.022
 3984.00    0.24988   1.08076    0.022
 3985.00    1.03807   1.09822    0.021
 3986.00    1.19788   1.11029    0.021
 3987.00    0.70152   1.11779    0.020
 3988.00    0.56079   1.12300    0.020
 3989.00    0.74761   1.12359    0.019
 3990.00    0.88761   1.12271    0.019
 3991.00    0.98961   1.12302    0.020
 3992.00    1.04552   1.12468    0.020
 3993.00    1.06850   1.12235    0.020
 3994.00    1.06368   1.10536    0.020
 3995.00    1.04142   1.08838    0.020
 3996.00    1.02154   1.09420    0.020
 3997.00    1.00295   1.11046    0.019
 3998.00    0.90169   1.11396    0.019
 3999.00    0.76104   1.11215    0.020
 4000.00    0.71960   1.11418    0.020
 4001.00    0.71894   1.11620    0.019
 4002.00    0.75391   1.11383    0.019
 4003.00    0.80140   1.10794    0.019
 4004.00    0.59725   1.10092    0.019
 4005.00    0.31854   1.09510    0.019
 4006.00    0.36827   1.09218    0.019
 4007.00    0.49867   1.08398    0.019
 4008.00    0.63269   1.05037    0.019
 4009.00    0.76742   1.00643    0.019
 4010.00    0.88259   1.00437    0.019
 4011.00    0.99472   1.04586    0.020
 4012.00    0.77966   1.08475    0.020
 4013.00    0.52697   1.10287    0.020
 4014.00    0.75890   1.10966    0.020
 4015.00    1.02830   1.11262    0.020
 4016.00    1.56001   1.11278    0.020
 4017.00    2.10275   1.11057    0.020
 4018.00    1.44177   1.10923    0.021
 4019.00    0.77955   1.10999    0.021
 4020.00    0.54447   1.10829    0.021
 4021.00    0.35655   1.10047    0.021
 4022.00    1.00000   1.08722    0.021
 4023.00    1.57870   1.06657    0.021
 4024.00    1.46064   1.02914    0.021
 4025.00    1.35024   0.95998    0.021
 4026.00    1.29797   0.89012    0.021
 4027.00    1.17362   0.89697    0.021
 4028.00    0.63347   0.97304    0.021
 4029.00    0.34190   1.03932    0.020
 4030.00    1.18950   1.06981    0.021
 4031.00    1.73897   1.07936    0.021
 4032.00    1.17008   1.07856    0.020
 4033.00    0.69754   1.07493    0.020
 4034.00    0.52703   1.07006    0.020
 4035.00    0.44234   1.06461    0.020
 4036.00    0.58593   1.07352    0.020
 4037.00    0.69493   1.09301    0.020
 4038.00    0.72494   1.10231    0.020
 4039.00    0.63873   1.09979    0.020
 4040.00    0.32274   1.09038    0.020
 4041.00    0.21874   1.07686    0.020
 4042.00    0.47993   1.07008    0.020
 4043.00    0.58426   1.06769    0.020
 4044.00    0.45194   1.06577    0.020
 4045.00    0.47861   1.06893    0.020
 4046.00    0.71602   1.07580    0.020
 4047.00    1.07635   1.08065    0.020
 4048.00    1.58019   1.08181    0.020
 4049.00    1.69596   1.08386    0.020
 4050.00    1.41220   1.08924    0.020
 4051.00    1.19259   1.09267    0.020
 4052.00    1.03123   1.08956    0.020
 4053.00    1.02522   1.07922    0.020
 4054.00    1.14355   1.06793    0.020
 4055.00    1.11713   1.06473    0.020
 4056.00    0.98877   1.06834    0.020
 4057.00    1.04836   1.07142    0.020
 4058.00    1.22405   1.07184    0.020
 4059.00    1.41814   1.06557    0.020
 4060.00    1.62214   1.05234    0.020
 4061.00    1.46986   1.04508    0.020
 4062.00    1.15059   1.04805    0.020
 4063.00    0.89416   1.05271    0.019
 4064.00    0.66312   1.05811    0.019
 4065.00    0.65445   1.06596    0.019
 4066.00    0.72245   1.07113    0.019
 4067.00    0.69689   1.07054    0.019
 4068.00    0.64416   1.06084    0.019
 4069.00    0.58784   1.03552    0.019
 4070.00    0.53066   1.01012    0.019
 4071.00    0.81803   1.00177    0.019
 4072.00    1.17216   1.00260    0.019
 4073.00    1.39178   1.01326    0.020
 4074.00    1.59113   1.01770    0.020
 4075.00    1.20053   0.99735    0.020
 4076.00    0.74467   0.98297    0.020
 4077.00    0.58462   0.99872    0.020
 4078.00    0.44623   1.01792    0.020
 4079.00    0.91409   1.02461    0.020
 4080.00    1.40515   1.03061    0.020
 4081.00    1.18610   1.03539    0.020
 4082.00    0.96159   1.03346    0.020
 4083.00    0.67943   1.02689    0.020
 4084.00    0.41555   1.01591    0.019
 4085.00    0.45301   1.00748    0.020
 4086.00    0.52421   1.00918    0.020
 4087.00    0.94269   1.00966    0.020
 4088.00    1.34803   0.99901    0.020
 4089.00    1.65701   0.98666    0.020
 4090.00    1.86184   0.99177    0.021
 4091.00    1.48247   1.00419    0.021
 4092.00    1.18637   0.99742    0.000
 4093.00    1.26293   0.97898    0.000
 4094.00    1.22681   0.96376    0.000
 4095.00    0.77689   0.93978    0.000
 4096.00    0.51321   0.89987    0.000
 4097.00    0.82227   0.86057    0.000
 4098.00    1.09906   0.82986    0.000
 4099.00    1.29148   0.79234    0.000
 4100.00    1.20633   0.72775    0.000
 4101.00    0.49784   0.64551    0.000
 4102.00    0.26990   0.60345    0.000
 4103.00    0.97704   0.63962    0.000
 4104.00    1.28642   0.71352    0.000
 4105.00    0.92090   0.78249    0.000
 4106.00    0.61127   0.84316    0.000
 4107.00    0.38473   0.89102    0.000
 4108.00    0.40054   0.92157    0.000
 4109.00    0.73303   0.94050    0.000
 4110.00    0.94999   0.94982    0.000
 4111.00    1.03396   0.95534    0.000
 4112.00    0.96074   0.96594    0.000
 4113.00    0.72793   0.98123    0.019
 4114.00    0.83273   0.98964    0.019
 4115.00    1.23980   0.98809    0.019
 4116.00    1.33012   0.98761    0.019
 4117.00    1.17052   0.99519    0.019
 4118.00    1.12349   0.99227    0.019
 4119.00    1.15456   0.96224    0.019
 4120.00    1.10050   0.92016    0.028
 4121.00    0.99464   0.90188    0.108
 4122.00    0.91814   0.93004   -1.000
 4123.00    0.85723   0.97944   -1.000
 4124.00    0.89475   1.01295   -1.000
 4125.00    0.97764   1.02733   -1.000
 4126.00    1.20557   1.02804   -1.000
 4127.00    1.49110   1.01448   -1.000
 4128.00    1.57841   0.99596    0.050
 4129.00    1.59863   0.98988    0.021
 4130.00    1.14615   0.98728    0.019
 4131.00    0.55916   0.97955    0.019
 4132.00    0.35348   0.97608    0.018
 4133.00    0.23732   0.98261    0.018
 4134.00    0.55216   0.99709    0.018
 4135.00    0.94835   1.01282    0.018
 4136.00    1.03164   1.01862    0.019
 4137.00    1.06923   1.01347    0.019
 4138.00    0.85962   1.00722    0.019
 4139.00    0.62374   1.00398    0.019
 4140.00    0.71580   1.00059    0.019
 4141.00    0.83054   0.99243    0.018
 4142.00    1.40624   0.96256    0.019
 4143.00    1.99784   0.90715    0.019
 4144.00    1.47604   0.87379    0.019
 4145.00    0.95594   0.90159    0.019
 4146.00    0.56461   0.95310    0.019
 4147.00    0.21071   0.98651    0.019
 4148.00    0.43573   1.00094    0.019
 4149.00    0.64682   0.99908    0.019
 4150.00    0.72049   0.98893    0.019
 4151.00    0.79346   0.98804    0.019
 4152.00    0.86145   0.98683    0.019
 4153.00    0.97555   0.97549    0.019
 4154.00    1.34135   0.97608    0.019
 4155.00    1.57758   0.98956    0.019
 4156.00    1.24753   0.99371    0.019
 4157.00    0.91154   0.99573    0.019
 4158.00    0.55414   1.00533    0.019
 4159.00    0.39437   1.01286    0.018
 4160.00    0.83097   1.01257    0.019
 4161.00    1.15953   1.00789    0.019
 4162.00    1.21065   0.99933    0.019
 4163.00    1.26778   0.99002    0.019
 4164.00    1.33818   0.98384    0.019
 4165.00    1.22437   0.98245    0.019
 4166.00    0.75767   0.98603    0.019
 4167.00    0.57404   0.98737    0.019
 4168.00    0.86353   0.97520    0.019
 4169.00    0.94558   0.96170    0.019
 4170.00    0.72376   0.96739    0.019
 4171.00    0.66623   0.97852    0.019
 4172.00    0.82030   0.97895    0.019
 4173.00    1.06960   0.97615    0.019
 4174.00    1.42695   0.97540    0.019
 4175.00    1.44257   0.97486    0.019
 4176.00    1.11617   0.97413    0.019
 4177.00    1.14086   0.97598    0.019
 4178.00    1.47547   0.98088    0.019
 4179.00    1.43803   0.98476    0.019
 4180.00    1.11124   0.98832    0.019
 4181.00    0.75834   0.99173    0.018
 4182.00    0.38758   0.99240    0.018
 4183.00    0.25939   0.99103    0.018
 4184.00    0.27658   0.98524    0.018
 4185.00    0.16728   0.97389    0.018
 4186.00   -0.00819   0.96828    0.000
 4187.00    0.25853   0.97265    0.019
 4188.00    0.72583   0.97568    0.019
 4189.00    1.10499   0.96512    0.019
 4190.00    1.44977   0.95479    0.019
 4191.00    1.39550   0.96338    0.018
 4192.00    1.20869   0.97965    0.018
 4193.00    0.98175   0.98737    0.018
 4194.00    0.74362   0.98696    0.018
 4195.00    0.39086   0.98185    0.018
 4196.00    0.01181   0.97733    0.018
 4197.00    0.31826   0.97616    0.018
 4198.00    0.75070   0.97415    0.018
 4199.00    0.86901   0.96766    0.018
 4200.00    0.94290   0.96015    0.018
 4201.00    0.76188   0.95977    0.018
 4202.00    0.55487   0.96484    0.017
 4203.00    0.55763   0.96982    0.017
 4204.00    0.57406   0.97221    0.017
 4205.00    0.69061   0.97224    0.017
 4206.00    0.81017   0.97345    0.017
 4207.00    0.87845   0.97615    0.017
 4208.00    0.94498   0.97901    0.018
 4209.00    0.96009   0.97940    0.017
 4210.00    0.98295   0.97621    0.017
 4211.00    1.11869   0.97237    0.017
 4212.00    1.22757   0.97026    0.017
 4213.00    1.08248   0.96932    0.017
 4214.00    0.97124   0.96758    0.017
 4215.00    1.09275   0.96339    0.017
 4216.00    1.18253   0.95881    0.017
 4217.00    1.10364   0.95917    0.017
 4218.00    0.96052   0.96158    0.017
 4219.00    0.54307   0.96188    0.017
 4220.00    0.29978   0.95960    0.017
 4221.00    0.67015   0.95348    0.017
 4222.00    0.93502   0.94372    0.017
 4223.00    0.88750   0.93927    0.017
 4224.00    0.81906   0.93947    0.017
 4225.00    0.69783   0.93597    0.017
 4226.00    0.75184   0.92957    0.017
 4227.00    1.18666   0.92252    0.017
 4228.00    1.50203   0.92166    0.017
 4229.00    1.59215   0.92989    0.017
 4230.00    1.54628   0.93838    0.017
 4231.00    1.27654   0.94064    0.017
 4232.00    1.02550   0.94043    0.017
 4233.00    0.80147   0.93947    0.016
 4234.00    0.77767   0.94051    0.016
 4235.00    1.00809   0.94293    0.016
 4236.00    1.09538   0.93676    0.016
 4237.00    1.02255   0.92697    0.016
 4238.00    0.83756   0.92881    0.016
 4239.00    0.54189   0.93816    0.016
 4240.00    0.60641   0.93994    0.016
 4241.00    0.98439   0.93028    0.016
 4242.00    1.11010   0.92402    0.016
 4243.00    1.04238   0.93441    0.017
 4244.00    0.82012   0.94933    0.017
 4245.00    0.49369   0.95238    0.017
 4246.00    0.54695   0.94436    0.017
 4247.00    0.82438   0.93839    0.017
 4248.00    1.05939   0.93968    0.017
 4249.00    1.27257   0.94092    0.018
 4250.00    1.28738   0.93669    0.018
 4251.00    1.21370   0.93208    0.018
 4252.00    1.21518   0.92583    0.018
 4253.00    1.24549   0.90379    0.018
 4254.00    1.16733   0.88426    0.018
 4255.00    1.05383   0.89614    0.018
 4256.00    1.00412   0.91971    0.018
 4257.00    0.97181   0.92867    0.018
 4258.00    1.02462   0.92786    0.018
 4259.00    1.09651   0.92763    0.018
 4260.00    1.08710   0.92759    0.018
 4261.00    1.06314   0.92798    0.018
 4262.00    0.91368   0.93067    0.018
 4263.00    0.74704   0.93517    0.018
 4264.00    0.69814   0.93834    0.018
 4265.00    0.66074   0.93027    0.018
 4266.00    0.74163   0.88719    0.018
 4267.00    0.82976   0.82979    0.017
 4268.00    0.77882   0.82830    0.017
 4269.00    0.72230   0.87785    0.017
 4270.00    0.30547   0.91238    0.017
 4271.00   -0.08579   0.91739    0.000
 4272.00    0.19889   0.91346    0.017
 4273.00    0.48534   0.90888    0.017
 4274.00    0.79613   0.90110    0.017
 4275.00    1.07880   0.88512    0.018
 4276.00    1.10592   0.86789    0.018
 4277.00    1.14027   0.86658    0.018
 4278.00    1.22275   0.88732    0.018
 4279.00    1.20512   0.91340    0.018
 4280.00    0.66932   0.92431    0.018
 4281.00    0.27641   0.91764    0.018
 4282.00    0.48005   0.90219   -2.000
 4283.00    0.66920   0.88795   -2.000
 4284.00    0.80833   0.88130   -2.000
 4285.00    0.92836   0.88331   -2.000
 4286.00    0.99287   0.89385   -2.000
 4287.00    1.09062   0.90559   -2.000
 4288.00    1.27078   0.90345   -2.000
 4289.00    1.40371   0.89100   -2.000
 4290.00    1.43568   0.88441   -2.000
 4291.00    1.23926   0.88761   -2.000
 4292.00    0.61877   0.89833   -2.000
 4293.00    0.37702   0.90754   -2.000
 4294.00    0.74954   0.90110   -2.000
 4295.00    1.01970   0.89133   -2.000
 4296.00    1.14427   0.89504   -2.000
 4297.00    1.21297   0.90375   -2.000
 4298.00    1.21177   0.90671    0.017
 4299.00    1.13995   0.90404    0.017
 4300.00    0.99022   0.90027    0.017
 4301.00    1.04231   0.89924    0.017
 4302.00    1.29075   0.89296    0.017
 4303.00    1.22707   0.87454    0.017
 4304.00    0.89559   0.86301    0.016
 4305.00    0.54840   0.87147    0.016
 4306.00    0.18933   0.88281    0.016
 4307.00    0.20931   0.88216    0.016
 4308.00    0.48100   0.87593    0.017
 4309.00    0.82490   0.87383    0.017
 4310.00    1.21078   0.88059    0.016
 4311.00    1.13381   0.89250    0.016
 4312.00    0.82226   0.89744    0.016
 4313.00    0.84913   0.88943    0.016
 4314.00    1.02450   0.87899    0.016
 4315.00    1.00829   0.87565    0.016
 4316.00    0.91992   0.87468    0.016
 4317.00    0.81539   0.87153    0.016
 4318.00    0.70568   0.86867    0.016
 4319.00    0.88764   0.86622    0.016
 4320.00    1.14755   0.86772    0.016
 4321.00    1.09266   0.87929    0.016
 4322.00    0.96887   0.89099    0.016
 4323.00    0.80779   0.89402    0.016
 4324.00    0.64022   0.88581    0.016
 4325.00    0.75410   0.86433    0.016
 4326.00    0.90522   0.84688    0.016
 4327.00    1.16028   0.85059    0.016
 4328.00    1.42506   0.86351    0.016
 4329.00    1.19966   0.86814    0.016
 4330.00    0.94622   0.86442    0.000
 4331.00    0.53960   0.85432    0.000
 4332.00    0.13806   0.83946    0.000
 4333.00    0.73089   0.82570    0.000
 4334.00    1.29624   0.81631    0.000
 4335.00    1.20181   0.80473    0.000
 4336.00    1.07867   0.77732    0.000
 4337.00    0.58183   0.73058    0.000
 4338.00    0.17655   0.67477    0.000
 4339.00    0.57114   0.61139    0.000
 4340.00    0.95899   0.54851    0.000
 4341.00    1.30333   0.53257    0.000
 4342.00    1.57817   0.58281    0.000
 4343.00    1.50236   0.65398    0.000
 4344.00    1.37442   0.70581    0.000
 4345.00    1.03366   0.73749    0.000
 4346.00    0.75365   0.75946    0.000
 4347.00    0.67918   0.77804    0.000
 4348.00    0.67163   0.79514    0.000
 4349.00    0.85503   0.80873    0.000
 4350.00    0.94109   0.81516    0.000
 4351.00    0.78985   0.81373    0.016
 4352.00    0.72774   0.81577    0.016
 4353.00    0.85312   0.82853    0.016
 4354.00    0.97389   0.84487    0.019
 4355.00    1.08622   0.86126    0.050
 4356.00    1.12039   0.87561   -1.000
 4357.00    1.02965   0.88249   -1.000
 4358.00    0.89049   0.88047   -1.000
 4359.00    0.68347   0.87508   -1.000
 4360.00    0.56083   0.87127   -1.000
 4361.00    0.54230   0.86850   -1.000
 4362.00    0.66603   0.87147    0.065
 4363.00    0.94447   0.88013    0.021
 4364.00    1.07650   0.88307    0.016
 4365.00    1.06808   0.87903    0.016
 4366.00    1.02607   0.86828    0.016
 4367.00    0.95564   0.85674    0.016
 4368.00    0.90749   0.85574    0.016
 4369.00    0.87593   0.86165    0.016
 4370.00    0.86574   0.86662    0.016
 4371.00    0.86955   0.86324    0.016
 4372.00    1.02733   0.85157    0.016
 4373.00    1.27329   0.84600    0.016
 4374.00    1.13355   0.84932    0.016
 4375.00    0.80140   0.85358    0.016
 4376.00    0.81905   0.85915    0.016
 4377.00    0.98765   0.86592    0.016
 4378.00    1.19367   0.86724    0.016
 4379.00    1.41355   0.86367    0.016
 4380.00    1.11022   0.86515    0.016
 4381.00    0.64283   0.86910    0.015
 4382.00    0.44346   0.86353    0.015
 4383.00    0.31421   0.84849    0.015
 4384.00    0.59931   0.83483    0.016
 4385.00    0.97292   0.83168    0.016
 4386.00    1.05291   0.82815    0.016
 4387.00    1.08324   0.79896    0.015
 4388.00    1.05247   0.76636    0.016
 4389.00    1.01389   0.77916    0.016
 4390.00    0.75445   0.81896    0.016
 4391.00    0.47529   0.84456    0.016
 4392.00    0.56155   0.85863    0.016
 4393.00    0.66727   0.86782    0.015
 4394.00    1.02417   0.86587    0.016
 4395.00    1.37931   0.85298    0.016
 4396.00    1.19185   0.84748    0.016
 4397.00    0.99772   0.85999    0.016
 4398.00    0.65694   0.87383    0.016
 4399.00    0.36438   0.87442    0.016
 4400.00    0.66765   0.86719    0.016
 4401.00    0.96266   0.86432    0.016
 4402.00    1.18824   0.86839    0.016
 4403.00    1.33696   0.86709    0.016
 4404.00    1.00396   0.85407    0.016
 4405.00    0.79443   0.84068    0.017
 4406.00    1.19226   0.83724    0.016
 4407.00    1.46952   0.84176    0.016
 4408.00    1.26551   0.84607    0.016
 4409.00    1.06404   0.84990    0.016
 4410.00    0.87099   0.85315    0.016
 4411.00    0.71342   0.85009    0.016
 4412.00    0.65529   0.84841    0.016
 4413.00    0.58636   0.84968    0.016
 4414.00    0.49156   0.83443    0.016
 4415.00    0.51638   0.81089    0.016
 4416.00    0.78877   0.80332    0.016
 4417.00    1.03413   0.81191    0.016
 4418.00    1.23086   0.82976    0.016
 4419.00    1.24311   0.84602    0.016
 4420.00    0.96495   0.85264    0.016
 4421.00    0.79435   0.85618    0.016
 4422.00    0.77238   0.85730    0.016
 4423.00    0.80380   0.85631    0.016
 4424.00    0.90016   0.85804    0.016
 4425.00    1.08885   0.85803    0.016
 4426.00    1.37655   0.85155    0.016
 4427.00    1.34131   0.84273    0.016
 4428.00    1.00062   0.83971    0.016
 4429.00    0.84094   0.84200    0.016
 4430.00    0.83219   0.83989    0.016
 4431.00    0.85765   0.83505    0.016
 4432.00    0.90822   0.83496    0.016
 4433.00    1.01885   0.83447    0.016
 4434.00    1.16821   0.83172    0.016
 4435.00    1.26128   0.82896    0.016
 4436.00    1.32259   0.82449    0.016
 4437.00    1.16402   0.81940    0.016
 4438.00    0.89750   0.82491    0.016
 4439.00    0.73746   0.84273    0.016
 4440.00    0.62260   0.85412    0.016
 4441.00    0.66601   0.84858    0.016
 4442.00    0.76693   0.83364    0.016
 4443.00    0.95074   0.82475    0.016
 4444.00    1.16003   0.83173    0.016
 4445.00    0.80892   0.84455    0.016
 4446.00    0.31435   0.84374    0.016
 4447.00    0.41761   0.83095    0.016
 4448.00    0.64548   0.82628    0.016
 4449.00    0.76841   0.83460    0.016
 4450.00    0.87410   0.84340    0.016
 4451.00    0.90966   0.84513    0.016
 4452.00    0.93657   0.83946    0.016
 4453.00    0.91979   0.83444    0.016
 4454.00    0.89930   0.83438    0.016
 4455.00    0.66220   0.83190    0.016
 4456.00    0.41440   0.82885    0.016
 4457.00    0.57464   0.83041    0.016
 4458.00    0.74051   0.83353    0.016
 4459.00    0.85204   0.83360    0.016
 4460.00    0.96970   0.83069    0.015
 4461.00    1.21150   0.82657    0.000
 4462.00    1.41989   0.82411    0.000
 4463.00    1.23559   0.82706    0.000
 4464.00    1.06956   0.83084    0.000
 4465.00    1.05170   0.82615    0.000
 4466.00    1.04303   0.81635    0.000
 4467.00    1.09033   0.80819    0.000
 4468.00    1.10152   0.80139    0.000
 4469.00    0.93947   0.78969    0.000
 4470.00    0.82479   0.75633    0.000
 4471.00    0.89508   0.70205    0.000
 4472.00    0.94553   0.68366    0.000
 4473.00    0.93144   0.73297    0.000
 4474.00    0.89803   0.79317    0.000
 4475.00    0.81149   0.82113    0.000
 4476.00    0.79248   0.83169    0.000
 4477.00    0.93262   0.83974    0.000
 4478.00    1.01796   0.84165    0.000
 4479.00    0.99167   0.82909    0.000
 4480.00    1.11336   0.79905    0.000
 4481.00    1.49734   0.77182    0.000
 4482.00    1.65731   0.77716    0.016
 4483.00    1.46984   0.80884    0.015
 4484.00    1.31339   0.83430    0.015
 4485.00    1.19919   0.84464    0.015
 4486.00    1.04830   0.84683    0.015
 4487.00    0.85343   0.84047    0.015
 4488.00    0.86818   0.82655    0.016
 4489.00    1.10456   0.81464    0.015
 4490.00    1.23803   0.81443    0.015
 4491.00    1.27552   0.82463    0.015
 4492.00    1.18757   0.83392    0.015
 4493.00    0.99649   0.83592    0.016
 4494.00    1.06374   0.83055    0.015
 4495.00    1.31794   0.82279    0.015
 4496.00    1.37219   0.81873    0.015
 4497.00    1.29943   0.81951    0.015
 4498.00    1.16406   0.82529    0.015
 4499.00    0.99391   0.83102    0.015
 4500.00    0.82881   0.83068    0.015
 4501.00    0.66614   0.82697    0.015
 4502.00    0.71452   0.82862    0.015
 4503.00    0.85096   0.83867    0.015
 4504.00    1.11368   0.84727    0.015
 4505.00    1.42146   0.84613    0.015
 4506.00    1.15233   0.83779    0.015
 4507.00    0.70927   0.82907    0.015
 4508.00    0.79437   0.82569    0.015
 4509.00    1.01176   0.82815    0.015
 4510.00    1.16255   0.83059    0.015
 4511.00    1.29981   0.82665    0.015
 4512.00    1.28652   0.81562    0.015
 4513.00    1.24923   0.80623    0.015
 4514.00    1.02360   0.80517    0.015
 4515.00    0.77559   0.80900    0.015
 4516.00    0.81244   0.81493    0.015
 4517.00    0.87235   0.81838    0.015
 4518.00    0.99662   0.81779    0.015
 4519.00    1.12381   0.81952    0.015
 4520.00    1.10341   0.82580    0.015
 4521.00    1.08015   0.83059    0.014
 4522.00    1.00440   0.82650    0.015
 4523.00    0.93118   0.81617    0.015
 4524.00    0.90564   0.80860    0.015
 4525.00    0.87511   0.80614    0.015
 4526.00    0.78885   0.80550    0.015
 4527.00    0.71952   0.80066    0.014
 4528.00    0.78266   0.78746    0.014
 4529.00    0.85039   0.77360    0.015
 4530.00    0.94520   0.77226    0.014
 4531.00    1.02913   0.78586    0.014
 4532.00    1.06215   0.80144    0.014
 4533.00    1.08558   0.80488    0.014
 4534.00    1.07240   0.79571    0.014
 4535.00    1.02175   0.78687    0.014
 4536.00    0.85158   0.79132    0.015
 4537.00    0.81947   0.80746    0.015
 4538.00    1.16045   0.81974    0.015
 4539.00    1.38222   0.81989    0.015
 4540.00    1.32777   0.81229    0.015
 4541.00    1.27098   0.80536    0.015
 4542.00    1.20950   0.80573    0.015
 4543.00    1.18467   0.81150    0.015
 4544.00    1.22381   0.81256    0.015
 4545.00    1.16924   0.80773    0.015
 4546.00    0.97145   0.80595    0.014
 4547.00    0.80683   0.80836    0.014
 4548.00    0.68673   0.80744    0.014
 4549.00    0.55272   0.80117    0.014
 4550.00    0.40227   0.80034    0.000
 4551.00    0.44964   0.79943    0.000
 4552.00    0.70320   0.78213    0.000
 4553.00    0.90478   0.76507    0.000
 4554.00    1.05856   0.76912    0.000
 4555.00    1.14044   0.78275    0.000
 4556.00    1.16404   0.79481    0.000
 4557.00    1.13020   0.80709    0.000
 4558.00    1.05538   0.81586    0.000
 4559.00    1.03479   0.81817    0.000
 4560.00    1.04813   0.81690    0.000
 4561.00    0.92332   0.81531    0.000
 4562.00    0.72293   0.81369    0.000
 4563.00    0.61986   0.80841    0.000
 4564.00    0.56306   0.80224    0.000
 4565.00    0.67243   0.80167    0.000
 4566.00    0.84995   0.80398    0.000
 4567.00    0.87027   0.80069    0.000
 4568.00    0.83550   0.79604    0.000
 4569.00    0.80367   0.80096    0.000
 4570.00    0.77270   0.80700    0.000
 4571.00    0.93046   0.80278    0.000
 4572.00    1.13445   0.79963    0.000
 4573.00    0.87365   0.80384    0.000
 4574.00    0.52074   0.80219    0.000
 4575.00    0.60106   0.79503    0.000
 4576.00    0.74844   0.79804    0.000
 4577.00    1.02348   0.80694    0.000
 4578.00    1.31312   0.80775    0.000
 4579.00    1.01211   0.79911    0.000
 4580.00    0.66575   0.79148    0.000
 4581.00    0.75094   0.79325    0.000
 4582.00    0.85410   0.80021    0.000
 4583.00    0.87128   0.80266    0.000
 4584.00    0.88918   0.79869    0.000
 4585.00    0.96977   0.79300    0.000
 4586.00    1.03888   0.78935    0.000
 4587.00    0.90745   0.78982    0.000
 4588.00    0.79170   0.79447    0.000
 4589.00    0.84366   0.79664    0.000
 4590.00    0.91101   0.78668    0.000
 4591.00    1.09460   0.77181    0.000
 4592.00    1.21878   0.77047    0.000
 4593.00    1.00153   0.77963    0.000
 4594.00    0.83842   0.78211    0.000
 4595.00    0.92271   0.77384    0.000
 4596.00    0.99503   0.76541    0.000
 4597.00    1.02251   0.76887    0.000
 4598.00    1.08559   0.78142    0.000
 4599.00    1.25999   0.78890    0.000
 4600.00    1.28253   0.78464    0.000
 4601.00    0.90195   0.76967    0.000
 4602.00    0.61532   0.76035    0.000
 4603.00    0.54276   0.76820    0.000
 4604.00    0.67285   0.78099    0.000
 4605.00    1.20276   0.78427    0.000
 4606.00    1.41191   0.77767    0.000
 4607.00    1.06953   0.77201    0.000
 4608.00    0.78171   0.77576    0.000
 4609.00    0.57604   0.78179    0.000
 4610.00    0.62633   0.78434    0.000
 4611.00    1.01530   0.78910    0.000
 4612.00    1.14965   0.79150    0.000
 4613.00    0.98728   0.78500    0.000
 4614.00    0.93312   0.78184    0.000
 4615.00    0.99020   0.78964    0.000
 4616.00    0.86181   0.79732    0.000
 4617.00    0.56531   0.79821    0.000
 4618.00    0.55326   0.78724    0.000
 4619.00    0.76848   0.76981    0.000
 4620.00    0.97969   0.76498    0.000
 4621.00    1.18807   0.77380    0.000
 4622.00    1.22162   0.78235    0.000
 4623.00    1.14738   0.78920    0.000
 4624.00    1.06659   0.79367    0.000
 4625.00    0.98228   0.79151    0.000
 4626.00    1.02226   0.78504    0.000
 4627.00    1.12037   0.77955    0.000
 4628.00    0.99028   0.77634    0.000
 4629.00    0.76819   0.76876    0.000
 4630.00    0.80873   0.75761    0.000
 4631.00    0.93961   0.75683    0.000
 4632.00    0.93229   0.76738    0.000
 4633.00    0.88493   0.77157    0.000
 4634.00    0.85844   0.76696    0.000
 4635.00    0.83695   0.76503    0.000
 4636.00    0.62188   0.76764    0.000
 4637.00    0.36942   0.76494    0.000
 4638.00    0.53580   0.75070    0.000
 4639.00    0.76506   0.73561    0.000
 4640.00    0.84622   0.73043    0.000
 4641.00    0.91108   0.72808    0.000
 4642.00    0.91311   0.72586    0.000
 4643.00    0.91057   0.73331    0.000
 4644.00    0.99255   0.74821    0.000
 4645.00    1.07772   0.75633    0.000
 4646.00    0.94284   0.74852    0.000
 4647.00    0.81366   0.73154    0.000
 4648.00    0.93708   0.71635    0.000
 4649.00    1.05220   0.70620    0.000
 4650.00    1.03156   0.70147    0.000
 4651.00    0.99582   0.70940    0.000
 4652.00    0.80559   0.73068    0.000
 4653.00    0.63978   0.75140    0.000
 4654.00    0.65237   0.75621    0.000
 4655.00    0.67374   0.75232    0.000
 4656.00    0.74417   0.75176    0.000
 4657.00    0.80678   0.75647    0.000
 4658.00    0.83447   0.76585    0.000
 4659.00    0.87896   0.77634    0.000
 4660.00    0.98498   0.77868    0.000
 4661.00    1.01611   0.76746    0.000
 4662.00    0.81749   0.75412    0.000
 4663.00    0.70116   0.75276    0.000
 4664.00    0.79943   0.75974    0.000
 4665.00    0.88058   0.76278    0.000
 4666.00    0.92337   0.75717    0.000
 4667.00    0.88354   0.74559    0.000
 4668.00    0.68327   0.73606    0.000
 4669.00    0.65621   0.73515    0.000
 4670.00    0.92251   0.74223    0.000
 4671.00    1.04609   0.75072    0.000
 4672.00    0.95790   0.75265    0.000
 4673.00    1.01179   0.74588    0.000
 4674.00    1.25096   0.73803    0.000
 4675.00    1.30048   0.73333    0.000
 4676.00    1.13209   0.73217    0.000
 4677.00    1.02332   0.73551    0.000
 4678.00    0.97497   0.74267    0.000
 4679.00    0.94218   0.74748    0.000
 4680.00    0.92328   0.74786    0.000
 4681.00    0.84729   0.74477    0.000
 4682.00    0.72634   0.74184    0.000
 4683.00    0.62824   0.74298    0.000
 4684.00    0.54597   0.74544    0.000
 4685.00    0.71476   0.74395    0.000
 4686.00    1.03603   0.74101    0.000
 4687.00    1.01471   0.74190    0.000
 4688.00    0.81175   0.74607    0.000
 4689.00    0.82042   0.75042    0.000
 4690.00    0.92649   0.75041    0.000
 4691.00    0.86251   0.74554    0.000
 4692.00    0.73115   0.74400    0.000
 4693.00    0.74579   0.74777    0.000
 4694.00    0.80972   0.75135    0.000
 4695.00    0.80719   0.75342    0.000
 4696.00    0.78579   0.75478    0.000
 4697.00    0.64318   0.75267    0.000
 4698.00    0.47218   0.74054    0.000
 4699.00    0.53595   0.72505    0.000
 4700.00    0.64389   0.72312    0.000
 4701.00    0.79927   0.73221    0.000
 4702.00    0.96156   0.73648    0.000
 4703.00    0.71050   0.73607    0.000
 4704.00    0.41575   0.73389    0.000
 4705.00    0.47525   0.73054    0.000
 4706.00    0.55908   0.72960    0.000
 4707.00    0.70121   0.73344    0.000
 4708.00    0.84533   0.73578    0.000
 4709.00    0.89116   0.73357    0.000
 4710.00    0.93067   0.73333    0.000
 4711.00    0.76961   0.73816    0.000
 4712.00    0.63379   0.72792    0.000
 4713.00    0.88534   0.70203    0.000
 4714.00    1.08765   0.69441    0.000
 4715.00    0.80709   0.71163    0.000
 4716.00    0.56604   0.72330    0.000
 4717.00    0.60436   0.72839    0.000
 4718.00    0.66821   0.73762    0.000
 4719.00    0.87097   0.74729    0.000
 4720.00    1.00838   0.75275    0.000
 4721.00    0.86095   0.75361    0.000
 4722.00    0.75881   0.74992    0.000
 4723.00    0.81913   0.74611    0.000
 4724.00    0.84076   0.74777    0.000
 4725.00    0.74584   0.75247    0.000
 4726.00    0.64808   0.75198    0.000
 4727.00    0.54300   0.74226    0.000
 4728.00    0.54928   0.73061    0.000
 4729.00    0.80105   0.72578    0.000
 4730.00    0.94428   0.72709    0.000
 4731.00    0.88000   0.73014    0.000
 4732.00    0.80833   0.73356    0.000
 4733.00    0.72435   0.73643    0.000
 4734.00    0.71184   0.73851    0.000
 4735.00    0.80387   0.74145    0.000
 4736.00    0.92135   0.74220    0.000
 4737.00    1.07155   0.73938    0.000
 4738.00    1.12386   0.73860    0.000
 4739.00    1.06529   0.74013    0.000
 4740.00    0.97323   0.73847    0.000
 4741.00    0.84773   0.73230    0.000
 4742.00    0.76326   0.72781    0.000
 4743.00    0.71493   0.73076    0.000
 4744.00    0.62976   0.73668    0.000
 4745.00    0.51599   0.73875    0.000
 4746.00    0.53598   0.73995    0.000
 4747.00    0.64729   0.74240    0.000
 4748.00    0.62716   0.74310    0.000
 4749.00    0.52838   0.74261    0.000
 4750.00    0.55801   0.74191    0.000
 4751.00    0.65467   0.73981    0.000
 4752.00    0.74473   0.73646    0.000
 4753.00    0.83180   0.73532    0.000
 4754.00    0.89618   0.73649    0.000
 4755.00    0.95173   0.73871    0.000
 4756.00    0.97789   0.73964    0.000
 4757.00    0.99431   0.73684    0.000
 4758.00    1.07606   0.73116    0.000
 4759.00    1.17597   0.72649    0.000
 4760.00    1.13121   0.72414    0.000
 4761.00    1.05335   0.71998    0.012
 4762.00    0.91848   0.71266    0.012
 4763.00    0.77315   0.70660    0.012
 4764.00    0.62564   0.70310    0.012
 4765.00    0.47782   0.69964    0.012
 4766.00    0.52725   0.69688    0.012
 4767.00    0.59668   0.69761    0.012
 4768.00    0.65590   0.70115    0.012
 4769.00    0.71445   0.70468    0.012
 4770.00    0.65454   0.70616    0.012
 4771.00    0.59172   0.70484    0.012
 4772.00    0.86271   0.70222    0.012
 4773.00    1.12431   0.70182    0.012
 4774.00    1.11381   0.70493    0.012
 4775.00    1.09705   0.70898    0.012
 4776.00    0.98983   0.71128    0.012
 4777.00    0.87789   0.71153    0.012
 4778.00    0.72157   0.70903    0.012
 4779.00    0.58905   0.70327    0.012
 4780.00    0.61951   0.69833    0.012
 4781.00    0.66447   0.69692    0.011
 4782.00    0.78621   0.69698    0.011
 4783.00    0.88460   0.69590    0.011
 4784.00    0.88356   0.69598    0.011
 4785.00    0.84887   0.69885    0.011
 4786.00    0.69596   0.70043    0.011
 4787.00    0.59630   0.69844    0.011
 4788.00    0.65397   0.69573    0.012
 4789.00    0.70855   0.69513    0.012
 4790.00    0.75533   0.69762    0.012
 4791.00    0.76219   0.69989    0.012
 4792.00    0.68247   0.70106    0.012
 4793.00    0.67035   0.70477    0.012
 4794.00    0.78544   0.71121    0.012
 4795.00    0.86548   0.71591    0.012
 4796.00    0.88793   0.71610    0.012
 4797.00    0.84870   0.71309    0.012
 4798.00    0.72059   0.70893    0.012
 4799.00    0.69258   0.70448    0.012
 4800.00    0.79142   0.70275    0.012
 4801.00    0.81629   0.70495    0.012
 4802.00    0.75855   0.70520    0.013
 4803.00    0.70772   0.70167    0.013
 4804.00    0.66368   0.69824    0.013
 4805.00    0.73536   0.69485    0.013
 4806.00    0.90759   0.69068    0.013
 4807.00    0.87214   0.68781    0.013
 4808.00    0.67777   0.68703    0.012
 4809.00    0.66795   0.68779    0.012
 4810.00    0.78226   0.68924    0.012
 4811.00    0.81183   0.69017    0.012
 4812.00    0.79147   0.68759    0.012
 4813.00    0.81053   0.68304    0.012
 4814.00    0.84985   0.68119    0.012
 4815.00    0.82248   0.68238    0.012
 4816.00    0.76543   0.68526    0.012
 4817.00    0.76384   0.69156    0.012
 4818.00    0.78346   0.69560    0.012
 4819.00    0.85207   0.69037    0.012
 4820.00    0.93660   0.68464    0.012
 4821.00    0.85380   0.68841    0.012
 4822.00    0.72545   0.69372    0.012
 4823.00    0.60173   0.69032    0.012
 4824.00    0.47905   0.68551    0.012
 4825.00    0.60505   0.68810    0.012
 4826.00    0.77538   0.69317    0.012
 4827.00    0.76008   0.69173    0.012
 4828.00    0.71950   0.68212    0.012
 4829.00    0.75540   0.67467    0.012
 4830.00    0.79874   0.67796    0.012
 4831.00    0.56612   0.68312    0.012
 4832.00    0.31677   0.68079    0.012
 4833.00    0.68350   0.68027    0.012
 4834.00    1.06294   0.68631    0.012
 4835.00    0.78866   0.69077    0.012
 4836.00    0.53268   0.69037    0.012
 4837.00    0.75461   0.68943    0.012
 4838.00    0.95182   0.68891    0.012
 4839.00    0.81155   0.68659    0.012
 4840.00    0.68290   0.68402    0.012
 4841.00    0.65920   0.68349    0.012
 4842.00    0.65798   0.68120    0.012
 4843.00    0.80590   0.67460    0.012
 4844.00    0.90495   0.67053    0.012
 4845.00    0.75187   0.67398    0.012
 4846.00    0.64645   0.67821    0.012
 4847.00    0.73943   0.67521    0.012
 4848.00    0.80881   0.66606    0.000
 4849.00    0.79689   0.65850    0.000
 4850.00    0.75008   0.65516    0.000
 4851.00    0.60209   0.65086    0.000
 4852.00    0.52491   0.64512    0.000
 4853.00    0.62301   0.63987    0.000
 4854.00    0.63661   0.63042    0.000
 4855.00    0.46993   0.61423    0.000
 4856.00    0.46114   0.59727    0.000
 4857.00    0.74491   0.58329    0.000
 4858.00    0.85903   0.56577    0.000
 4859.00    0.69850   0.53594    0.000
 4860.00    0.60941   0.48765    0.000
 4861.00    0.62177   0.43780    0.000
 4862.00    0.62176   0.42842    0.000
 4863.00    0.60630   0.46795    0.000
 4864.00    0.56002   0.51674    0.000
 4865.00    0.47979   0.55127    0.000
 4866.00    0.48037   0.57788    0.000
 4867.00    0.55944   0.59899    0.000
 4868.00    0.63821   0.61391    0.000
 4869.00    0.71672   0.62620    0.000
 4870.00    0.68806   0.63353    0.000
 4871.00    0.57856   0.63245    0.000
 4872.00    0.57168   0.63314    0.000
 4873.00    0.63281   0.64320    0.000
 4874.00    0.68141   0.65354    0.000
 4875.00    0.72274   0.65661    0.012
 4876.00    0.65968   0.65899    0.012
 4877.00    0.54381   0.66495    0.012
 4878.00    0.64158   0.67035    0.012
 4879.00    0.83289   0.67362    0.012
 4880.00    0.81578   0.67260    0.012
 4881.00    0.72033   0.66645    0.012
 4882.00    0.71559   0.66361    0.012
 4883.00    0.73979   0.66774    0.012
 4884.00    0.73816   0.67080    0.012
 4885.00    0.72964   0.66803    0.012
 4886.00    0.72011   0.66427    0.012
 4887.00    0.71037   0.66573    0.012
 4888.00    0.67886   0.67069    0.012
 4889.00    0.64358   0.67180    0.012
 4890.00    0.67780   0.66450    0.012
 4891.00    0.72117   0.65580    0.012
 4892.00    0.67525   0.65876    0.012
 4893.00    0.62102   0.67098    0.012
 4894.00    0.64289   0.68082    0.012
 4895.00    0.66908   0.68757    0.012
 4896.00    0.65828   0.69253    0.012
 4897.00    0.64854   0.69479    0.012
 4898.00    0.84657   0.69392    0.012
 4899.00    1.03208   0.68753    0.012
 4900.00    0.92057   0.67842    0.012
 4901.00    0.81963   0.67576    0.012
 4902.00    0.85539   0.67832    0.012
 4903.00    0.87363   0.67801    0.012
 4904.00    0.73950   0.67677    0.012
 4905.00    0.62712   0.68037    0.012
 4906.00    0.65475   0.68373    0.012
 4907.00    0.66497   0.68235    0.011
 4908.00    0.58769   0.68014    0.012
 4909.00    0.54927   0.67924    0.012
 4910.00    0.66901   0.67834    0.012
 4911.00    0.76769   0.68009    0.012
 4912.00    0.79527   0.68339    0.012
 4913.00    0.79227   0.68425    0.012
 4914.00    0.70220   0.68437    0.012
 4915.00    0.69517   0.68713    0.012
 4916.00    0.89015   0.68923    0.011
 4917.00    0.99776   0.68571    0.011
 4918.00    0.92198   0.67621    0.011
 4919.00    0.84228   0.66219    0.011
 4920.00    0.75542   0.64198    0.011
 4921.00    0.68468   0.61108    0.011
 4922.00    0.63964   0.59413    0.011
 4923.00    0.59105   0.60787    0.011
 4924.00    0.53751   0.63160    0.011
 4925.00    0.54257   0.64482    0.011
 4926.00    0.61982   0.66098    0.011
 4927.00    0.65962   0.68167    0.011
 4928.00    0.65878   0.69389    0.011
 4929.00    0.73247   0.69891    0.011
 4930.00    0.87753   0.70074    0.011
 4931.00    0.91708   0.69943    0.011
 4932.00    0.86756   0.69406    0.011
 4933.00    0.82422   0.68339    0.011
 4934.00    0.78548   0.67470    0.011
 4935.00    0.74136   0.67788    0.011
 4936.00    0.69374   0.68546    0.011
 4937.00    0.63876   0.68346    0.011
 4938.00    0.57958   0.67251    0.011
 4939.00    0.53570   0.66493    0.011
 4940.00    0.49944   0.66472    0.000
 4941.00    0.59096   0.66687    0.000
 4942.00    0.73750   0.66471    0.000
 4943.00    0.68452   0.66557    0.000
 4944.00    0.55787   0.67507    0.000
 4945.00    0.62890   0.68568    0.000
 4946.00    0.76176   0.69036    0.000
 4947.00    0.75135   0.69245    0.000
 4948.00    0.70357   0.69379    0.000
 4949.00    0.64833   0.69470    0.000
 4950.00    0.59151   0.69795    0.000
 4951.00    0.58947   0.70177    0.000
 4952.00    0.59665   0.70056    0.000
 4953.00    0.61371   0.69167    0.000
 4954.00    0.63203   0.67531    0.000
 4955.00    0.69006   0.65438    0.000
 4956.00    0.75162   0.63564    0.000
 4957.00    0.75982   0.62336    0.000
 4958.00    0.76521   0.61956    0.000
 4959.00    0.71661   0.62520    0.000
 4960.00    0.66878   0.63469    0.000
 4961.00    0.76328   0.63983    0.000
 4962.00    0.85310   0.63974    0.000
 4963.00    0.84108   0.63829    0.000
 4964.00    0.82559   0.63607    0.000
 4965.00    0.76751   0.63254    0.000
 4966.00    0.71825   0.62978    0.000
 4967.00    0.74282   0.62956    0.000
 4968.00    0.76735   0.63130    0.000
 4969.00    0.79170   0.63566    0.000
 4970.00    0.79586   0.64055    0.000
 4971.00    0.70099   0.64365    0.000
 4972.00    0.61171   0.64573    0.000
 4973.00    0.54468   0.64754    0.000
 4974.00    0.47741   0.64953    0.000
 4975.00    0.40933   0.65123    0.000
 4976.00    0.38849   0.65136    0.000
 4977.00    0.49969   0.64909    0.000
 4978.00    0.56909   0.64454    0.000
 4979.00    0.53851   0.64011    0.000
 4980.00    0.48130   0.63721    0.000
 4981.00    0.36904   0.63199    0.000
 4982.00    0.36290   0.62382    0.000
 4983.00    0.54743   0.62054    0.000
 4984.00    0.69605   0.62604    0.000
 4985.00    0.78827   0.63353    0.000
 4986.00    0.83644   0.63684    0.000
 4987.00    0.82388   0.63853    0.000
 4988.00    0.70949   0.64109    0.000
 4989.00    0.47148   0.64169    0.000
 4990.00    0.46590   0.63838    0.000
 4991.00    0.70909   0.63419    0.000
 4992.00    0.78510   0.63530    0.000
 4993.00    0.70326   0.63772    0.000
 4994.00    0.68372   0.63515    0.000
 4995.00    0.71605   0.63365    0.000
 4996.00    0.78019   0.63840    0.000
 4997.00    0.86766   0.64211    0.000
 4998.00    0.85010   0.63946    0.000
 4999.00    0.76497   0.63072    0.000
 5000.00    0.74603   0.61479    0.000
 5001.00    0.76434   0.59955    0.000
 5002.00    0.78214   0.59585    0.000
 5003.00    0.79968   0.60497    0.000
 5004.00    0.76921   0.61011    0.000
 5005.00    0.71841   0.60586    0.000
 5006.00    0.61183   0.60060    0.000
 5007.00    0.48502   0.60100    0.000
 5008.00    0.55545   0.60726    0.000
 5009.00    0.68637   0.61365    0.000
 5010.00    0.68835   0.61473    0.000
 5011.00    0.65740   0.61307    0.000
 5012.00    0.62555   0.61137    0.000
 5013.00    0.59352   0.60602    0.000
 5014.00    0.67422   0.59285    0.000
 5015.00    0.77338   0.57176    0.000
 5016.00    0.71860   0.56495    0.000
 5017.00    0.64492   0.58355    0.000
 5018.00    0.60400   0.60721    0.000
 5019.00    0.56585   0.61766    0.000
 5020.00    0.66523   0.62056    0.000
 5021.00    0.77133   0.62065    0.000
 5022.00    0.73520   0.61649    0.000
 5023.00    0.69685   0.61431    0.000
 5024.00    0.65828   0.61774    0.000
 5025.00    0.62250   0.62093    0.000
 5026.00    0.64259   0.62042    0.000
 5027.00    0.66216   0.61853    0.000
 5028.00    0.67558   0.61877    0.000
 5029.00    0.69512   0.62342    0.010
 5030.00    0.76414   0.62826    0.010
 5031.00    0.81552   0.62975    0.010
 5032.00    0.75988   0.62973    0.011
 5033.00    0.68064   0.63220    0.011
 5034.00    0.48850   0.63442    0.010
 5035.00    0.36095   0.62918    0.010
 5036.00    0.48502   0.61983    0.010
 5037.00    0.58603   0.61768    0.011
 5038.00    0.61229   0.62001    0.011
 5039.00    0.61528   0.61530    0.011
 5040.00    0.55439   0.59987    0.011
 5041.00    0.54517   0.58780    0.011
 5042.00    0.65745   0.59401    0.011
 5043.00    0.70978   0.61276    0.011
 5044.00    0.64027   0.62458    0.011
 5045.00    0.60866   0.62878    0.011
 5046.00    0.64412   0.63062    0.011
 5047.00    0.70204   0.62455    0.011
 5048.00    0.79475   0.61363    0.011
 5049.00    0.81266   0.61006    0.011
 5050.00    0.72889   0.61407    0.011
 5051.00    0.64712   0.61604    0.011
 5052.00    0.56772   0.61729    0.011
 5053.00    0.60871   0.62050    0.011
 5054.00    0.77674   0.62350    0.011
 5055.00    0.81289   0.61875    0.011
 5056.00    0.72628   0.61174    0.011
 5057.00    0.69077   0.61452    0.011
 5058.00    0.69720   0.62718    0.011
 5059.00    0.67488   0.63492    0.011
 5060.00    0.63180   0.63690    0.011
 5061.00    0.57162   0.63964    0.011
 5062.00    0.50060   0.64015    0.011
 5063.00    0.50388   0.63374    0.011
 5064.00    0.54835   0.62122    0.011
 5065.00    0.59390   0.61157    0.011
 5066.00    0.63998   0.61281    0.011
 5067.00    0.61108   0.61845    0.011
 5068.00    0.55096   0.61980    0.011
 5069.00    0.62187   0.62006    0.011
 5070.00    0.73942   0.62336    0.011
 5071.00    0.72596   0.62481    0.011
 5072.00    0.67310   0.62095    0.011
 5073.00    0.67700   0.61783    0.011
 5074.00    0.69508   0.62042    0.011
 5075.00    0.67618   0.62279    0.011
 5076.00    0.64979   0.62155    0.011
 5077.00    0.74581   0.62082    0.011
 5078.00    0.86129   0.62072    0.011
 5079.00    0.76317   0.61401    0.011
 5080.00    0.63979   0.60493    0.011
 5081.00    0.67596   0.60290    0.011
 5082.00    0.72496   0.60512    0.010
 5083.00    0.76527   0.60632    0.010
 5084.00    0.80519   0.60854    0.010
 5085.00    0.79313   0.61300    0.010
 5086.00    0.78037   0.61565    0.010
 5087.00    0.76366   0.61636    0.010
 5088.00    0.74545   0.61833    0.010
 5089.00    0.69921   0.62135    0.010
 5090.00    0.64654   0.62051    0.010
 5091.00    0.52233   0.61734    0.010
 5092.00    0.43004   0.61839    0.010
 5093.00    0.58639   0.62408    0.010
 5094.00    0.70489   0.62650    0.010
 5095.00    0.60033   0.62179    0.010
 5096.00    0.51977   0.61674    0.010
 5097.00    0.55120   0.61599    0.010
 5098.00    0.61480   0.61500    0.010
 5099.00    0.80104   0.60945    0.010
 5100.00    0.90037   0.60499    0.010
 5101.00    0.72322   0.60728    0.010
 5102.00    0.57239   0.61129    0.010
 5103.00    0.49251   0.61165    0.010
 5104.00    0.46131   0.60951    0.010
 5105.00    0.54269   0.60892    0.010
 5106.00    0.59157   0.60918    0.010
 5107.00    0.57546   0.60728    0.010
 5108.00    0.54564   0.60548    0.010
 5109.00    0.49195   0.60558    0.010
 5110.00    0.45263   0.60436    0.010
 5111.00    0.43522   0.60355    0.010
 5112.00    0.53020   0.60468    0.010
 5113.00    0.77579   0.60394    0.011
 5114.00    0.84415   0.60474    0.011
 5115.00    0.70338   0.61158    0.011
 5116.00    0.63840   0.61990    0.011
 5117.00    0.65226   0.62580    0.011
 5118.00    0.69578   0.62819    0.011
 5119.00    0.76651   0.62534    0.011
 5120.00    0.69865   0.61924    0.011
 5121.00    0.51867   0.61109    0.011
 5122.00    0.48051   0.60180    0.011
 5123.00    0.54331   0.59344    0.011
 5124.00    0.50956   0.59052    0.011
 5125.00    0.41550   0.59490    0.011
 5126.00    0.33575   0.59675    0.011
 5127.00    0.26379   0.59084    0.011
 5128.00    0.34787   0.58676    0.011
 5129.00    0.50598   0.59082    0.011
 5130.00    0.44117   0.59729    0.011
 5131.00    0.28514   0.60360    0.011
 5132.00    0.48298   0.60571    0.011
 5133.00    0.80454   0.60216    0.011
 5134.00    0.64995   0.60290    0.011
 5135.00    0.35498   0.61266    0.011
 5136.00    0.36732   0.61901    0.011
 5137.00    0.45473   0.61630    0.011
 5138.00    0.45329   0.60949    0.011
 5139.00    0.43430   0.60356    0.011
 5140.00    0.50871   0.60475    0.011
 5141.00    0.59753   0.61036    0.011
 5142.00    0.58842   0.60631    0.011
 5143.00    0.56815   0.59534    0.010
 5144.00    0.66970   0.58919    0.010
 5145.00    0.78055   0.58746    0.010
 5146.00    0.68376   0.58671    0.010
 5147.00    0.57842   0.59050    0.010
 5148.00    0.54548   0.59630    0.010
 5149.00    0.51733   0.59982    0.010
 5150.00    0.66548   0.59627    0.010
 5151.00    0.79661   0.58746    0.010
 5152.00    0.63267   0.58168    0.010
 5153.00    0.48694   0.58233    0.010
 5154.00    0.53494   0.58663    0.010
 5155.00    0.59006   0.59104    0.010
 5156.00    0.69876   0.59821    0.010
 5157.00    0.78958   0.60909    0.010
 5158.00    0.77800   0.61922    0.010
 5159.00    0.76765   0.61986    0.010
 5160.00    0.76294   0.61685    0.010
 5161.00    0.75479   0.61940    0.010
 5162.00    0.73382   0.62199    0.010
 5163.00    0.69668   0.61987    0.010
 5164.00    0.60908   0.61566    0.010
 5165.00    0.54914   0.60467    0.010
 5166.00    0.56242   0.58180    0.010
 5167.00    0.54595   0.55572    0.010
 5168.00    0.46182   0.53849    0.010
 5169.00    0.41267   0.53436    0.010
 5170.00    0.43241   0.53909    0.010
 5171.00    0.44387   0.54257    0.010
 5172.00    0.44115   0.53836    0.010
 5173.00    0.48698   0.53335    0.010
 5174.00    0.60578   0.53678    0.010
 5175.00    0.65238   0.54416    0.010
 5176.00    0.60359   0.54947    0.010
 5177.00    0.59969   0.55380    0.010
 5178.00    0.64801   0.55752    0.010
 5179.00    0.67547   0.55756    0.010
 5180.00    0.68154   0.55515    0.010
 5181.00    0.70691   0.55281    0.010
 5182.00    0.74975   0.54835    0.010
 5183.00    0.74758   0.54100    0.010
 5184.00    0.70950   0.53826    0.010
 5185.00    0.67250   0.54650    0.010
 5186.00    0.63624   0.56047    0.010
 5187.00    0.59349   0.57098    0.010
 5188.00    0.54672   0.57566    0.010
 5189.00    0.45104   0.57658    0.010
 5190.00    0.32905   0.57503    0.000
 5191.00    0.34789   0.56833    0.000
 5192.00    0.43247   0.55829    0.000
 5193.00    0.54942   0.55232    0.000
 5194.00    0.67939   0.55411    0.000
 5195.00    0.64484   0.56088    0.000
 5196.00    0.55383   0.57006    0.000
 5197.00    0.54596   0.57859    0.000
 5198.00    0.56211   0.58259    0.000
 5199.00    0.50549   0.58291    0.000
 5200.00    0.43149   0.57837    0.000
 5201.00    0.48592   0.57135    0.000
 5202.00    0.56507   0.56720    0.000
 5203.00    0.48231   0.56617    0.000
 5204.00    0.37535   0.55972    0.000
 5205.00    0.39910   0.54658    0.000
 5206.00    0.43718   0.53619    0.000
 5207.00    0.23830   0.53359    0.000
 5208.00    0.02232   0.53432    0.000
 5209.00    0.34272   0.53553    0.000
 5210.00    0.68314   0.53985    0.000
 5211.00    0.64142   0.54760    0.011
 5212.00    0.60195   0.55701    0.010
 5213.00    0.70912   0.56802    0.010
 5214.00    0.80365   0.57900    0.010
 5215.00    0.69312   0.58376    0.010
 5216.00    0.58955   0.58140    0.010
 5217.00    0.55683   0.58079    0.010
 5218.00    0.54412   0.58468    0.010
 5219.00    0.67702   0.58814    0.010
 5220.00    0.78395   0.59035    0.010
 5221.00    0.74615   0.59318    0.010
 5222.00    0.69558   0.59410    0.010
 5223.00    0.58821   0.58879    0.010
 5224.00    0.49389   0.57781    0.010
 5225.00    0.44727   0.56601    0.010
 5226.00    0.43671   0.55703    0.010
 5227.00    0.53654   0.55478    0.010
 5228.00    0.63033   0.56481    0.010
 5229.00    0.70841   0.58227    0.010
 5230.00    0.72761   0.59540    0.010
 5231.00    0.61516   0.60121    0.010
 5232.00    0.52163   0.59990    0.010
 5233.00    0.46480   0.59167    0.010
 5234.00    0.48077   0.58375    0.010
 5235.00    0.61981   0.58401    0.010
 5236.00    0.64642   0.59182    0.010
 5237.00    0.50655   0.59991    0.010
 5238.00    0.45451   0.60242    0.010
 5239.00    0.51685   0.59865    0.010
 5240.00    0.56606   0.59191    0.010
 5241.00    0.60021   0.58733    0.010
 5242.00    0.58451   0.58628    0.010
 5243.00    0.51839   0.58712    0.010
 5244.00    0.47470   0.59041    0.010
 5245.00    0.45104   0.59276    0.010
 5246.00    0.48554   0.58272    0.010
 5247.00    0.56577   0.56526    0.010
 5248.00    0.64769   0.55983    0.010
 5249.00    0.73078   0.56622    0.010
 5250.00    0.68234   0.56763    0.010
 5251.00    0.55418   0.56362    0.010
 5252.00    0.51439   0.56606    0.010
 5253.00    0.52136   0.57493    0.010
 5254.00    0.56883   0.57938    0.010
 5255.00    0.63490   0.57686    0.010
 5256.00    0.63541   0.57818    0.010
 5257.00    0.61001   0.58804    0.010
 5258.00    0.48728   0.59792    0.010
 5259.00    0.33178   0.59959    0.010
 5260.00    0.36781   0.59336    0.011
 5261.00    0.45806   0.58543    0.011
 5262.00    0.47661   0.57865    0.011
 5263.00    0.47843   0.56868    0.011
 5264.00    0.42081   0.55688    0.011
 5265.00    0.35204   0.54892    0.011
 5266.00    0.41243   0.54861    0.011
 5267.00    0.49152   0.55669    0.011
 5268.00    0.48110   0.56178    0.011
 5269.00    0.46127   0.55073    0.011
 5270.00    0.48132   0.53609    0.011
 5271.00    0.50409   0.53936    0.011
 5272.00    0.48314   0.55661    0.011
 5273.00    0.46072   0.57157    0.011
 5274.00    0.59363   0.57882    0.011
 5275.00    0.72511   0.57911    0.011
 5276.00    0.80504   0.57686    0.011
 5277.00    0.87370   0.58170    0.010
 5278.00    0.77065   0.59257    0.010
 5279.00    0.67350   0.59878    0.010
 5280.00    0.63385   0.59688    0.010
 5281.00    0.61089   0.58955    0.010
 5282.00    0.70542   0.58081    0.010
 5283.00    0.76842   0.57506    0.010
 5284.00    0.66049   0.57605    0.010
 5285.00    0.56681   0.58584    0.010
 5286.00    0.53509   0.59917    0.010
 5287.00    0.54257   0.60634    0.010
 5288.00    0.69034   0.60397    0.010
 5289.00    0.78470   0.59828    0.010
 5290.00    0.71870   0.59606    0.010
 5291.00    0.67658   0.59726    0.010
 5292.00    0.69556   0.59805    0.010
 5293.00    0.66920   0.59779    0.010
 5294.00    0.54308   0.59868    0.010
 5295.00    0.49703   0.59758    0.010
 5296.00    0.60375   0.58789    0.010
 5297.00    0.72751   0.57093    0.010
 5298.00    0.87963   0.55976    0.010
 5299.00    0.89622   0.56231    0.010
 5300.00    0.71500   0.57133    0.010
 5301.00    0.61552   0.57537    0.010
 5302.00    0.62092   0.57701    0.010
 5303.00    0.61993   0.58367    0.010
 5304.00    0.61173   0.59557    0.010
 5305.00    0.56783   0.60512    0.010
 5306.00    0.48834   0.60442    0.010
 5307.00    0.47521   0.59623    0.010
 5308.00    0.52043   0.59119    0.010
 5309.00    0.57118   0.59331    0.010
 5310.00    0.62620   0.59611    0.010
 5311.00    0.64340   0.59500    0.010
 5312.00    0.63481   0.59207    0.010
 5313.00    0.59349   0.58962    0.010
 5314.00    0.53263   0.58907    0.010
 5315.00    0.56428   0.59011    0.010
 5316.00    0.64414   0.59030    0.010
 5317.00    0.66562   0.58895    0.010
 5318.00    0.66074   0.58778    0.010
 5319.00    0.62753   0.58646    0.010
 5320.00    0.58333   0.58332    0.010
 5321.00    0.58429   0.58206    0.010
 5322.00    0.60018   0.58336    0.010
 5323.00    0.56329   0.58282    0.010
 5324.00    0.51176   0.57971    0.010
 5325.00    0.52650   0.57997    0.010
 5326.00    0.55636   0.58066    0.010
 5327.00    0.54772   0.56864    0.010
 5328.00    0.53206   0.54561    0.010
 5329.00    0.49141   0.53430    0.010
 5330.00    0.44726   0.54466    0.010
 5331.00    0.56099   0.56177    0.010
 5332.00    0.69064   0.57166    0.010
 5333.00    0.62191   0.57517    0.010
 5334.00    0.54044   0.57942    0.010
 5335.00    0.57874   0.58516    0.010
 5336.00    0.62093   0.58678    0.010
 5337.00    0.79286   0.58486    0.010
 5338.00    0.95384   0.58296    0.010
 5339.00    0.80183   0.57879    0.010
 5340.00    0.65403   0.56963    0.010
 5341.00    0.56670   0.56107    0.010
 5342.00    0.49457   0.56175    0.010
 5343.00    0.56484   0.56847    0.010
 5344.00    0.62796   0.57360    0.010
 5345.00    0.64226   0.57031    0.010
 5346.00    0.64697   0.56533    0.010
 5347.00    0.60108   0.56791    0.009
 5348.00    0.55949   0.57159    0.009
 5349.00    0.53613   0.56826    0.009
 5350.00    0.50766   0.56698    0.009
 5351.00    0.46130   0.57587    0.009
 5352.00    0.45160   0.58848    0.009
 5353.00    0.54995   0.59647    0.010
 5354.00    0.63079   0.60068    0.010
 5355.00    0.66762   0.60378    0.010
 5356.00    0.70272   0.60400    0.010
 5357.00    0.73406   0.60272    0.010
 5358.00    0.77500   0.60209    0.010
 5359.00    0.83398   0.60040    0.010
 5360.00    0.81457   0.59614    0.010
 5361.00    0.66660   0.58964    0.010
 5362.00    0.54520   0.58343    0.010
 5363.00    0.46203   0.58107    0.010
 5364.00    0.47676   0.58157    0.010
 5365.00    0.61535   0.58168    0.010
 5366.00    0.68998   0.58119    0.010
 5367.00    0.69333   0.58130    0.010
 5368.00    0.69279   0.58150   -2.000
 5369.00    0.68845   0.57735   -2.000
 5370.00    0.59074   0.56565   -2.000
 5371.00    0.41208   0.55195   -2.000
 5372.00    0.31911   0.54923   -2.000
 5373.00    0.29161   0.56254   -2.000
 5374.00    0.32306   0.58063   -2.000
 5375.00    0.39408   0.59005   -2.000
 5376.00    0.50469   0.58868   -2.000
 5377.00    0.63856   0.58518   -2.000
 5378.00    0.71992   0.58822   -2.000
 5379.00    0.77434   0.59487   -2.000
 5380.00    0.77078   0.59607   -2.000
 5381.00    0.74144   0.59084   -2.000
 5382.00    0.72782   0.58556   -2.000
 5383.00    0.72019   0.58261    0.010
 5384.00    0.65226   0.58122    0.010
 5385.00    0.56477   0.58198    0.010
 5386.00    0.58207   0.58381    0.010
 5387.00    0.62782   0.58494    0.010
 5388.00    0.66486   0.58411    0.010
 5389.00    0.69995   0.57930    0.010
 5390.00    0.60233   0.57114    0.010
 5391.00    0.48113   0.56581    0.010
 5392.00    0.37918   0.56726    0.010
 5393.00    0.27985   0.57138    0.010
 5394.00    0.46988   0.57206    0.010
 5395.00    0.68788   0.56841    0.010
 5396.00    0.78744   0.55966    0.010
 5397.00    0.87988   0.54893    0.010
 5398.00    0.71026   0.55059    0.009
 5399.00    0.53557   0.56547    0.009
 5400.00    0.65381   0.57581    0.009
 5401.00    0.76624   0.57528    0.009
 5402.00    0.72888   0.57394    0.009
 5403.00    0.68961   0.57497    0.009
 5404.00    0.62448   0.56946    0.009
 5405.00    0.56150   0.55482    0.009
 5406.00    0.51778   0.54339    0.009
 5407.00    0.47721   0.54580    0.009
 5408.00    0.45745   0.55375    0.009
 5409.00    0.45286   0.55310    0.009
 5410.00    0.52637   0.54735    0.009
 5411.00    0.60736   0.55088    0.009
 5412.00    0.71938   0.56332    0.009
 5413.00    0.80853   0.57370    0.009
 5414.00    0.81918   0.57835    0.009
 5415.00    0.79710   0.58060    0.010
 5416.00    0.68036   0.58416    0.010
 5417.00    0.60967   0.58882    0.010
 5418.00    0.65271   0.59097    0.010
 5419.00    0.68683   0.58842    0.010
 5420.00    0.70193   0.58327    0.010
 5421.00    0.71294   0.58074    0.009
 5422.00    0.71635   0.58336    0.009
 5423.00    0.71730   0.58507    0.010
 5424.00    0.71426   0.58105    0.010
 5425.00    0.70718   0.57762    0.010
 5426.00    0.69435   0.58046    0.010
 5427.00    0.68553   0.58657    0.010
 5428.00    0.68171   0.58455    0.010
 5429.00    0.68621   0.56787    0.010
 5430.00    0.69987   0.55244    0.010
 5431.00    0.66439   0.55307    0.010
 5432.00    0.58127   0.55758    0.010
 5433.00    0.52745   0.55461    0.010
 5434.00    0.49868   0.54927    0.010
 5435.00    0.59956   0.54847    0.010
 5436.00    0.79807   0.55217    0.010
 5437.00    0.81882   0.55822    0.010
 5438.00    0.72198   0.56620    0.009
 5439.00    0.67713   0.57572    0.009
 5440.00    0.66239   0.58472    0.009
 5441.00    0.69653   0.59066    0.009
 5442.00    0.75535   0.59347    0.009
 5443.00    0.72570   0.59545    0.009
 5444.00    0.65740   0.59569    0.009
 5445.00    0.62644   0.58691    0.009
 5446.00    0.60949   0.56591    0.009
 5447.00    0.62962   0.54246    0.009
 5448.00    0.66155   0.53032    0.009
 5449.00    0.66400   0.52930    0.009
 5450.00    0.65861   0.53045    0.009
 5451.00    0.64395   0.52932    0.009
 5452.00    0.62727   0.52663    0.009
 5453.00    0.62001   0.52195    0.009
 5454.00    0.61436   0.51646    0.009
 5455.00    0.58616   0.51106    0.009
 5456.00    0.55500   0.50998    0.009
 5457.00    0.60605   0.51552    0.009
 5458.00    0.66470   0.52489    0.009
 5459.00    0.66252   0.53129    0.009
 5460.00    0.65692   0.53065    0.009
 5461.00    0.57174   0.52805    0.009
 5462.00    0.48702   0.52880    0.009
 5463.00    0.63577   0.53093    0.009
 5464.00    0.77710   0.53227    0.009
 5465.00    0.74420   0.53344    0.009
 5466.00    0.71013   0.53339    0.009
 5467.00    0.66116   0.53463    0.009
 5468.00    0.62045   0.53888    0.009
 5469.00    0.65121   0.54102    0.009
 5470.00    0.66314   0.53780    0.009
 5471.00    0.55442   0.53434    0.009
 5472.00    0.46450   0.53317    0.009
 5473.00    0.46881   0.53015    0.009
 5474.00    0.49576   0.52652    0.010
 5475.00    0.61454   0.52699    0.010
 5476.00    0.69140   0.52738    0.010
 5477.00    0.62709   0.52442    0.010
 5478.00    0.55611   0.52645   -2.000
 5479.00    0.46617   0.53474   -2.000
 5480.00    0.46634   0.53946   -2.000
 5481.00    0.68523   0.53486   -2.000
 5482.00    0.82043   0.52906   -2.000
 5483.00    0.78029   0.53114   -2.000
 5484.00    0.65629   0.53903   -2.000
 5485.00    0.37958   0.54592   -2.000
 5486.00   -0.40959   0.54750   -2.000
 5487.00   -2.01448   0.54378   -2.000
 5488.00   -2.49308   0.53997   -2.000
 5489.00   -1.39829   0.54009   -2.000
 5490.00   -0.10189   0.54044   -2.000
 5491.00    1.44236   0.54024   -2.000
 5492.00    2.49636   0.54310   -2.000
 5493.00    3.01909   0.54560   -2.000
 5494.00    2.80753   0.54444   -2.000
 5495.00    1.89406   0.54234   -2.000
 5496.00    1.21499   0.53951   -2.000
 5497.00    0.73349   0.53344   -2.000
 5498.00    0.55885   0.52918   -2.000
 5499.00    0.61194   0.53188   -2.000
 5500.00    0.59753   0.53491   -2.000
 5501.00    0.53909   0.53135   -2.000
 5502.00    0.54483   0.52661    0.009
 5503.00    0.58717   0.52698    0.009
 5504.00    0.65200   0.52976    0.009
 5505.00    0.72799   0.52939    0.009
 5506.00    0.75134   0.52432    0.009
 5507.00    0.75206   0.52049    0.009
 5508.00    0.75504   0.52493    0.009
 5509.00    0.75886   0.53213    0.009
 5510.00    0.74324   0.53409    0.009
 5511.00    0.72156   0.53049    0.009
 5512.00    0.73015   0.52398    0.009
 5513.00    0.74662   0.51819    0.009
 5514.00    0.76667   0.51530    0.009
 5515.00    0.78748   0.51486    0.009
 5516.00    0.70151   0.51836    0.009
 5517.00    0.59760   0.52633    0.009
 5518.00    0.56354   0.53659    0.009
 5519.00    0.53832   0.54546    0.009
 5520.00    0.55576   0.54877    0.009
 5521.00    0.57697   0.54754    0.009
 5522.00    0.58609   0.54635    0.009
 5523.00    0.59458   0.54616    0.009
 5524.00    0.58370   0.54553    0.009
 5525.00    0.57347   0.54365    0.009
 5526.00    0.63932   0.54029    0.009
 5527.00    0.70174   0.53546    0.009
 5528.00    0.69047   0.53043    0.009
 5529.00    0.68359   0.53024    0.009
 5530.00    0.73041   0.53659    0.009
 5531.00    0.75489   0.54287    0.009
 5532.00    0.59330   0.54367    0.009
 5533.00    0.47518   0.54086    0.009
 5534.00    0.62751   0.53759    0.009
 5535.00    0.74959   0.53474    0.009
 5536.00    0.72383   0.53428    0.009
 5537.00    0.69202   0.53707    0.009
 5538.00    0.63621   0.53908    0.009
 5539.00    0.60073   0.54013    0.009
 5540.00    0.63238   0.54405    0.009
 5541.00    0.67642   0.54913    0.009
 5542.00    0.75504   0.55021    0.009
 5543.00    0.80064   0.54683    0.009
 5544.00    0.76747   0.54337    0.009
 5545.00    0.73323   0.54180    0.009
 5546.00    0.69681   0.54031    0.009
 5547.00    0.68016   0.54007    0.009
 5548.00    0.69894   0.54375    0.009
 5549.00    0.72064   0.54847    0.009
 5550.00    0.74689   0.54982    0.009
 5551.00    0.73352   0.54830    0.009
 5552.00    0.66559   0.54592    0.009
 5553.00    0.63554   0.54264    0.009
 5554.00    0.65140   0.53929    0.009
 5555.00    0.69770   0.53700    0.009
 5556.00    0.77655   0.53500    0.009
 5557.00    0.75989   0.53248    0.009
 5558.00    0.65325   0.53151    0.009
 5559.00    0.60220   0.53337    0.009
 5560.00    0.59736   0.53508    0.009
 5561.00    0.58802   0.53424    0.009
 5562.00    0.57538   0.53234    0.009
 5563.00    0.62191   0.53147    0.009
 5564.00    0.70644   0.53109    0.009
 5565.00    0.66885   0.52928    0.009
 5566.00    0.56263   0.52604    0.009
 5567.00    0.49765   0.52498    0.009
 5568.00    0.45283   0.52700    0.009
 5569.00    0.50985   0.52892    0.009
 5570.00    0.60989   0.52981    0.009
 5571.00    0.67489   0.53175    0.009
 5572.00    0.72723   0.53255    0.009
 5573.00    0.64042   0.52968    0.009
 5574.00    0.51104   0.52834    0.009
 5575.00    0.53656   0.53088    0.009
 5576.00    0.60151   0.53294    0.009
 5577.00    0.62277   0.53356    0.009
 5578.00    0.63497   0.53315    0.009
 5579.00    0.67879   0.53173    0.009
 5580.00    0.72778   0.53212    0.009
 5581.00    0.61442   0.53311    0.009
 5582.00    0.48122   0.53062    0.009
 5583.00    0.49106   0.52782    0.009
 5584.00    0.51291   0.52713    0.009
 5585.00    0.55631   0.52622    0.009
 5586.00    0.60075   0.52360    0.009
 5587.00    0.61817   0.51815    0.009
 5588.00    0.63507   0.51151    0.009
 5589.00    0.64563   0.50812    0.009
 5590.00    0.65438   0.51018    0.009
 5591.00    0.62729   0.51484    0.009
 5592.00    0.60211   0.51710    0.009
 5593.00    0.59910   0.51706    0.009
 5594.00    0.58844   0.51812    0.009
 5595.00    0.51624   0.52172    0.009
 5596.00    0.47132   0.52693    0.009
 5597.00    0.59121   0.52601    0.009
 5598.00    0.69416   0.51359    0.010
 5599.00    0.71630   0.50017    0.010
 5600.00    0.74337   0.49671    0.010
 5601.00    0.78958   0.50026    0.010
 5602.00    0.79563   0.50385    0.010
 5603.00    0.67172   0.50526    0.010
 5604.00    0.58973   0.50558    0.010
 5605.00    0.62255   0.50576    0.010
 5606.00    0.64860   0.50843    0.009
 5607.00    0.65874   0.51367    0.009
 5608.00    0.67671   0.51849    0.009
 5609.00    0.71055   0.51989    0.009
 5610.00    0.68809   0.51829    0.009
 5611.00    0.56621   0.51779    0.009
 5612.00    0.48794   0.52073    0.009
 5613.00    0.47707   0.52386    0.009
 5614.00    0.51921   0.52095    0.009
 5615.00    0.63329   0.51062    0.009
 5616.00    0.72089   0.50129    0.009
 5617.00    0.77685   0.50056    0.009
 5618.00    0.79563   0.50422    0.009
 5619.00    0.77526   0.50528    0.009
 5620.00    0.79063   0.50390    0.009
 5621.00    0.83923   0.50501    0.009
 5622.00    0.78930   0.50917    0.009
 5623.00    0.65865   0.51047    0.009
 5624.00    0.57287   0.50529    0.009
 5625.00    0.51943   0.49903    0.009
 5626.00    0.51117   0.49936    0.009
 5627.00    0.53150   0.50460    0.009
 5628.00    0.59100   0.50704    0.009
 5629.00    0.67218   0.50445    0.009
 5630.00    0.69039   0.50074    0.009
 5631.00    0.67829   0.50045    0.009
 5632.00    0.72432   0.50406    0.009
 5633.00    0.79448   0.50882    0.009
 5634.00    0.73938   0.51180    0.009
 5635.00    0.63977   0.51079    0.009
 5636.00    0.62084   0.50622    0.009
 5637.00    0.62612   0.50177    0.009
 5638.00    0.67894   0.49965    0.009
 5639.00    0.74361   0.49610    0.009
 5640.00    0.71349   0.49107    0.009
 5641.00    0.66423   0.48910    0.009
 5642.00    0.64151   0.49276    0.009
 5643.00    0.62300   0.49756    0.009
 5644.00    0.69439   0.49921    0.009
 5645.00    0.77636   0.49904    0.009
 5646.00    0.74568   0.49854    0.009
 5647.00    0.70601   0.49808    0.009
 5648.00    0.73230   0.49862    0.009
 5649.00    0.76153   0.50142    0.009
 5650.00    0.78244   0.50671    0.009
 5651.00    0.80216   0.51256    0.009
 5652.00    0.76898   0.51743    0.009
 5653.00    0.73407   0.52065    0.009
 5654.00    0.66723   0.52102    0.009
 5655.00    0.60653   0.51901    0.009
 5656.00    0.61387   0.51743    0.009
 5657.00    0.62438   0.51394    0.009
 5658.00    0.65949   0.50459    0.009
 5659.00    0.68396   0.49660    0.009
 5660.00    0.64599   0.49886    0.009
 5661.00    0.61178   0.50268    0.009
 5662.00    0.59509   0.49894    0.009
 5663.00    0.58544   0.49396    0.009
 5664.00    0.60255   0.49552    0.009
 5665.00    0.61259   0.49927    0.009
 5666.00    0.60019   0.49957    0.009
 5667.00    0.60509   0.49784    0.009
 5668.00    0.65656   0.49539    0.009
 5669.00    0.67535   0.49514    0.009
 5670.00    0.61874   0.49668    0.009
 5671.00    0.56924   0.49753    0.009
 5672.00    0.53395   0.49964    0.009
 5673.00    0.50814   0.50528    0.009
 5674.00    0.49882   0.50998    0.009
 5675.00    0.50195   0.50897    0.009
 5676.00    0.52406   0.50693    0.009
 5677.00    0.58464   0.50888    0.009
 5678.00    0.69670   0.51016    0.009
 5679.00    0.73485   0.50611    0.009
 5680.00    0.68596   0.50256    0.009
 5681.00    0.65861   0.50434    0.009
 5682.00    0.65364   0.50777    0.009
 5683.00    0.72588   0.50889    0.009
 5684.00    0.86886   0.51221    0.009
 5685.00    0.87650   0.51578    0.009
 5686.00    0.77486   0.51347    0.009
 5687.00    0.62344   0.50675    0.009
 5688.00    0.43664   0.50249    0.009
 5689.00    0.44762   0.50384    0.009
 5690.00    0.58192   0.50872    0.009
 5691.00    0.62747   0.51455    0.009
 5692.00    0.62466   0.51965    0.009
 5693.00    0.59487   0.52263    0.009
 5694.00    0.55230   0.52123    0.009
 5695.00    0.56459   0.51379    0.009
 5696.00    0.59929   0.50540    0.009
 5697.00    0.55776   0.50222    0.009
 5698.00    0.48964   0.50331    0.009
 5699.00    0.57180   0.50517    0.009
 5700.00    0.69815   0.50604    0.009
 5701.00    0.70694   0.50516    0.009
 5702.00    0.68709   0.50219    0.009
 5703.00    0.63771   0.50060    0.009
 5704.00    0.58251   0.50389    0.009
 5705.00    0.56356   0.50939    0.009
 5706.00    0.55019   0.51026    0.009
 5707.00    0.61820   0.50536    0.009
 5708.00    0.69544   0.49963    0.009
 5709.00    0.67515   0.49609    0.008
 5710.00    0.64747   0.49647    0.008
 5711.00    0.67762   0.49935    0.008
 5712.00    0.71011   0.50009    0.008
 5713.00    0.67436   0.50272    0.009
 5714.00    0.63874   0.50951    0.009
 5715.00    0.63014   0.51484    0.009
 5716.00    0.62310   0.51631    0.008
 5717.00    0.64300   0.51455    0.009
 5718.00    0.65454   0.51044    0.009
 5719.00    0.57757   0.50773    0.009
 5720.00    0.50377   0.50938    0.008
 5721.00    0.45379   0.51250    0.009
 5722.00    0.42522   0.51440    0.009
 5723.00    0.51886   0.51555    0.009
 5724.00    0.58338   0.51558    0.009
 5725.00    0.51561   0.51443    0.009
 5726.00    0.45364   0.50984    0.009
 5727.00    0.41329   0.50209    0.009
 5728.00    0.40510   0.49828    0.009
 5729.00    0.49696   0.50291    0.009
 5730.00    0.57326   0.50896    0.009
 5731.00    0.60843   0.50890    0.009
 5732.00    0.63398   0.50734    0.009
 5733.00    0.63774   0.51075    0.009
 5734.00    0.64576   0.51595    0.009
 5735.00    0.66218   0.51784    0.009
 5736.00    0.62417   0.51622    0.009
 5737.00    0.49292   0.51361    0.009
 5738.00    0.45945   0.51070    0.009
 5739.00    0.57266   0.50689    0.009
 5740.00    0.65582   0.50447    0.000
 5741.00    0.69936   0.50693    0.000
 5742.00    0.71021   0.51274    0.000
 5743.00    0.68313   0.51419    0.000
 5744.00    0.65096   0.51378    0.000
 5745.00    0.61361   0.51791    0.000
 5746.00    0.62685   0.52313    0.000
 5747.00    0.68579   0.52256    0.000
 5748.00    0.72532   0.51583    0.000
 5749.00    0.74942   0.51160    0.000
 5750.00    0.75020   0.51559    0.000
 5751.00    0.73465   0.52209    0.000
 5752.00    0.70558   0.52294    0.000
 5753.00    0.66820   0.51783    0.000
 5754.00    0.63940   0.51268    0.000
 5755.00    0.61522   0.51281    0.000
 5756.00    0.56929   0.51854    0.000
 5757.00    0.51324   0.52499    0.000
 5758.00    0.55329   0.52768    0.000
 5759.00    0.63192   0.52416    0.000
 5760.00    0.65997   0.51469    0.000
 5761.00    0.67070   0.50382    0.000
 5762.00    0.67702   0.49586    0.000
 5763.00    0.68207   0.49346    0.000
 5764.00    0.68939   0.49795    0.000
 5765.00    0.69726   0.50513    0.000
 5766.00    0.65132   0.50915    0.000
 5767.00    0.59506   0.50977    0.000
 5768.00    0.62799   0.50975    0.000
 5769.00    0.67420   0.50978    0.000
 5770.00    0.66739   0.50983    0.000
 5771.00    0.65480   0.50997    0.000
 5772.00    0.64960   0.50970    0.000
 5773.00    0.64492   0.50912    0.000
 5774.00    0.64012   0.50871    0.000
 5775.00    0.63532   0.50863    0.000
 5776.00    0.70149   0.50871    0.000
 5777.00    0.76522   0.50892    0.000
 5778.00    0.73080   0.50972    0.000
 5779.00    0.69647   0.51012    0.000
 5780.00    0.66361   0.50710    0.000
 5781.00    0.63870   0.49982    0.000
 5782.00    0.69424   0.49335    0.000
 5783.00    0.73769   0.49211    0.000
 5784.00    0.69352   0.49300    0.000
 5785.00    0.64443   0.49166    0.000
 5786.00    0.56801   0.49097    0.000
 5787.00    0.52028   0.49531    0.000
 5788.00    0.59976   0.50158    0.000
 5789.00    0.65736   0.50532    0.000
 5790.00    0.63524   0.50506    0.000
 5791.00    0.59529   0.50178   -2.000
 5792.00    0.50085   0.50204   -2.000
 5793.00    0.45255   0.50952   -2.000
 5794.00    0.52403   0.51901   -2.000
 5795.00    0.58546   0.52507   -2.000
 5796.00    0.62446   0.52560   -2.000
 5797.00    0.65189   0.51980   -2.000
 5798.00    0.65695   0.51246   -2.000
 5799.00    0.67432   0.51278   -2.000
 5800.00    0.71244   0.52151   -2.000
 5801.00    0.71728   0.53018   -2.000
 5802.00    0.67291   0.53450   -2.000
 5803.00    0.66273   0.53426   -2.000
 5804.00    0.69696   0.52919   -2.000
 5805.00    0.73066   0.52411   -2.000
 5806.00    0.76373   0.52326   -2.000
 5807.00    0.78721   0.52452   -2.000
 5808.00    0.80099   0.52524   -2.000
 5809.00    0.71477   0.52471   -2.000
 5810.00    0.53951   0.52229   -2.000
 5811.00    0.48427   0.51818    0.000
 5812.00    0.52322   0.51360    0.000
 5813.00    0.57631   0.50963    0.000
 5814.00    0.63914   0.50576    0.000
 5815.00    0.66082   0.50079    0.000
 5816.00    0.65759   0.49649    0.000
 5817.00    0.63939   0.49600    0.000
 5818.00    0.61327   0.49894    0.000
 5819.00    0.59666   0.50187    0.000
 5820.00    0.58440   0.50340    0.000
 5821.00    0.63461   0.50486    0.000
 5822.00    0.70947   0.50523    0.000
 5823.00    0.73133   0.50324    0.000
 5824.00    0.73538   0.50125    0.000
 5825.00    0.72065   0.50197    0.000
 5826.00    0.70062   0.50430    0.000
 5827.00    0.68795   0.50591    0.000
 5828.00    0.67700   0.50716    0.000
 5829.00    0.67863   0.50891    0.000
 5830.00    0.68261   0.51121    0.000
 5831.00    0.67359   0.51289    0.000
 5832.00    0.66269   0.51344    0.000
 5833.00    0.66559   0.51180    0.000
 5834.00    0.66993   0.50765    0.000
 5835.00    0.57288   0.50421    0.000
 5836.00    0.46897   0.50593    0.000
 5837.00    0.50821   0.50953    0.000
 5838.00    0.55217   0.50771    0.000
 5839.00    0.58328   0.50214    0.000
 5840.00    0.61473   0.50067    0.000
 5841.00    0.65727   0.50522    0.000
 5842.00    0.69210   0.51102    0.000
 5843.00    0.61041   0.51398    0.000
 5844.00    0.53951   0.51361    0.000
 5845.00    0.57330   0.51107    0.000
 5846.00    0.60812   0.50686    0.000
 5847.00    0.65006   0.50022    0.000
 5848.00    0.67952   0.49290    0.000
 5849.00    0.64156   0.48813    0.000
 5850.00    0.60429   0.48546    0.000
 5851.00    0.57000   0.48213    0.000
 5852.00    0.56003   0.47714    0.000
 5853.00    0.63680   0.47214    0.000
 5854.00    0.69236   0.47077    0.000
 5855.00    0.68432   0.47405    0.000
 5856.00    0.66393   0.47652    0.000
 5857.00    0.61203   0.47405    0.000
 5858.00    0.59209   0.47045    0.000
 5859.00    0.64234   0.47144    0.000
 5860.00    0.66864   0.47608    0.000
 5861.00    0.64934   0.47959    0.000
 5862.00    0.63623   0.47815    0.000
 5863.00    0.63341   0.47276    0.000
 5864.00    0.65929   0.46969    0.000
 5865.00    0.72700   0.47078    0.000
 5866.00    0.72617   0.47087    0.000
 5867.00    0.63753   0.46839    0.000
 5868.00    0.59247   0.46797    0.000
 5869.00    0.59662   0.47157    0.000
 5870.00    0.65498   0.47596    0.000
 5871.00    0.76732   0.47751    0.000
 5872.00    0.78036   0.47432    0.000
 5873.00    0.70623   0.46778    0.000
 5874.00    0.67280   0.45416    0.000
 5875.00    0.67085   0.43338    0.000
 5876.00    0.67004   0.41960    0.000
 5877.00    0.66999   0.42361    0.000
 5878.00    0.64305   0.44171    0.000
 5879.00    0.60007   0.45339    0.000
 5880.00    0.58816   0.45333    0.000
 5881.00    0.59241   0.45305    0.000
 5882.00    0.62883   0.45687    0.000
 5883.00    0.67976   0.46101    0.000
 5884.00    0.61715   0.46185    0.000
 5885.00    0.51053   0.46035    0.000
 5886.00    0.52638   0.45795    0.000
 5887.00    0.58262   0.45391    0.000
 5888.00    0.59363   0.44141    0.000
 5889.00    0.59212   0.41595    0.000
 5890.00    0.51379   0.38960    0.000
 5891.00    0.41798   0.38331    0.000
 5892.00    0.45611   0.40041    0.000
 5893.00    0.51860   0.42014    0.000
 5894.00    0.61512   0.42810    0.000
 5895.00    0.71639   0.42083    0.000
 5896.00    0.68251   0.40691    0.000
 5897.00    0.63506   0.40439    0.000
 5898.00    0.61443   0.41496    0.000
 5899.00    0.59551   0.42446    0.000
 5900.00    0.61013   0.42803    0.000
 5901.00    0.62563   0.43233    0.008
 5902.00    0.60120   0.43848    0.008
 5903.00    0.57574   0.44354    0.008
 5904.00    0.52089   0.44646    0.008
 5905.00    0.47421   0.44629    0.008
 5906.00    0.54406   0.44399    0.008
 5907.00    0.60539   0.44317    0.008
 5908.00    0.58742   0.44502    0.008
 5909.00    0.57541   0.44714    0.008
 5910.00    0.60382   0.44817    0.008
 5911.00    0.62861   0.44930    0.008
 5912.00    0.63433   0.45007    0.008
 5913.00    0.63471   0.44810    0.008
 5914.00    0.61244   0.44420    0.008
 5915.00    0.59873   0.44230    0.008
 5916.00    0.61492   0.44310    0.008
 5917.00    0.63146   0.44498    0.008
 5918.00    0.64902   0.44658    0.008
 5919.00    0.64258   0.44613    0.008
 5920.00    0.57597   0.44571    0.007
 5921.00    0.54387   0.44641    0.007
 5922.00    0.58633   0.44571    0.008
 5923.00    0.63248   0.44425    0.008
 5924.00    0.68553   0.44451    0.008
 5925.00    0.70323   0.44605    0.008
 5926.00    0.66305   0.44750    0.008
 5927.00    0.60663   0.44858    0.008
 5928.00    0.52693   0.44828    0.008
 5929.00    0.46351   0.44659    0.008
 5930.00    0.42068   0.44552    0.008
 5931.00    0.41863   0.44619    0.008
 5932.00    0.46197   0.44945    0.008
 5933.00    0.49084   0.45219    0.008
 5934.00    0.50551   0.45169    0.008
 5935.00    0.50279   0.44952    0.008
 5936.00    0.48502   0.44968    0.008
 5937.00    0.49424   0.45323    0.008
 5938.00    0.52404   0.45665    0.008
 5939.00    0.52288   0.45781    0.008
 5940.00    0.50097   0.45538    0.008
 5941.00    0.48258   0.44886    0.008
 5942.00    0.46626   0.44503    0.008
 5943.00    0.51939   0.44841    0.008
 5944.00    0.60808   0.45414    0.008
 5945.00    0.63924   0.45865    0.008
 5946.00    0.64489   0.46268    0.008
 5947.00    0.61804   0.46458    0.008
 5948.00    0.57882   0.46079    0.008
 5949.00    0.56367   0.45324    0.008
 5950.00    0.55631   0.44786    0.007
 5951.00    0.57149   0.44710    0.008
 5952.00    0.59276   0.44767    0.008
 5953.00    0.58630   0.44718    0.007
 5954.00    0.57367   0.44812    0.007
 5955.00    0.58202   0.44901    0.007
 5956.00    0.59407   0.44488    0.007
 5957.00    0.56509   0.43900    0.007
 5958.00    0.53056   0.43833    0.007
 5959.00    0.57678   0.44314    0.007
 5960.00    0.63076   0.44970    0.007
 5961.00    0.62877   0.45459    0.007
 5962.00    0.62344   0.45669    0.008
 5963.00    0.61212   0.45654    0.008
 5964.00    0.60035   0.45552    0.008
 5965.00    0.54365   0.45437    0.008
 5966.00    0.49018   0.45350    0.007
 5967.00    0.51916   0.45505    0.008
 5968.00    0.55119   0.45881    0.008
 5969.00    0.62424   0.46180    0.008
 5970.00    0.68554   0.46344    0.008
 5971.00    0.64165   0.46390    0.008
 5972.00    0.60629   0.46238    0.008
 5973.00    0.62705   0.46007    0.008
 5974.00    0.63585   0.45874    0.008
 5975.00    0.58333   0.45786    0.008
 5976.00    0.54164   0.45584    0.008
 5977.00    0.54481   0.45231    0.007
 5978.00    0.55702   0.44716    0.007
 5979.00    0.60023   0.44380    0.008
 5980.00    0.62244   0.44577    0.008
 5981.00    0.58402   0.45134    0.007
 5982.00    0.56815   0.45518    0.007
 5983.00    0.60786   0.45436    0.007
 5984.00    0.62569   0.45048    0.007
 5985.00    0.59702   0.44897    0.007
 5986.00    0.57398   0.45417    0.007
 5987.00    0.56133   0.46069    0.007
 5988.00    0.55504   0.46154    0.007
 5989.00    0.55902   0.45996    0.007
 5990.00    0.57057   0.46077    0.007
 5991.00    0.59282   0.46294    0.007
 5992.00    0.58119   0.46493    0.007
 5993.00    0.52738   0.46866    0.007
 5994.00    0.49346   0.47407    0.007
 5995.00    0.48136   0.47676    0.007
 5996.00    0.48576   0.47481    0.007
 5997.00    0.50613   0.47115    0.007
 5998.00    0.51152   0.46783    0.007
 5999.00    0.50412   0.46436    0.007
 6000.00    0.48635   0.46138    0.007
 6001.00    0.46078   0.45974    0.008
 6002.00    0.46653   0.45867    0.007
 6003.00    0.49297   0.45809    0.007
 6004.00    0.54832   0.46060    0.007
 6005.00    0.62039   0.46412    0.007
 6006.00    0.63710   0.46306    0.007
 6007.00    0.62592   0.45818    0.007
 6008.00    0.59698   0.45420    0.007
 6009.00    0.56030   0.45467    0.007
 6010.00    0.55472   0.45995    0.007
 6011.00    0.56079   0.46551    0.007
 6012.00    0.54613   0.46623    0.007
 6013.00    0.52489   0.46299    0.008
 6014.00    0.52387   0.46137    0.008
 6015.00    0.52821   0.46340    0.008
 6016.00    0.52614   0.46457    0.008
 6017.00    0.52269   0.46224    0.008
 6018.00    0.49023   0.46036    0.007
 6019.00    0.45277   0.46173    0.007
 6020.00    0.48759   0.46441    0.007
 6021.00    0.53186   0.46630    0.007
 6022.00    0.55861   0.46744    0.007
 6023.00    0.58376   0.46816    0.007
 6024.00    0.65109   0.46869    0.007
 6025.00    0.72078   0.47009    0.007
 6026.00    0.75770   0.47258    0.007
 6027.00    0.79360   0.47427    0.007
 6028.00    0.79960   0.47544    0.007
 6029.00    0.80273   0.47769    0.008
 6030.00    0.73930   0.47860    0.007
 6031.00    0.67701   0.47552    0.007
 6032.00    0.62922   0.47170    0.007
 6033.00    0.59066   0.47294    0.007
 6034.00    0.63158   0.47826    0.007
 6035.00    0.66069   0.48157    0.007
 6036.00    0.61442   0.48004    0.007
 6037.00    0.57799   0.47671    0.007
 6038.00    0.59075   0.47558    0.007
 6039.00    0.60637   0.47623    0.007
 6040.00    0.63351   0.47622    0.007
 6041.00    0.64915   0.47721    0.007
 6042.00    0.62618   0.48001    0.007
 6043.00    0.62163   0.48330    0.007
 6044.00    0.66928   0.48689    0.007
 6045.00    0.71973   0.48962    0.007
 6046.00    0.77696   0.49096    0.007
 6047.00    0.79627   0.49116    0.007
 6048.00    0.73628   0.48973    0.007
 6049.00    0.66679   0.48742    0.007
 6050.00    0.58004   0.48721    0.007
 6051.00    0.55081   0.48904    0.007
 6052.00    0.61296   0.48896    0.007
 6053.00    0.65396   0.48657    0.007
 6054.00    0.66546   0.48426    0.007
 6055.00    0.66634   0.48270    0.007
 6056.00    0.65419   0.48093    0.007
 6057.00    0.66089   0.47769    0.007
 6058.00    0.68796   0.47438    0.007
 6059.00    0.68920   0.47501    0.007
 6060.00    0.66580   0.47984    0.007
 6061.00    0.66127   0.48397    0.007
 6062.00    0.67262   0.48369    0.008
 6063.00    0.65896   0.47922    0.007
 6064.00    0.62677   0.47271    0.007
 6065.00    0.60804   0.46670    0.007
 6066.00    0.59807   0.46616    0.007
 6067.00    0.61123   0.47472    0.007
 6068.00    0.63756   0.48568    0.007
 6069.00    0.59468   0.49156    0.007
 6070.00    0.51748   0.49374    0.007
 6071.00    0.49265   0.49511    0.007
 6072.00    0.49027   0.49566    0.007
 6073.00    0.49989   0.49462    0.007
 6074.00    0.51394   0.49372    0.007
 6075.00    0.51954   0.49423    0.007
 6076.00    0.52252   0.49452    0.007
 6077.00    0.54508   0.49313    0.007
 6078.00    0.57271   0.48956    0.007
 6079.00    0.59122   0.48492    0.007
 6080.00    0.60780   0.48117    0.007
 6081.00    0.60201   0.47747    0.007
 6082.00    0.59248   0.47353    0.007
 6083.00    0.59859   0.47362    0.007
 6084.00    0.60667   0.47870    0.007
 6085.00    0.64416   0.48227    0.007
 6086.00    0.68422   0.48215    0.007
 6087.00    0.66691   0.48289    0.007
 6088.00    0.64663   0.48497    0.007
 6089.00    0.62759   0.48432    0.007
 6090.00    0.60891   0.47935    0.007
 6091.00    0.61440   0.47486    0.007
 6092.00    0.62072   0.47558    0.007
 6093.00    0.64475   0.47834    0.007
 6094.00    0.66717   0.48153    0.007
 6095.00    0.67001   0.48747    0.007
 6096.00    0.66798   0.49190    0.007
 6097.00    0.62541   0.49005    0.007
 6098.00    0.58364   0.48704    0.007
 6099.00    0.54672   0.48913    0.007
 6100.00    0.51892   0.49366    0.007
 6101.00    0.53558   0.49270    0.007
 6102.00    0.54743   0.48121    0.007
 6103.00    0.54025   0.46693    0.007
 6104.00    0.53436   0.46455    0.007
 6105.00    0.53272   0.47390    0.007
 6106.00    0.53650   0.48296    0.007
 6107.00    0.55537   0.48592    0.007
 6108.00    0.57434   0.48509    0.007
 6109.00    0.59355   0.48505    0.007
 6110.00    0.61899   0.48581    0.007
 6111.00    0.65728   0.48386    0.007
 6112.00    0.68352   0.48218    0.007
 6113.00    0.68822   0.48649    0.007
 6114.00    0.68135   0.49376    0.007
 6115.00    0.65638   0.49720    0.007
 6116.00    0.64313   0.49461    0.007
 6117.00    0.64598   0.49042    0.007
 6118.00    0.61699   0.48957    0.007
 6119.00    0.54949   0.48764    0.007
 6120.00    0.49806   0.47864    0.007
 6121.00    0.46376   0.46620    0.007
 6122.00    0.46441   0.45778    0.007
 6123.00    0.49794   0.46049    0.007
 6124.00    0.52030   0.47417    0.007
 6125.00    0.53338   0.48519    0.007
 6126.00    0.53780   0.48542    0.007
 6127.00    0.53591   0.48064    0.007
 6128.00    0.52491   0.47694    0.007
 6129.00    0.50809   0.47771    0.007
 6130.00    0.49797   0.48499    0.007
 6131.00    0.49160   0.49391    0.007
 6132.00    0.54157   0.49686    0.007
 6133.00    0.61905   0.49351    0.007
 6134.00    0.66310   0.48648    0.007
 6135.00    0.69307   0.47501    0.007
 6136.00    0.66016   0.46113    0.007
 6137.00    0.60456   0.45048    0.007
 6138.00    0.61589   0.45106    0.007
 6139.00    0.64766   0.46650    0.007
 6140.00    0.64737   0.48386    0.007
 6141.00    0.63894   0.48781    0.007
 6142.00    0.60999   0.48209    0.007
 6143.00    0.57681   0.48140    0.007
 6144.00    0.57677   0.48971    0.007
 6145.00    0.58210   0.49849    0.007
 6146.00    0.64299   0.50074    0.007
 6147.00    0.71062   0.49798    0.007
 6148.00    0.71642   0.49085    0.007
 6149.00    0.71706   0.47577    0.007
 6150.00    0.69791   0.45863    0.007
 6151.00    0.67782   0.45324    0.007
 6152.00    0.66725   0.46119    0.007
 6153.00    0.65628   0.47107    0.007
 6154.00    0.61373   0.47354    0.007
 6155.00    0.57101   0.46870    0.007
 6156.00    0.52480   0.46395    0.007
 6157.00    0.48174   0.46024    0.007
 6158.00    0.47493   0.45211    0.007
 6159.00    0.47493   0.43903    0.007
 6160.00    0.52939   0.42550    0.007
 6161.00    0.59086   0.41274    0.007
 6162.00    0.69452   0.40005    0.007
 6163.00    0.77815   0.39321    0.007
 6164.00    0.76656   0.39656    0.007
 6165.00    0.73464   0.40433    0.007
 6166.00    0.62399   0.41005    0.007
 6167.00    0.53676   0.41357    0.007
 6168.00    0.52509   0.41530    0.007
 6169.00    0.51775   0.41204    0.007
 6170.00    0.52225   0.40715    0.007
 6171.00    0.53582   0.40952    0.007
 6172.00    0.57063   0.41779    0.007
 6173.00    0.59536   0.42185    0.007
 6174.00    0.59969   0.41844    0.007
 6175.00    0.61588   0.41391    0.007
 6176.00    0.65301   0.41364    0.007
 6177.00    0.67144   0.41672    0.007
 6178.00    0.66101   0.42088    0.007
 6179.00    0.63034   0.42501    0.007
 6180.00    0.57222   0.42732    0.007
 6181.00    0.54099   0.42798    0.007
 6182.00    0.54180   0.42863    0.007
 6183.00    0.52870   0.42817    0.007
 6184.00    0.50096   0.42563    0.007
 6185.00    0.49095   0.42142    0.007
 6186.00    0.49738   0.41450    0.007
 6187.00    0.48485   0.40569    0.007
 6188.00    0.45681   0.40021    0.007
 6189.00    0.45940   0.39875    0.007
 6190.00    0.48403   0.39608    0.007
 6191.00    0.50020   0.39068    0.007
 6192.00    0.51103   0.38737    0.007
 6193.00    0.54479   0.39016    0.007
 6194.00    0.59120   0.39617    0.007
 6195.00    0.63183   0.40146    0.008
 6196.00    0.66967   0.40563   -2.000
 6197.00    0.30927   0.40868   -2.000
 6198.00   -0.21622   0.40980   -2.000
 6199.00   -0.69916   0.40781   -2.000
 6200.00   -1.16701   0.40432   -2.000
 6201.00   -0.79725   0.40411   -2.000
 6202.00   -0.17681   0.40836   -2.000
 6203.00    0.62317   0.41360   -2.000
 6204.00    1.46776   0.41607   -2.000
 6205.00    1.63736   0.41544   -2.000
 6206.00    1.67104   0.41514   -2.000
 6207.00    1.27796   0.41708   -2.000
 6208.00    0.81757   0.41930    0.008
 6209.00    0.68665   0.41939    0.007
 6210.00    0.59434   0.41648    0.007
 6211.00    0.60395   0.41159    0.007
 6212.00    0.62165   0.40724    0.007
 6213.00    0.59102   0.40256    0.007
 6214.00    0.55827   0.39510    0.007
 6215.00    0.53357   0.38704    0.007
 6216.00    0.50941   0.38217    0.007
 6217.00    0.50618   0.38294    0.007
 6218.00    0.50277   0.38781    0.007
 6219.00    0.49615   0.39149    0.007
 6220.00    0.49140   0.39238    0.007
 6221.00    0.50713   0.39223    0.007
 6222.00    0.51706   0.39037    0.007
 6223.00    0.48209   0.38558    0.007
 6224.00    0.45691   0.38017    0.007
 6225.00    0.48889   0.37814    0.007
 6226.00    0.52227   0.38019    0.007
 6227.00    0.56208   0.38331    0.007
 6228.00    0.59466   0.38498    0.007
 6229.00    0.59981   0.38398    0.007
 6230.00    0.60850   0.37940    0.007
 6231.00    0.62840   0.37465    0.007
 6232.00    0.64261   0.37505    0.007
 6233.00    0.64154   0.38008    0.007
 6234.00    0.63522   0.38644    0.007
 6235.00    0.61684   0.39228    0.007
 6236.00    0.59030   0.39552    0.007
 6237.00    0.54752   0.39528    0.007
 6238.00    0.49865   0.39175    0.007
 6239.00    0.43923   0.38511    0.007
 6240.00    0.41353   0.37894    0.007
 6241.00    0.43905   0.37844    0.007
 6242.00    0.46783   0.38114    0.007
 6243.00    0.50097   0.38018    0.007
 6244.00    0.52356   0.37837    0.007
 6245.00    0.53375   0.38148    0.007
 6246.00    0.53821   0.38677    0.007
 6247.00    0.53673   0.39157    0.007
 6248.00    0.54602   0.39617    0.007
 6249.00    0.56518   0.39886    0.007
 6250.00    0.55378   0.39932    0.007
 6251.00    0.51775   0.39833    0.007
 6252.00    0.50868   0.39541    0.007
 6253.00    0.51875   0.39282    0.007
 6254.00    0.55475   0.39375    0.007
 6255.00    0.60690   0.39606    0.007
 6256.00    0.61154   0.39526    0.007
 6257.00    0.59037   0.38934    0.007
 6258.00    0.56448   0.38074    0.007
 6259.00    0.53636   0.37730    0.008
 6260.00    0.38831   0.38333    0.008
 6261.00    0.19137   0.39188    0.008
 6262.00    0.11310   0.39784    0.009
 6263.00    0.07613   0.40413    0.009
 6264.00    0.24781   0.40916    0.009
 6265.00    0.48068   0.40845    0.009
 6266.00    0.67916   0.40488    0.008
 6267.00    0.86929   0.40331    0.008
 6268.00    0.84688   0.40207    0.008
 6269.00    0.78275   0.39936    0.007
 6270.00    0.65904   0.39951    0.007
 6271.00    0.52620   0.40418    0.007
 6272.00    0.50501   0.40859    0.007
 6273.00    0.49641   0.40933    0.007
 6274.00    0.52168   0.40690    0.007
 6275.00    0.54951   0.40403    0.007
 6276.00    0.52867   0.40301    0.007
 6277.00    0.50588   0.40411    0.007
 6278.00    0.54267   0.40687    0.007
 6279.00    0.57800   0.40918    0.007
 6280.00    0.53627   0.40799    0.000
 6281.00    0.49604   0.40484    0.000
 6282.00    0.48133   0.40489    0.000
 6283.00    0.47137   0.40905    0.000
 6284.00    0.51155   0.41376    0.000
 6285.00    0.54563   0.41562    0.000
 6286.00    0.53422   0.41624    0.000
 6287.00    0.52154   0.41969    0.000
 6288.00    0.50160   0.42474    0.000
 6289.00    0.48852   0.42797    0.000
 6290.00    0.50657   0.42856    0.000
 6291.00    0.51741   0.42676    0.000
 6292.00    0.50154   0.42281    0.000
 6293.00    0.48196   0.41839    0.000
 6294.00    0.45086   0.41643    0.000
 6295.00    0.42529   0.41528    0.000
 6296.00    0.41435   0.41048    0.000
 6297.00    0.42421   0.40577    0.000
 6298.00    0.48120   0.40811    0.000
 6299.00    0.51985   0.41549    0.000
 6300.00    0.52253   0.42115    0.000
 6301.00    0.53015   0.42219    0.000
 6302.00    0.54624   0.42098    0.000
 6303.00    0.55015   0.42108    0.000
 6304.00    0.53581   0.42204    0.000
 6305.00    0.52559   0.42102    0.000
 6306.00    0.52076   0.41965    0.000
 6307.00    0.53693   0.42402    0.000
 6308.00    0.57742   0.43321    0.000
 6309.00    0.59603   0.43894    0.000
 6310.00    0.59225   0.43858    0.000
 6311.00    0.58475   0.43462    0.000
 6312.00    0.57390   0.43063    0.000
 6313.00    0.53823   0.43032    0.000
 6314.00    0.48284   0.43261    0.000
 6315.00    0.42738   0.43375    0.000
 6316.00    0.37187   0.43433    0.000
 6317.00    0.37169   0.43520    0.000
 6318.00    0.40543   0.43364    0.000
 6319.00    0.42766   0.43205    0.000
 6320.00    0.44372   0.43451    0.000
 6321.00    0.46017   0.43691    0.007
 6322.00    0.47679   0.43608    0.007
 6323.00    0.49148   0.43578    0.007
 6324.00    0.50538   0.43747    0.007
 6325.00    0.52049   0.43777    0.007
 6326.00    0.53601   0.43740    0.007
 6327.00    0.54074   0.43928    0.007
 6328.00    0.54237   0.44226    0.007
 6329.00    0.55369   0.44442    0.007
 6330.00    0.56733   0.44395    0.007
 6331.00    0.58315   0.44339    0.007
 6332.00    0.59939   0.44728    0.007
 6333.00    0.58953   0.45238    0.007
 6334.00    0.57579   0.45243    0.007
 6335.00    0.54163   0.44501    0.007
 6336.00    0.50524   0.43578    0.007
 6337.00    0.51942   0.43470    0.007
 6338.00    0.53720   0.44163    0.007
 6339.00    0.55161   0.44841    0.007
 6340.00    0.56591   0.45236    0.007
 6341.00    0.52967   0.45516    0.007
 6342.00    0.49427   0.45511    0.007
 6343.00    0.49513   0.45004    0.007
 6344.00    0.49428   0.44106    0.007
 6345.00    0.46618   0.43215    0.007
 6346.00    0.44097   0.42763    0.007
 6347.00    0.44493   0.43042    0.007
 6348.00    0.45072   0.43761    0.007
 6349.00    0.46976   0.44553    0.007
 6350.00    0.48611   0.45167    0.007
 6351.00    0.48764   0.45272    0.007
 6352.00    0.48501   0.44966    0.007
 6353.00    0.46405   0.44519    0.007
 6354.00    0.45123   0.44021    0.007
 6355.00    0.46805   0.43545    0.007
 6356.00    0.48162   0.43345    0.007
 6357.00    0.48530   0.43274    0.007
 6358.00    0.49563   0.42803    0.007
 6359.00    0.52321   0.42096    0.007
 6360.00    0.54403   0.41783    0.007
 6361.00    0.54981   0.41895    0.007
 6362.00    0.54568   0.42014    0.007
 6363.00    0.52244   0.42056    0.007
 6364.00    0.49930   0.42243    0.007
 6365.00    0.47632   0.42651    0.007
 6366.00    0.47082   0.43181    0.007
 6367.00    0.49109   0.43823    0.007
 6368.00    0.52850   0.44557    0.007
 6369.00    0.58814   0.45098    0.007
 6370.00    0.61886   0.45049    0.007
 6371.00    0.61653   0.44727    0.007
 6372.00    0.60623   0.44830    0.007
 6373.00    0.58792   0.45417    0.007
 6374.00    0.56362   0.45957    0.007
 6375.00    0.53400   0.46034    0.007
 6376.00    0.49790   0.45939    0.007
 6377.00    0.45672   0.45881    0.007
 6378.00    0.45513   0.45437    0.007
 6379.00    0.48083   0.44581    0.007
 6380.00    0.51831   0.44096    0.007
 6381.00    0.56292   0.44265    0.007
 6382.00    0.56935   0.44652    0.007
 6383.00    0.55566   0.44925    0.007
 6384.00    0.52824   0.44843    0.007
 6385.00    0.49455   0.44495    0.007
 6386.00    0.45598   0.44367    0.007
 6387.00    0.41550   0.44528    0.007
 6388.00    0.42368   0.44600    0.007
 6389.00    0.44817   0.44586    0.007
 6390.00    0.48062   0.44726    0.007
 6391.00    0.51532   0.44922    0.007
 6392.00    0.47602   0.44774    0.007
 6393.00    0.41956   0.44125    0.007
 6394.00    0.36942   0.43647    0.007
 6395.00    0.32046   0.44083    0.007
 6396.00    0.31731   0.45085    0.007
 6397.00    0.32075   0.45904    0.007
 6398.00    0.44927   0.46212    0.007
 6399.00    0.59082   0.45781    0.007
 6400.00    0.68525   0.44753    0.008
 6401.00    0.77652   0.44214    0.008
 6402.00    0.74460   0.44950    0.008
 6403.00    0.70866   0.46146    0.008
 6404.00    0.64486   0.46887    0.007
 6405.00    0.58133   0.47095    0.007
 6406.00    0.52657   0.46931    0.007
 6407.00    0.47634   0.46610    0.007
 6408.00    0.49403   0.46347    0.007
 6409.00    0.51285   0.46441    0.007
 6410.00    0.54260   0.46766    0.007
 6411.00    0.56323   0.46605    0.007
 6412.00    0.52024   0.45845    0.007
 6413.00    0.48564   0.45165    0.007
 6414.00    0.49622   0.45062    0.007
 6415.00    0.50060   0.45498    0.007
 6416.00    0.47826   0.46056    0.007
 6417.00    0.45381   0.46311    0.007
 6418.00    0.42184   0.46076    0.007
 6419.00    0.40193   0.45474    0.007
 6420.00    0.41808   0.44707    0.007
 6421.00    0.44250   0.44039    0.007
 6422.00    0.48801   0.44071    0.007
 6423.00    0.52116   0.44957    0.007
 6424.00    0.52725   0.45780    0.007
 6425.00    0.51117   0.45946    0.007
 6426.00    0.45297   0.45968    0.007
 6427.00    0.40201   0.46226    0.007
 6428.00    0.36306   0.46398    0.007
 6429.00    0.36037   0.46097    0.007
 6430.00    0.41040   0.45226    0.007
 6431.00    0.44486   0.44285    0.007
 6432.00    0.45940   0.44223    0.007
 6433.00    0.48977   0.45080    0.007
 6434.00    0.53798   0.45854    0.007
 6435.00    0.56234   0.46094    0.007
 6436.00    0.56300   0.46257    0.007
 6437.00    0.54449   0.46502    0.007
 6438.00    0.50917   0.46259    0.007
 6439.00    0.48919   0.45562    0.007
 6440.00    0.48106   0.45487    0.007
 6441.00    0.47091   0.46398    0.007
 6442.00    0.45938   0.47416    0.007
 6443.00    0.44401   0.47962    0.007
 6444.00    0.42636   0.48145    0.007
 6445.00    0.43952   0.48124    0.007
 6446.00    0.46866   0.47985    0.007
 6447.00    0.45090   0.47625    0.007
 6448.00    0.41204   0.46712    0.007
 6449.00    0.39589   0.45180    0.007
 6450.00    0.38853   0.43719    0.008
 6451.00    0.44033   0.43390    0.008
 6452.00    0.51160   0.44318    0.007
 6453.00    0.58459   0.45655    0.007
 6454.00    0.65806   0.46635    0.007
 6455.00    0.65315   0.46838    0.007
 6456.00    0.63047   0.46582    0.007
 6457.00    0.58625   0.46705    0.007
 6458.00    0.53813   0.47357    0.007
 6459.00    0.50005   0.48023    0.007
 6460.00    0.46338   0.48244    0.007
 6461.00    0.48965   0.47735    0.007
 6462.00    0.52220   0.46448    0.007
 6463.00    0.51501   0.45219    0.007
 6464.00    0.50530   0.45280    0.007
 6465.00    0.43982   0.46366    0.007
 6466.00    0.37311   0.47282    0.007
 6467.00    0.42210   0.47754    0.007
 6468.00    0.46987   0.48061    0.007
 6469.00    0.48368   0.48173    0.007
 6470.00    0.49734   0.47981    0.007
 6471.00    0.50886   0.47647    0.007
 6472.00    0.51825   0.47376    0.007
 6473.00    0.50797   0.47031    0.007
 6474.00    0.49872   0.46231    0.008
 6475.00    0.49643   0.45296    0.007
 6476.00    0.49270   0.45230    0.007
 6477.00    0.48141   0.46060    0.007
 6478.00    0.47475   0.46744    0.007
 6479.00    0.48767   0.46718    0.007
 6480.00    0.48771   0.46200    0.007
 6481.00    0.44282   0.45293    0.007
 6482.00    0.40183   0.44147    0.007
 6483.00    0.37229   0.43371    0.007
 6484.00    0.37098   0.43381    0.007
 6485.00    0.44027   0.43876    0.007
 6486.00    0.46491   0.44430    0.007
 6487.00    0.39332   0.44924    0.007
 6488.00    0.33407   0.45224    0.007
 6489.00    0.29791   0.45196    0.007
 6490.00    0.29666   0.44858    0.007
 6491.00    0.35244   0.44544    0.007
 6492.00    0.38304   0.44484    0.007
 6493.00    0.37754   0.44151    0.007
 6494.00    0.38378   0.42997    0.007
 6495.00    0.40483   0.41507    0.007
 6496.00    0.42395   0.40622    0.007
 6497.00    0.44091   0.40578    0.007
 6498.00    0.44895   0.41066    0.007
 6499.00    0.44825   0.41676    0.008
 6500.00    0.42149   0.42284    0.007
 6501.00    0.37222   0.43055    0.007
 6502.00    0.35229   0.43859    0.007
 6503.00    0.35471   0.44440    0.007
 6504.00    0.37602   0.44726    0.007
 6505.00    0.40997   0.44906    0.007
 6506.00    0.42717   0.45170    0.007
 6507.00    0.43454   0.45204    0.007
 6508.00    0.44561   0.44706    0.007
 6509.00    0.45857   0.44194    0.007
 6510.00    0.51086   0.44362    0.007
 6511.00    0.58056   0.45015    0.007
 6512.00    0.58575   0.45417    0.007
 6513.00    0.56642   0.45371    0.007
 6514.00    0.55243   0.45201    0.007
 6515.00    0.54017   0.45002    0.007
 6516.00    0.50084   0.44753    0.007
 6517.00    0.45419   0.44558    0.007
 6518.00    0.42120   0.44416    0.007
 6519.00    0.39123   0.44437    0.007
 6520.00    0.39668   0.44803    0.007
 6521.00    0.40837   0.45338    0.008
 6522.00    0.40359   0.45713    0.007
 6523.00    0.39659   0.45818    0.007
 6524.00    0.46955   0.45831    0.007
 6525.00    0.55016   0.45904    0.007
 6526.00    0.48560   0.45924    0.007
 6527.00    0.41246   0.45825    0.007
 6528.00    0.45391   0.45861    0.000
 6529.00    0.49808   0.46211    0.000
 6530.00    0.51844   0.46543    0.000
 6531.00    0.53675   0.46461    0.000
 6532.00    0.50339   0.46048    0.000
 6533.00    0.47173   0.45793    0.000
 6534.00    0.46280   0.46067    0.000
 6535.00    0.45728   0.46693    0.000
 6536.00    0.48214   0.47154    0.000
 6537.00    0.50207   0.47114    0.000
 6538.00    0.48974   0.46819    0.000
 6539.00    0.47434   0.46892    0.000
 6540.00    0.44330   0.47399    0.000
 6541.00    0.42023   0.47666    0.000
 6542.00    0.43011   0.47245    0.000
 6543.00    0.46057   0.46284    0.000
 6544.00    0.56142   0.45292    0.000
 6545.00    0.62608   0.44621    0.000
 6546.00    0.58654   0.44175    0.000
 6547.00    0.54723   0.43996    0.000
 6548.00    0.50848   0.44276    0.000
 6549.00    0.46328   0.44533    0.000
 6550.00    0.40441   0.44214    0.000
 6551.00    0.37570   0.43573    0.000
 6552.00    0.40254   0.43166    0.000
 6553.00    0.44833   0.43101    0.000
 6554.00    0.52464   0.42897    0.000
 6555.00    0.55858   0.42336    0.000
 6556.00    0.53269   0.41816    0.000
 6557.00    0.51302   0.41670    0.000
 6558.00    0.50108   0.41827    0.000
 6559.00    0.53166   0.41986    0.000
 6560.00    0.60881   0.41714    0.000
 6561.00    0.64767   0.39935    0.000
 6562.00    0.64955   0.35916    0.000
 6563.00    0.61575   0.31878    0.000
 6564.00    0.55157   0.31690    0.000
 6565.00    0.46842   0.35432    0.000
 6566.00    0.37106   0.39256    0.000
 6567.00    0.32878   0.41254    0.000
 6568.00    0.32280   0.42199    0.000
 6569.00    0.34601   0.42598    0.000
 6570.00    0.38606   0.42765    0.000
 6571.00    0.42972   0.43010    0.000
 6572.00    0.47519   0.42948    0.000
 6573.00    0.49086   0.42363    0.000
 6574.00    0.49356   0.41928    0.000
 6575.00    0.49418   0.42140    0.000
 6576.00    0.49401   0.42670    0.000
 6577.00    0.53913   0.42994    0.000
 6578.00    0.59859   0.43016    0.000
 6579.00    0.61972   0.42912    0.000
 6580.00    0.63071   0.42893    0.000
 6581.00    0.58447   0.42856    0.000
 6582.00    0.52585   0.42788    0.000
 6583.00    0.52237   0.43218    0.000
 6584.00    0.52834   0.43925    0.000
 6585.00    0.51494   0.44493    0.000
 6586.00    0.49903   0.44818    0.000
 6587.00    0.42155   0.45055    0.000
 6588.00    0.33845   0.45530    0.000
 6589.00    0.35469   0.45931    0.000
 6590.00    0.37640   0.45943    0.000
 6591.00    0.42726   0.45520    0.000
 6592.00    0.47832   0.44547    0.000
 6593.00    0.48929   0.43293    0.000
 6594.00    0.49756   0.42589    0.000
 6595.00    0.44401   0.42960    0.000
 6596.00    0.39353   0.43891    0.000
 6597.00    0.38181   0.44436    0.000
 6598.00    0.37388   0.44246    0.000
 6599.00    0.39838   0.43776    0.000
 6600.00    0.41777   0.43814    0.000
 6601.00    0.40468   0.44498    0.000
 6602.00    0.38740   0.45139    0.000
 6603.00    0.34927   0.45303    0.000
 6604.00    0.32779   0.45083    0.000
 6605.00    0.37355   0.44594    0.000
 6606.00    0.40137   0.44043    0.000
 6607.00    0.36913   0.43692    0.000
 6608.00    0.35662   0.43424    0.000
 6609.00    0.39988   0.43014    0.008
 6610.00    0.42279   0.42897    0.008
 6611.00    0.39654   0.43552    0.008
 6612.00    0.38974   0.44400    0.008
 6613.00    0.42350   0.44635    0.008
 6614.00    0.44232   0.44413    0.008
 6615.00    0.43403   0.44455    0.008
 6616.00    0.45365   0.44821    0.008
 6617.00    0.51752   0.44958    0.008
 6618.00    0.54298   0.44722    0.008
 6619.00    0.51501   0.44434    0.008
 6620.00    0.47480   0.44388    0.008
 6621.00    0.41963   0.44502    0.008
 6622.00    0.41435   0.44425    0.008
 6623.00    0.46297   0.43972    0.008
 6624.00    0.47761   0.43227    0.008
 6625.00    0.45986   0.42480    0.008
 6626.00    0.45135   0.42211    0.008
 6627.00    0.45058   0.42546    0.008
 6628.00    0.44489   0.42987    0.008
 6629.00    0.43555   0.43147    0.008
 6630.00    0.41102   0.43126    0.008
 6631.00    0.37661   0.43183    0.008
 6632.00    0.32510   0.43333    0.008
 6633.00    0.26386   0.43307    0.008
 6634.00    0.28997   0.43061    0.008
 6635.00    0.35930   0.42848    0.008
 6636.00    0.38405   0.42822    0.008
 6637.00    0.38974   0.42944    0.008
 6638.00    0.39846   0.43102    0.008
 6639.00    0.40828   0.43167    0.008
 6640.00    0.42073   0.43138    0.008
 6641.00    0.43399   0.43225    0.008
 6642.00    0.35933   0.43386    0.008
 6643.00    0.26192   0.43227    0.008
 6644.00    0.32416   0.42835    0.008
 6645.00    0.42009   0.42821    0.008
 6646.00    0.44029   0.43208    0.008
 6647.00    0.44786   0.43399    0.008
 6648.00    0.46185   0.43232    0.008
 6649.00    0.47663   0.42966    0.008
 6650.00    0.50074   0.42493    0.008
 6651.00    0.52566   0.41564    0.008
 6652.00    0.49448   0.40571    0.008
 6653.00    0.46043   0.40222    0.008
 6654.00    0.42012   0.40520    0.008
 6655.00    0.37992   0.40890    0.008
 6656.00    0.35517   0.41008    0.008
 6657.00    0.33443   0.40959    0.008
 6658.00    0.39821   0.40935    0.008
 6659.00    0.45728   0.40996    0.008
 6660.00    0.45973   0.41074    0.008
 6661.00    0.46087   0.41112    0.008
 6662.00    0.45120   0.41039    0.008
 6663.00    0.45500   0.40792    0.008
 6664.00    0.54206   0.40640    0.009
 6665.00    0.58993   0.40870    0.009
 6666.00    0.44747   0.41112    0.009
 6667.00    0.34945   0.41065    0.009
 6668.00    0.42687   0.41104    0.009
 6669.00    0.48885   0.41506    0.009
 6670.00    0.50013   0.42059    0.009
 6671.00    0.49142   0.42466    0.009
 6672.00    0.42722   0.42650    0.008
 6673.00    0.40210   0.42632    0.008
 6674.00    0.46987   0.42473    0.008
 6675.00    0.49181   0.42287    0.008
 6676.00    0.41964   0.41802    0.008
 6677.00    0.36435   0.40435    0.008
 6678.00    0.33923   0.38753    0.008
 6679.00    0.32876   0.38101    0.008
 6680.00    0.34118   0.38666    0.008
 6681.00    0.36206   0.39220    0.008
 6682.00    0.39458   0.39029    0.008
 6683.00    0.39800   0.38912    0.008
 6684.00    0.36628   0.39305    0.008
 6685.00    0.39316   0.39683    0.009
 6686.00    0.48242   0.39751    0.009
 6687.00    0.48926   0.39637    0.009
 6688.00    0.41868   0.39549    0.009
 6689.00    0.39385   0.39626    0.009
 6690.00    0.40689   0.39835    0.009
 6691.00    0.45939   0.39995    0.009
 6692.00    0.54064   0.40029    0.009
 6693.00    0.52201   0.39999    0.009
 6694.00    0.43947   0.39973    0.009
 6695.00    0.44729   0.39896    0.009
 6696.00    0.50568   0.39721    0.000
 6697.00    0.52108   0.39629    0.000
 6698.00    0.51555   0.39794    0.000
 6699.00    0.48859   0.40122    0.000
 6700.00    0.45261   0.40497    0.000
 6701.00    0.49043   0.40826    0.000
 6702.00    0.55483   0.40978    0.000
 6703.00    0.54706   0.40923    0.000
 6704.00    0.51732   0.40739    0.000
 6705.00    0.53550   0.40600    0.000
 6706.00    0.56582   0.40609    0.000
 6707.00    0.54756   0.40679    0.000
 6708.00    0.51931   0.40745    0.000
 6709.00    0.47656   0.40801    0.000
 6710.00    0.43146   0.40759    0.000
 6711.00    0.48146   0.40639    0.000
 6712.00    0.54297   0.40578    0.000
 6713.00    0.48490   0.40392    0.000
 6714.00    0.41692   0.39728    0.000
 6715.00    0.49829   0.38713    0.000
 6716.00    0.58673   0.37828    0.000
 6717.00    0.53517   0.37254    0.000
 6718.00    0.48055   0.36926    0.000
 6719.00    0.36479   0.36955    0.000
 6720.00    0.25963   0.37263    0.000
 6721.00    0.36087   0.37508    0.000
 6722.00    0.45173   0.37583    0.000
 6723.00    0.42352   0.37680    0.000
 6724.00    0.40288   0.37909    0.000
 6725.00    0.44255   0.38075    0.000
 6726.00    0.48540   0.38125    0.000
 6727.00    0.54730   0.38223    0.000
 6728.00    0.59664   0.38424    0.000
 6729.00    0.58649   0.38619    0.000
 6730.00    0.56904   0.38727    0.000
 6731.00    0.52341   0.38804    0.000
 6732.00    0.47822   0.38887    0.000
 6733.00    0.43448   0.38937    0.000
 6734.00    0.41922   0.38934    0.000
 6735.00    0.48161   0.38933    0.000
 6736.00    0.51551   0.39000    0.000
 6737.00    0.48283   0.39093    0.000
 6738.00    0.42136   0.39059    0.000
 6739.00    0.30170   0.38860    0.000
 6740.00    0.24943   0.38730    0.000
 6741.00    0.31568   0.38889    0.000
 6742.00    0.40548   0.39041    0.000
 6743.00    0.53153   0.38874    0.000
 6744.00    0.53133   0.38781    0.000
 6745.00    0.36040   0.39014    0.000
 6746.00    0.23831   0.39110    0.000
 6747.00    0.17435   0.38708    0.000
 6748.00    0.19551   0.38051    0.000
 6749.00    0.30602   0.37616    0.000
 6750.00    0.44641   0.37630    0.000
 6751.00    0.61447   0.37872    0.000
 6752.00    0.56635   0.37872    0.000
 6753.00    0.34179   0.37544    0.010
 6754.00    0.18880   0.37459    0.010
 6755.00    0.08722   0.37904    0.010
 6756.00    0.13517   0.38501    0.010
 6757.00    0.27738   0.38980    0.011
 6758.00    0.59322   0.39306    0.011
 6759.00    1.00475   0.39445    0.011
 6760.00    0.84507   0.39493    0.011
 6761.00    0.41165   0.39535    0.011
 6762.00    0.36133   0.39512    0.011
 6763.00    0.46948   0.39499    0.011
 6764.00    0.53197   0.39630    0.011
 6765.00    0.57832   0.39747    0.011
 6766.00    0.57863   0.39600    0.011
 6767.00    0.56520   0.39334    0.011
 6768.00    0.54385   0.39369    0.010
 6769.00    0.52054   0.39693    0.010
 6770.00    0.45571   0.39867    0.010
 6771.00    0.38254   0.39814    0.010
 6772.00    0.35583   0.39890    0.010
 6773.00    0.33642   0.40227    0.010
 6774.00    0.41589   0.40574    0.010
 6775.00    0.50689   0.40808    0.010
 6776.00    0.56686   0.41014    0.010
 6777.00    0.62437   0.41155    0.010
 6778.00    0.44445   0.41130    0.010
 6779.00    0.25420   0.40979    0.010
 6780.00    0.36652   0.40758    0.010
 6781.00    0.48395   0.40247    0.010
 6782.00    0.69145   0.39253    0.011
 6783.00    0.87475   0.38093    0.011
 6784.00    0.62006   0.37271    0.010
 6785.00    0.38974   0.36956    0.010
 6786.00    0.42613   0.37097    0.010
 6787.00    0.45316   0.37580    0.010
 6788.00    0.40823   0.38101    0.010
 6789.00    0.37302   0.38364    0.010
 6790.00    0.39450   0.38310    0.010
 6791.00    0.43097   0.38204    0.010
 6792.00    0.53680   0.38296    0.010
 6793.00    0.59675   0.38405    0.010
 6794.00    0.48321   0.38387    0.010
 6795.00    0.41123   0.38473    0.010
 6796.00    0.47052   0.38769    0.010
 6797.00    0.48774   0.39095    0.010
 6798.00    0.39231   0.39284    0.010
 6799.00    0.35411   0.39330    0.010
 6800.00    0.44741   0.39453    0.010
 6801.00    0.49859   0.39722    0.010
 6802.00    0.46599   0.39943    0.010
 6803.00    0.41461   0.40054    0.010
 6804.00    0.33066   0.40023    0.010
 6805.00    0.31392   0.39931    0.010
 6806.00    0.39911   0.39890    0.010
 6807.00    0.46260   0.39848    0.010
 6808.00    0.49718   0.39902    0.010
 6809.00    0.49838   0.40090    0.010
 6810.00    0.46039   0.40216    0.010
 6811.00    0.45312   0.40260    0.010
 6812.00    0.47767   0.40306    0.010
 6813.00    0.44859   0.40286    0.010
 6814.00    0.37058   0.40087    0.010
 6815.00    0.38123   0.39609    0.010
 6816.00    0.46322   0.39175    0.010
 6817.00    0.51891   0.39310    0.010
 6818.00    0.55598   0.39801    0.010
 6819.00    0.55248   0.40058    0.010
 6820.00    0.52377   0.39984    0.009
 6821.00    0.47846   0.39902    0.010
 6822.00    0.42415   0.40062    0.010
 6823.00    0.46334   0.40328    0.010
 6824.00    0.54663   0.40473    0.010
 6825.00    0.56227   0.40554    0.010
 6826.00    0.55041   0.40680    0.010
 6827.00    0.51490   0.40674    0.010
 6828.00    0.47118   0.40388    0.010
 6829.00    0.41172   0.40115    0.010
 6830.00    0.34766   0.40145    0.010
 6831.00    0.32617   0.40358    0.010
 6832.00    0.31499   0.40412    0.010
 6833.00    0.43838   0.40275    0.010
 6834.00    0.58811   0.40435    0.010
 6835.00    0.65135   0.40996    0.010
 6836.00    0.70141   0.41457    0.010
 6837.00    0.47782   0.41593    0.010
 6838.00    0.22351   0.41525    0.010
 6839.00    0.31524   0.41312    0.010
 6840.00    0.43283   0.40975    0.010
 6841.00    0.49050   0.40604    0.010
 6842.00    0.54579   0.40392    0.010
 6843.00    0.65011   0.40597    0.010
 6844.00    0.74858   0.41177    0.010
 6845.00    0.60107   0.41673    0.010
 6846.00    0.45826   0.41745    0.010
 6847.00    0.39463   0.41547    0.010
 6848.00    0.33420   0.41412    0.010
 6849.00    0.30731   0.41218    0.010
 6850.00    0.29513   0.40698    0.010
 6851.00    0.39222   0.40169    0.010
 6852.00    0.47248   0.39961    0.010
 6853.00    0.45731   0.39931    0.010
 6854.00    0.45269   0.39908    0.010
 6855.00    0.49566   0.39800    0.010
 6856.00    0.54478   0.39693    0.010
 6857.00    0.61665   0.39793    0.010
 6858.00    0.65283   0.40045    0.010
 6859.00    0.57846   0.40215    0.011
 6860.00    0.26459   0.40119    0.010
 6861.00   -0.67936   0.39732    0.000
 6862.00   -1.05534   0.39427    0.000
 6863.00   -0.14783   0.39765    0.000
 6864.00    0.46209   0.40624   -1.000
 6865.00    0.48953   0.41220   -1.000
 6866.00    0.48050   0.41201   -1.000
 6867.00    0.40925   0.40810   -1.000
 6868.00    0.37528   0.40290   -1.000
 6869.00    0.39703   0.39974   -1.000
 6870.00    0.38901   0.40101   -1.000
 6871.00    0.34189   0.40283   -1.000
 6872.00    0.34891   0.40202   -1.000
 6873.00    0.41857   0.40210   -1.000
 6874.00    0.45379   0.40516   -1.000
 6875.00    0.45386   0.40878   -1.000
 6876.00    0.46249   0.41195   -1.000
 6877.00    0.47881   0.41520   -1.000
 6878.00    0.49154   0.41852   -1.000
 6879.00    0.50141   0.42122   -1.000
 6880.00    0.40938   0.42193   -1.000
 6881.00    0.24625   0.41988   -1.000
 6882.00    0.26960   0.41558   -1.000
 6883.00    0.40706   0.41028   -1.000
 6884.00    0.40720   0.40661   -1.000
 6885.00    0.33395   0.40780   -1.000
 6886.00    0.40319   0.41181   -1.000
 6887.00    0.53853   0.41513   -1.000
 6888.00    0.54397   0.41795   -1.000
 6889.00    0.49748   0.42020   -1.000
 6890.00    0.48327   0.42231   -1.000
 6891.00    0.48005   0.42435   -1.000
 6892.00    0.50663   0.42469   -1.000
 6893.00    0.54174   0.42429   -1.000
 6894.00    0.48657   0.42524   -1.000
 6895.00    0.41001   0.42670   -1.000
 6896.00    0.42663   0.42670 5331.162
 6897.00    0.46101   0.42588   -1.000
 6898.00    0.45339   0.42679   -1.000
 6899.00    0.43956   0.42792   -1.000
 6900.00    0.37675   0.42514   -1.000
 6901.00    0.30865   0.42137   -1.000
 6902.00    0.48387   0.42340   -1.000
 6903.00    0.67629   0.42919   -1.000
 6904.00    0.54789   0.43122   -1.000
 6905.00    0.40797   0.42981   -1.000
 6906.00    0.39145   0.43132   -1.000
 6907.00    0.37522   0.43610   -1.000
 6908.00    0.35483   0.43910   -1.000
 6909.00    0.34015   0.43971   -1.000
 6910.00    0.41574   0.44005   -1.000
 6911.00    0.48061   0.43911   -1.000
 6912.00    0.43812   0.43624   -1.000
 6913.00    0.39787   0.43340   -1.000
 6914.00    0.37371   0.43202   -1.000
 6915.00    0.35247   0.43317   -1.000
 6916.00    0.34735   0.43619   -1.000
 6917.00    0.35260   0.43800   -1.000
 6918.00    0.40361   0.43695   -1.000
 6919.00    0.43300   0.43292 5331.162
 6920.00    0.38397   0.42893   -1.000
 6921.00    0.36038   0.42921   -1.000
 6922.00    0.41409   0.43195   -1.000
 6923.00    0.44434   0.43241   -1.000
 6924.00    0.41395   0.42872   -1.000
 6925.00    0.37014   0.42361   -1.000
 6926.00    0.29649   0.42172   -1.000
 6927.00    0.32768   0.42500   -1.000
 6928.00    0.56090   0.43123   -1.000
 6929.00    0.66774   0.43595   -1.000
 6930.00    0.56216   0.43725   -1.000
 6931.00    0.46076   0.43659   -1.000
 6932.00    0.36553   0.43524   -1.000
 6933.00    0.36050   0.43267   -1.000
 6934.00    0.47227   0.43127   -1.000
 6935.00    0.50352   0.43390   -1.000
 6936.00    0.44289   0.43756   -1.000
 6937.00    0.42763   0.43869   -1.000
 6938.00    0.45801   0.43810   -1.000
 6939.00    0.45261   0.43839   -1.000
 6940.00    0.41546   0.44114   -1.000
 6941.00    0.40341   0.44530   -1.000
 6942.00    0.41098   0.44704   -1.000
 6943.00    0.43048   0.44545   -1.000
 6944.00    0.45818   0.44260   -1.000
 6945.00    0.40809   0.43931   -1.000
 6946.00    0.31111   0.43871   -1.000
 6947.00    0.33394   0.44395   -1.000
 6948.00    0.41981   0.45090   -1.000
 6949.00    0.46273   0.45423   -1.000
 6950.00    0.48605   0.45422   -1.000
 6951.00    0.43207   0.45168   -1.000
 6952.00    0.34772   0.44672   -1.000
 6953.00    0.38046   0.44120   -1.000
 6954.00    0.45236   0.43736   -1.000
 6955.00    0.46426   0.43811   -1.000
 6956.00    0.45931   0.44345   -1.000
 6957.00    0.44604   0.44837   -1.000
 6958.00    0.43084   0.45022   -1.000
 6959.00    0.44693   0.45082   -1.000
 6960.00    0.46883   0.45251   -1.000
 6961.00    0.45256   0.45542   -1.000
 6962.00    0.43083   0.45751   -1.000
 6963.00    0.41744   0.45894   -1.000
 6964.00    0.40491   0.46072   -1.000
 6965.00    0.48091   0.46110   -1.000
 6966.00    0.56282   0.45987   -1.000
 6967.00    0.47714   0.45991   -1.000
 6968.00    0.38606   0.46326   -1.000
 6969.00    0.20420   0.46649   -1.000
 6970.00    0.03286   0.46535   -1.000
 6971.00    0.18423   0.46202   -1.000
 6972.00    0.32986   0.46017   -1.000
 6973.00    0.39008   0.46106   -1.000
 6974.00    0.44662   0.46299   -1.000
 6975.00    0.46774   0.46300   -1.000
 6976.00    0.48217   0.46072   -1.000
 6977.00    0.45005   0.45633   -1.000
 6978.00    0.42450   0.44782   -1.000
 6979.00    0.43422   0.43875   -1.000
 6980.00    0.44561   0.43902   -1.000
 6981.00    0.46416   0.44885   -1.000
 6982.00    0.47086   0.45939   -1.000
 6983.00    0.43547   0.46610   -1.000
 6984.00    0.41938   0.46907   -1.000
 6985.00    0.46089   0.47114   -1.000
 6986.00    0.50289   0.47379   -1.000
 6987.00    0.54617   0.47378   -1.000
 6988.00    0.55064   0.46866   -1.000
 6989.00    0.47024   0.45975   -1.000
 6990.00    0.42422   0.45153   -1.000
 6991.00    0.44342   0.44913   -1.000
 6992.00    0.45003   0.45356   -1.000
 6993.00    0.43577   0.45978   -1.000
 6994.00    0.40954   0.46202   -1.000
 6995.00    0.36592   0.46044   -1.000
 6996.00    0.35032   0.45910   -1.000
 6997.00    0.37049   0.45988   -1.000
 6998.00    0.40568   0.46158   -1.000
 6999.00    0.45776   0.46085   -1.000
 7000.00    0.49084   0.45741   -1.000
 7001.00    0.50508   0.45670   -1.000
 7002.00    0.50751   0.46099   -1.000
 7003.00    0.49962   0.46572   -1.000
 7004.00    0.50116   0.46524   -1.000
 7005.00    0.50999   0.46062   -1.000
 7006.00    0.49848   0.45844   -1.000
 7007.00    0.47320   0.46035   -1.000
 7008.00    0.42427   0.46271   -1.000
 7009.00    0.36129   0.46500   -1.000
 7010.00    0.42647   0.46728   -1.000
 7011.00    0.55802   0.46690   -1.000
 7012.00    0.52971   0.46673   -1.000
 7013.00    0.42963   0.47053   -1.000
 7014.00    0.47015   0.47256   -1.000
 7015.00    0.56493   0.46602   -1.000
 7016.00    0.60038   0.45474   -1.000
 7017.00    0.61637   0.45032   -1.000
 7018.00    0.60821   0.45841   -1.000
 7019.00    0.59341   0.47118   -1.000
 7020.00   -0.04578   0.47879    0.000
 7021.00   -0.82612   0.48087    0.000
 7022.00   -0.30231   0.47963    0.000
 7023.00    0.45714   0.47416   -1.000
 7024.00    0.45236   0.46699   -1.000
 7025.00    0.34171   0.46400   -1.000
 7026.00    0.37467   0.46602   -1.000
 7027.00    0.42190   0.46745   -1.000
 7028.00    0.43205   0.46598   -1.000
 7029.00    0.43989   0.46683   -1.000
 7030.00    0.42548   0.47197   -1.000
 7031.00    0.41093   0.47692   -1.000
 7032.00    0.52291   0.47853   -1.000
 7033.00    0.63248   0.47704   -1.000
 7034.00    0.67600   0.47544   -1.000
 7035.00    0.70805   0.47662   -1.000
 7036.00    0.57891   0.47906   -1.000
 7037.00    0.45722   0.47770   -1.000
 7038.00    0.40416   0.46926   -1.000
 7039.00    0.36409   0.46132   -1.000
 7040.00    0.41148   0.46581   -1.000
 7041.00    0.46609   0.47970   -1.000
 7042.00    0.55846   0.49121   -1.000
 7043.00    0.63999   0.49680   -1.000
 7044.00    0.67584   0.49753   -1.000
 7045.00    0.68978   0.49419   -1.000
 7046.00    0.62751   0.49155   -1.000
 7047.00    0.56215   0.49378   -1.000
 7048.00    0.48775   0.49904   -1.000
 7049.00    0.44918   0.50303   -1.000
 7050.00    0.50008   0.50188   -2.000
 7051.00    0.51380   0.49540   -2.000
 7052.00    0.44758   0.48458   -2.000
 7053.00    0.40246   0.46589   -2.000
 7054.00    0.39674   0.43617   -2.000
 7055.00    0.42268   0.40322   -2.000
 7056.00    0.50025   0.38559   -2.000
 7057.00    0.54836   0.39000   -2.000
 7058.00    0.55437   0.40117   -2.000
 7059.00    0.54015   0.40368   -2.000
 7060.00    0.50047   0.39682   -2.000
 7061.00    0.50294   0.38879   -2.000
 7062.00    0.55216   0.38577   -2.000
 7063.00    0.55720   0.38709   -2.000
 7064.00    0.51901   0.38981   -2.000
 7065.00    0.51357   0.39161   -2.000
 7066.00    0.53640   0.39118   -2.000
 7067.00    0.55621   0.39025   -2.000
 7068.00    0.57374   0.39047   -2.000
 7069.00    0.56743   0.39161   -2.000
 7070.00    0.54519   0.39540   -2.000
 7071.00    0.51839   0.40286   -2.000
 7072.00    0.48893   0.41059   -2.000
 7073.00    0.51345   0.41500   -2.000
 7074.00    0.56550   0.41616   -2.000
 7075.00    0.49023   0.41587   -2.000
 7076.00    0.35874   0.41552   -2.000
 7077.00    0.45803   0.41608   -2.000
 7078.00    0.64484   0.41756   -2.000
 7079.00    0.70823   0.41964   -2.000
 7080.00    0.73188   0.42275   -2.000
 7081.00    0.62552   0.42636   -2.000
 7082.00    0.48414   0.42733   -2.000
 7083.00    0.54063   0.42286   -2.000
 7084.00    0.64081   0.41392   -2.000
 7085.00    0.55782   0.40534   -2.000
 7086.00    0.44262   0.40022   -2.000
 7087.00    0.43706   0.39127   -2.000
 7088.00    0.44618   0.37138   -2.000
 7089.00    0.53742   0.35193   -2.000
 7090.00    0.63645   0.34706   -2.000
 7091.00    0.60758   0.35361   -2.000
 7092.00    0.57119   0.36169   -2.000
 7093.00    0.64804   0.36478   -2.000
 7094.00    0.72590   0.36220   -2.000
 7095.00    0.56229   0.35848   -2.000
 7096.00    0.40659   0.35667   -2.000
 7097.00    0.44777   0.35749   -2.000
 7098.00    0.49224   0.36018   -2.000
 7099.00    0.58046   0.36366   -2.000
 7100.00    0.64766   0.36677   -2.000
 7101.00    0.52852   0.36743   -2.000
 7102.00    0.42023   0.36520   -2.000
 7103.00    0.38282   0.36220   -2.000
 7104.00    0.35990   0.36186   -2.000
 7105.00    0.41081   0.36649   -2.000
 7106.00    0.46969   0.37337   -2.000
 7107.00    0.56140   0.37844   -2.000
 7108.00    0.62849   0.38164   -2.000
 7109.00    0.61167   0.38360   -2.000
 7110.00    0.59619   0.38245   -2.000
 7111.00    0.58460   0.37781   -2.000
 7112.00    0.58898   0.37436   -2.000
 7113.00    0.63259   0.37630   -2.000
 7114.00    0.64484   0.38089   -2.000
 7115.00    0.59073   0.38368   -2.000
 7116.00    0.54053   0.38578   -2.000
 7117.00    0.49753   0.38971   -2.000
 7118.00    0.48572   0.39335   -2.000
 7119.00    0.52404   0.39482   -2.000
 7120.00    0.54468   0.39592   -2.000
 7121.00    0.54039   0.39752   -2.000
 7122.00    0.62015   0.39826   -2.000
 7123.00    0.80413   0.39745   -2.000
 7124.00    0.86527   0.39283   -2.000
 7125.00    0.79208   0.37757   -2.000
 7126.00    0.76084   0.35214   -2.000
 7127.00    0.77007   0.33216   -2.000
 7128.00    0.75186   0.32864   -2.000
 7129.00    0.71032   0.33387   -2.000
 7130.00    0.57282   0.33660   -2.000
 7131.00    0.36346   0.33481   -2.000
 7132.00    0.46438   0.33207   -2.000
 7133.00    0.76944   0.33187   -2.000
 7134.00    0.69628   0.33449   -2.000
 7135.00    0.40526   0.33782   -2.000
 7136.00    0.38836   0.34007   -2.000
 7137.00    0.50900   0.34121   -2.000
 7138.00    0.55196   0.34123   -2.000
 7139.00    0.56119   0.34037   -2.000
 7140.00    0.53512   0.34125   -2.000
 7141.00    0.49590   0.34500   -2.000
 7142.00    0.45622   0.34925   -2.000
 7143.00    0.41640   0.35234   -2.000
 7144.00    0.38006   0.35441   -2.000
 7145.00    0.34463   0.35577   -2.000
 7146.00    0.52467   0.35667   -2.000
 7147.00    0.75114   0.35710   -2.000
 7148.00    0.67161   0.35627   -2.000
 7149.00    0.53978   0.35482   -2.000
 7150.00    0.59771   0.35483   -2.000
 7151.00    0.68021   0.35670   -2.000
 7152.00    0.55501   0.36009   -2.000
 7153.00    0.41096   0.36521   -2.000
 7154.00    0.44685   0.37048   -2.000
 7155.00    0.49260   0.37362   -2.000
 7156.00    0.50453   0.37561   -2.000
 7157.00    0.51530   0.37807   -2.000
 7158.00    0.48384   0.37731   -2.000
 7159.00    0.45977   0.36995   -2.000
 7160.00    0.60338   0.36143   -2.000
 7161.00    0.74708   0.35942   -2.000
 7162.00    0.89181   0.36391   -2.000
 7163.00    0.99502   0.36874   -2.000
 7164.00    0.74400   0.36897   -2.000
 7165.00    0.50410   0.36601   -2.000
 7166.00    0.33466   0.36516   -2.000
 7167.00    0.23942   0.36842   -2.000
 7168.00    0.51254   0.37196   -2.000
 7169.00    0.75826   0.37177   -2.000
 7170.00    0.89367   0.37058   -2.000
 7171.00    0.93547   0.37303   -2.000
 7172.00    0.66452   0.37725   -2.000
 7173.00    0.46847   0.37931   -2.000
 7174.00    0.48371   0.37902   -2.000
 7175.00    0.51844   0.37836   -2.000
 7176.00    0.60020   0.37872   -2.000
 7177.00    0.66311   0.37992   -2.000
 7178.00    0.68675   0.38157   -2.000
 7179.00    0.69416   0.38274   -2.000
 7180.00    0.67220   0.38200   -2.000
 7181.00    0.62632   0.38039   -2.000
 7182.00    0.54259   0.38072   -2.000
 7183.00    0.52211   0.38474   -2.000
 7184.00    0.58951   0.39147   -2.000
 7185.00    0.56696   0.39674   -2.000
 7186.00    0.43443   0.39579   -2.000
 7187.00    0.45890   0.38842   -2.000
 7188.00    0.65262   0.37918   -2.000
 7189.00    0.75307   0.37410   -2.000
 7190.00    0.76483   0.37716   -2.000
 7191.00    0.70653   0.38563   -2.000
 7192.00    0.58949   0.39180   -2.000
 7193.00    0.57557   0.39244   -2.000
 7194.00    0.63777   0.39228   -2.000
 7195.00    0.58261   0.39405   -2.000
 7196.00    0.45136   0.39371   -2.000
 7197.00    0.37684   0.38745   -2.000
 7198.00    0.33449   0.37814   -2.000
 7199.00    0.47416   0.37427   -2.000
 7200.00    0.70373   0.37779   -2.000
 7201.00    0.91340   0.38105   -2.000
 7202.00    1.11457   0.37996   -2.000
 7203.00    0.97360   0.37928   -2.000
 7204.00    0.70746   0.38303   -2.000
 7205.00    0.52943   0.38738   -2.000
 7206.00    0.37870   0.38677   -2.000
 7207.00    0.40124   0.38088   -2.000
 7208.00    0.46849   0.37439   -2.000
 7209.00    0.38931   0.37209   -2.000
 7210.00    0.27932   0.37505   -2.000
 7211.00    0.33661   0.38191   -2.000
 7212.00    0.42168   0.38896   -2.000
 7213.00    0.56123   0.39151   -2.000
 7214.00    0.70758   0.39002   -2.000
 7215.00    0.73441   0.38882   -2.000
 7216.00    0.75089   0.38953   -2.000
 7217.00    0.58667   0.39188   -2.000
 7218.00    0.41328   0.39663   -2.000
