###################################################################
## OUTPUT of StarlightChains_v04.for    [Cid@UFSC - 01/Apr/2007] ##
###################################################################

## Some input info
KUG0210-078._60_35.txt                   [arq_obs]
Base.CB07.vall.4m                        [arq_base]
Masks.EmLines.NEW.gm                     [arq_masks]
StCv04.C11.config                        [arq_config]
   66                                    [N_base]
    0                                    [N_YAV_components = # of components with extra extinction!]
    0                                    [i_FitPowerLaw (1/0 = Yes/No)]
-9.99                                    [alpha_PowerLaw]
CCM                                      [red_law_option]
 1.458241                                [q_norm = A(l_norm)/A(V)]

## (Re)Sampling Parameters
 3741.00                                 [l_ini (A)]
 7218.00                                 [l_fin (A)]
    1.00                                 [dl    (A)]     (OBS: dl_cushion =    50.00 A)

## Normalization info
 4020.00                                 [l_norm (A) - for base]
 4010.00                                 [llow_norm (A) - window for f_obs]
 4060.00                                 [lupp_norm (A) - window for f_obs]
1.202214E-17                             [fobs_norm (in input units)]

## S/N
 3691.00                                 [llow_SN (A) - window for S/N]
 7268.00                                 [lupp_SN (A) - window for S/N]
   1.783                                 [S/N in S/N window]
   3.795                                 [S/N in norm. window]
   0.006                                 [S/N_err in S/N window]
   0.014                                 [S/N_err in norm. window]
  1.0000                                 [fscale_chi2]

## etc...
    -2008032                             [idum_orig]
  2402                                   [NOl_eff]
  2378                                   [Nl_eff]
    24    NSIGMA                         [Ntot_cliped & clip_method]
   875630                                [Nglobal_steps]
   7                                     [N_chains]
  41                                     [NEX0s_base = N_base in EX0s-fits]
 0   0   1       24   2.0   2.473E+03    [Clip-Bug, RC-Crash & Burn-In warning-flags, n_censored_weights, wei_nsig_threshold & wei_limit]
    24     24.100     23.417      0.683  [idt_all, wdt_TotTime, wdt_UsrTime & wdt_SysTime (sec)]

## Synthesis Results - Best model ##

 1.12097E-05                             [chi2/Nl_eff]
    30.47881                             [adev (%)]

    97.73016                             [sum-of-x (%)]
 3.06700E-18                             [Flux_tot (units of input spectrum!)]
 1.60337E-14                             [Mini_tot (???)]
 9.10657E-15                             [Mcor_tot (???)]

 197.41                                  [v0_min  (km/s)]
  21.17                                  [vd_min  (km/s)]
-1.0000                                  [AV_min  (mag)]
 0.0000                                  [YAV_min (mag)]

# j     x_j(%)      Mini_j(%)     Mcor_j(%)     age_j(yr)     Z_j      (L/M)_j    YAV?  Mstars   component_j        a/Fe...       SSP_chi2r SSP_adev(%)   SSP_AV   SSP_x(%)
  1      0.0012     2.1831E-05    3.8437E-05    1.000000E+06  0.00400  1.094E-02    0   1.0000   age020_m42            0.0000     1.5608E-05    35.8879   1.4552    79.8194
  2      0.0000     0.0000E+00    0.0000E+00    3.160000E+06  0.00400  4.007E-02    0   0.9999   age045_m42            0.0000     1.3517E-05    33.1691   0.6572    86.5721
  3      0.0000     0.0000E+00    0.0000E+00    5.010000E+06  0.00400  2.539E-02    0   0.9488   age055_m42            0.0000     1.4453E-05    34.4616   1.0163    83.7131
  4      0.0000     0.0000E+00    0.0000E+00    6.610000E+06  0.00400  2.620E-02    0   0.9220   age061_m42            0.0000     1.3528E-05    33.2182   0.5914    86.5031
  5      0.0437     6.4763E-04    1.0105E-03    1.000000E+07  0.00400  1.322E-02    0   0.8862   age070_m42            0.0000     1.4082E-05    35.4453   0.3970    86.3947
  6      0.0000     0.0000E+00    0.0000E+00    1.445000E+07  0.00400  7.883E-03    0   0.8571   age078_m42            0.0000     1.4602E-05    35.9479   0.7326    84.0945
  7      0.0000     0.0000E+00    0.0000E+00    2.512000E+07  0.00400  5.251E-03    0   0.8174   age090_m42            0.0000     1.3982E-05    35.5944   0.2751    86.6457
  8      0.0000     0.0000E+00    0.0000E+00    4.000000E+07  0.00400  3.649E-03    0   0.7851   age104_m42            0.0000     1.3565E-05    34.1400  -0.0001    88.0541
  9      0.0000     0.0000E+00    0.0000E+00    5.500000E+07  0.00400  3.098E-03    0   0.7629   age110_m42            0.0000     1.3057E-05    33.3895   0.1287    88.9465
 10      3.6996     3.2501E-01    4.1241E-01    1.015200E+08  0.00400  2.228E-03    0   0.7207   age116_m42            0.0000     1.2729E-05    32.2985   0.1132    89.8462
 11      2.6412     4.7296E-01    5.5360E-01    2.861200E+08  0.00400  1.093E-03    0   0.6648   age125_m42            0.0000     1.2376E-05    32.1960  -0.4498    92.1649
 12      0.1220     3.6201E-02    4.0570E-02    5.088000E+08  0.00400  6.597E-04    0   0.6365   age130_m42            0.0000     1.1837E-05    30.4013  -0.5255    94.4019
 13      0.0000     0.0000E+00    0.0000E+00    1.434000E+09  0.00400  2.132E-04    0   0.5798   age139_m42            0.0000     1.2088E-05    45.9636  -1.0000    91.4056
 14      0.9422     3.1285E+00    2.9618E+00    4.250000E+09  0.00400  5.895E-05    0   0.5377   age158_m42            0.0000     1.5572E-05    62.8142  -1.0000    81.9989
 15      0.0000     0.0000E+00    0.0000E+00    7.500000E+09  0.00400  3.510E-05    0   0.5212   age171_m42            0.0000     1.7681E-05    69.8335  -1.0000    78.4538
 16      0.0000     0.0000E+00    0.0000E+00    1.300000E+10  0.00400  2.005E-05    0   0.5034   age193_m42            0.0000     1.9983E-05    75.8553  -1.0000    75.1409
 17      1.6772     2.1526E+01    1.8825E+01    1.800000E+10  0.00400  1.525E-05    0   0.4967   age213_m42            0.0000     2.0259E-05    76.7405  -1.0000    74.3613
 18      0.0000     0.0000E+00    0.0000E+00    1.000000E+06  0.00800  1.238E-02    0   1.0000   age020_m52            0.0000     1.5657E-05    35.8673   1.4502    79.9868
 19      0.9648     6.1427E-03    1.0779E-02    3.160000E+06  0.00800  3.074E-02    0   0.9966   age045_m52            0.0000     1.5558E-05    35.6568   1.3689    80.7671
 20      1.8193     1.3347E-02    2.2190E-02    5.010000E+06  0.00800  2.668E-02    0   0.9443   age055_m52            0.0000     1.4875E-05    35.0070   1.1145    82.6776
 21      6.7261     6.1633E-02    9.9585E-02    6.610000E+06  0.00800  2.136E-02    0   0.9177   age061_m52            0.0000     1.4062E-05    35.4249  -0.1084    87.6394
 22      0.0000     0.0000E+00    0.0000E+00    1.000000E+07  0.00800  1.215E-02    0   0.8827   age070_m52            0.0000     1.4657E-05    36.5696   0.6089    85.4994
 23      0.0000     0.0000E+00    0.0000E+00    1.445000E+07  0.00800  8.717E-03    0   0.8552   age078_m52            0.0000     1.4498E-05    35.8646   0.6970    85.2761
 24      0.3747     1.3116E-02    1.8848E-02    2.512000E+07  0.00800  5.592E-03    0   0.8162   age090_m52            0.0000     1.3978E-05    35.7027   0.3416    87.6259
 25      0.0000     0.0000E+00    0.0000E+00    4.000000E+07  0.00800  3.896E-03    0   0.7841   age104_m52            0.0000     1.3426E-05    34.5732   0.2187    89.0108
 26      0.0068     6.1647E-04    7.8431E-04    1.015200E+08  0.00800  2.148E-03    0   0.7226   age116_m52            0.0000     1.2856E-05    32.9418   0.1033    90.0146
 27      0.0000     0.0000E+00    0.0000E+00    2.861200E+08  0.00800  9.925E-04    0   0.6683   age125_m52            0.0000     1.1856E-05    30.4601  -0.4590    95.2002
 28      0.0000     0.0000E+00    0.0000E+00    9.047900E+08  0.00800  3.141E-04    0   0.6138   age135_m52            0.0000     1.1249E-05    38.0535  -1.0000    97.8433
 29      0.0000     0.0000E+00    0.0000E+00    1.434000E+09  0.00800  1.719E-04    0   0.5853   age139_m52            0.0000     1.4332E-05    59.0680  -1.0000    87.6803
 30      0.0000     0.0000E+00    0.0000E+00    2.500000E+09  0.00800  7.872E-05    0   0.5600   age150_m52            0.0000     1.7365E-05    69.0415  -1.0000    81.1869
 31      6.5535     2.9582E+01    2.8261E+01    4.250000E+09  0.00800  4.336E-05    0   0.5426   age158_m52            0.0000     1.7719E-05    69.6555  -1.0000    80.1424
 32      0.0000     0.0000E+00    0.0000E+00    6.250000E+09  0.00800  3.159E-05    0   0.5319   age166_m52            0.0000     2.0493E-05    76.7552  -1.0000    76.4905
 33      0.0000     0.0000E+00    0.0000E+00    1.300000E+10  0.00800  1.361E-05    0   0.5073   age193_m52            0.0000     2.8530E-05    91.9946  -1.0000    66.4786
 34      0.0000     0.0000E+00    0.0000E+00    1.800000E+10  0.00800  9.886E-06    0   0.4990   age213_m52            0.0000     3.1100E-05    94.7458  -1.0000    63.8217
 35      0.3114     3.9469E-03    6.9492E-03    1.000000E+06  0.02000  1.544E-02    0   1.0000   age020_m62            0.0000     1.5772E-05    36.0105   1.4502    80.1134
 36      0.2500     1.3004E-03    2.2571E-03    3.160000E+06  0.02000  3.762E-02    0   0.9858   age045_m62            0.0000     1.5864E-05    35.9275   1.3872    80.8340
 37      0.5445     3.2333E-03    5.3181E-03    5.010000E+06  0.02000  3.296E-02    0   0.9342   age055_m62            0.0000     1.4179E-05    33.7706   0.9536    85.1505
 38      0.0000     0.0000E+00    0.0000E+00    8.710000E+06  0.02000  1.154E-02    0   0.8861   age067_m62            0.0000     1.6607E-05    42.0560   0.2292    84.2145
 39      0.6236     1.5929E-02    2.3760E-02    1.445000E+07  0.02000  7.663E-03    0   0.8472   age078_m62            0.0000     1.4925E-05    37.9912   0.3002    86.4485
 40      0.0000     0.0000E+00    0.0000E+00    2.512000E+07  0.02000  4.532E-03    0   0.8099   age090_m62            0.0000     1.4831E-05    38.0338   0.2981    86.0067
 41      0.0000     0.0000E+00    0.0000E+00    5.500000E+07  0.02000  2.733E-03    0   0.7595   age110_m62            0.0000     1.3634E-05    34.8605   0.2114    88.1496
 42      1.0259     1.4668E-01    1.8039E-01    1.609000E+08  0.02000  1.369E-03    0   0.6985   age120_m62            0.0000     1.2569E-05    32.0549  -0.0375    92.4294
 43      0.0003     6.4334E-05    7.6050E-05    2.861200E+08  0.02000  9.013E-04    0   0.6714   age125_m62            0.0000     1.1894E-05    30.0520  -0.3564    96.5309
 44     54.3452     2.1155E+01    2.4021E+01    5.088000E+08  0.02000  5.028E-04    0   0.6449   age130_m62            0.0000     1.0935E-05    27.3667  -0.8517   101.8625
 45      0.5106     4.1165E-01    4.4784E-01    9.047900E+08  0.02000  2.428E-04    0   0.6179   age135_m62            0.0000     1.1411E-05    40.0964  -1.0000    96.9290
 46      1.6588     2.5707E+00    2.6740E+00    1.434000E+09  0.02000  1.263E-04    0   0.5908   age139_m62            0.0000     1.4060E-05    56.0399  -1.0000    89.2187
 47      2.3671     7.7413E+00    7.7322E+00    2.500000E+09  0.02000  5.985E-05    0   0.5673   age150_m62            0.0000     1.8021E-05    69.4804  -1.0000    81.9711
 48      0.0000     0.0000E+00    0.0000E+00    4.250000E+09  0.02000  3.271E-05    0   0.5468   age158_m62            0.0000     2.2597E-05    79.8830  -1.0000    75.4984
 49      0.0000     0.0000E+00    0.0000E+00    1.000000E+10  0.02000  1.360E-05    0   0.5167   age181_m62            0.0000     2.9304E-05    90.4925  -1.0000    67.7952
 50      0.0000     0.0000E+00    0.0000E+00    1.800000E+10  0.02000  7.124E-06    0   0.5013   age213_m62            0.0000     3.4213E-05    95.8028  -1.0000    62.5447
 51      0.0000     0.0000E+00    0.0000E+00    1.000000E+06  0.05000  2.592E-02    0   0.9998   age020_m72            0.0000     1.6051E-05    36.3593   1.4516    79.9471
 52      0.0000     0.0000E+00    0.0000E+00    3.160000E+06  0.05000  4.845E-02    0   0.9577   age045_m72            0.0000     1.5205E-05    34.9234   1.2424    82.3515
 53      0.0000     0.0000E+00    0.0000E+00    5.010000E+06  0.05000  3.072E-02    0   0.9147   age055_m72            0.0000     1.5377E-05    37.2240   0.8491    83.9451
 54      0.0000     0.0000E+00    0.0000E+00    6.610000E+06  0.05000  1.455E-02    0   0.8877   age061_m72            0.0000     1.7542E-05    43.8260   0.3215    83.5251
 55      0.0048     1.0267E-04    1.5409E-04    1.000000E+07  0.05000  9.074E-03    0   0.8524   age070_m72            0.0000     1.5438E-05    37.2373   1.0259    83.6422
 56      0.0018     8.1057E-05    1.1277E-04    2.512000E+07  0.05000  4.250E-03    0   0.7902   age090_m72            0.0000     1.4429E-05    36.0940   0.7038    85.6403
 57      0.0000     0.0000E+00    0.0000E+00    4.000000E+07  0.05000  3.087E-03    0   0.7618   age104_m72            0.0000     1.4089E-05    36.0583   0.4806    86.9822
 58      0.0000     0.0000E+00    0.0000E+00    1.015200E+08  0.05000  1.700E-03    0   0.7096   age116_m72            0.0000     1.2859E-05    33.0093   0.1366    91.2692
 59      0.0000     0.0000E+00    0.0000E+00    2.861200E+08  0.05000  7.384E-04    0   0.6633   age125_m72            0.0000     1.1320E-05    28.5472  -0.5534    99.4043
 60      0.0000     0.0000E+00    0.0000E+00    5.088000E+08  0.05000  3.819E-04    0   0.6372   age130_m72            0.0000     1.0678E-05    29.8840  -1.0000   101.9576
 61     10.1042     1.1800E+01    1.2694E+01    9.047900E+08  0.05000  1.676E-04    0   0.6110   age135_m72            0.0000     1.3637E-05    52.9951  -1.0000    91.7796
 62      0.4078     9.0314E-01    9.3405E-01    1.434000E+09  0.05000  8.837E-05    0   0.5874   age139_m72            0.0000     1.8155E-05    69.5617  -1.0000    83.2712
 63      0.0000     0.0000E+00    0.0000E+00    2.500000E+09  0.05000  4.233E-05    0   0.5598   age150_m72            0.0000     2.2849E-05    79.8028  -1.0000    76.2027
 64      0.0000     0.0000E+00    0.0000E+00    6.250000E+09  0.05000  1.435E-05    0   0.5249   age166_m72            0.0000     3.1312E-05    93.1913  -1.0000    65.4108
 65      0.0000     0.0000E+00    0.0000E+00    1.300000E+10  0.05000  6.513E-06    0   0.5036   age193_m72            0.0000     3.8077E-05    99.6249  -1.0000    59.5097
 66      0.0019     8.0030E-02    6.9679E-02    1.800000E+10  0.05000  4.527E-06    0   0.4945   age213_m72            0.0000     4.2305E-05   102.6263  -1.0000    55.6027


## Synthesis Results - Average & Chains ##

# j      x_j: min, <> & last-chain-values for 1 ...  7 chains
  1      0.0012      0.7982      2.4832      2.1093      2.1150      0.0000      4.3334      0.1240      3.0979
  2      0.0000      0.7342      3.1448      0.0000      2.6563      0.1946      0.1345      0.3048      0.0000
  3      0.0000      0.7649      0.8816      0.0000      4.6958      0.0656      1.0144      3.7882      3.9966
  4      0.0000      0.6949      1.4837      0.1742      0.7338      0.2806      0.0000      1.2154      1.3258
  5      0.0437      1.1900      0.1911      2.0962      2.2043      2.2469      2.7542      0.0000      1.2662
  6      0.0000      0.6537      0.0000      0.0000      0.8459      0.8661      2.1592      2.9498      1.9006
  7      0.0000      0.8955      2.1696      0.2685      0.0000      2.7587      2.3456      3.6137      0.0000
  8      0.0000      0.8857      0.5248      2.5877      1.0033      0.5423      1.1027      1.7461      0.7235
  9      0.0000      0.8929      0.4664      3.2289      4.9061      0.2313      3.8569      1.1642      1.4696
 10      3.6996      0.8828      4.3593      1.6573      1.4632      1.2225      0.5830      2.7478      0.5326
 11      2.6412      0.6971      0.8440      0.6957      0.9590      0.0000      1.8478      0.9922      3.8433
 12      0.1220      0.7266      0.7973      1.0112      0.7250      0.4176      1.3454      1.9042      0.0000
 13      0.0000      0.7718      0.0000      0.0000      1.9601      0.0000      2.5057      0.5415      1.6151
 14      0.9422      0.5018      2.1927      1.4790      0.0000      0.7762      0.5148      0.7299      0.0000
 15      0.0000      0.8319      4.0604      0.4030      0.7064      0.5074      0.9048      0.0000      3.1320
 16      0.0000      0.9238      2.2863      1.4666      0.0000      0.3291      1.9117      0.4463      2.1028
 17      1.6772      0.7703      0.0000      1.4573      0.0000      1.7049      0.0000      0.5235      0.1477
 18      0.0000      0.7014      0.0000      1.8161      0.5493      0.0000      1.1475      0.0000      0.5528
 19      0.9648      1.0995      4.6401      1.6873      3.0605      1.7330      1.3972      0.4725      1.2879
 20      1.8193      0.6741      2.1273      1.6631      1.4787      1.1973      1.1232      2.6494      0.0000
 21      6.7261      0.9063      0.0000      1.7779      2.1293      0.2124      2.5644      3.6383      2.4983
 22      0.0000      0.6723      0.0000      0.3628      0.3357      1.7413      0.0000      0.7917      2.6002
 23      0.0000      0.6170      2.5837      1.0417      0.0000      1.5965      0.0000      0.0000      1.0220
 24      0.3747      0.7695      0.2432      2.7830      0.5395      0.0000      2.9390      1.8661      1.5664
 25      0.0000      0.6459      0.0000      0.0000      1.4604      0.0000      0.5568      0.0000      0.5572
 26      0.0068      0.6867      4.2579      2.2161      0.0000      3.0836      0.6306      0.2049      0.0000
 27      0.0000      0.7234      0.2212      1.3258      1.3465      0.8830      0.0000      0.0000      0.3795
 28      0.0000      0.6255      2.0704      0.0000      2.1577      3.8093      0.5489      0.0000      0.0538
 29      0.0000     32.2223     17.5295     14.4969     11.1445     22.1714     21.2690     17.8201     16.1283
 30      0.0000      0.6063      1.4612      0.0153      1.1616      0.5715      0.0637      0.9666      0.0000
 31      6.5535      0.9474      0.9713      0.9306      2.7831      1.7167      2.2741      0.4172      0.6356
 32      0.0000      0.7451      0.8365      0.0000      0.6344      0.6994      0.5306      2.6751      1.1363
 33      0.0000      0.9027      0.0000      3.2073      0.0000      0.0994      0.0000      0.0000      0.6835
 34      0.0000      1.2288      0.0000      0.0000      1.0181      1.5236      1.0518      1.9647      1.9163
 35      0.3114      0.7781      1.2168      4.1452      0.0000      0.1082      0.0000      0.0000      2.0802
 36      0.2500      1.0947      2.7071      2.6371      1.9962      0.8292      0.0000      2.0340      1.2450
 37      0.5445      0.7063      0.0000      0.6700      0.6069      1.8329      2.3040      3.8966      1.9205
 38      0.0000      0.7726      0.1907      2.1360      2.9774      1.6085      0.7878      0.7558      0.2756
 39      0.6236      0.7724      1.2587      1.5067      0.0000      0.2705      1.7887      5.1137      0.9387
 40      0.0000      0.5438      0.7093      0.0000      1.4418      2.6557      0.6546      0.0000      0.3537
 41      0.0000      0.6702      1.2991      3.1414      0.0000      2.5308      0.7599      0.7988      0.0000
 42      1.0259      0.6843      2.4164      1.3974      0.0000      1.4583      0.0000      1.7474      3.0052
 43      0.0003      0.7489      2.3437      4.6661      0.4118      2.6112      0.0000      0.0000      1.1229
 44     54.3452      0.9565      0.6751      1.0951      0.0000      2.3548      2.5142      1.4033      0.8480
 45      0.5106      0.6874      0.0000      1.9228      2.1108      1.2912      0.0000      1.0837      0.6701
 46      1.6588      0.4876      1.4232      0.8612      0.0000      2.0427      0.1274      0.6073      0.4630
 47      2.3671      0.7900      0.1159      1.4765      4.8461      0.2720      2.4559      0.6313      0.3250
 48      0.0000      0.6380      0.0000      0.0000      1.0432      1.5932      0.4433      0.0000      0.0000
 49      0.0000      0.4124      1.3514      0.1667      0.0000      0.1759      0.6184      0.0927      0.0000
 50      0.0000      3.3539      2.3329      0.0000      1.5705      2.9165      0.0000      0.0000      0.6569
 51      0.0000      0.6757      0.0517      0.0000      1.4413      0.0129      1.5463      3.5338      3.1893
 52      0.0000      0.8695      1.3934      0.5417      0.7135      3.3887      0.5685      0.5700      1.2887
 53      0.0000      0.8201      0.5833      0.0000      0.6191      1.5578      0.5158      5.4670      0.0000
 54      0.0000      0.6882      0.6477      0.0174      1.7198      0.0000      0.4836      0.0000      5.0137
 55      0.0048      0.6838      0.0000      1.7458      0.4685      2.4613      1.0801      0.0000      0.9534
 56      0.0018      0.9185      2.2957      2.6346      5.1065      2.4916      0.2931      3.2375      1.6207
 57      0.0000      0.7242      0.8882      0.0000      0.3354      0.6819      0.0000      1.9344      1.7370
 58      0.0000      0.6943      0.8509      1.9733      2.5592      1.0751      1.6433      0.2698      0.0000
 59      0.0000      0.5915      0.0000      0.0000      0.0000      0.0000      3.1283      0.0000      2.2154
 60      0.0000      0.6482      2.5183      0.0000      0.1843      0.0000      1.4025      3.2578      0.5880
 61     10.1042      0.7945      0.6898      0.7946      1.0703      0.0442      0.9020      0.9100      0.0000
 62      0.4078      0.7817      0.2506      2.0796      1.3443      1.2167      1.0286      0.1820      1.2366
 63      0.0000      0.5599      0.6745      0.1961      0.0000      0.0000      0.0000      0.0000      1.4304
 64      0.0000      0.5630      0.1424      0.0259      0.6376      0.6813      0.1444      0.7452      0.0000
 65      0.0000     14.0354     10.3190      9.6363     12.0576      4.2613     10.8749      6.9602      6.1890
 66      0.0019      8.6441      3.2609      2.3599      5.0046      9.1646      5.6438      4.4236      9.0050

# j      m_j: min, <> & last-chain-values for 1 ...  7 chains
  1  3.8437E-05  2.7525E-03  1.3762E-02  1.4265E-02  1.0358E-02  0.0000E+00  2.2241E-02  8.4721E-04  1.5156E-02
  2  0.0000E+00  6.9121E-04  4.7577E-03  0.0000E+00  3.5512E-03  2.5439E-04  1.8852E-04  5.6852E-04  0.0000E+00
  3  0.0000E+00  1.0784E-03  1.9974E-03  0.0000E+00  9.4012E-03  1.2831E-04  2.1284E-03  1.0580E-02  7.9937E-03
  4  0.0000E+00  9.2263E-04  3.1656E-03  4.5355E-04  1.3835E-03  5.1721E-04  0.0000E+00  3.1965E-03  2.4972E-03
  5  1.0105E-03  3.0095E-03  7.7663E-04  1.0396E-02  7.9166E-03  7.8890E-03  1.0367E-02  0.0000E+00  4.5430E-03
  6  0.0000E+00  2.6813E-03  0.0000E+00  0.0000E+00  4.9274E-03  4.9324E-03  1.3182E-02  2.3970E-02  1.1061E-02
  7  0.0000E+00  5.2594E-03  2.0476E-02  3.0927E-03  0.0000E+00  2.2493E-02  2.0501E-02  4.2041E-02  0.0000E+00
  8  0.0000E+00  7.1895E-03  6.8460E-03  4.1191E-02  1.1565E-02  6.1114E-03  1.3322E-02  2.8078E-02  8.3315E-03
  9  0.0000E+00  8.2954E-03  6.9641E-03  5.8828E-02  6.4727E-02  2.9832E-03  5.3330E-02  2.1427E-02  1.9371E-02
 10  4.1241E-01  1.0774E-02  8.5493E-02  3.9663E-02  2.5357E-02  2.0713E-02  1.0590E-02  6.6429E-02  9.2219E-03
 11  5.5360E-01  1.5995E-02  3.1123E-02  3.1307E-02  3.1251E-02  0.0000E+00  6.3105E-02  4.5105E-02  1.2512E-01
 12  4.0570E-02  2.6449E-02  4.6639E-02  7.2180E-02  3.7474E-02  2.1103E-02  7.2886E-02  1.3731E-01  0.0000E+00
 13  0.0000E+00  7.9188E-02  0.0000E+00  0.0000E+00  2.8558E-01  0.0000E+00  3.8262E-01  1.1005E-01  2.3510E-01
 14  2.9618E+00  1.7269E-01  1.2126E+00  9.9809E-01  0.0000E+00  3.7084E-01  2.6367E-01  4.9757E-01  0.0000E+00
 15  0.0000E+00  4.6606E-01  3.6554E+00  4.4276E-01  5.6197E-01  3.9464E-01  7.5442E-01  0.0000E+00  2.4893E+00
 16  0.0000E+00  8.7500E-01  3.4802E+00  2.7242E+00  0.0000E+00  4.3273E-01  2.6951E+00  8.3745E-01  2.8258E+00
 17  1.8825E+01  9.4659E-01  0.0000E+00  3.5118E+00  0.0000E+00  2.9085E+00  0.0000E+00  1.2744E+00  2.5740E-01
 18  0.0000E+00  2.1376E-03  0.0000E+00  1.0853E-02  2.3770E-03  0.0000E+00  5.2045E-03  0.0000E+00  2.3902E-03
 19  1.0779E-02  1.3448E-03  9.1204E-03  4.0471E-03  5.3158E-03  2.9428E-03  2.5435E-03  1.1448E-03  2.2348E-03
 20  2.2190E-02  9.0015E-04  4.5648E-03  4.3550E-03  2.8040E-03  2.2195E-03  2.2321E-03  7.0081E-03  0.0000E+00
 21  9.9585E-02  1.4690E-03  0.0000E+00  5.6512E-03  4.9011E-03  4.7806E-04  6.1862E-03  1.1683E-02  5.7450E-03
 22  0.0000E+00  1.8426E-03  0.0000E+00  1.9500E-03  1.3068E-03  6.6259E-03  0.0000E+00  4.2986E-03  1.0111E-02
 23  0.0000E+00  2.2836E-03  1.5368E-02  7.5610E-03  0.0000E+00  8.2038E-03  0.0000E+00  0.0000E+00  5.3668E-03
 24  1.8848E-02  4.2373E-03  2.1525E-03  3.0053E-02  4.2190E-03  0.0000E+00  2.4086E-02  2.0356E-02  1.2237E-02
 25  0.0000E+00  4.9044E-03  0.0000E+00  0.0000E+00  1.5746E-02  0.0000E+00  6.2916E-03  0.0000E+00  6.0026E-03
 26  7.8431E-04  8.7157E-03  8.6842E-02  5.5155E-02  0.0000E+00  5.4334E-02  1.1912E-02  5.1517E-03  0.0000E+00
 27  0.0000E+00  1.8378E-02  9.0310E-03  6.6048E-02  4.8576E-02  3.1143E-02  0.0000E+00  0.0000E+00  1.3676E-02
 28  0.0000E+00  4.6113E-02  2.4529E-01  0.0000E+00  2.2590E-01  3.8989E-01  6.0229E-02  0.0000E+00  5.6231E-03
 29  0.0000E+00  4.1392E+00  3.6186E+00  3.6519E+00  2.0330E+00  3.9540E+00  4.0662E+00  4.5347E+00  2.9393E+00
 30  0.0000E+00  1.6272E-01  6.3019E-01  8.0548E-03  4.4272E-01  2.1293E-01  2.5435E-02  5.1393E-01  0.0000E+00
 31  2.8261E+01  4.4727E-01  7.3695E-01  8.6157E-01  1.8659E+00  1.1252E+00  1.5979E+00  3.9022E-01  4.2574E-01
 32  0.0000E+00  4.7333E-01  8.5388E-01  0.0000E+00  5.7229E-01  6.1679E-01  5.0166E-01  3.3663E+00  1.0240E+00
 33  0.0000E+00  1.2694E+00  0.0000E+00  8.8446E+00  0.0000E+00  1.9404E-01  0.0000E+00  0.0000E+00  1.3637E+00
 34  0.0000E+00  2.3399E+00  0.0000E+00  0.0000E+00  2.7532E+00  4.0281E+00  2.9809E+00  7.4116E+00  5.1772E+00
 35  6.9492E-03  1.9013E-03  4.7778E-03  1.9863E-02  0.0000E+00  3.6692E-04  0.0000E+00  0.0000E+00  7.2111E-03
 36  2.2571E-03  1.0822E-03  4.3008E-03  5.1125E-03  2.8024E-03  1.1381E-03  0.0000E+00  3.9834E-03  1.7462E-03
 37  5.3181E-03  7.5526E-04  0.0000E+00  1.4050E-03  9.2159E-04  2.7210E-03  3.6668E-03  8.2541E-03  2.9136E-03
 38  0.0000E+00  2.2381E-03  8.8785E-04  1.2135E-02  1.2248E-02  6.4692E-03  3.3967E-03  4.3371E-03  1.1325E-03
 39  2.3760E-02  3.2217E-03  8.4367E-03  1.2324E-02  0.0000E+00  1.5663E-03  1.1104E-02  4.2253E-02  5.5548E-03
 40  0.0000E+00  3.6661E-03  7.6852E-03  0.0000E+00  1.3804E-02  2.4858E-02  6.5684E-03  0.0000E+00  3.3836E-03
 41  0.0000E+00  7.0270E-03  2.1888E-02  6.4589E-02  0.0000E+00  3.6838E-02  1.1857E-02  1.6591E-02  0.0000E+00
 42  1.8039E-01  1.3171E-02  7.4749E-02  5.2750E-02  0.0000E+00  3.8973E-02  0.0000E+00  6.6634E-02  8.2072E-02
 43  7.6050E-05  2.1048E-02  1.0585E-01  2.5716E-01  1.6435E-02  1.0188E-01  0.0000E+00  0.0000E+00  4.4772E-02
 44  2.4021E+01  4.6287E-02  5.2499E-02  1.0392E-01  0.0000E+00  1.5820E-01  1.8107E-01  1.3452E-01  5.8213E-02
 45  4.4784E-01  6.5994E-02  0.0000E+00  3.6202E-01  2.8780E-01  1.7211E-01  0.0000E+00  2.0612E-01  9.1282E-02
 46  2.6740E+00  8.6045E-02  4.0363E-01  2.9805E-01  0.0000E+00  5.0049E-01  3.3459E-02  2.1231E-01  1.1591E-01
 47  7.7322E+00  2.8252E-01  6.6596E-02  1.0354E+00  2.4609E+00  1.3504E-01  1.3071E+00  4.4722E-01  1.6486E-01
 48  0.0000E+00  4.0239E-01  0.0000E+00  0.0000E+00  9.3429E-01  1.3950E+00  4.1606E-01  0.0000E+00  0.0000E+00
 49  0.0000E+00  5.9117E-01  3.1128E+00  4.6860E-01  0.0000E+00  3.5010E-01  1.3193E+00  2.6316E-01  0.0000E+00
 50  0.0000E+00  8.9037E+00  9.9529E+00  0.0000E+00  5.9209E+00  1.0749E+01  0.0000E+00  0.0000E+00  2.4743E+00
 51  0.0000E+00  9.8332E-04  1.2090E-04  0.0000E+00  2.9786E-03  2.6005E-05  3.3489E-03  1.0187E-02  6.5846E-03
 52  0.0000E+00  6.4844E-04  1.6698E-03  7.9218E-04  7.5563E-04  3.5085E-03  6.3099E-04  8.4204E-04  1.3635E-03
 53  0.0000E+00  9.2123E-04  1.0531E-03  0.0000E+00  9.8759E-04  2.4295E-03  8.6231E-04  1.2166E-02  0.0000E+00
 54  0.0000E+00  1.5840E-03  2.3959E-03  7.8636E-05  5.6215E-03  0.0000E+00  1.6566E-03  0.0000E+00  1.6372E-02
 55  1.5409E-04  2.4232E-03  0.0000E+00  1.2133E-02  2.3577E-03  1.2110E-02  5.6970E-03  0.0000E+00  4.7937E-03
 56  1.1277E-04  6.4426E-03  2.5879E-02  3.6241E-02  5.0867E-02  2.4264E-02  3.0595E-03  4.4987E-02  1.6129E-02
 57  0.0000E+00  6.7421E-03  1.3289E-02  0.0000E+00  4.4338E-03  8.8137E-03  0.0000E+00  3.5676E-02  2.2943E-02
 58  0.0000E+00  1.0934E-02  2.1534E-02  6.0940E-02  5.7231E-02  2.3504E-02  3.8515E-02  8.4167E-03  0.0000E+00
 59  0.0000E+00  2.0046E-02  0.0000E+00  0.0000E+00  0.0000E+00  0.0000E+00  1.5779E-01  0.0000E+00  1.0652E-01
 60  0.0000E+00  4.0804E-02  2.5474E-01  0.0000E+00  1.6471E-02  0.0000E+00  1.3139E-01  4.0624E-01  5.2513E-02
 61  1.2694E+01  1.0927E-01  1.5246E-01  2.1432E-01  2.0904E-01  8.4434E-03  1.8464E-01  2.4793E-01  0.0000E+00
 62  9.3405E-01  1.9604E-01  1.0100E-01  1.0227E+00  4.7872E-01  4.2359E-01  3.8390E-01  9.0410E-02  4.3996E-01
 63  0.0000E+00  2.7934E-01  5.4077E-01  1.9185E-01  0.0000E+00  0.0000E+00  0.0000E+00  0.0000E+00  1.0125E+00
 64  0.0000E+00  7.7689E-01  3.1585E-01  7.0124E-02  1.2495E+00  1.3052E+00  2.9650E-01  2.0373E+00  0.0000E+00
 65  0.0000E+00  4.0943E+01  4.8374E+01  5.5126E+01  4.9949E+01  1.7258E+01  4.7214E+01  4.0222E+01  2.5614E+01
 66  6.9679E-02  3.5623E+01  2.1596E+01  1.9072E+01  2.9288E+01  5.2434E+01  3.4616E+01  3.6113E+01  5.2649E+01

# AV, chi2 & Mass for <> & i_chain = 1 ...  7 solutions
AV      -1.0000     -0.9829     -1.0000     -1.0000     -1.0000     -1.0000     -1.0000     -1.0000     -1.0000
chi2 1.1210E-05  2.3593E-05  1.6736E-05  1.4154E-05  1.7079E-05  1.7179E-05  1.7094E-05  1.5995E-05  1.6808E-05
Mass 9.1066E-15  8.5112E-14  5.1762E-14  4.2418E-14  5.8576E-14  5.9916E-14  5.5891E-14  4.1991E-14  5.8632E-14
 197.41                                  [v0_min (km/s) before EX0s...]
  21.17                                  [vd_min (km/s) before EX0s...]


## Synthetic spectrum (Best Model) ##l_obs f_obs f_syn wei
 3478    [Nl_obs]
 3741.00   -0.06326   0.56748    0.000
 3742.00    0.10670   0.62371    0.000
 3743.00    0.05547   0.65191    0.000
 3744.00    0.14545   0.64845    0.000
 3745.00    0.31771   0.62523    0.031
 3746.00    0.43347   0.60016    0.030
 3747.00    0.52055   0.57255    0.030
 3748.00    0.22007   0.53697    0.029
 3749.00   -0.25084   0.49954    0.000
 3750.00   -0.30389   0.45110    0.000
 3751.00   -0.19919   0.39084    0.000
 3752.00   -0.04778   0.35949    0.000
 3753.00    0.11861   0.38870    0.028
 3754.00    0.21855   0.45701    0.028
 3755.00    0.30070   0.52613    0.028
 3756.00    0.40545   0.58683    0.028
 3757.00    0.51516   0.63943    0.028
 3758.00    0.57916   0.66720    0.028
 3759.00    0.63518   0.65235    0.028
 3760.00    0.55939   0.61288    0.028
 3761.00    0.46610   0.59440    0.028
 3762.00    0.23445   0.60940    0.028
 3763.00   -0.01019   0.63259    0.000
 3764.00   -0.03938   0.64756    0.000
 3765.00   -0.05614   0.65043    0.000
 3766.00    0.23011   0.64269    0.027
 3767.00    0.52328   0.63182    0.027
 3768.00    0.78466   0.60781    0.028
 3769.00    1.02764   0.56461    0.028
 3770.00    0.82357   0.52299    0.028
 3771.00    0.60955   0.48647    0.027
 3772.00    0.26526   0.44448    0.027
 3773.00   -0.00977   0.42386    0.000
 3774.00    0.32333   0.45594    0.027
 3775.00    0.62889   0.51722    0.027
 3776.00    0.75593   0.56595    0.027
 3777.00    0.83799   0.59683    0.027
 3778.00    0.69241   0.62769    0.027
 3779.00    0.55953   0.66488    0.028
 3780.00    0.47864   0.69965    0.028
 3781.00    0.36939   0.73101    0.027
 3782.00    0.16396   0.76365    0.027
 3783.00   -0.07934   0.78730    0.000
 3784.00   -0.43096   0.79405    0.000
 3785.00   -0.64172   0.79663    0.000
 3786.00   -0.50833   0.80571    0.000
 3787.00   -0.26643   0.80218    0.000
 3788.00    0.20413   0.76680    0.027
 3789.00    0.53465   0.72361    0.027
 3790.00    0.60863   0.69849    0.027
 3791.00    0.48592   0.68358    0.027
 3792.00    0.04837   0.67173    0.027
 3793.00   -0.28310   0.66553    0.000
 3794.00   -0.46556   0.65491    0.000
 3795.00   -0.45299   0.62425    0.000
 3796.00   -0.19936   0.57485    0.000
 3797.00    0.03430   0.52237    0.026
 3798.00    0.24619   0.47360    0.026
 3799.00    0.20488   0.42135    0.027
 3800.00   -0.07975   0.37817    0.000
 3801.00   -0.24632   0.38049    0.000
 3802.00   -0.31284   0.43634    0.000
 3803.00   -0.23858   0.51122    0.000
 3804.00   -0.05927   0.57706    0.000
 3805.00   -0.01986   0.63336    0.000
 3806.00   -0.07216   0.67731    0.000
 3807.00   -0.12518   0.69943    0.000
 3808.00   -0.17861   0.70198    0.000
 3809.00   -0.05872   0.70238    0.000
 3810.00    0.14779   0.72330    0.027
 3811.00    0.22003   0.76536    0.027
 3812.00    0.23421   0.80621    0.027
 3813.00    0.21546   0.82758    0.027
 3814.00    0.18450   0.82034    0.027
 3815.00    0.16527   0.78675    0.027
 3816.00    0.14973   0.75019    0.027
 3817.00    0.15127   0.73283    0.026
 3818.00    0.15728   0.73874    0.026
 3819.00    0.23336   0.76508    0.026
 3820.00    0.32446   0.78999    0.026
 3821.00    0.32682   0.77931    0.026
 3822.00    0.31413   0.73781    0.026
 3823.00    0.16168   0.71472    0.026
 3824.00   -0.00871   0.73359    0.000
 3825.00    0.18059   0.75248    0.026
 3826.00    0.40219   0.72812    0.026
 3827.00    0.58973   0.68011    0.027
 3828.00    0.77544   0.64851    0.028
 3829.00    0.53918   0.63446    0.027
 3830.00    0.29674   0.62035    0.026
 3831.00    0.24646   0.60223    0.026
 3832.00    0.20291   0.58412    0.026
 3833.00    0.30869   0.55786    0.026
 3834.00    0.39954   0.50912    0.026
 3835.00    0.30486   0.44695    0.026
 3836.00    0.24556   0.39214    0.026
 3837.00    0.48530   0.35564    0.026
 3838.00    0.70006   0.35120    0.027
 3839.00    0.75758   0.38003    0.027
 3840.00    0.76279   0.41959    0.027
 3841.00    0.50985   0.45730    0.027
 3842.00    0.33905   0.49547    0.027
 3843.00    0.49709   0.53918    0.027
 3844.00    0.61893   0.59433    0.027
 3845.00    0.62039   0.64991    0.028
 3846.00    0.59578   0.68882    0.028
 3847.00    0.49798   0.70989    0.000
 3848.00    0.45500   0.72336    0.000
 3849.00    0.54371   0.74395    0.000
 3850.00    0.61559   0.76918    0.000
 3851.00    0.65258   0.77652    0.000
 3852.00    0.59462   0.76848    0.000
 3853.00    0.36539   0.77831    0.000
 3854.00    0.26741   0.80897    0.000
 3855.00    0.37644   0.83011    0.000
 3856.00    0.45585   0.83161    0.000
 3857.00    0.49426   0.82049    0.000
 3858.00    0.49254   0.80552    0.000
 3859.00    0.44193   0.80475    0.000
 3860.00    0.36117   0.81180    0.000
 3861.00    0.24803   0.80056    0.000
 3862.00    0.24068   0.78868    0.000
 3863.00    0.33356   0.80798    0.000
 3864.00    0.42076   0.84292    0.000
 3865.00    0.50321   0.86271    0.000
 3866.00    0.56195   0.86562    0.000
 3867.00    0.60326   0.85970    0.000
 3868.00    0.49689   0.84915    0.000
 3869.00    0.29512   0.84446    0.000
 3870.00    0.23318   0.85016    0.000
 3871.00    0.25026   0.85628    0.000
 3872.00    0.23244   0.84964    0.000
 3873.00    0.19745   0.82344    0.000
 3874.00    0.15124   0.78331    0.000
 3875.00    0.10026   0.75519    0.000
 3876.00    0.36335   0.76305    0.000
 3877.00    0.74085   0.79120    0.000
 3878.00    0.69473   0.80249    0.000
 3879.00    0.51802   0.77706    0.000
 3880.00    0.24253   0.72519    0.000
 3881.00   -0.05832   0.68912    0.000
 3882.00   -0.03409   0.69360    0.000
 3883.00    0.05811   0.69979    0.024
 3884.00    0.42072   0.67449    0.025
 3885.00    0.82791   0.64170    0.027
 3886.00    0.74275   0.62106    0.027
 3887.00    0.59662   0.58849    0.026
 3888.00    0.51224   0.52818    0.026
 3889.00    0.43314   0.46402    0.026
 3890.00    0.34585   0.41313    0.026
 3891.00    0.25816   0.37836    0.026
 3892.00    0.53354   0.38276    0.026
 3893.00    0.80575   0.43649    0.027
 3894.00    0.48829   0.50732    0.026
 3895.00    0.18988   0.56294    0.026
 3896.00    0.28105   0.59706    0.026
 3897.00    0.36363   0.61876    0.026
 3898.00    0.34467   0.64231    0.025
 3899.00    0.36824   0.67511    0.024
 3900.00    0.73828   0.70105    0.024
 3901.00    1.00240   0.70753    0.024
 3902.00    0.61960   0.71387    0.023
 3903.00    0.29895   0.74191    0.022
 3904.00    0.27741   0.77597    0.022
 3905.00    0.26069   0.78591    0.021
 3906.00    0.26287   0.78231    0.021
 3907.00    0.25180   0.77917    0.022
 3908.00    0.19750   0.77232    0.022
 3909.00    0.21233   0.78339    0.022
 3910.00    0.41778   0.82324    0.023
 3911.00    0.57925   0.86405    0.023
 3912.00    0.63683   0.88703    0.024
 3913.00    0.69072   0.89818    0.024
 3914.00    0.73706   0.90223    0.025
 3915.00    0.74633   0.89133    0.025
 3916.00    0.68976   0.87272    0.025
 3917.00    0.63119   0.86875    0.025
 3918.00    0.56950   0.87248    0.025
 3919.00    0.54225   0.86710    0.025
 3920.00    0.56197   0.85828    0.025
 3921.00    0.64484   0.84763    0.025
 3922.00    0.80355   0.83456    0.025
 3923.00    0.98906   0.82825    0.026
 3924.00    1.20294   0.83431    0.026
 3925.00    1.13283   0.84599    0.026
 3926.00    0.79741   0.85526    0.026
 3927.00    0.69854   0.85401    0.026
 3928.00    0.79449   0.83401    0.026
 3929.00    0.99915   0.80427    0.026
 3930.00    1.28261   0.77276    0.027
 3931.00    1.18138   0.73716    0.027
 3932.00    0.83532   0.69717    0.027
 3933.00    0.78549   0.64798    0.027
 3934.00    0.90051   0.57869    0.026
 3935.00    0.94221   0.49247    0.027
 3936.00    0.94842   0.43396    0.028
 3937.00    0.71485   0.45277    0.027
 3938.00    0.38103   0.53606    0.027
 3939.00    0.41396   0.62759    0.027
 3940.00    0.57808   0.69418    0.026
 3941.00    0.51353   0.74157    0.026
 3942.00    0.37987   0.78026    0.026
 3943.00    0.54830   0.80409    0.026
 3944.00    0.79261   0.80887    0.027
 3945.00    0.93855   0.80048    0.027
 3946.00    1.06444   0.78759    0.028
 3947.00    0.83564   0.79120    0.028
 3948.00    0.55004   0.82017    0.027
 3949.00    0.44436   0.84162    0.027
 3950.00    0.36016   0.83171    0.027
 3951.00    0.43329   0.81508    0.027
 3952.00    0.51924   0.81693    0.027
 3953.00    0.79012   0.82613    0.027
 3954.00    1.06951   0.82024    0.027
 3955.00    0.90168   0.80723    0.027
 3956.00    0.73587   0.81159    0.026
 3957.00    0.97352   0.81963    0.027
 3958.00    1.18519   0.79739    0.027
 3959.00    0.90460   0.76042    0.026
 3960.00    0.66832   0.74720    0.000
 3961.00    0.93128   0.75460    0.000
 3962.00    1.15336   0.74751    0.000
 3963.00    1.05404   0.70490    0.000
 3964.00    0.94653   0.64646    0.000
 3965.00    0.79041   0.60446    0.000
 3966.00    0.66426   0.57514    0.000
 3967.00    0.67882   0.53628    0.000
 3968.00    0.66460   0.48000    0.000
 3969.00    0.54014   0.40850    0.000
 3970.00    0.47616   0.33204    0.000
 3971.00    0.60553   0.27245    0.000
 3972.00    0.71910   0.25314    0.000
 3973.00    0.78984   0.28151    0.000
 3974.00    0.85672   0.34246    0.000
 3975.00    0.91462   0.40966    0.000
 3976.00    0.98847   0.46984    0.000
 3977.00    1.09436   0.52664    0.000
 3978.00    1.22595   0.57835    0.000
 3979.00    1.40252   0.61882    0.000
 3980.00    1.45574   0.65605    0.000
 3981.00    1.32011   0.69754    0.027
 3982.00    1.17778   0.73646    0.027
 3983.00    1.02644   0.75922    0.027
 3984.00    0.78148   0.76072    0.027
 3985.00    0.42564   0.75862    0.027
 3986.00    0.42122   0.77119    0.027
 3987.00    0.78375   0.79436    0.027
 3988.00    0.97102   0.81490    0.027
 3989.00    0.99685   0.82801    0.026
 3990.00    0.92248   0.84392    0.026
 3991.00    0.76675   0.86062    0.026
 3992.00    0.84521   0.86400    0.026
 3993.00    1.09099   0.86562    0.026
 3994.00    1.21087   0.88061    0.027
 3995.00    1.25180   0.90011    0.027
 3996.00    0.96625   0.90866    0.027
 3997.00    0.50178   0.90128    0.027
 3998.00    0.35446   0.88527    0.026
 3999.00    0.35822   0.86692    0.026
 4000.00    0.40140   0.85602    0.026
 4001.00    0.46079   0.87106    0.026
 4002.00    0.62259   0.90717    0.026
 4003.00    0.82035   0.93084    0.026
 4004.00    0.76575   0.93289    0.026
 4005.00    0.63638   0.93165    0.026
 4006.00    0.52454   0.92266    0.026
 4007.00    0.41701   0.88753    0.026
 4008.00    0.51982   0.85093    0.026
 4009.00    0.66447   0.85838    0.026
 4010.00    0.67571   0.89825    0.026
 4011.00    0.66622   0.92607    0.025
 4012.00    0.83284   0.93241    0.026
 4013.00    1.01972   0.93322    0.026
 4014.00    1.06376   0.93221    0.026
 4015.00    1.09676   0.92858    0.026
 4016.00    1.30591   0.92974    0.026
 4017.00    1.52248   0.93721    0.026
 4018.00    1.46960   0.94621    0.026
 4019.00    1.41032   0.94578    0.025
 4020.00    1.17840   0.94019    0.025
 4021.00    0.96510   0.95075    0.025
 4022.00    1.08006   0.97019    0.025
 4023.00    1.16944   0.97158    0.026
 4024.00    0.98365   0.95605    0.026
 4025.00    0.82793   0.94125    0.026
 4026.00    0.90051   0.92658    0.025
 4027.00    0.93692   0.90876    0.025
 4028.00    0.76467   0.90927    0.025
 4029.00    0.62136   0.93522    0.025
 4030.00    0.61072   0.95864    0.025
 4031.00    0.57992   0.95721    0.025
 4032.00    0.47354   0.92644    0.024
 4033.00    0.39627   0.88256    0.028
 4034.00    0.41027   0.85788    0.066
 4035.00    0.53945   0.85799   -1.000
 4036.00    0.97504   0.86868   -1.000
 4037.00    1.27791   0.88880   -1.000
 4038.00    1.27772   0.91809   -1.000
 4039.00    1.22962   0.95185   -1.000
 4040.00    1.08681   0.97787   -1.000
 4041.00    0.94701   0.98344   -1.000
 4042.00    0.81242   0.96952   -1.000
 4043.00    0.81060   0.95082   -1.000
 4044.00    1.00906   0.94687   -1.000
 4045.00    1.13759   0.95340    0.119
 4046.00    1.17341   0.93521    0.036
 4047.00    1.19229   0.87929    0.026
 4048.00    1.19140   0.83003    0.026
 4049.00    1.24740   0.84305    0.026
 4050.00    1.36198   0.90238    0.026
 4051.00    1.34551   0.94101    0.027
 4052.00    1.21005   0.94812    0.026
 4053.00    1.04274   0.95028    0.026
 4054.00    0.84995   0.94521    0.026
 4055.00    0.83952   0.92687    0.026
 4056.00    0.95750   0.90589    0.026
 4057.00    0.96908   0.89219    0.026
 4058.00    0.91494   0.89103    0.026
 4059.00    1.00000   0.89234    0.027
 4060.00    1.16018   0.88384    0.027
 4061.00    0.99510   0.88358    0.026
 4062.00    0.67759   0.90566    0.025
 4063.00    0.50252   0.92722    0.025
 4064.00    0.38499   0.91684    0.025
 4065.00    0.65003   0.86991    0.025
 4066.00    1.04698   0.82760    0.025
 4067.00    1.08341   0.83675    0.025
 4068.00    1.01515   0.87204    0.025
 4069.00    0.85741   0.87840    0.025
 4070.00    0.67817   0.87140    0.025
 4071.00    0.80186   0.88940    0.025
 4072.00    0.98424   0.90785    0.025
 4073.00    1.28596   0.88549    0.025
 4074.00    1.60567   0.84500    0.026
 4075.00    1.47536   0.84259    0.025
 4076.00    1.29529   0.87391    0.025
 4077.00    1.03587   0.88417    0.025
 4078.00    0.77065   0.85294    0.025
 4079.00    0.69928   0.80075    0.024
 4080.00    0.63533   0.76591    0.024
 4081.00    0.75498   0.77867    0.024
 4082.00    0.87458   0.82393    0.024
 4083.00    0.95408   0.86451    0.024
 4084.00    1.02805   0.88073    0.024
 4085.00    1.01090   0.86780    0.024
 4086.00    0.99150   0.83937    0.024
 4087.00    0.94899   0.81596    0.024
 4088.00    0.90601   0.80608    0.023
 4089.00    0.85957   0.81265    0.023
 4090.00    0.82574   0.82846    0.024
 4091.00    0.86271   0.83530    0.024
 4092.00    0.89675   0.82557    0.000
 4093.00    0.91768   0.80722    0.000
 4094.00    0.93941   0.78635    0.000
 4095.00    0.96412   0.76626    0.000
 4096.00    0.95352   0.75202    0.000
 4097.00    0.83435   0.73017    0.000
 4098.00    0.72724   0.68849    0.000
 4099.00    0.65169   0.64508    0.000
 4100.00    0.64056   0.61245    0.000
 4101.00    0.77411   0.58023    0.000
 4102.00    0.88642   0.53306    0.000
 4103.00    0.95739   0.46567    0.000
 4104.00    1.01489   0.40811    0.000
 4105.00    1.04954   0.40903    0.000
 4106.00    1.05603   0.46577    0.000
 4107.00    1.02066   0.53356    0.000
 4108.00    1.16325   0.59041    0.000
 4109.00    1.53836   0.63346    0.000
 4110.00    1.50737   0.66071    0.000
 4111.00    1.00893   0.67663    0.000
 4112.00    0.84731   0.68658    0.000
 4113.00    1.02758   0.69739    0.025
 4114.00    1.09141   0.71612    0.025
 4115.00    1.05099   0.74109    0.025
 4116.00    1.00809   0.76680    0.025
 4117.00    0.96324   0.78872    0.025
 4118.00    0.96438   0.80717    0.025
 4119.00    0.99744   0.81919    0.025
 4120.00    1.00381   0.81360    0.037
 4121.00    0.99395   0.79363    0.142
 4122.00    1.00199   0.78706   -1.000
 4123.00    1.01954   0.80135   -1.000
 4124.00    0.92281   0.81160   -1.000
 4125.00    0.77340   0.81181   -1.000
 4126.00    0.83725   0.81935   -1.000
 4127.00    0.98578   0.83832   -1.000
 4128.00    1.04577   0.85095   -1.000
 4129.00    1.07579   0.84332   -1.000
 4130.00    0.98312   0.82343    0.061
 4131.00    0.85553   0.81125    0.027
 4132.00    0.91283   0.81467    0.024
 4133.00    1.01353   0.81536    0.024
 4134.00    1.10949   0.80074    0.024
 4135.00    1.20456   0.78667    0.024
 4136.00    0.94148   0.79432    0.024
 4137.00    0.62609   0.81998    0.024
 4138.00    0.67711   0.85134    0.024
 4139.00    0.76706   0.87226    0.024
 4140.00    0.87085   0.87744    0.024
 4141.00    0.97560   0.88583    0.024
 4142.00    1.10746   0.89840    0.024
 4143.00    1.24025   0.89916    0.024
 4144.00    1.27027   0.87727    0.024
 4145.00    1.29544   0.82915    0.024
 4146.00    1.16757   0.78492    0.024
 4147.00    1.05087   0.78952    0.024
 4148.00    1.10705   0.83235    0.024
 4149.00    1.15773   0.86458    0.024
 4150.00    1.15414   0.87225    0.024
 4151.00    1.12125   0.86458    0.023
 4152.00    0.88031   0.85039    0.023
 4153.00    0.67871   0.84544    0.023
 4154.00    0.69182   0.85144    0.023
 4155.00    0.69946   0.85250    0.023
 4156.00    0.68319   0.84174    0.023
 4157.00    0.66757   0.82699    0.023
 4158.00    0.65429   0.82205    0.022
 4159.00    0.63432   0.82494    0.022
 4160.00    0.59417   0.83404    0.022
 4161.00    0.56373   0.85230    0.022
 4162.00    0.55826   0.86739    0.022
 4163.00    0.62034   0.86887    0.022
 4164.00    0.83161   0.86573    0.023
 4165.00    0.99239   0.87225    0.023
 4166.00    1.05645   0.87919    0.023
 4167.00    1.08474   0.87919    0.023
 4168.00    1.05327   0.87755    0.023
 4169.00    0.97853   0.86698    0.023
 4170.00    0.84043   0.85275    0.023
 4171.00    0.82241   0.85648    0.023
 4172.00    0.95904   0.87014    0.023
 4173.00    1.04670   0.86069    0.023
 4174.00    1.07879   0.82025    0.023
 4175.00    1.03578   0.77643    0.023
 4176.00    0.91761   0.76478    0.023
 4177.00    0.85441   0.78817    0.023
 4178.00    0.83972   0.81508    0.023
 4179.00    0.88727   0.81916    0.023
 4180.00    0.98323   0.80254    0.023
 4181.00    0.91477   0.79260    0.023
 4182.00    0.73386   0.80897    0.023
 4183.00    0.88929   0.83307    0.023
 4184.00    1.24633   0.83619    0.023
 4185.00    1.32531   0.82734    0.023
 4186.00    1.25886   0.83040    0.023
 4187.00    0.99518   0.84434    0.023
 4188.00    0.64204   0.85440    0.023
 4189.00    0.67941   0.84037    0.023
 4190.00    0.86917   0.81310    0.023
 4191.00    0.80622   0.81493    0.023
 4192.00    0.65934   0.84149    0.022
 4193.00    0.59199   0.85317    0.023
 4194.00    0.54681   0.84976    0.023
 4195.00    0.76282   0.86137    0.023
 4196.00    1.03874   0.88235    0.023
 4197.00    1.03899   0.87665    0.023
 4198.00    0.98856   0.84585    0.023
 4199.00    1.02765   0.82036    0.023
 4200.00    1.07940   0.80318    0.023
 4201.00    0.92323   0.78555    0.023
 4202.00    0.74587   0.78767    0.023
 4203.00    0.67364   0.80589    0.023
 4204.00    0.60827   0.80607    0.022
 4205.00    0.59707   0.79849    0.022
 4206.00    0.58791   0.80765    0.023
 4207.00    0.81910   0.82044    0.023
 4208.00    1.03543   0.82946    0.023
 4209.00    0.81530   0.84355    0.023
 4210.00    0.60935   0.85691    0.024
 4211.00    0.60976   0.85935    0.024
 4212.00    0.62220   0.85044    0.024
 4213.00    0.74842   0.84474    0.023
 4214.00    0.86247   0.85443    0.023
 4215.00    0.89281   0.86709    0.023
 4216.00    0.88974   0.86280    0.023
 4217.00    0.70905   0.83338    0.023
 4218.00    0.59282   0.79623    0.022
 4219.00    0.75190   0.79493    0.022
 4220.00    0.84559   0.83355    0.022
 4221.00    0.70888   0.86477    0.022
 4222.00    0.62675   0.87197    0.022
 4223.00    0.70626   0.87433    0.022
 4224.00    0.79747   0.87492    0.022
 4225.00    0.91817   0.85956    0.022
 4226.00    0.96020   0.83196    0.022
 4227.00    0.83130   0.79553    0.022
 4228.00    0.72071   0.74542    0.021
 4229.00    0.64469   0.70025    0.021
 4230.00    0.62769   0.70570    0.021
 4231.00    0.70786   0.77145    0.021
 4232.00    0.77176   0.83894    0.021
 4233.00    0.81219   0.86947    0.021
 4234.00    0.85743   0.86796    0.021
 4235.00    0.90879   0.83670    0.021
 4236.00    0.92346   0.80177    0.021
 4237.00    0.89708   0.79720    0.021
 4238.00    0.85044   0.80301    0.020
 4239.00    0.78382   0.80116    0.020
 4240.00    0.72450   0.80694    0.020
 4241.00    0.67155   0.81206    0.020
 4242.00    0.69328   0.81244    0.020
 4243.00    0.77228   0.82431    0.021
 4244.00    0.93510   0.84130    0.021
 4245.00    1.15443   0.84629    0.021
 4246.00    1.22458   0.85111    0.021
 4247.00    1.20665   0.86377    0.021
 4248.00    1.05323   0.85772    0.021
 4249.00    0.83006   0.82666    0.021
 4250.00    0.78131   0.80181    0.021
 4251.00    0.81040   0.80033    0.021
 4252.00    0.76473   0.79824    0.021
 4253.00    0.69040   0.78441    0.021
 4254.00    0.68526   0.79014    0.021
 4255.00    0.70267   0.81449    0.021
 4256.00    0.72588   0.81773    0.021
 4257.00    0.75068   0.80252    0.021
 4258.00    0.80391   0.80563    0.021
 4259.00    0.86352   0.83042    0.021
 4260.00    0.90756   0.84253    0.021
 4261.00    0.94881   0.82325    0.022
 4262.00    1.04455   0.78970    0.022
 4263.00    1.14774   0.76514    0.021
 4264.00    1.12394   0.77100    0.021
 4265.00    1.08773   0.80859    0.021
 4266.00    0.91858   0.84566    0.021
 4267.00    0.74131   0.86267    0.021
 4268.00    0.89486   0.86820    0.021
 4269.00    1.05598   0.86390    0.021
 4270.00    0.95243   0.84489    0.021
 4271.00    0.84794   0.82405    0.021
 4272.00    0.71860   0.80555    0.021
 4273.00    0.59626   0.77265    0.021
 4274.00    0.57026   0.73137    0.021
 4275.00    0.56335   0.72116    0.021
 4276.00    0.72992   0.74239    0.021
 4277.00    0.89023   0.75459    0.022
 4278.00    1.00893   0.76460    0.022
 4279.00    1.07521   0.79495    0.022
 4280.00    0.87012   0.82640    0.022
 4281.00    0.72977   0.83731    0.021
 4282.00    0.85968   0.82734   -2.000
 4283.00    0.95933   0.80886   -2.000
 4284.00    0.95453   0.79733   -2.000
 4285.00    0.92354   0.79156   -2.000
 4286.00    0.81641   0.79062   -2.000
 4287.00    0.79525   0.79300   -2.000
 4288.00    0.98732   0.78878   -2.000
 4289.00    1.22578   0.78407   -2.000
 4290.00    1.56343   0.77872   -2.000
 4291.00    1.59084   0.75587   -2.000
 4292.00    1.04226   0.71615   -2.000
 4293.00    0.75589   0.69888   -2.000
 4294.00    0.89481   0.72986   -2.000
 4295.00    0.86048   0.77309   -2.000
 4296.00    0.57969   0.78435   -2.000
 4297.00    0.43821   0.76770   -2.000
 4298.00    0.47108   0.75768    0.022
 4299.00    0.52417   0.75626    0.022
 4300.00    0.59954   0.74558    0.021
 4301.00    0.63401   0.71612    0.021
 4302.00    0.62870   0.67338    0.021
 4303.00    0.63037   0.65253    0.022
 4304.00    0.63804   0.66074    0.022
 4305.00    0.67559   0.66724    0.022
 4306.00    0.73574   0.67494    0.022
 4307.00    0.78371   0.69411    0.022
 4308.00    0.82360   0.70262    0.022
 4309.00    0.91475   0.69221    0.022
 4310.00    1.03571   0.66923    0.022
 4311.00    1.10631   0.64931    0.021
 4312.00    1.15140   0.65698    0.021
 4313.00    0.99232   0.68728    0.021
 4314.00    0.74365   0.71353    0.021
 4315.00    0.74756   0.71918    0.021
 4316.00    0.84661   0.70872    0.021
 4317.00    0.87504   0.70244    0.021
 4318.00    0.88088   0.72669    0.022
 4319.00    0.88621   0.77525    0.022
 4320.00    0.89141   0.80423    0.022
 4321.00    0.88817   0.80214    0.022
 4322.00    0.88310   0.78714    0.021
 4323.00    0.86570   0.76704    0.021
 4324.00    0.84615   0.75100    0.021
 4325.00    0.87545   0.74431    0.021
 4326.00    0.91121   0.72180    0.021
 4327.00    0.82734   0.67242    0.021
 4328.00    0.73230   0.62397    0.021
 4329.00    0.97051   0.61908    0.021
 4330.00    1.22777   0.66427    0.000
 4331.00    1.19085   0.71048    0.000
 4332.00    1.14531   0.71821    0.000
 4333.00    0.89547   0.69623    0.000
 4334.00    0.65911   0.67738    0.000
 4335.00    0.74644   0.67166    0.000
 4336.00    0.82642   0.66394    0.000
 4337.00    0.81078   0.65308    0.000
 4338.00    0.78955   0.63764    0.000
 4339.00    0.71949   0.59635    0.000
 4340.00    0.66898   0.52661    0.000
 4341.00    0.74471   0.45950    0.000
 4342.00    0.80640   0.40610    0.000
 4343.00    0.79723   0.36933    0.000
 4344.00    0.82452   0.38446    0.000
 4345.00    1.00063   0.44795    0.000
 4346.00    1.09214   0.50460    0.000
 4347.00    0.89744   0.54091    0.000
 4348.00    0.86476   0.57841    0.000
 4349.00    1.29437   0.61055    0.000
 4350.00    1.51596   0.63188    0.000
 4351.00    1.23036   0.65773    0.021
 4352.00    0.99329   0.67961    0.021
 4353.00    0.85830   0.66732    0.021
 4354.00    0.76719   0.62628    0.021
 4355.00    0.75627   0.61070    0.021
 4356.00    0.76670   0.64368    0.026
 4357.00    0.81123   0.68505    0.070
 4358.00    0.86530   0.71041   -1.000
 4359.00    0.93273   0.73109   -1.000
 4360.00    1.03066   0.74233   -1.000
 4361.00    1.16624   0.73255   -1.000
 4362.00    1.18164   0.72077   -1.000
 4363.00    1.06633   0.73296   -1.000
 4364.00    1.01146   0.75887    0.075
 4365.00    1.01456   0.77429    0.025
 4366.00    0.98538   0.78026    0.020
 4367.00    0.92890   0.79201    0.020
 4368.00    0.92332   0.80193    0.020
 4369.00    0.95566   0.78956    0.020
 4370.00    0.87341   0.76042    0.020
 4371.00    0.71618   0.74287    0.020
 4372.00    0.61844   0.74634    0.020
 4373.00    0.55478   0.75597    0.020
 4374.00    0.55699   0.76615    0.020
 4375.00    0.59205   0.77151    0.020
 4376.00    0.73167   0.75425    0.020
 4377.00    0.91641   0.71760    0.020
 4378.00    0.99121   0.70199    0.020
 4379.00    1.02533   0.72986    0.020
 4380.00    0.95246   0.77424    0.020
 4381.00    0.84604   0.79764    0.020
 4382.00    0.76374   0.79518    0.020
 4383.00    0.68775   0.78531    0.020
 4384.00    0.61733   0.77192    0.020
 4385.00    0.54810   0.73126    0.019
 4386.00    0.67023   0.66474    0.020
 4387.00    0.82473   0.62823    0.020
 4388.00    0.91839   0.65383    0.020
 4389.00    1.00427   0.70599    0.019
 4390.00    0.93930   0.73670    0.019
 4391.00    0.86087   0.74319    0.020
 4392.00    0.85784   0.74340    0.020
 4393.00    0.85883   0.74067    0.020
 4394.00    0.82767   0.74455    0.019
 4395.00    0.79621   0.75932    0.019
 4396.00    0.79223   0.76215    0.019
 4397.00    0.79370   0.74111    0.020
 4398.00    0.91504   0.72782    0.020
 4399.00    1.02636   0.75211    0.019
 4400.00    1.01405   0.78641    0.019
 4401.00    0.99497   0.78874    0.019
 4402.00    0.91882   0.76126    0.020
 4403.00    0.87082   0.73221    0.020
 4404.00    0.99918   0.73457    0.020
 4405.00    1.09305   0.76246    0.020
 4406.00    1.01727   0.76235    0.020
 4407.00    0.91530   0.72443    0.020
 4408.00    0.70878   0.70759    0.020
 4409.00    0.56190   0.73099    0.019
 4410.00    0.61278   0.74636    0.019
 4411.00    0.66669   0.74052    0.019
 4412.00    0.72907   0.74845    0.019
 4413.00    0.77121   0.77353    0.019
 4414.00    0.76485   0.79256    0.019
 4415.00    0.78766   0.80248    0.019
 4416.00    0.87085   0.79546    0.019
 4417.00    0.91627   0.75701    0.020
 4418.00    0.89371   0.71386    0.019
 4419.00    0.87460   0.70517    0.019
 4420.00    0.86092   0.72106    0.019
 4421.00    0.87034   0.74651    0.019
 4422.00    0.91165   0.77915    0.019
 4423.00    0.92242   0.79752    0.019
 4424.00    0.89605   0.78539    0.019
 4425.00    0.81145   0.75971    0.019
 4426.00    0.66441   0.75145    0.019
 4427.00    0.64155   0.76307    0.019
 4428.00    0.73615   0.77049    0.019
 4429.00    0.76957   0.76740    0.019
 4430.00    0.75199   0.76502    0.019
 4431.00    0.80878   0.76955    0.019
 4432.00    0.92019   0.76895    0.020
 4433.00    0.99285   0.75585    0.020
 4434.00    1.04054   0.75400    0.020
 4435.00    0.99797   0.76299    0.020
 4436.00    0.90451   0.75448    0.020
 4437.00    0.88047   0.72847    0.020
 4438.00    0.89052   0.71152    0.019
 4439.00    0.90705   0.72581    0.019
 4440.00    0.92633   0.76229    0.020
 4441.00    0.94004   0.79249    0.020
 4442.00    0.95173   0.80303    0.019
 4443.00    0.93235   0.79009    0.020
 4444.00    0.90343   0.75779    0.020
 4445.00    0.90358   0.72157    0.020
 4446.00    0.91118   0.70148    0.019
 4447.00    0.92385   0.71527    0.019
 4448.00    0.93757   0.75382    0.019
 4449.00    0.93665   0.77882    0.019
 4450.00    0.93332   0.77796    0.020
 4451.00    0.93699   0.77609    0.019
 4452.00    0.94151   0.77396    0.019
 4453.00    0.88586   0.76148    0.019
 4454.00    0.82509   0.75723    0.019
 4455.00    0.81889   0.76447    0.019
 4456.00    0.81539   0.75716    0.019
 4457.00    0.94510   0.72652    0.019
 4458.00    1.07228   0.69929    0.019
 4459.00    0.90723   0.70218    0.019
 4460.00    0.74651   0.71818    0.019
 4461.00    0.67332   0.72140    0.000
 4462.00    0.61989   0.71651    0.000
 4463.00    0.79871   0.71307    0.000
 4464.00    0.95423   0.70531    0.000
 4465.00    0.92084   0.70542    0.000
 4466.00    0.88945   0.72707    0.000
 4467.00    0.87029   0.74476    0.000
 4468.00    0.86061   0.74444    0.000
 4469.00    0.89646   0.73918    0.000
 4470.00    0.92118   0.73224    0.000
 4471.00    0.90247   0.71883    0.000
 4472.00    0.91467   0.70603    0.000
 4473.00    1.02735   0.70816    0.000
 4474.00    1.08219   0.72299    0.000
 4475.00    0.97785   0.74292    0.000
 4476.00    0.88062   0.76450    0.000
 4477.00    0.80009   0.77781    0.000
 4478.00    0.75330   0.77695    0.000
 4479.00    0.77523   0.77631    0.000
 4480.00    0.85099   0.78672    0.000
 4481.00    1.02219   0.78859    0.000
 4482.00    1.09870   0.76112    0.019
 4483.00    1.02836   0.70994    0.019
 4484.00    1.00564   0.66901    0.019
 4485.00    1.04779   0.67389    0.019
 4486.00    1.00886   0.71753    0.019
 4487.00    0.87269   0.75906    0.019
 4488.00    0.79868   0.78057    0.018
 4489.00    0.79037   0.78657    0.018
 4490.00    0.83814   0.77534    0.019
 4491.00    0.93821   0.74660    0.019
 4492.00    1.02124   0.71925    0.019
 4493.00    1.09028   0.71414    0.019
 4494.00    0.96846   0.73048    0.019
 4495.00    0.70852   0.75068    0.019
 4496.00    0.70293   0.75393    0.019
 4497.00    0.85891   0.73701    0.019
 4498.00    0.91342   0.72494    0.019
 4499.00    0.91156   0.73051    0.019
 4500.00    0.87198   0.74633    0.019
 4501.00    0.81418   0.76473    0.018
 4502.00    0.80370   0.77247    0.018
 4503.00    0.81297   0.76034    0.018
 4504.00    0.94458   0.74105    0.019
 4505.00    1.11986   0.74766    0.019
 4506.00    1.05058   0.78027    0.019
 4507.00    0.90756   0.80349    0.019
 4508.00    0.81166   0.80460    0.018
 4509.00    0.72756   0.79265    0.018
 4510.00    0.77215   0.77446    0.018
 4511.00    0.84291   0.76125    0.019
 4512.00    0.92058   0.76554    0.018
 4513.00    0.99936   0.78034    0.018
 4514.00    0.94319   0.78580    0.018
 4515.00    0.87098   0.77664    0.018
 4516.00    0.92117   0.76198    0.018
 4517.00    0.98127   0.74606    0.019
 4518.00    0.85693   0.73681    0.019
 4519.00    0.72421   0.74141    0.018
 4520.00    0.66729   0.74646    0.018
 4521.00    0.61193   0.74455    0.018
 4522.00    0.58883   0.74581    0.018
 4523.00    0.57258   0.75128    0.018
 4524.00    0.68473   0.75301    0.018
 4525.00    0.77882   0.73965    0.019
 4526.00    0.67055   0.72558    0.019
 4527.00    0.57751   0.72624    0.019
 4528.00    0.60358   0.72355    0.018
 4529.00    0.63645   0.71108    0.018
 4530.00    0.70949   0.69600    0.018
 4531.00    0.77459   0.68186    0.018
 4532.00    0.80251   0.67739    0.018
 4533.00    0.83306   0.68719    0.018
 4534.00    0.87366   0.70228    0.018
 4535.00    0.90909   0.71164    0.018
 4536.00    0.92803   0.69925    0.018
 4537.00    0.92907   0.67642    0.019
 4538.00    0.88177   0.67585    0.019
 4539.00    0.81992   0.70623    0.019
 4540.00    0.72436   0.74696    0.018
 4541.00    0.65050   0.76428    0.018
 4542.00    0.62011   0.75303    0.018
 4543.00    0.65830   0.73232    0.018
 4544.00    0.81621   0.72057    0.018
 4545.00    0.92546   0.72771    0.018
 4546.00    0.96038   0.73947    0.018
 4547.00    0.91205   0.73475    0.018
 4548.00    0.75197   0.72372    0.018
 4549.00    0.73489   0.72406    0.018
 4550.00    0.88686   0.72596    0.000
 4551.00    0.90694   0.70920    0.000
 4552.00    0.78954   0.67865    0.000
 4553.00    0.73759   0.67394    0.000
 4554.00    0.74582   0.70110    0.000
 4555.00    0.71251   0.71594    0.000
 4556.00    0.64553   0.70490    0.000
 4557.00    0.71321   0.68513    0.000
 4558.00    0.87693   0.67503    0.000
 4559.00    0.92260   0.68858    0.000
 4560.00    0.89441   0.71677    0.000
 4561.00    0.77908   0.73256    0.000
 4562.00    0.61610   0.73633    0.000
 4563.00    0.68478   0.74247    0.000
 4564.00    0.86360   0.74976    0.000
 4565.00    0.88352   0.74647    0.000
 4566.00    0.83828   0.72445    0.000
 4567.00    0.78371   0.70005    0.000
 4568.00    0.72585   0.69556    0.000
 4569.00    0.81987   0.71198    0.000
 4570.00    0.95876   0.73623    0.000
 4571.00    0.81522   0.75098    0.000
 4572.00    0.60249   0.75177    0.000
 4573.00    0.53387   0.73936    0.000
 4574.00    0.49380   0.71262    0.000
 4575.00    0.67721   0.70033    0.000
 4576.00    0.89520   0.72155    0.000
 4577.00    0.88596   0.74116    0.000
 4578.00    0.85070   0.73897    0.000
 4579.00    0.95423   0.73304    0.000
 4580.00    1.06842   0.73298    0.000
 4581.00    0.91335   0.72935    0.000
 4582.00    0.74707   0.71381    0.000
 4583.00    0.70754   0.69603    0.000
 4584.00    0.67074   0.68966    0.000
 4585.00    0.70384   0.68965    0.000
 4586.00    0.74090   0.68361    0.000
 4587.00    0.84689   0.68027    0.000
 4588.00    0.93582   0.68915    0.000
 4589.00    0.84220   0.69973    0.000
 4590.00    0.75307   0.70803    0.000
 4591.00    0.69787   0.71575    0.000
 4592.00    0.64895   0.72141    0.000
 4593.00    0.63613   0.71965    0.000
 4594.00    0.63040   0.70834    0.000
 4595.00    0.65710   0.69722    0.000
 4596.00    0.69487   0.69764    0.000
 4597.00    0.77406   0.70276    0.000
 4598.00    0.86216   0.70189    0.000
 4599.00    0.97816   0.70074    0.000
 4600.00    1.02641   0.70409    0.000
 4601.00    0.89486   0.70964    0.000
 4602.00    0.77628   0.71261    0.000
 4603.00    0.68728   0.70578    0.000
 4604.00    0.67739   0.69978    0.000
 4605.00    0.82358   0.70441    0.000
 4606.00    0.88423   0.70897    0.000
 4607.00    0.79783   0.70827    0.000
 4608.00    0.75974   0.70466    0.000
 4609.00    0.79440   0.70707    0.000
 4610.00    0.80954   0.71956    0.000
 4611.00    0.79884   0.73600    0.000
 4612.00    0.76962   0.74651    0.000
 4613.00    0.71881   0.74276    0.000
 4614.00    0.70668   0.73032    0.000
 4615.00    0.73431   0.72122    0.000
 4616.00    0.73169   0.71717    0.000
 4617.00    0.70165   0.71946    0.000
 4618.00    0.67678   0.72378    0.000
 4619.00    0.65603   0.72081    0.000
 4620.00    0.67101   0.71754    0.000
 4621.00    0.71110   0.71210    0.000
 4622.00    0.75348   0.70145    0.000
 4623.00    0.79728   0.70304    0.000
 4624.00    0.73736   0.71789    0.000
 4625.00    0.62158   0.72673    0.000
 4626.00    0.60613   0.72858    0.000
 4627.00    0.63761   0.72818    0.000
 4628.00    0.70371   0.72208    0.000
 4629.00    0.78375   0.71676    0.000
 4630.00    0.77118   0.71699    0.000
 4631.00    0.72674   0.71153    0.000
 4632.00    0.59679   0.69924    0.000
 4633.00    0.44208   0.70041    0.000
 4634.00    0.53716   0.71659    0.000
 4635.00    0.69206   0.72106    0.000
 4636.00    0.66806   0.70653    0.000
 4637.00    0.60949   0.69343    0.000
 4638.00    0.73135   0.69339    0.000
 4639.00    0.88029   0.69737    0.000
 4640.00    0.81769   0.69455    0.000
 4641.00    0.73181   0.68889    0.000
 4642.00    0.82979   0.68750    0.000
 4643.00    0.94115   0.69015    0.000
 4644.00    0.88369   0.69900    0.000
 4645.00    0.81985   0.70739    0.000
 4646.00    0.72148   0.70549    0.000
 4647.00    0.62830   0.69764    0.000
 4648.00    0.73419   0.68581    0.000
 4649.00    0.82962   0.66690    0.000
 4650.00    0.75421   0.65250    0.000
 4651.00    0.67881   0.65384    0.000
 4652.00    0.60353   0.66751    0.000
 4653.00    0.54086   0.68422    0.000
 4654.00    0.57029   0.69544    0.000
 4655.00    0.61995   0.70133    0.000
 4656.00    0.78277   0.70163    0.000
 4657.00    0.90233   0.68983    0.000
 4658.00    0.82894   0.67455    0.000
 4659.00    0.74388   0.66863    0.000
 4660.00    0.61604   0.67579    0.000
 4661.00    0.56605   0.69731    0.000
 4662.00    0.75492   0.72029    0.000
 4663.00    0.87014   0.72784    0.000
 4664.00    0.79330   0.71770    0.000
 4665.00    0.76340   0.69978    0.000
 4666.00    0.83874   0.68502    0.000
 4667.00    0.86276   0.68048    0.000
 4668.00    0.78713   0.67616    0.000
 4669.00    0.70680   0.65379    0.000
 4670.00    0.61855   0.62440    0.000
 4671.00    0.61833   0.61788    0.000
 4672.00    0.74874   0.63602    0.000
 4673.00    0.78404   0.65944    0.000
 4674.00    0.69530   0.67774    0.000
 4675.00    0.67645   0.68495    0.000
 4676.00    0.73791   0.68218    0.000
 4677.00    0.76683   0.68095    0.000
 4678.00    0.76277   0.68785    0.000
 4679.00    0.73556   0.69833    0.000
 4680.00    0.68765   0.69919    0.000
 4681.00    0.71463   0.68613    0.000
 4682.00    0.80058   0.67188    0.000
 4683.00    0.80049   0.66529    0.000
 4684.00    0.74080   0.66352    0.000
 4685.00    0.74132   0.66721    0.000
 4686.00    0.77840   0.67767    0.000
 4687.00    0.80036   0.68580    0.000
 4688.00    0.81431   0.68573    0.000
 4689.00    0.75338   0.68348    0.000
 4690.00    0.65802   0.68092    0.000
 4691.00    0.56612   0.67875    0.000
 4692.00    0.47561   0.67889    0.000
 4693.00    0.62596   0.67708    0.000
 4694.00    0.85764   0.67167    0.000
 4695.00    0.86829   0.67089    0.000
 4696.00    0.81622   0.67592    0.000
 4697.00    0.76939   0.68169    0.000
 4698.00    0.72380   0.68869    0.000
 4699.00    0.67613   0.69362    0.000
 4700.00    0.62806   0.68662    0.000
 4701.00    0.75642   0.66762    0.000
 4702.00    0.91043   0.65434    0.000
 4703.00    0.84621   0.65539    0.000
 4704.00    0.75892   0.65660    0.000
 4705.00    0.66506   0.64729    0.000
 4706.00    0.57074   0.63834    0.000
 4707.00    0.64682   0.64570    0.000
 4708.00    0.72869   0.66086    0.000
 4709.00    0.63073   0.66422    0.000
 4710.00    0.53959   0.65405    0.000
 4711.00    0.67933   0.64359    0.000
 4712.00    0.80467   0.64203    0.000
 4713.00    0.70900   0.65230    0.000
 4714.00    0.62208   0.66896    0.000
 4715.00    0.62082   0.67541    0.000
 4716.00    0.63415   0.66624    0.000
 4717.00    0.75061   0.65213    0.000
 4718.00    0.82587   0.65052    0.000
 4719.00    0.67690   0.66550    0.000
 4720.00    0.54816   0.68092    0.000
 4721.00    0.50753   0.68702    0.000
 4722.00    0.50262   0.69121    0.000
 4723.00    0.62581   0.69494    0.000
 4724.00    0.72911   0.69274    0.000
 4725.00    0.77249   0.68612    0.000
 4726.00    0.82455   0.68412    0.000
 4727.00    0.89885   0.69070    0.000
 4728.00    0.96509   0.69670    0.000
 4729.00    1.01356   0.68929    0.000
 4730.00    0.98320   0.66617    0.000
 4731.00    0.80215   0.64416    0.000
 4732.00    0.66726   0.63772    0.000
 4733.00    0.60935   0.63907    0.000
 4734.00    0.58415   0.64074    0.000
 4735.00    0.60679   0.64845    0.000
 4736.00    0.63280   0.65966    0.000
 4737.00    0.66314   0.66705    0.000
 4738.00    0.68222   0.66895    0.000
 4739.00    0.68855   0.65972    0.000
 4740.00    0.64028   0.65146    0.000
 4741.00    0.53746   0.66107    0.000
 4742.00    0.51671   0.67296    0.000
 4743.00    0.56826   0.67079    0.000
 4744.00    0.63964   0.66447    0.000
 4745.00    0.72643   0.66657    0.000
 4746.00    0.74593   0.67331    0.000
 4747.00    0.71950   0.67444    0.000
 4748.00    0.71036   0.67087    0.000
 4749.00    0.71157   0.67298    0.000
 4750.00    0.69427   0.67773    0.000
 4751.00    0.66731   0.67656    0.000
 4752.00    0.61959   0.67482    0.000
 4753.00    0.56246   0.67673    0.000
 4754.00    0.61232   0.67570    0.000
 4755.00    0.70383   0.66821    0.000
 4756.00    0.84871   0.66015    0.000
 4757.00    1.01126   0.65407    0.000
 4758.00    0.91741   0.65024    0.000
 4759.00    0.75228   0.64886    0.000
 4760.00    0.66548   0.65149    0.000
 4761.00    0.59659   0.65795    0.015
 4762.00    0.62097   0.66504    0.016
 4763.00    0.66243   0.66771    0.016
 4764.00    0.66153   0.65792    0.016
 4765.00    0.65467   0.63926    0.016
 4766.00    0.69122   0.62717    0.016
 4767.00    0.73218   0.62344    0.016
 4768.00    0.75549   0.61980    0.016
 4769.00    0.77766   0.61885    0.016
 4770.00    0.75471   0.62670    0.016
 4771.00    0.73041   0.64019    0.016
 4772.00    0.70842   0.65330    0.016
 4773.00    0.68881   0.65883    0.016
 4774.00    0.73805   0.65085    0.016
 4775.00    0.77613   0.64165    0.016
 4776.00    0.65295   0.64604    0.016
 4777.00    0.54726   0.65964    0.016
 4778.00    0.60621   0.66715    0.015
 4779.00    0.66650   0.66563    0.015
 4780.00    0.73594   0.66624    0.015
 4781.00    0.77754   0.66754    0.015
 4782.00    0.67158   0.66138    0.015
 4783.00    0.58604   0.65473    0.015
 4784.00    0.58746   0.65452    0.015
 4785.00    0.58651   0.65185    0.015
 4786.00    0.57717   0.64306    0.015
 4787.00    0.54882   0.64097    0.015
 4788.00    0.46433   0.64377    0.015
 4789.00    0.42681   0.63714    0.015
 4790.00    0.50758   0.63167    0.015
 4791.00    0.58676   0.63513    0.016
 4792.00    0.66249   0.63534    0.016
 4793.00    0.69375   0.63463    0.016
 4794.00    0.64132   0.63902    0.016
 4795.00    0.62430   0.64500    0.016
 4796.00    0.66547   0.65453    0.016
 4797.00    0.68650   0.66719    0.016
 4798.00    0.67850   0.67413    0.016
 4799.00    0.67319   0.67068    0.016
 4800.00    0.67128   0.66042    0.016
 4801.00    0.67174   0.64664    0.016
 4802.00    0.67485   0.63424    0.016
 4803.00    0.65537   0.63134    0.016
 4804.00    0.61362   0.64033    0.016
 4805.00    0.56350   0.65317    0.016
 4806.00    0.50609   0.65755    0.016
 4807.00    0.55568   0.64867    0.016
 4808.00    0.68716   0.63495    0.016
 4809.00    0.72989   0.63030    0.016
 4810.00    0.71292   0.63108    0.016
 4811.00    0.65911   0.63007    0.016
 4812.00    0.58360   0.63179    0.016
 4813.00    0.52853   0.63580    0.016
 4814.00    0.48398   0.63686    0.016
 4815.00    0.49654   0.63567    0.016
 4816.00    0.53453   0.63605    0.016
 4817.00    0.63215   0.63898    0.016
 4818.00    0.75258   0.64279    0.016
 4819.00    0.82895   0.64669    0.016
 4820.00    0.89100   0.65011    0.016
 4821.00    0.76531   0.65244    0.016
 4822.00    0.58851   0.65435    0.016
 4823.00    0.61495   0.65395    0.016
 4824.00    0.68679   0.64988    0.016
 4825.00    0.64364   0.63805    0.016
 4826.00    0.58000   0.61468    0.016
 4827.00    0.59561   0.59908    0.016
 4828.00    0.62202   0.60836    0.016
 4829.00    0.53022   0.62648    0.016
 4830.00    0.42694   0.63326    0.016
 4831.00    0.54331   0.62806    0.016
 4832.00    0.67300   0.62177    0.016
 4833.00    0.61103   0.62077    0.016
 4834.00    0.54452   0.61743    0.016
 4835.00    0.57590   0.60976    0.016
 4836.00    0.60612   0.60993    0.016
 4837.00    0.60599   0.61740    0.016
 4838.00    0.60303   0.61986    0.016
 4839.00    0.56125   0.61610    0.016
 4840.00    0.52981   0.61379    0.015
 4841.00    0.59184   0.61027    0.015
 4842.00    0.64180   0.59968    0.016
 4843.00    0.61173   0.58976    0.016
 4844.00    0.59437   0.58911    0.016
 4845.00    0.64264   0.59087    0.016
 4846.00    0.68834   0.58661    0.015
 4847.00    0.72330   0.58503    0.016
 4848.00    0.72863   0.59092    0.000
 4849.00    0.63196   0.59305    0.000
 4850.00    0.59233   0.58170    0.000
 4851.00    0.71814   0.56164    0.000
 4852.00    0.78548   0.54985    0.000
 4853.00    0.70815   0.55334    0.000
 4854.00    0.66443   0.55686    0.000
 4855.00    0.69243   0.55116    0.000
 4856.00    0.65527   0.53997    0.000
 4857.00    0.49735   0.51902    0.000
 4858.00    0.43726   0.48953    0.000
 4859.00    0.53554   0.47124    0.000
 4860.00    0.55145   0.46905    0.000
 4861.00    0.45040   0.46046    0.000
 4862.00    0.42390   0.42809    0.000
 4863.00    0.49053   0.37434    0.000
 4864.00    0.52846   0.32601    0.000
 4865.00    0.53478   0.32469    0.000
 4866.00    0.55682   0.36823    0.000
 4867.00    0.59413   0.41271    0.000
 4868.00    0.54799   0.44323    0.000
 4869.00    0.43037   0.46846    0.000
 4870.00    0.45128   0.48833    0.000
 4871.00    0.57669   0.50217    0.000
 4872.00    0.61413   0.51219    0.000
 4873.00    0.59326   0.51025    0.000
 4874.00    0.53138   0.49454    0.000
 4875.00    0.44570   0.48891    0.015
 4876.00    0.46641   0.50666    0.015
 4877.00    0.54093   0.52870    0.015
 4878.00    0.56945   0.53902    0.015
 4879.00    0.57784   0.54320    0.015
 4880.00    0.59457   0.54924    0.015
 4881.00    0.61443   0.55844    0.015
 4882.00    0.61388   0.57411    0.015
 4883.00    0.60681   0.58626    0.015
 4884.00    0.60005   0.58154    0.015
 4885.00    0.59338   0.57200    0.015
 4886.00    0.58386   0.57033    0.015
 4887.00    0.57371   0.56875    0.015
 4888.00    0.56056   0.56176    0.015
 4889.00    0.54689   0.55675    0.015
 4890.00    0.60288   0.56030    0.015
 4891.00    0.66806   0.56784    0.015
 4892.00    0.70135   0.56911    0.015
 4893.00    0.73167   0.55686    0.015
 4894.00    0.64220   0.54075    0.015
 4895.00    0.54594   0.54846    0.015
 4896.00    0.56015   0.57944    0.015
 4897.00    0.57730   0.60715    0.015
 4898.00    0.64156   0.62237    0.015
 4899.00    0.70252   0.62757    0.015
 4900.00    0.68540   0.62688    0.015
 4901.00    0.67134   0.62264    0.015
 4902.00    0.69684   0.61094    0.015
 4903.00    0.71639   0.59801    0.015
 4904.00    0.68420   0.59765    0.015
 4905.00    0.64940   0.60170    0.015
 4906.00    0.59785   0.59757    0.015
 4907.00    0.55340   0.59516    0.015
 4908.00    0.54459   0.60586    0.015
 4909.00    0.54988   0.62040    0.015
 4910.00    0.61257   0.62336    0.015
 4911.00    0.65277   0.61335    0.015
 4912.00    0.61708   0.59657    0.015
 4913.00    0.60348   0.57910    0.015
 4914.00    0.65276   0.57282    0.015
 4915.00    0.65699   0.58252    0.015
 4916.00    0.55162   0.59646    0.015
 4917.00    0.49001   0.60680    0.015
 4918.00    0.52025   0.61614    0.015
 4919.00    0.54891   0.62024    0.015
 4920.00    0.57467   0.60917    0.015
 4921.00    0.54943   0.58102    0.015
 4922.00    0.44285   0.54801    0.015
 4923.00    0.42048   0.52726    0.015
 4924.00    0.51598   0.52908    0.015
 4925.00    0.60458   0.54778    0.015
 4926.00    0.68471   0.55944    0.015
 4927.00    0.68674   0.55751    0.015
 4928.00    0.60397   0.56327    0.015
 4929.00    0.57792   0.58482    0.015
 4930.00    0.60617   0.60358    0.015
 4931.00    0.62553   0.61191    0.015
 4932.00    0.63737   0.61837    0.015
 4933.00    0.58691   0.62165    0.015
 4934.00    0.49012   0.61922    0.015
 4935.00    0.51856   0.60946    0.015
 4936.00    0.62879   0.58757    0.015
 4937.00    0.66550   0.57011    0.015
 4938.00    0.66018   0.57698    0.015
 4939.00    0.60974   0.59052    0.015
 4940.00    0.53682   0.58513    0.000
 4941.00    0.54052   0.56501    0.000
 4942.00    0.57719   0.55348    0.000
 4943.00    0.61139   0.56625    0.000
 4944.00    0.64467   0.59171    0.000
 4945.00    0.69155   0.60745    0.000
 4946.00    0.74270   0.61300    0.000
 4947.00    0.70432   0.61535    0.000
 4948.00    0.64259   0.61049    0.000
 4949.00    0.60654   0.60215    0.000
 4950.00    0.57596   0.60244    0.000
 4951.00    0.54178   0.60911    0.000
 4952.00    0.50699   0.61292    0.000
 4953.00    0.54826   0.61408    0.000
 4954.00    0.59920   0.61531    0.000
 4955.00    0.67454   0.61248    0.000
 4956.00    0.75205   0.60543    0.000
 4957.00    0.57542   0.60163    0.000
 4958.00    0.38538   0.59980    0.000
 4959.00    0.44131   0.58379    0.000
 4960.00    0.50123   0.54837    0.000
 4961.00    0.50508   0.53075    0.000
 4962.00    0.51080   0.55624    0.000
 4963.00    0.55742   0.59176    0.000
 4964.00    0.60041   0.60553    0.000
 4965.00    0.59885   0.60435    0.000
 4966.00    0.60300   0.60381    0.000
 4967.00    0.65482   0.60161    0.000
 4968.00    0.68216   0.58995    0.000
 4969.00    0.55668   0.57716    0.000
 4970.00    0.46044   0.57343    0.000
 4971.00    0.50751   0.57466    0.000
 4972.00    0.53995   0.57626    0.000
 4973.00    0.51418   0.57828    0.000
 4974.00    0.49480   0.58323    0.000
 4975.00    0.49657   0.59097    0.000
 4976.00    0.48613   0.59656    0.000
 4977.00    0.44154   0.60035    0.000
 4978.00    0.41338   0.60232    0.000
 4979.00    0.42451   0.59991    0.000
 4980.00    0.42502   0.59404    0.000
 4981.00    0.40359   0.58446    0.000
 4982.00    0.41552   0.57520    0.000
 4983.00    0.48742   0.57010    0.000
 4984.00    0.54617   0.56033    0.000
 4985.00    0.58428   0.53912    0.000
 4986.00    0.58295   0.52021    0.000
 4987.00    0.52722   0.51928    0.000
 4988.00    0.49357   0.53227    0.000
 4989.00    0.48671   0.55032    0.000
 4990.00    0.48759   0.57016    0.000
 4991.00    0.49675   0.58239    0.000
 4992.00    0.50563   0.58139    0.000
 4993.00    0.51425   0.57306    0.000
 4994.00    0.55024   0.56584    0.000
 4995.00    0.60902   0.56654    0.000
 4996.00    0.62174   0.56887    0.000
 4997.00    0.60071   0.56794    0.000
 4998.00    0.62384   0.57248    0.000
 4999.00    0.67539   0.58004    0.000
 5000.00    0.65220   0.58183    0.000
 5001.00    0.58694   0.57728    0.000
 5002.00    0.58065   0.56588    0.000
 5003.00    0.60324   0.55120    0.000
 5004.00    0.60755   0.54122    0.000
 5005.00    0.60411   0.53971    0.000
 5006.00    0.54164   0.54534    0.000
 5007.00    0.45777   0.54795    0.000
 5008.00    0.51815   0.53707    0.000
 5009.00    0.62278   0.52141    0.000
 5010.00    0.67414   0.52301    0.000
 5011.00    0.71191   0.54436    0.000
 5012.00    0.60579   0.56348    0.000
 5013.00    0.46977   0.56658    0.000
 5014.00    0.42026   0.55742    0.000
 5015.00    0.38491   0.54120    0.000
 5016.00    0.37516   0.52505    0.000
 5017.00    0.36854   0.51667    0.000
 5018.00    0.42771   0.52041    0.000
 5019.00    0.49243   0.53029    0.000
 5020.00    0.48601   0.52900    0.000
 5021.00    0.47611   0.51590    0.000
 5022.00    0.47599   0.51291    0.000
 5023.00    0.47550   0.52621    0.000
 5024.00    0.44291   0.53752    0.000
 5025.00    0.41414   0.53752    0.000
 5026.00    0.46200   0.53887    0.000
 5027.00    0.50051   0.54887    0.000
 5028.00    0.42986   0.55780    0.000
 5029.00    0.37777   0.55774    0.014
 5030.00    0.47544   0.54814    0.015
 5031.00    0.55150   0.54141    0.015
 5032.00    0.49651   0.54815    0.015
 5033.00    0.44773   0.55715    0.015
 5034.00    0.42868   0.56076    0.015
 5035.00    0.40956   0.56733    0.015
 5036.00    0.39015   0.57762    0.015
 5037.00    0.39431   0.57865    0.015
 5038.00    0.47491   0.56241    0.015
 5039.00    0.54559   0.54291    0.015
 5040.00    0.58907   0.53974    0.015
 5041.00    0.58123   0.54383    0.015
 5042.00    0.45271   0.53556    0.015
 5043.00    0.40899   0.51324    0.015
 5044.00    0.53762   0.49121    0.015
 5045.00    0.58714   0.49460    0.015
 5046.00    0.49669   0.52492    0.015
 5047.00    0.47983   0.55408    0.015
 5048.00    0.57690   0.57050    0.015
 5049.00    0.59498   0.57912    0.015
 5050.00    0.50569   0.57578    0.015
 5051.00    0.44619   0.55830    0.015
 5052.00    0.42237   0.53969    0.015
 5053.00    0.43592   0.53231    0.015
 5054.00    0.48891   0.53187    0.015
 5055.00    0.51448   0.53325    0.015
 5056.00    0.51452   0.54129    0.015
 5057.00    0.58101   0.55438    0.015
 5058.00    0.70203   0.56230    0.015
 5059.00    0.70464   0.56235    0.015
 5060.00    0.62173   0.56198    0.015
 5061.00    0.54087   0.56580    0.015
 5062.00    0.46133   0.56977    0.014
 5063.00    0.43597   0.57230    0.014
 5064.00    0.44064   0.57608    0.014
 5065.00    0.47806   0.57903    0.014
 5066.00    0.53127   0.57392    0.015
 5067.00    0.51209   0.55584    0.014
 5068.00    0.46277   0.53627    0.014
 5069.00    0.49024   0.53341    0.014
 5070.00    0.54506   0.53997    0.014
 5071.00    0.53435   0.54029    0.014
 5072.00    0.50393   0.54008    0.015
 5073.00    0.47044   0.54724    0.015
 5074.00    0.43619   0.54993    0.014
 5075.00    0.44852   0.54106    0.014
 5076.00    0.47028   0.53602    0.014
 5077.00    0.46239   0.54031    0.014
 5078.00    0.44979   0.54182    0.014
 5079.00    0.50641   0.54070    0.014
 5080.00    0.57123   0.54435    0.014
 5081.00    0.53681   0.54244    0.014
 5082.00    0.49442   0.52238    0.014
 5083.00    0.41426   0.50090    0.014
 5084.00    0.33239   0.50075    0.014
 5085.00    0.35977   0.51440    0.014
 5086.00    0.38901   0.52271    0.013
 5087.00    0.44669   0.52682    0.013
 5088.00    0.49782   0.53548    0.013
 5089.00    0.42712   0.54327    0.013
 5090.00    0.37095   0.54322    0.013
 5091.00    0.47661   0.54159    0.013
 5092.00    0.56135   0.54467    0.014
 5093.00    0.48317   0.54794    0.014
 5094.00    0.41170   0.54864    0.014
 5095.00    0.37984   0.55161    0.014
 5096.00    0.35969   0.55779    0.014
 5097.00    0.39413   0.56103    0.014
 5098.00    0.42651   0.55738    0.013
 5099.00    0.45101   0.54749    0.013
 5100.00    0.45697   0.53314    0.013
 5101.00    0.40394   0.51661    0.013
 5102.00    0.35385   0.50397    0.013
 5103.00    0.31169   0.50606    0.013
 5104.00    0.30762   0.52271    0.014
 5105.00    0.39164   0.53885    0.014
 5106.00    0.44331   0.54361    0.014
 5107.00    0.43024   0.54053    0.014
 5108.00    0.39886   0.53715    0.014
 5109.00    0.33558   0.53348    0.014
 5110.00    0.34032   0.52569    0.014
 5111.00    0.44882   0.51911    0.014
 5112.00    0.54985   0.51808    0.014
 5113.00    0.64089   0.51731    0.014
 5114.00    0.63671   0.52033    0.015
 5115.00    0.52017   0.53048    0.015
 5116.00    0.43718   0.53886    0.015
 5117.00    0.38910   0.54210    0.015
 5118.00    0.40829   0.54309    0.015
 5119.00    0.48922   0.54468    0.015
 5120.00    0.52262   0.54964    0.014
 5121.00    0.51757   0.55425    0.014
 5122.00    0.47164   0.55322    0.014
 5123.00    0.39661   0.54687    0.014
 5124.00    0.35187   0.53789    0.014
 5125.00    0.32607   0.52783    0.014
 5126.00    0.37621   0.51539    0.014
 5127.00    0.46782   0.50426    0.015
 5128.00    0.51586   0.50214    0.015
 5129.00    0.54324   0.50687    0.014
 5130.00    0.59654   0.51012    0.015
 5131.00    0.66043   0.50892    0.015
 5132.00    0.61546   0.50630    0.014
 5133.00    0.53243   0.50770    0.014
 5134.00    0.52796   0.51465    0.014
 5135.00    0.54665   0.52052    0.014
 5136.00    0.51489   0.52125    0.014
 5137.00    0.47081   0.52295    0.015
 5138.00    0.47087   0.53050    0.015
 5139.00    0.47965   0.53312    0.014
 5140.00    0.53804   0.52328    0.014
 5141.00    0.60407   0.51021    0.014
 5142.00    0.55253   0.50066    0.014
 5143.00    0.48760   0.50172    0.014
 5144.00    0.52395   0.51095    0.014
 5145.00    0.56801   0.50912    0.014
 5146.00    0.51603   0.50116    0.014
 5147.00    0.46010   0.50606    0.014
 5148.00    0.34043   0.51392    0.014
 5149.00    0.22584   0.51074    0.014
 5150.00    0.34662   0.50359    0.014
 5151.00    0.46698   0.50215    0.014
 5152.00    0.57999   0.50789    0.014
 5153.00    0.67265   0.51280    0.014
 5154.00    0.54874   0.50984    0.014
 5155.00    0.44247   0.50400    0.014
 5156.00    0.46900   0.49980    0.014
 5157.00    0.48489   0.49748    0.014
 5158.00    0.43985   0.50131    0.014
 5159.00    0.40721   0.51213    0.014
 5160.00    0.43103   0.52411    0.014
 5161.00    0.45077   0.53170    0.014
 5162.00    0.45534   0.53304    0.014
 5163.00    0.45350   0.53209    0.014
 5164.00    0.43166   0.52942    0.014
 5165.00    0.42830   0.52143    0.014
 5166.00    0.47389   0.51453    0.014
 5167.00    0.50278   0.51145    0.014
 5168.00    0.49369   0.49941    0.014
 5169.00    0.44937   0.47059    0.014
 5170.00    0.33567   0.43364    0.014
 5171.00    0.30485   0.41019    0.014
 5172.00    0.41626   0.41766    0.014
 5173.00    0.46686   0.44560    0.014
 5174.00    0.42607   0.45721    0.014
 5175.00    0.40512   0.43517    0.014
 5176.00    0.41039   0.41607    0.014
 5177.00    0.41601   0.43758    0.014
 5178.00    0.42202   0.48026    0.014
 5179.00    0.43423   0.50630    0.014
 5180.00    0.45281   0.51291    0.014
 5181.00    0.45265   0.51551    0.014
 5182.00    0.43554   0.51694    0.014
 5183.00    0.44545   0.51376    0.013
 5184.00    0.47689   0.50474    0.013
 5185.00    0.43060   0.48199    0.013
 5186.00    0.32977   0.44169    0.013
 5187.00    0.31548   0.41303    0.014
 5188.00    0.35445   0.42842    0.014
 5189.00    0.36589   0.46942    0.014
 5190.00    0.36252   0.49721    0.000
 5191.00    0.36472   0.50159    0.000
 5192.00    0.36952   0.50026    0.000
 5193.00    0.41170   0.50558    0.000
 5194.00    0.46893   0.50050    0.000
 5195.00    0.47001   0.47931    0.000
 5196.00    0.45181   0.46989    0.000
 5197.00    0.38628   0.48030    0.000
 5198.00    0.30708   0.48748    0.000
 5199.00    0.36701   0.48611    0.000
 5200.00    0.46017   0.48771    0.000
 5201.00    0.41580   0.49394    0.000
 5202.00    0.34496   0.50286    0.000
 5203.00    0.39496   0.51111    0.000
 5204.00    0.46303   0.51342    0.000
 5205.00    0.48289   0.51031    0.000
 5206.00    0.49748   0.50550    0.000
 5207.00    0.45136   0.49507    0.000
 5208.00    0.40087   0.47623    0.000
 5209.00    0.45921   0.46263    0.000
 5210.00    0.52161   0.46278    0.000
 5211.00    0.42659   0.46379    0.014
 5212.00    0.33533   0.46323    0.014
 5213.00    0.40711   0.47223    0.014
 5214.00    0.46982   0.48791    0.014
 5215.00    0.38531   0.50324    0.014
 5216.00    0.31016   0.51508    0.014
 5217.00    0.33026   0.51688    0.014
 5218.00    0.35951   0.50522    0.014
 5219.00    0.45532   0.48986    0.014
 5220.00    0.54569   0.48542    0.014
 5221.00    0.60573   0.49479    0.014
 5222.00    0.62449   0.50897    0.014
 5223.00    0.45963   0.51861    0.014
 5224.00    0.33026   0.52260    0.014
 5225.00    0.33052   0.52263    0.014
 5226.00    0.36980   0.51710    0.014
 5227.00    0.52849   0.50469    0.014
 5228.00    0.60384   0.48520    0.014
 5229.00    0.46231   0.45880    0.014
 5230.00    0.38069   0.43813    0.014
 5231.00    0.43306   0.44593    0.014
 5232.00    0.45129   0.47640    0.014
 5233.00    0.40337   0.50036    0.014
 5234.00    0.40372   0.50890    0.014
 5235.00    0.48568   0.50415    0.014
 5236.00    0.52064   0.48842    0.014
 5237.00    0.48600   0.47606    0.014
 5238.00    0.43097   0.47727    0.014
 5239.00    0.34940   0.48905    0.014
 5240.00    0.30958   0.50310    0.014
 5241.00    0.31762   0.51184    0.013
 5242.00    0.35682   0.51430    0.013
 5243.00    0.42753   0.51446    0.014
 5244.00    0.43444   0.51561    0.014
 5245.00    0.38442   0.51534    0.014
 5246.00    0.36236   0.51261    0.014
 5247.00    0.36228   0.51447    0.014
 5248.00    0.36701   0.52027    0.014
 5249.00    0.37506   0.51633    0.013
 5250.00    0.41106   0.50101    0.014
 5251.00    0.46398   0.49139    0.014
 5252.00    0.47630   0.49187    0.014
 5253.00    0.46713   0.48941    0.014
 5254.00    0.49625   0.48528    0.014
 5255.00    0.54295   0.48997    0.014
 5256.00    0.54750   0.49802    0.014
 5257.00    0.53540   0.49759    0.014
 5258.00    0.47079   0.49017    0.014
 5259.00    0.38851   0.49078    0.014
 5260.00    0.40739   0.50480    0.014
 5261.00    0.45491   0.51938    0.014
 5262.00    0.52841   0.52426    0.014
 5263.00    0.60799   0.51886    0.014
 5264.00    0.58856   0.50506    0.014
 5265.00    0.55057   0.48547    0.014
 5266.00    0.51508   0.46506    0.015
 5267.00    0.47996   0.44822    0.015
 5268.00    0.49107   0.43601    0.015
 5269.00    0.50704   0.43187    0.015
 5270.00    0.49895   0.44283    0.015
 5271.00    0.48921   0.45629    0.015
 5272.00    0.49342   0.44531    0.015
 5273.00    0.49811   0.42247    0.015
 5274.00    0.44857   0.42793    0.015
 5275.00    0.40111   0.45788    0.015
 5276.00    0.42206   0.47734    0.015
 5277.00    0.44552   0.47756    0.015
 5278.00    0.50712   0.46861    0.014
 5279.00    0.55443   0.46404    0.014
 5280.00    0.46236   0.47807    0.014
 5281.00    0.38842   0.50125    0.014
 5282.00    0.44212   0.51124    0.014
 5283.00    0.49166   0.50498    0.014
 5284.00    0.51859   0.49371    0.014
 5285.00    0.53053   0.48459    0.014
 5286.00    0.47737   0.47634    0.014
 5287.00    0.43984   0.47074    0.014
 5288.00    0.45823   0.47945    0.014
 5289.00    0.45449   0.50184    0.014
 5290.00    0.38430   0.51872    0.014
 5291.00    0.35883   0.52080    0.014
 5292.00    0.44775   0.51762    0.014
 5293.00    0.51566   0.51867    0.014
 5294.00    0.53738   0.52176    0.014
 5295.00    0.54147   0.52040    0.014
 5296.00    0.51188   0.51477    0.014
 5297.00    0.46808   0.51079    0.014
 5298.00    0.40058   0.50882    0.014
 5299.00    0.35425   0.50069    0.014
 5300.00    0.33883   0.48267    0.014
 5301.00    0.32813   0.46613    0.014
 5302.00    0.32349   0.46716    0.014
 5303.00    0.35319   0.48171    0.014
 5304.00    0.42172   0.48992    0.014
 5305.00    0.44896   0.48849    0.014
 5306.00    0.43501   0.49104    0.014
 5307.00    0.40499   0.50233    0.014
 5308.00    0.36082   0.51288    0.014
 5309.00    0.37274   0.51367    0.014
 5310.00    0.42814   0.50694    0.014
 5311.00    0.44543   0.50265    0.014
 5312.00    0.43675   0.50642    0.014
 5313.00    0.41226   0.51307    0.014
 5314.00    0.37831   0.51550    0.014
 5315.00    0.36252   0.51323    0.014
 5316.00    0.35619   0.50867    0.014
 5317.00    0.40128   0.50450    0.014
 5318.00    0.46960   0.50028    0.013
 5319.00    0.50905   0.49053    0.013
 5320.00    0.53727   0.48028    0.014
 5321.00    0.47925   0.48241    0.013
 5322.00    0.39273   0.49282    0.013
 5323.00    0.40082   0.49895    0.013
 5324.00    0.43515   0.49980    0.014
 5325.00    0.46704   0.49820    0.014
 5326.00    0.49836   0.49163    0.014
 5327.00    0.44532   0.47927    0.014
 5328.00    0.37688   0.47142    0.014
 5329.00    0.42814   0.47266    0.014
 5330.00    0.49618   0.46456    0.014
 5331.00    0.48425   0.43779    0.014
 5332.00    0.46425   0.42110    0.014
 5333.00    0.40879   0.43911    0.014
 5334.00    0.35104   0.47120    0.014
 5335.00    0.42581   0.48775    0.014
 5336.00    0.50410   0.48829    0.014
 5337.00    0.40782   0.48903    0.014
 5338.00    0.31648   0.49457    0.014
 5339.00    0.36632   0.49628    0.014
 5340.00    0.41225   0.49194    0.014
 5341.00    0.40227   0.48794    0.014
 5342.00    0.39170   0.48297    0.014
 5343.00    0.37575   0.47076    0.014
 5344.00    0.35533   0.46095    0.014
 5345.00    0.30440   0.46803    0.014
 5346.00    0.26965   0.48452    0.014
 5347.00    0.32031   0.49406    0.014
 5348.00    0.37312   0.49264    0.013
 5349.00    0.43509   0.48607    0.014
 5350.00    0.46052   0.48301    0.014
 5351.00    0.35784   0.48236    0.014
 5352.00    0.28545   0.47779    0.014
 5353.00    0.30233   0.47601    0.014
 5354.00    0.31315   0.48460    0.014
 5355.00    0.30873   0.49559    0.014
 5356.00    0.33600   0.49936    0.014
 5357.00    0.43186   0.50065    0.014
 5358.00    0.48493   0.50640    0.014
 5359.00    0.45764   0.51238    0.014
 5360.00    0.42233   0.51389    0.014
 5361.00    0.37386   0.51326    0.014
 5362.00    0.34951   0.51274    0.014
 5363.00    0.35985   0.51109    0.014
 5364.00    0.37887   0.50514    0.014
 5365.00    0.40891   0.49449    0.014
 5366.00    0.43665   0.48508    0.013
 5367.00    0.46186   0.48079    0.013
 5368.00    0.46226   0.47813   -2.000
 5369.00    0.43826   0.47668   -2.000
 5370.00    0.46841   0.47779   -2.000
 5371.00    0.54550   0.47819   -2.000
 5372.00    0.57163   0.47342   -2.000
 5373.00    0.55881   0.46005   -2.000
 5374.00    0.57028   0.44449   -2.000
 5375.00    0.59805   0.44337   -2.000
 5376.00    0.58590   0.46198   -2.000
 5377.00    0.55026   0.48468   -2.000
 5378.00    0.52937   0.49741   -2.000
 5379.00    0.51602   0.50034   -2.000
 5380.00    0.48161   0.49745   -2.000
 5381.00    0.43783   0.49456   -2.000
 5382.00    0.43893   0.49385   -2.000
 5383.00    0.45715   0.49057    0.013
 5384.00    0.41084   0.48455    0.013
 5385.00    0.34359   0.48047    0.013
 5386.00    0.38563   0.47789    0.013
 5387.00    0.45733   0.47810    0.013
 5388.00    0.42644   0.48462    0.013
 5389.00    0.37270   0.49134    0.013
 5390.00    0.39088   0.49195    0.013
 5391.00    0.42184   0.48872    0.013
 5392.00    0.40742   0.48359    0.013
 5393.00    0.38684   0.47701    0.013
 5394.00    0.37138   0.47186    0.013
 5395.00    0.35641   0.46944    0.013
 5396.00    0.42261   0.46803    0.013
 5397.00    0.49371   0.46773    0.013
 5398.00    0.42830   0.46829    0.013
 5399.00    0.36000   0.46321    0.014
 5400.00    0.40389   0.45057    0.014
 5401.00    0.44618   0.44579    0.013
 5402.00    0.44721   0.45699    0.013
 5403.00    0.45851   0.46831    0.013
 5404.00    0.60906   0.47089    0.015
 5405.00    0.73092   0.47217    0.017
 5406.00    0.59474   0.47029    0.017
 5407.00    0.48715   0.45679    0.017
 5408.00    0.56846   0.43774    0.017
 5409.00    0.61575   0.42869    0.017
 5410.00    0.48813   0.43643    0.015
 5411.00    0.38141   0.45105    0.014
 5412.00    0.36141   0.45590    0.013
 5413.00    0.35881   0.44945    0.013
 5414.00    0.41598   0.44782    0.013
 5415.00    0.46277   0.45935    0.014
 5416.00    0.47952   0.47217    0.014
 5417.00    0.46689   0.47421    0.014
 5418.00    0.38168   0.46981    0.014
 5419.00    0.35279   0.47110    0.014
 5420.00    0.44383   0.47953    0.013
 5421.00    0.48672   0.48480    0.013
 5422.00    0.44058   0.48206    0.013
 5423.00    0.41175   0.47586    0.013
 5424.00    0.41089   0.47208    0.013
 5425.00    0.43715   0.47349    0.013
 5426.00    0.50185   0.47329    0.013
 5427.00    0.54673   0.46428    0.013
 5428.00    0.56689   0.45748    0.013
 5429.00    0.53516   0.46565    0.013
 5430.00    0.44640   0.48015    0.013
 5431.00    0.42168   0.48271    0.013
 5432.00    0.45903   0.46640    0.013
 5433.00    0.45825   0.44794    0.013
 5434.00    0.42486   0.44934    0.013
 5435.00    0.41590   0.46090    0.013
 5436.00    0.42534   0.46068    0.013
 5437.00    0.42181   0.45110    0.013
 5438.00    0.40971   0.44510    0.013
 5439.00    0.39867   0.44776    0.013
 5440.00    0.38825   0.45742    0.013
 5441.00    0.36681   0.47045    0.013
 5442.00    0.33980   0.48237    0.013
 5443.00    0.34910   0.48892    0.013
 5444.00    0.37426   0.49024    0.013
 5445.00    0.39978   0.48945    0.013
 5446.00    0.42543   0.48851    0.013
 5447.00    0.41542   0.48427    0.013
 5448.00    0.39407   0.47193    0.013
 5449.00    0.43996   0.45270    0.013
 5450.00    0.50373   0.43754    0.013
 5451.00    0.50464   0.44062    0.013
 5452.00    0.49188   0.45901    0.013
 5453.00    0.46160   0.47429    0.013
 5454.00    0.42829   0.47882    0.013
 5455.00    0.41259   0.47745    0.013
 5456.00    0.39919   0.47366    0.013
 5457.00    0.38425   0.46479    0.013
 5458.00    0.36916   0.44859    0.013
 5459.00    0.40899   0.43655    0.013
 5460.00    0.45191   0.44389    0.014
 5461.00    0.41899   0.46349    0.013
 5462.00    0.38496   0.47647    0.013
 5463.00    0.41339   0.47753    0.013
 5464.00    0.43952   0.47178    0.013
 5465.00    0.41178   0.46246    0.013
 5466.00    0.38457   0.45147    0.013
 5467.00    0.36422   0.44767    0.013
 5468.00    0.35382   0.45535    0.013
 5469.00    0.42959   0.46302    0.013
 5470.00    0.48881   0.46424    0.013
 5471.00    0.44198   0.46567    0.013
 5472.00    0.41545   0.46825    0.013
 5473.00    0.49073   0.46685    0.013
 5474.00    0.53089   0.46338    0.013
 5475.00    0.42853   0.46169    0.013
 5476.00    0.37035   0.45840    0.013
 5477.00    0.46090   0.45325    0.013
 5478.00    0.51770   0.44963   -2.000
 5479.00    0.47867   0.44048   -2.000
 5480.00    0.43177   0.42640   -2.000
 5481.00    0.36575   0.42666   -2.000
 5482.00    0.38706   0.44351   -2.000
 5483.00    0.59131   0.45501   -2.000
 5484.00    0.78376   0.45071   -2.000
 5485.00    0.95468   0.44337   -2.000
 5486.00    1.23975   0.44577   -2.000
 5487.00    1.70653   0.45550   -2.000
 5488.00    1.91721   0.46530   -2.000
 5489.00    1.77013   0.46862   -2.000
 5490.00    1.53997   0.46161   -2.000
 5491.00    1.20768   0.45198   -2.000
 5492.00    0.82823   0.45079   -2.000
 5493.00    0.39768   0.45567   -2.000
 5494.00    0.18425   0.45915   -2.000
 5495.00    0.17837   0.46090   -2.000
 5496.00    0.26244   0.45976   -2.000
 5497.00    0.42233   0.45641   -2.000
 5498.00    0.45364   0.45695   -2.000
 5499.00    0.38952   0.45909   -2.000
 5500.00    0.36602   0.45521   -2.000
 5501.00    0.36900   0.45053   -2.000
 5502.00    0.40235   0.45540    0.013
 5503.00    0.45302   0.46266    0.013
 5504.00    0.41766   0.45883    0.013
 5505.00    0.33954   0.44826    0.013
 5506.00    0.34466   0.44381    0.013
 5507.00    0.38555   0.44745    0.013
 5508.00    0.36062   0.45070    0.013
 5509.00    0.31144   0.44662    0.013
 5510.00    0.37699   0.44064    0.013
 5511.00    0.47836   0.44336    0.013
 5512.00    0.41841   0.45054    0.013
 5513.00    0.31648   0.45215    0.013
 5514.00    0.36471   0.44885    0.013
 5515.00    0.44481   0.44313    0.013
 5516.00    0.42148   0.43764    0.013
 5517.00    0.38078   0.43752    0.013
 5518.00    0.40896   0.44257    0.013
 5519.00    0.44587   0.44828    0.013
 5520.00    0.48292   0.45263    0.013
 5521.00    0.51999   0.45757    0.013
 5522.00    0.44071   0.46315    0.013
 5523.00    0.35535   0.46504    0.013
 5524.00    0.33037   0.46293    0.013
 5525.00    0.30633   0.46072    0.013
 5526.00    0.26868   0.46021    0.013
 5527.00    0.23420   0.45993    0.013
 5528.00    0.26767   0.45695    0.013
 5529.00    0.30531   0.45000    0.013
 5530.00    0.39386   0.44009    0.013
 5531.00    0.46877   0.42968    0.012
 5532.00    0.42990   0.42645    0.013
 5533.00    0.40100   0.43608    0.013
 5534.00    0.43411   0.44939    0.013
 5535.00    0.46431   0.45494    0.013
 5536.00    0.48023   0.45314    0.012
 5537.00    0.47777   0.44795    0.012
 5538.00    0.40232   0.44182    0.012
 5539.00    0.34645   0.44036    0.012
 5540.00    0.35517   0.44574    0.012
 5541.00    0.36625   0.45062    0.012
 5542.00    0.38396   0.45261    0.012
 5543.00    0.40622   0.45618    0.012
 5544.00    0.43935   0.46035    0.013
 5545.00    0.46973   0.46031    0.013
 5546.00    0.49445   0.45468    0.013
 5547.00    0.49230   0.44832    0.013
 5548.00    0.44196   0.44656    0.013
 5549.00    0.40144   0.44747    0.013
 5550.00    0.37634   0.44904    0.013
 5551.00    0.36877   0.45356    0.013
 5552.00    0.38533   0.45929    0.013
 5553.00    0.40218   0.46220    0.013
 5554.00    0.41938   0.46236    0.013
 5555.00    0.40577   0.46070    0.013
 5556.00    0.35924   0.45675    0.013
 5557.00    0.35199   0.45113    0.013
 5558.00    0.38174   0.44730    0.013
 5559.00    0.39492   0.44851    0.013
 5560.00    0.39433   0.45125    0.013
 5561.00    0.35585   0.45120    0.013
 5562.00    0.28966   0.45048    0.013
 5563.00    0.25888   0.45084    0.013
 5564.00    0.25084   0.45025    0.013
 5565.00    0.26913   0.44726    0.013
 5566.00    0.30222   0.44276    0.012
 5567.00    0.34275   0.44043    0.012
 5568.00    0.38692   0.44066    0.013
 5569.00    0.36921   0.43915    0.012
 5570.00    0.32534   0.43702    0.012
 5571.00    0.31335   0.43726    0.012
 5572.00    0.31290   0.43679    0.012
 5573.00    0.32514   0.43554    0.012
 5574.00    0.34126   0.43825    0.012
 5575.00    0.36670   0.43984    0.012
 5576.00    0.39452   0.43441    0.012
 5577.00    0.41714   0.43290    0.012
 5578.00    0.43869   0.43983    0.012
 5579.00    0.40967   0.44367    0.012
 5580.00    0.37240   0.44315    0.012
 5581.00    0.42999   0.44446    0.012
 5582.00    0.49917   0.44614    0.012
 5583.00    0.45710   0.44713    0.012
 5584.00    0.40568   0.44763    0.012
 5585.00    0.45622   0.44540    0.012
 5586.00    0.51170   0.44310    0.012
 5587.00    0.49023   0.44360    0.012
 5588.00    0.46691   0.44187    0.012
 5589.00    0.40230   0.43298    0.012
 5590.00    0.34341   0.41881    0.013
 5591.00    0.39811   0.40737    0.013
 5592.00    0.44566   0.40459    0.013
 5593.00    0.41017   0.40989    0.013
 5594.00    0.38726   0.41958    0.013
 5595.00    0.46552   0.42767    0.013
 5596.00    0.53659   0.42943    0.013
 5597.00    0.56423   0.42593    0.013
 5598.00    0.56775   0.42493    0.013
 5599.00    0.45631   0.43300    0.013
 5600.00    0.37588   0.44158    0.013
 5601.00    0.41590   0.43805    0.013
 5602.00    0.44146   0.42845    0.013
 5603.00    0.42025   0.42462    0.013
 5604.00    0.40543   0.42312    0.013
 5605.00    0.40807   0.41809    0.013
 5606.00    0.41218   0.41487    0.013
 5607.00    0.41972   0.42079    0.013
 5608.00    0.43543   0.43478    0.013
 5609.00    0.46769   0.44675    0.013
 5610.00    0.48049   0.45165    0.012
 5611.00    0.45895   0.45166    0.012
 5612.00    0.44016   0.45003    0.012
 5613.00    0.42564   0.44887    0.012
 5614.00    0.40222   0.44931    0.012
 5615.00    0.36675   0.45139    0.012
 5616.00    0.34031   0.45217    0.012
 5617.00    0.32465   0.44475    0.012
 5618.00    0.34815   0.42595    0.012
 5619.00    0.41292   0.40909    0.012
 5620.00    0.42042   0.41121    0.012
 5621.00    0.37472   0.42477    0.012
 5622.00    0.32728   0.43173    0.012
 5623.00    0.27843   0.43151    0.012
 5624.00    0.30566   0.43268    0.012
 5625.00    0.38774   0.43684    0.012
 5626.00    0.41703   0.43785    0.012
 5627.00    0.41289   0.42992    0.012
 5628.00    0.41598   0.41845    0.012
 5629.00    0.42308   0.41639    0.012
 5630.00    0.42699   0.42398    0.012
 5631.00    0.42937   0.43123    0.012
 5632.00    0.42809   0.43593    0.012
 5633.00    0.42529   0.44063    0.012
 5634.00    0.41840   0.44388    0.012
 5635.00    0.41005   0.44444    0.012
 5636.00    0.39298   0.44236    0.012
 5637.00    0.37329   0.43826    0.012
 5638.00    0.38351   0.43447    0.012
 5639.00    0.40118   0.43131    0.012
 5640.00    0.37825   0.42670    0.012
 5641.00    0.34713   0.42278    0.012
 5642.00    0.35804   0.42376    0.012
 5643.00    0.37560   0.42698    0.012
 5644.00    0.40724   0.42599    0.012
 5645.00    0.44054   0.42268    0.012
 5646.00    0.39687   0.42314    0.012
 5647.00    0.34706   0.42596    0.012
 5648.00    0.37407   0.42825    0.012
 5649.00    0.40450   0.43029    0.012
 5650.00    0.40939   0.43237    0.012
 5651.00    0.41374   0.43384    0.012
 5652.00    0.40581   0.43310    0.012
 5653.00    0.39770   0.43062    0.012
 5654.00    0.38626   0.42991    0.012
 5655.00    0.37764   0.43279    0.012
 5656.00    0.40025   0.43538    0.012
 5657.00    0.42129   0.43278    0.012
 5658.00    0.43027   0.42619    0.012
 5659.00    0.43444   0.42273    0.012
 5660.00    0.41036   0.42162    0.012
 5661.00    0.38354   0.41224    0.012
 5662.00    0.34390   0.39990    0.012
 5663.00    0.31284   0.40221    0.011
 5664.00    0.31438   0.41411    0.011
 5665.00    0.32510   0.41718    0.011
 5666.00    0.36498   0.41270    0.011
 5667.00    0.38939   0.41437    0.011
 5668.00    0.37220   0.42310    0.011
 5669.00    0.34773   0.42866    0.011
 5670.00    0.30646   0.42649    0.011
 5671.00    0.29781   0.42143    0.012
 5672.00    0.35427   0.41950    0.012
 5673.00    0.38040   0.42115    0.012
 5674.00    0.35376   0.42396    0.012
 5675.00    0.34308   0.42771    0.012
 5676.00    0.35671   0.43326    0.012
 5677.00    0.37542   0.43774    0.012
 5678.00    0.40093   0.43695    0.012
 5679.00    0.39115   0.43377    0.012
 5680.00    0.33978   0.43421    0.012
 5681.00    0.32684   0.43589    0.012
 5682.00    0.35379   0.43402    0.012
 5683.00    0.40230   0.43103    0.012
 5684.00    0.47055   0.42927    0.012
 5685.00    0.47453   0.42511    0.012
 5686.00    0.42662   0.41807    0.012
 5687.00    0.37904   0.41532    0.012
 5688.00    0.33170   0.41865    0.012
 5689.00    0.30080   0.42110    0.012
 5690.00    0.28017   0.41836    0.012
 5691.00    0.31368   0.41383    0.012
 5692.00    0.37669   0.41349    0.012
 5693.00    0.41575   0.41839    0.012
 5694.00    0.44346   0.42435    0.012
 5695.00    0.44778   0.42834    0.012
 5696.00    0.44256   0.43095    0.012
 5697.00    0.43270   0.43138    0.012
 5698.00    0.42123   0.42972    0.012
 5699.00    0.40240   0.42879    0.012
 5700.00    0.38141   0.42918    0.012
 5701.00    0.38738   0.42711    0.012
 5702.00    0.39993   0.42218    0.012
 5703.00    0.36441   0.41878    0.012
 5704.00    0.31942   0.41555    0.012
 5705.00    0.30149   0.41123    0.011
 5706.00    0.28771   0.41075    0.011
 5707.00    0.30260   0.41550    0.011
 5708.00    0.32074   0.41909    0.011
 5709.00    0.33393   0.41584    0.011
 5710.00    0.34674   0.40892    0.011
 5711.00    0.32208   0.40336    0.011
 5712.00    0.29591   0.39837    0.011
 5713.00    0.28224   0.39535    0.011
 5714.00    0.26899   0.39676    0.011
 5715.00    0.26921   0.39904    0.011
 5716.00    0.27135   0.40340    0.011
 5717.00    0.30656   0.41249    0.011
 5718.00    0.33537   0.42002    0.011
 5719.00    0.29645   0.42304    0.011
 5720.00    0.25795   0.42427    0.011
 5721.00    0.22266   0.42401    0.011
 5722.00    0.19537   0.42397    0.012
 5723.00    0.21376   0.42617    0.012
 5724.00    0.23628   0.42851    0.012
 5725.00    0.27756   0.43056    0.012
 5726.00    0.31386   0.43276    0.012
 5727.00    0.33161   0.43337    0.012
 5728.00    0.33763   0.43220    0.012
 5729.00    0.30713   0.42950    0.012
 5730.00    0.30128   0.42429    0.011
 5731.00    0.36059   0.42013    0.011
 5732.00    0.39082   0.42198    0.012
 5733.00    0.35506   0.42584    0.011
 5734.00    0.33154   0.42466    0.011
 5735.00    0.33208   0.41992    0.012
 5736.00    0.33657   0.41905    0.012
 5737.00    0.34781   0.42375    0.011
 5738.00    0.37325   0.42797    0.011
 5739.00    0.42000   0.42870    0.011
 5740.00    0.43062   0.42700    0.000
 5741.00    0.39360   0.42485    0.000
 5742.00    0.35378   0.42358    0.000
 5743.00    0.31071   0.42328    0.000
 5744.00    0.29468   0.42315    0.000
 5745.00    0.30635   0.42236    0.000
 5746.00    0.30257   0.42096    0.000
 5747.00    0.28484   0.42086    0.000
 5748.00    0.29127   0.42379    0.000
 5749.00    0.31694   0.42710    0.000
 5750.00    0.34605   0.42590    0.000
 5751.00    0.37757   0.41954    0.000
 5752.00    0.39396   0.41487    0.000
 5753.00    0.40106   0.41779    0.000
 5754.00    0.36733   0.42300    0.000
 5755.00    0.31170   0.42208    0.000
 5756.00    0.29744   0.41380    0.000
 5757.00    0.30245   0.40438    0.000
 5758.00    0.33689   0.40227    0.000
 5759.00    0.38314   0.40971    0.000
 5760.00    0.38088   0.41936    0.000
 5761.00    0.36202   0.42439    0.000
 5762.00    0.36986   0.42445    0.000
 5763.00    0.38541   0.42084    0.000
 5764.00    0.38978   0.41509    0.000
 5765.00    0.39148   0.40825    0.000
 5766.00    0.42992   0.40281    0.000
 5767.00    0.47541   0.40454    0.000
 5768.00    0.47240   0.41403    0.000
 5769.00    0.46217   0.42238    0.000
 5770.00    0.47059   0.42500    0.000
 5771.00    0.48103   0.42499    0.000
 5772.00    0.49340   0.42418    0.000
 5773.00    0.50590   0.42260    0.000
 5774.00    0.49875   0.42100    0.000
 5775.00    0.49088   0.41900    0.000
 5776.00    0.49680   0.41675    0.000
 5777.00    0.50191   0.41588    0.000
 5778.00    0.47636   0.41547    0.000
 5779.00    0.44867   0.41578    0.000
 5780.00    0.38652   0.41813    0.000
 5781.00    0.32895   0.41997    0.000
 5782.00    0.31780   0.41870    0.000
 5783.00    0.30988   0.41281    0.000
 5784.00    0.32534   0.40261    0.000
 5785.00    0.34571   0.39371    0.000
 5786.00    0.39334   0.39231    0.000
 5787.00    0.43219   0.39488    0.000
 5788.00    0.43207   0.39439    0.000
 5789.00    0.43303   0.39315    0.000
 5790.00    0.43792   0.39781    0.000
 5791.00    0.44698   0.40596   -2.000
 5792.00    0.46873   0.41103   -2.000
 5793.00    0.49741   0.41178   -2.000
 5794.00    0.54406   0.40847   -2.000
 5795.00    0.58639   0.40535   -2.000
 5796.00    0.61911   0.40750   -2.000
 5797.00    0.64344   0.41181   -2.000
 5798.00    0.65157   0.41534   -2.000
 5799.00    0.63776   0.41750   -2.000
 5800.00    0.58696   0.41526   -2.000
 5801.00    0.55085   0.40952   -2.000
 5802.00    0.53647   0.40768   -2.000
 5803.00    0.51151   0.41306   -2.000
 5804.00    0.47277   0.41970   -2.000
 5805.00    0.44760   0.42295   -2.000
 5806.00    0.43796   0.42305   -2.000
 5807.00    0.42496   0.41903   -2.000
 5808.00    0.40856   0.41229   -2.000
 5809.00    0.39690   0.40834   -2.000
 5810.00    0.38946   0.40866   -2.000
 5811.00    0.38174   0.41110    0.000
 5812.00    0.37381   0.41305    0.000
 5813.00    0.40216   0.41372    0.000
 5814.00    0.45555   0.41496    0.000
 5815.00    0.48026   0.41680    0.000
 5816.00    0.48762   0.41702    0.000
 5817.00    0.50856   0.41541    0.000
 5818.00    0.53668   0.41219    0.000
 5819.00    0.55396   0.40746    0.000
 5820.00    0.56626   0.40455    0.000
 5821.00    0.52824   0.40757    0.000
 5822.00    0.47036   0.41415    0.000
 5823.00    0.45315   0.41852    0.000
 5824.00    0.44961   0.41961    0.000
 5825.00    0.46218   0.41892    0.000
 5826.00    0.47930   0.41719    0.000
 5827.00    0.46575   0.41575    0.000
 5828.00    0.44506   0.41574    0.000
 5829.00    0.45122   0.41651    0.000
 5830.00    0.46240   0.41643    0.000
 5831.00    0.43752   0.41609    0.000
 5832.00    0.40743   0.41647    0.000
 5833.00    0.41014   0.41734    0.000
 5834.00    0.41628   0.41731    0.000
 5835.00    0.40010   0.41616    0.000
 5836.00    0.38241   0.41552    0.000
 5837.00    0.39385   0.41462    0.000
 5838.00    0.40626   0.41226    0.000
 5839.00    0.42946   0.41097    0.000
 5840.00    0.45180   0.41255    0.000
 5841.00    0.44683   0.41308    0.000
 5842.00    0.44035   0.41141    0.000
 5843.00    0.41111   0.41191    0.000
 5844.00    0.38040   0.41487    0.000
 5845.00    0.33538   0.41718    0.000
 5846.00    0.29962   0.41774    0.000
 5847.00    0.32879   0.41724    0.000
 5848.00    0.35850   0.41543    0.000
 5849.00    0.39120   0.41231    0.000
 5850.00    0.41409   0.40855    0.000
 5851.00    0.39453   0.40536    0.000
 5852.00    0.38291   0.40478    0.000
 5853.00    0.39966   0.40648    0.000
 5854.00    0.41349   0.40761    0.000
 5855.00    0.41857   0.40571    0.000
 5856.00    0.41063   0.39998    0.000
 5857.00    0.36951   0.39410    0.000
 5858.00    0.34101   0.39379    0.000
 5859.00    0.34018   0.39647    0.000
 5860.00    0.34518   0.39355    0.000
 5861.00    0.36125   0.38587    0.000
 5862.00    0.38270   0.38362    0.000
 5863.00    0.41307   0.38929    0.000
 5864.00    0.43411   0.39611    0.000
 5865.00    0.44154   0.39910    0.000
 5866.00    0.43703   0.39825    0.000
 5867.00    0.41721   0.39862    0.000
 5868.00    0.42751   0.40172    0.000
 5869.00    0.47180   0.40251    0.000
 5870.00    0.48886   0.39950    0.000
 5871.00    0.47882   0.39820    0.000
 5872.00    0.45223   0.40151    0.000
 5873.00    0.41111   0.40586    0.000
 5874.00    0.38442   0.40791    0.000
 5875.00    0.36890   0.40714    0.000
 5876.00    0.34631   0.40470    0.000
 5877.00    0.31892   0.40272    0.000
 5878.00    0.31190   0.40250    0.000
 5879.00    0.31701   0.40243    0.000
 5880.00    0.34083   0.40093    0.000
 5881.00    0.37439   0.39991    0.000
 5882.00    0.37929   0.39954    0.000
 5883.00    0.37128   0.39699    0.000
 5884.00    0.33637   0.39376    0.000
 5885.00    0.29103   0.39389    0.000
 5886.00    0.29052   0.39563    0.000
 5887.00    0.30479   0.39455    0.000
 5888.00    0.32967   0.39256    0.000
 5889.00    0.35749   0.39324    0.000
 5890.00    0.33864   0.39388    0.000
 5891.00    0.30918   0.38738    0.000
 5892.00    0.29473   0.36571    0.000
 5893.00    0.28302   0.33149    0.000
 5894.00    0.30343   0.31180    0.000
 5895.00    0.32832   0.32584    0.000
 5896.00    0.31763   0.35239    0.000
 5897.00    0.30337   0.36605    0.000
 5898.00    0.28916   0.36084    0.000
 5899.00    0.27496   0.34014    0.000
 5900.00    0.32023   0.32734    0.000
 5901.00    0.36710   0.34168    0.011
 5902.00    0.36824   0.36510    0.011
 5903.00    0.36889   0.37801    0.011
 5904.00    0.35575   0.38411    0.011
 5905.00    0.34275   0.38877    0.011
 5906.00    0.33163   0.39140    0.011
 5907.00    0.32258   0.39240    0.011
 5908.00    0.33287   0.39221    0.011
 5909.00    0.34378   0.39065    0.011
 5910.00    0.35887   0.38997    0.011
 5911.00    0.37070   0.39177    0.011
 5912.00    0.36532   0.39368    0.011
 5913.00    0.36609   0.39403    0.011
 5914.00    0.39287   0.39430    0.011
 5915.00    0.41564   0.39551    0.011
 5916.00    0.42440   0.39448    0.011
 5917.00    0.42372   0.38857    0.011
 5918.00    0.39524   0.38180    0.011
 5919.00    0.37236   0.38013    0.011
 5920.00    0.36352   0.38270    0.011
 5921.00    0.36283   0.38654    0.011
 5922.00    0.37974   0.38973    0.011
 5923.00    0.39460   0.39153    0.010
 5924.00    0.40562   0.39286    0.011
 5925.00    0.40008   0.39227    0.011
 5926.00    0.36743   0.38995    0.010
 5927.00    0.34377   0.38961    0.010
 5928.00    0.33303   0.39172    0.010
 5929.00    0.32621   0.39378    0.010
 5930.00    0.32434   0.39498    0.010
 5931.00    0.32616   0.39392    0.010
 5932.00    0.33208   0.38989    0.010
 5933.00    0.32758   0.38451    0.010
 5934.00    0.31285   0.38206    0.010
 5935.00    0.30938   0.38564    0.010
 5936.00    0.31566   0.39085    0.010
 5937.00    0.32028   0.39112    0.010
 5938.00    0.32361   0.38711    0.010
 5939.00    0.31841   0.38581    0.011
 5940.00    0.30749   0.38929    0.011
 5941.00    0.31242   0.39295    0.011
 5942.00    0.32666   0.39469    0.011
 5943.00    0.32823   0.39454    0.011
 5944.00    0.32332   0.39096    0.011
 5945.00    0.34937   0.38580    0.011
 5946.00    0.38915   0.38396    0.011
 5947.00    0.41823   0.38601    0.011
 5948.00    0.44323   0.38958    0.011
 5949.00    0.42301   0.39227    0.011
 5950.00    0.38815   0.39238    0.011
 5951.00    0.38038   0.38876    0.011
 5952.00    0.37995   0.38300    0.011
 5953.00    0.38326   0.38051    0.011
 5954.00    0.38741   0.38391    0.010
 5955.00    0.37301   0.38685    0.010
 5956.00    0.35534   0.38422    0.010
 5957.00    0.34980   0.38165    0.010
 5958.00    0.34591   0.38428    0.010
 5959.00    0.29722   0.38703    0.010
 5960.00    0.24423   0.38480    0.010
 5961.00    0.21147   0.38150    0.010
 5962.00    0.17991   0.38171    0.010
 5963.00    0.21846   0.38508    0.010
 5964.00    0.25855   0.38917    0.010
 5965.00    0.26046   0.39201    0.010
 5966.00    0.26153   0.39331    0.010
 5967.00    0.24105   0.39311    0.010
 5968.00    0.22296   0.39161    0.010
 5969.00    0.23704   0.38897    0.010
 5970.00    0.25218   0.38709    0.010
 5971.00    0.27683   0.38822    0.010
 5972.00    0.29852   0.39040    0.011
 5973.00    0.30067   0.39182    0.011
 5974.00    0.30074   0.39290    0.011
 5975.00    0.29011   0.39354    0.011
 5976.00    0.28918   0.39354    0.011
 5977.00    0.32841   0.39320    0.011
 5978.00    0.35663   0.39087    0.011
 5979.00    0.34708   0.38587    0.011
 5980.00    0.33460   0.38050    0.011
 5981.00    0.31367   0.37764    0.011
 5982.00    0.29392   0.37843    0.011
 5983.00    0.27707   0.38226    0.010
 5984.00    0.26442   0.38706    0.010
 5985.00    0.26069   0.38878    0.010
 5986.00    0.26028   0.38564    0.010
 5987.00    0.26602   0.37864    0.010
 5988.00    0.27266   0.37209    0.010
 5989.00    0.28075   0.37190    0.010
 5990.00    0.29413   0.37634    0.010
 5991.00    0.31501   0.37989    0.010
 5992.00    0.34081   0.38191    0.010
 5993.00    0.37275   0.38395    0.010
 5994.00    0.38093   0.38371    0.010
 5995.00    0.36306   0.38076    0.010
 5996.00    0.32353   0.38050    0.010
 5997.00    0.26304   0.38486    0.010
 5998.00    0.22360   0.38832    0.010
 5999.00    0.20213   0.38778    0.010
 6000.00    0.21530   0.38421    0.010
 6001.00    0.25452   0.37946    0.010
 6002.00    0.27641   0.37724    0.010
 6003.00    0.28686   0.37905    0.010
 6004.00    0.28821   0.38178    0.010
 6005.00    0.28429   0.38248    0.010
 6006.00    0.30868   0.37971    0.010
 6007.00    0.34732   0.37722    0.010
 6008.00    0.37584   0.37863    0.011
 6009.00    0.39993   0.37991    0.011
 6010.00    0.40600   0.37710    0.011
 6011.00    0.40532   0.37120    0.011
 6012.00    0.41318   0.36689    0.011
 6013.00    0.42375   0.37022    0.011
 6014.00    0.38290   0.37825    0.011
 6015.00    0.32841   0.38190    0.011
 6016.00    0.29031   0.37837    0.011
 6017.00    0.25577   0.37359    0.011
 6018.00    0.28250   0.37339    0.011
 6019.00    0.31979   0.37530    0.011
 6020.00    0.35674   0.37452    0.010
 6021.00    0.39364   0.37332    0.010
 6022.00    0.38799   0.37436    0.010
 6023.00    0.37844   0.37354    0.010
 6024.00    0.37514   0.36977    0.010
 6025.00    0.37220   0.36827    0.010
 6026.00    0.34425   0.37007    0.010
 6027.00    0.31608   0.37157    0.010
 6028.00    0.32088   0.37210    0.010
 6029.00    0.32534   0.37479    0.010
 6030.00    0.32205   0.37733    0.010
 6031.00    0.31909   0.37735    0.010
 6032.00    0.32030   0.37846    0.010
 6033.00    0.32554   0.38070    0.010
 6034.00    0.36553   0.38151    0.010
 6035.00    0.39949   0.38147    0.010
 6036.00    0.39493   0.38279    0.010
 6037.00    0.39157   0.38434    0.010
 6038.00    0.39418   0.38407    0.010
 6039.00    0.39106   0.38318    0.010
 6040.00    0.36472   0.38310    0.010
 6041.00    0.33817   0.38338    0.010
 6042.00    0.31088   0.38320    0.011
 6043.00    0.28809   0.38172    0.011
 6044.00    0.27800   0.37965    0.011
 6045.00    0.28201   0.37831    0.011
 6046.00    0.32019   0.37821    0.011
 6047.00    0.34459   0.38044    0.011
 6048.00    0.34015   0.38301    0.011
 6049.00    0.34137   0.38298    0.010
 6050.00    0.35286   0.38227    0.010
 6051.00    0.35462   0.38278    0.010
 6052.00    0.34091   0.38337    0.010
 6053.00    0.31806   0.38293    0.010
 6054.00    0.28246   0.38266    0.010
 6055.00    0.26303   0.38236    0.010
 6056.00    0.26344   0.38058    0.010
 6057.00    0.26574   0.37764    0.010
 6058.00    0.27009   0.37553    0.010
 6059.00    0.28652   0.37413    0.010
 6060.00    0.31447   0.37279    0.010
 6061.00    0.34090   0.37351    0.010
 6062.00    0.36603   0.37632    0.010
 6063.00    0.38033   0.37917    0.010
 6064.00    0.38659   0.38032    0.010
 6065.00    0.38571   0.37990    0.010
 6066.00    0.38020   0.37788    0.010
 6067.00    0.36994   0.37465    0.010
 6068.00    0.35699   0.36986    0.010
 6069.00    0.36170   0.36442    0.010
 6070.00    0.37518   0.36526    0.011
 6071.00    0.35886   0.37330    0.011
 6072.00    0.32976   0.38039    0.010
 6073.00    0.28985   0.38278    0.010
 6074.00    0.24596   0.38269    0.010
 6075.00    0.24452   0.38258    0.010
 6076.00    0.25630   0.38300    0.010
 6077.00    0.27933   0.38350    0.010
 6078.00    0.30529   0.38336    0.010
 6079.00    0.29302   0.38233    0.010
 6080.00    0.27265   0.38019    0.010
 6081.00    0.26342   0.37623    0.010
 6082.00    0.25607   0.37065    0.010
 6083.00    0.25175   0.36781    0.010
 6084.00    0.24781   0.36968    0.010
 6085.00    0.26704   0.37042    0.010
 6086.00    0.28829   0.36798    0.010
 6087.00    0.29772   0.36733    0.010
 6088.00    0.30653   0.36820    0.010
 6089.00    0.26847   0.36765    0.010
 6090.00    0.22987   0.36740    0.010
 6091.00    0.21391   0.36939    0.010
 6092.00    0.20002   0.37161    0.010
 6093.00    0.23020   0.37044    0.010
 6094.00    0.25844   0.36705    0.010
 6095.00    0.26303   0.36548    0.010
 6096.00    0.26827   0.36582    0.010
 6097.00    0.27884   0.36697    0.010
 6098.00    0.28630   0.36980    0.010
 6099.00    0.27450   0.37314    0.010
 6100.00    0.26387   0.37390    0.010
 6101.00    0.25892   0.37231    0.010
 6102.00    0.25473   0.37206    0.010
 6103.00    0.25358   0.37414    0.010
 6104.00    0.24539   0.37433    0.010
 6105.00    0.21409   0.36750    0.010
 6106.00    0.19237   0.35378    0.010
 6107.00    0.19731   0.34636    0.010
 6108.00    0.20950   0.35430    0.010
 6109.00    0.23895   0.36582    0.010
 6110.00    0.26228   0.37062    0.010
 6111.00    0.27304   0.36958    0.010
 6112.00    0.27948   0.36795    0.010
 6113.00    0.27822   0.36994    0.010
 6114.00    0.26869   0.37207    0.010
 6115.00    0.24623   0.37050    0.010
 6116.00    0.22874   0.36884    0.010
 6117.00    0.21806   0.37022    0.010
 6118.00    0.22349   0.37230    0.010
 6119.00    0.24840   0.37175    0.010
 6120.00    0.27031   0.36863    0.010
 6121.00    0.28901   0.36760    0.010
 6122.00    0.30321   0.36926    0.010
 6123.00    0.31318   0.36831    0.010
 6124.00    0.31166   0.36315    0.010
 6125.00    0.30060   0.35526    0.010
 6126.00    0.28892   0.34907    0.010
 6127.00    0.27679   0.35210    0.010
 6128.00    0.28168   0.36118    0.010
 6129.00    0.29749   0.36567    0.010
 6130.00    0.30824   0.36485    0.010
 6131.00    0.31614   0.36278    0.010
 6132.00    0.31522   0.36097    0.010
 6133.00    0.31001   0.36123    0.010
 6134.00    0.31374   0.36421    0.010
 6135.00    0.32124   0.36706    0.010
 6136.00    0.34023   0.36812    0.011
 6137.00    0.36336   0.36826    0.011
 6138.00    0.36544   0.36582    0.010
 6139.00    0.36110   0.35716    0.010
 6140.00    0.33908   0.34228    0.010
 6141.00    0.31257   0.33033    0.010
 6142.00    0.29001   0.33453    0.010
 6143.00    0.26827   0.35087    0.010
 6144.00    0.27947   0.36030    0.010
 6145.00    0.29602   0.35591    0.010
 6146.00    0.30991   0.35092    0.010
 6147.00    0.32347   0.35615    0.010
 6148.00    0.32399   0.36486    0.010
 6149.00    0.32341   0.36835    0.010
 6150.00    0.32262   0.36702    0.010
 6151.00    0.32181   0.36333    0.010
 6152.00    0.32457   0.35843    0.010
 6153.00    0.32746   0.35512    0.010
 6154.00    0.33433   0.35523    0.010
 6155.00    0.34046   0.35806    0.010
 6156.00    0.33221   0.36131    0.010
 6157.00    0.32253   0.36255    0.010
 6158.00    0.29650   0.36031    0.010
 6159.00    0.27410   0.35696    0.011
 6160.00    0.28077   0.35618    0.010
 6161.00    0.28863   0.35691    0.010
 6162.00    0.30363   0.35719    0.010
 6163.00    0.31698   0.35655    0.011
 6164.00    0.32252   0.35020    0.010
 6165.00    0.32542   0.33614    0.010
 6166.00    0.31813   0.32414    0.010
 6167.00    0.30553   0.32441    0.010
 6168.00    0.27579   0.33409    0.010
 6169.00    0.24153   0.34360    0.010
 6170.00    0.19491   0.34888    0.010
 6171.00    0.16002   0.35140    0.010
 6172.00    0.15258   0.34843    0.010
 6173.00    0.16099   0.33891    0.010
 6174.00    0.20147   0.33341    0.010
 6175.00    0.24050   0.33976    0.010
 6176.00    0.27696   0.34927    0.010
 6177.00    0.30158   0.35244    0.010
 6178.00    0.30792   0.35223    0.010
 6179.00    0.31424   0.35204    0.010
 6180.00    0.32051   0.35102    0.010
 6181.00    0.33658   0.35059    0.010
 6182.00    0.36435   0.35269    0.010
 6183.00    0.38230   0.35451    0.010
 6184.00    0.38991   0.35438    0.010
 6185.00    0.37971   0.35543    0.010
 6186.00    0.35296   0.35784    0.010
 6187.00    0.33229   0.35865    0.010
 6188.00    0.31659   0.35824    0.010
 6189.00    0.29721   0.35719    0.010
 6190.00    0.27518   0.35401    0.010
 6191.00    0.28595   0.35028    0.010
 6192.00    0.31745   0.34872    0.010
 6193.00    0.40774   0.34829    0.010
 6194.00    0.53050   0.34429    0.010
 6195.00    0.74916   0.33611    0.011
 6196.00    1.01387   0.33400   -2.000
 6197.00    1.19341   0.34221   -2.000
 6198.00    1.33764   0.35071   -2.000
 6199.00    1.23842   0.35418   -2.000
 6200.00    1.05289   0.35597   -2.000
 6201.00    0.73416   0.35744   -2.000
 6202.00    0.37557   0.35566   -2.000
 6203.00    0.23076   0.34953   -2.000
 6204.00    0.13905   0.34460   -2.000
 6205.00    0.15431   0.34640   -2.000
 6206.00    0.19112   0.35206   -2.000
 6207.00    0.21321   0.35575   -2.000
 6208.00    0.23298   0.35641    0.010
 6209.00    0.24566   0.35597    0.010
 6210.00    0.25750   0.35605    0.010
 6211.00    0.27722   0.35633    0.010
 6212.00    0.29758   0.35603    0.010
 6213.00    0.31191   0.35540    0.010
 6214.00    0.32598   0.35414    0.010
 6215.00    0.30967   0.35236    0.010
 6216.00    0.29296   0.34918    0.010
 6217.00    0.27266   0.34282    0.010
 6218.00    0.25289   0.33597    0.010
 6219.00    0.24278   0.33285    0.010
 6220.00    0.23538   0.33489    0.010
 6221.00    0.25783   0.34030    0.010
 6222.00    0.27886   0.34345    0.010
 6223.00    0.28896   0.34064    0.010
 6224.00    0.29574   0.33695    0.010
 6225.00    0.28310   0.33745    0.010
 6226.00    0.26976   0.34112    0.010
 6227.00    0.25320   0.34417    0.010
 6228.00    0.24136   0.34437    0.010
 6229.00    0.24746   0.34415    0.010
 6230.00    0.25369   0.34510    0.010
 6231.00    0.26032   0.34574    0.010
 6232.00    0.26075   0.34476    0.010
 6233.00    0.24457   0.33985    0.010
 6234.00    0.23167   0.33063    0.009
 6235.00    0.22634   0.32487    0.009
 6236.00    0.22368   0.32743    0.009
 6237.00    0.22633   0.33388    0.009
 6238.00    0.23376   0.34164    0.009
 6239.00    0.24949   0.34825    0.009
 6240.00    0.25920   0.34933    0.010
 6241.00    0.25977   0.34527    0.010
 6242.00    0.27095   0.33992    0.010
 6243.00    0.29628   0.33582    0.010
 6244.00    0.31379   0.33384    0.010
 6245.00    0.32209   0.33515    0.010
 6246.00    0.32806   0.33608    0.010
 6247.00    0.33160   0.33288    0.010
 6248.00    0.32013   0.32985    0.010
 6249.00    0.29494   0.32907    0.010
 6250.00    0.28959   0.32847    0.010
 6251.00    0.30022   0.33035    0.010
 6252.00    0.31023   0.33612    0.010
 6253.00    0.31981   0.34157    0.010
 6254.00    0.32515   0.34311    0.010
 6255.00    0.32784   0.33965    0.010
 6256.00    0.36579   0.33206    0.010
 6257.00    0.42291   0.32609    0.010
 6258.00    0.49795   0.32501    0.010
 6259.00    0.58145   0.32632    0.010
 6260.00    0.60531   0.32650    0.011
 6261.00    0.60485   0.32461    0.012
 6262.00    0.52388   0.32266    0.012
 6263.00    0.41489   0.32435    0.012
 6264.00    0.29191   0.33009    0.012
 6265.00    0.16484   0.33510    0.012
 6266.00    0.13953   0.33888    0.011
 6267.00    0.13894   0.34269    0.011
 6268.00    0.17348   0.34254    0.010
 6269.00    0.21490   0.33809    0.010
 6270.00    0.24936   0.33684    0.010
 6271.00    0.28275   0.34016    0.010
 6272.00    0.28412   0.34170    0.010
 6273.00    0.28188   0.33989    0.009
 6274.00    0.27126   0.33798    0.010
 6275.00    0.26000   0.33818    0.010
 6276.00    0.22629   0.34024    0.010
 6277.00    0.19167   0.34255    0.010
 6278.00    0.16077   0.34341    0.010
 6279.00    0.13108   0.34340    0.010
 6280.00    0.14991   0.34345    0.000
 6281.00    0.17040   0.34241    0.000
 6282.00    0.21922   0.34045    0.000
 6283.00    0.26462   0.33753    0.000
 6284.00    0.27408   0.33374    0.000
 6285.00    0.28471   0.33247    0.000
 6286.00    0.30407   0.33450    0.000
 6287.00    0.31849   0.33793    0.000
 6288.00    0.30489   0.34120    0.000
 6289.00    0.29172   0.34236    0.000
 6290.00    0.28045   0.34287    0.000
 6291.00    0.27812   0.34463    0.000
 6292.00    0.30892   0.34665    0.000
 6293.00    0.32610   0.34693    0.000
 6294.00    0.30097   0.34421    0.000
 6295.00    0.27767   0.34077    0.000
 6296.00    0.25922   0.33887    0.000
 6297.00    0.25070   0.33838    0.000
 6298.00    0.26464   0.33966    0.000
 6299.00    0.27528   0.34048    0.000
 6300.00    0.27941   0.33738    0.000
 6301.00    0.27530   0.33286    0.000
 6302.00    0.25713   0.33134    0.000
 6303.00    0.24826   0.33280    0.000
 6304.00    0.25333   0.33307    0.000
 6305.00    0.26445   0.32965    0.000
 6306.00    0.28353   0.32646    0.000
 6307.00    0.29347   0.32863    0.000
 6308.00    0.29281   0.33376    0.000
 6309.00    0.28713   0.33661    0.000
 6310.00    0.27631   0.33779    0.000
 6311.00    0.26709   0.34072    0.000
 6312.00    0.25930   0.34360    0.000
 6313.00    0.25512   0.34312    0.000
 6314.00    0.25381   0.33959    0.000
 6315.00    0.24395   0.33628    0.000
 6316.00    0.22812   0.33527    0.000
 6317.00    0.22538   0.33556    0.000
 6318.00    0.23069   0.33303    0.000
 6319.00    0.24539   0.32875    0.000
 6320.00    0.26512   0.32755    0.000
 6321.00    0.25724   0.32712    0.009
 6322.00    0.23651   0.32393    0.009
 6323.00    0.22300   0.32330    0.009
 6324.00    0.21238   0.32795    0.009
 6325.00    0.21960   0.33261    0.009
 6326.00    0.23292   0.33385    0.009
 6327.00    0.24324   0.33457    0.010
 6328.00    0.25270   0.33750    0.010
 6329.00    0.27158   0.34035    0.010
 6330.00    0.29269   0.34090    0.010
 6331.00    0.32220   0.33970    0.010
 6332.00    0.35332   0.33900    0.010
 6333.00    0.34492   0.33911    0.010
 6334.00    0.33065   0.33786    0.010
 6335.00    0.29752   0.33663    0.010
 6336.00    0.26233   0.33808    0.010
 6337.00    0.25545   0.34002    0.010
 6338.00    0.25058   0.33730    0.009
 6339.00    0.27060   0.32946    0.010
 6340.00    0.29152   0.32289    0.010
 6341.00    0.27089   0.32279    0.009
 6342.00    0.24899   0.32683    0.009
 6343.00    0.18784   0.33022    0.009
 6344.00    0.12955   0.33335    0.009
 6345.00    0.11691   0.33661    0.009
 6346.00    0.11117   0.33624    0.009
 6347.00    0.17496   0.33162    0.009
 6348.00    0.23568   0.32727    0.009
 6349.00    0.27424   0.32655    0.009
 6350.00    0.30280   0.32698    0.009
 6351.00    0.27603   0.32682    0.009
 6352.00    0.25405   0.32909    0.009
 6353.00    0.25325   0.33347    0.009
 6354.00    0.25379   0.33614    0.010
 6355.00    0.25919   0.33710    0.010
 6356.00    0.26597   0.33730    0.010
 6357.00    0.27695   0.33570    0.010
 6358.00    0.29076   0.33170    0.010
 6359.00    0.31190   0.32820    0.010
 6360.00    0.32611   0.32822    0.010
 6361.00    0.32491   0.32864    0.010
 6362.00    0.31796   0.32545    0.010
 6363.00    0.29992   0.32155    0.010
 6364.00    0.28412   0.32063    0.010
 6365.00    0.27207   0.31982    0.010
 6366.00    0.26666   0.31721    0.010
 6367.00    0.27105   0.31626    0.010
 6368.00    0.27171   0.31899    0.010
 6369.00    0.26757   0.32310    0.010
 6370.00    0.26701   0.32666    0.010
 6371.00    0.27057   0.32957    0.010
 6372.00    0.27490   0.33165    0.009
 6373.00    0.28003   0.33151    0.009
 6374.00    0.27971   0.32848    0.010
 6375.00    0.27455   0.32647    0.010
 6376.00    0.26105   0.32936    0.009
 6377.00    0.24101   0.33433    0.009
 6378.00    0.23603   0.33664    0.009
 6379.00    0.24142   0.33643    0.009
 6380.00    0.25700   0.33595    0.009
 6381.00    0.27872   0.33490    0.009
 6382.00    0.28281   0.33251    0.009
 6383.00    0.27760   0.33014    0.010
 6384.00    0.25837   0.32868    0.010
 6385.00    0.23271   0.32866    0.009
 6386.00    0.22209   0.33033    0.009
 6387.00    0.21740   0.33131    0.010
 6388.00    0.22630   0.32990    0.010
 6389.00    0.23977   0.32892    0.010
 6390.00    0.26370   0.33046    0.010
 6391.00    0.29059   0.33294    0.010
 6392.00    0.31506   0.33393    0.010
 6393.00    0.33897   0.33397    0.010
 6394.00    0.34278   0.33407    0.010
 6395.00    0.34284   0.33282    0.010
 6396.00    0.34261   0.32776    0.010
 6397.00    0.34234   0.32017    0.010
 6398.00    0.31795   0.31738    0.010
 6399.00    0.29104   0.32267    0.010
 6400.00    0.27969   0.32997    0.010
 6401.00    0.26938   0.33397    0.010
 6402.00    0.30452   0.33279    0.010
 6403.00    0.34115   0.32473    0.010
 6404.00    0.34095   0.31558    0.009
 6405.00    0.33919   0.31630    0.009
 6406.00    0.28901   0.32566    0.010
 6407.00    0.24038   0.33317    0.010
 6408.00    0.21503   0.33557    0.009
 6409.00    0.19222   0.33470    0.009
 6410.00    0.19385   0.33133    0.009
 6411.00    0.19651   0.32589    0.010
 6412.00    0.20629   0.32192    0.010
 6413.00    0.21903   0.32350    0.010
 6414.00    0.24769   0.32656    0.010
 6415.00    0.27378   0.32474    0.010
 6416.00    0.28879   0.32242    0.010
 6417.00    0.29935   0.32423    0.010
 6418.00    0.29406   0.32641    0.010
 6419.00    0.28283   0.32676    0.010
 6420.00    0.25387   0.32678    0.010
 6421.00    0.24180   0.32696    0.010
 6422.00    0.27270   0.32668    0.010
 6423.00    0.30820   0.32417    0.009
 6424.00    0.35377   0.31902    0.009
 6425.00    0.37559   0.31579    0.009
 6426.00    0.35228   0.31937    0.009
 6427.00    0.34273   0.32735    0.010
 6428.00    0.35600   0.33236    0.010
 6429.00    0.35430   0.33249    0.010
 6430.00    0.33084   0.33210    0.010
 6431.00    0.30277   0.33338    0.010
 6432.00    0.26878   0.33396    0.009
 6433.00    0.26155   0.33098    0.009
 6434.00    0.28444   0.32354    0.009
 6435.00    0.29515   0.31634    0.010
 6436.00    0.29373   0.31572    0.010
 6437.00    0.27404   0.32064    0.010
 6438.00    0.23832   0.32611    0.010
 6439.00    0.23370   0.32969    0.010
 6440.00    0.25310   0.33103    0.010
 6441.00    0.27807   0.32871    0.009
 6442.00    0.30682   0.32136    0.009
 6443.00    0.33728   0.31439    0.009
 6444.00    0.36876   0.31661    0.009
 6445.00    0.38038   0.32557    0.009
 6446.00    0.38171   0.33199    0.009
 6447.00    0.35009   0.33362    0.009
 6448.00    0.30364   0.33311    0.009
 6449.00    0.25446   0.33270    0.009
 6450.00    0.20424   0.33327    0.010
 6451.00    0.19093   0.33311    0.010
 6452.00    0.18978   0.32837    0.009
 6453.00    0.20526   0.31707    0.009
 6454.00    0.22534   0.30694    0.009
 6455.00    0.22228   0.30830    0.009
 6456.00    0.21399   0.31768    0.009
 6457.00    0.21426   0.32509    0.009
 6458.00    0.21608   0.32594    0.009
 6459.00    0.21309   0.32032    0.009
 6460.00    0.20943   0.31333    0.010
 6461.00    0.22206   0.31328    0.010
 6462.00    0.23632   0.32063    0.009
 6463.00    0.26521   0.32800    0.010
 6464.00    0.29501   0.33039    0.010
 6465.00    0.28196   0.32568    0.010
 6466.00    0.26762   0.31491    0.010
 6467.00    0.23870   0.30771    0.010
 6468.00    0.21105   0.31158    0.009
 6469.00    0.21852   0.31977    0.010
 6470.00    0.22842   0.32507    0.010
 6471.00    0.27281   0.32750    0.010
 6472.00    0.30958   0.32750    0.010
 6473.00    0.27584   0.32506    0.010
 6474.00    0.24128   0.32201    0.010
 6475.00    0.20121   0.31937    0.010
 6476.00    0.17034   0.31839    0.009
 6477.00    0.18769   0.32045    0.009
 6478.00    0.20504   0.32220    0.009
 6479.00    0.22238   0.32106    0.009
 6480.00    0.23839   0.32023    0.009
 6481.00    0.24979   0.32195    0.009
 6482.00    0.26123   0.32362    0.009
 6483.00    0.27281   0.32385    0.009
 6484.00    0.28458   0.32270    0.009
 6485.00    0.29683   0.31812    0.010
 6486.00    0.29616   0.31169    0.010
 6487.00    0.26762   0.30918    0.009
 6488.00    0.25421   0.31232    0.009
 6489.00    0.26910   0.31698    0.010
 6490.00    0.27803   0.31984    0.010
 6491.00    0.27723   0.32114    0.010
 6492.00    0.27362   0.32162    0.010
 6493.00    0.26597   0.32074    0.010
 6494.00    0.25691   0.31790    0.010
 6495.00    0.24608   0.31415    0.010
 6496.00    0.23579   0.31012    0.010
 6497.00    0.22610   0.30292    0.010
 6498.00    0.23351   0.29126    0.009
 6499.00    0.25769   0.28164    0.010
 6500.00    0.26282   0.27957    0.010
 6501.00    0.25148   0.28414    0.009
 6502.00    0.23487   0.29200    0.009
 6503.00    0.21423   0.29836    0.009
 6504.00    0.20271   0.30298    0.009
 6505.00    0.19729   0.30815    0.009
 6506.00    0.20665   0.31238    0.009
 6507.00    0.22467   0.31453    0.009
 6508.00    0.23000   0.31568    0.009
 6509.00    0.22885   0.31690    0.009
 6510.00    0.20789   0.31816    0.009
 6511.00    0.17817   0.31830    0.009
 6512.00    0.17946   0.31668    0.010
 6513.00    0.19252   0.31500    0.010
 6514.00    0.21038   0.31531    0.010
 6515.00    0.22979   0.31659    0.010
 6516.00    0.23227   0.31696    0.010
 6517.00    0.23019   0.31663    0.010
 6518.00    0.24280   0.31534    0.010
 6519.00    0.25867   0.31182    0.010
 6520.00    0.26118   0.30745    0.010
 6521.00    0.26134   0.30497    0.010
 6522.00    0.24875   0.30421    0.009
 6523.00    0.23444   0.30488    0.009
 6524.00    0.24329   0.30830    0.009
 6525.00    0.25436   0.31275    0.009
 6526.00    0.22496   0.31485    0.009
 6527.00    0.19318   0.31461    0.009
 6528.00    0.19371   0.31448    0.000
 6529.00    0.19502   0.31423    0.000
 6530.00    0.19038   0.31166    0.000
 6531.00    0.18613   0.30802    0.000
 6532.00    0.19156   0.30702    0.000
 6533.00    0.19768   0.30907    0.000
 6534.00    0.21293   0.31131    0.000
 6535.00    0.22541   0.31111    0.000
 6536.00    0.21327   0.30829    0.000
 6537.00    0.20283   0.30527    0.000
 6538.00    0.20350   0.30489    0.000
 6539.00    0.20571   0.30735    0.000
 6540.00    0.21577   0.30948    0.000
 6541.00    0.22415   0.30881    0.000
 6542.00    0.22560   0.30762    0.000
 6543.00    0.22727   0.30856    0.000
 6544.00    0.22976   0.31005    0.000
 6545.00    0.23193   0.30942    0.000
 6546.00    0.23318   0.30662    0.000
 6547.00    0.23352   0.30362    0.000
 6548.00    0.23162   0.30126    0.000
 6549.00    0.22308   0.29753    0.000
 6550.00    0.20049   0.29212    0.000
 6551.00    0.19777   0.28963    0.000
 6552.00    0.23165   0.29192    0.000
 6553.00    0.26060   0.29492    0.000
 6554.00    0.28160   0.29503    0.000
 6555.00    0.28423   0.29245    0.000
 6556.00    0.26093   0.28896    0.000
 6557.00    0.25605   0.28552    0.000
 6558.00    0.27405   0.28151    0.000
 6559.00    0.30223   0.27652    0.000
 6560.00    0.34155   0.27245    0.000
 6561.00    0.35707   0.27070    0.000
 6562.00    0.34960   0.26914    0.000
 6563.00    0.32922   0.26478    0.000
 6564.00    0.29784   0.25566    0.000
 6565.00    0.27924   0.23644    0.000
 6566.00    0.27022   0.20445    0.000
 6567.00    0.27029   0.18012    0.000
 6568.00    0.27635   0.18926    0.000
 6569.00    0.27046   0.22182    0.000
 6570.00    0.25769   0.24970    0.000
 6571.00    0.22720   0.26428    0.000
 6572.00    0.18781   0.27038    0.000
 6573.00    0.16594   0.27173    0.000
 6574.00    0.15169   0.27271    0.000
 6575.00    0.16920   0.27574    0.000
 6576.00    0.19856   0.27797    0.000
 6577.00    0.23800   0.27760    0.000
 6578.00    0.28063   0.27652    0.000
 6579.00    0.29598   0.27771    0.000
 6580.00    0.30413   0.28287    0.000
 6581.00    0.28810   0.28977    0.000
 6582.00    0.26685   0.29446    0.000
 6583.00    0.26045   0.29586    0.000
 6584.00    0.25660   0.29465    0.000
 6585.00    0.24520   0.29253    0.000
 6586.00    0.23283   0.29272    0.000
 6587.00    0.22158   0.29520    0.000
 6588.00    0.21043   0.29709    0.000
 6589.00    0.23046   0.29721    0.000
 6590.00    0.25222   0.29641    0.000
 6591.00    0.23617   0.29657    0.000
 6592.00    0.21945   0.29871    0.000
 6593.00    0.21643   0.30159    0.000
 6594.00    0.21378   0.30300    0.000
 6595.00    0.21944   0.30117    0.000
 6596.00    0.22470   0.29431    0.000
 6597.00    0.22494   0.28541    0.000
 6598.00    0.22782   0.28306    0.000
 6599.00    0.25339   0.28920    0.000
 6600.00    0.27779   0.29614    0.000
 6601.00    0.29480   0.29848    0.000
 6602.00    0.30858   0.29744    0.000
 6603.00    0.30629   0.29687    0.000
 6604.00    0.30081   0.29911    0.000
 6605.00    0.28248   0.30287    0.000
 6606.00    0.26660   0.30503    0.000
 6607.00    0.25898   0.30412    0.000
 6608.00    0.24335   0.30128    0.000
 6609.00    0.20505   0.29852    0.010
 6610.00    0.17044   0.29743    0.010
 6611.00    0.14472   0.29714    0.010
 6612.00    0.13443   0.29557    0.010
 6613.00    0.15635   0.29318    0.010
 6614.00    0.18021   0.29384    0.010
 6615.00    0.20762   0.29832    0.010
 6616.00    0.23166   0.30197    0.010
 6617.00    0.25035   0.30165    0.010
 6618.00    0.26261   0.30026    0.010
 6619.00    0.26590   0.30136    0.010
 6620.00    0.25656   0.30345    0.010
 6621.00    0.23175   0.30384    0.009
 6622.00    0.22368   0.30312    0.009
 6623.00    0.23371   0.30308    0.009
 6624.00    0.24482   0.30417    0.009
 6625.00    0.25697   0.30520    0.009
 6626.00    0.26248   0.30499    0.009
 6627.00    0.26242   0.30303    0.009
 6628.00    0.25043   0.29928    0.009
 6629.00    0.22963   0.29617    0.010
 6630.00    0.20800   0.29633    0.010
 6631.00    0.18585   0.29842    0.010
 6632.00    0.15922   0.29994    0.010
 6633.00    0.13006   0.30019    0.010
 6634.00    0.14227   0.29940    0.010
 6635.00    0.17496   0.29823    0.010
 6636.00    0.18675   0.29621    0.010
 6637.00    0.18960   0.29224    0.010
 6638.00    0.17861   0.28855    0.010
 6639.00    0.16256   0.28937    0.010
 6640.00    0.18584   0.29390    0.010
 6641.00    0.22134   0.29801    0.010
 6642.00    0.23076   0.29964    0.010
 6643.00    0.23343   0.29890    0.010
 6644.00    0.24284   0.29762    0.010
 6645.00    0.25368   0.29813    0.010
 6646.00    0.26232   0.29844    0.010
 6647.00    0.27060   0.29535    0.009
 6648.00    0.27966   0.29229    0.010
 6649.00    0.28882   0.29330    0.010
 6650.00    0.27304   0.29613    0.010
 6651.00    0.25510   0.29755    0.010
 6652.00    0.25759   0.29760    0.010
 6653.00    0.26112   0.29796    0.010
 6654.00    0.26633   0.29846    0.010
 6655.00    0.27145   0.29804    0.010
 6656.00    0.26870   0.29726    0.010
 6657.00    0.26686   0.29691    0.010
 6658.00    0.28436   0.29691    0.010
 6659.00    0.29949   0.29703    0.010
 6660.00    0.28606   0.29695    0.010
 6661.00    0.27272   0.29682    0.010
 6662.00    0.26006   0.29713    0.010
 6663.00    0.24323   0.29723    0.010
 6664.00    0.20061   0.29636    0.010
 6665.00    0.16426   0.29470    0.010
 6666.00    0.15839   0.29198    0.010
 6667.00    0.15468   0.28809    0.010
 6668.00    0.15954   0.28614    0.010
 6669.00    0.16939   0.28802    0.010
 6670.00    0.19563   0.29038    0.010
 6671.00    0.20540   0.29106    0.010
 6672.00    0.16942   0.29132    0.010
 6673.00    0.13589   0.29277    0.010
 6674.00    0.10819   0.29515    0.009
 6675.00    0.10610   0.29679    0.009
 6676.00    0.15661   0.29705    0.009
 6677.00    0.19819   0.29687    0.010
 6678.00    0.22382   0.29696    0.010
 6679.00    0.22526   0.29701    0.010
 6680.00    0.18890   0.29518    0.010
 6681.00    0.18620   0.28910    0.010
 6682.00    0.22970   0.28140    0.010
 6683.00    0.25070   0.27982    0.010
 6684.00    0.24453   0.28534    0.010
 6685.00    0.24115   0.29070    0.010
 6686.00    0.24075   0.29289    0.010
 6687.00    0.23918   0.29396    0.010
 6688.00    0.23652   0.29494    0.010
 6689.00    0.22030   0.29548    0.010
 6690.00    0.19287   0.29528    0.010
 6691.00    0.19474   0.29470    0.010
 6692.00    0.21797   0.29422    0.010
 6693.00    0.22704   0.29415    0.010
 6694.00    0.22703   0.29444    0.010
 6695.00    0.21020   0.29480    0.010
 6696.00    0.18396   0.29473    0.000
 6697.00    0.18120   0.29464    0.000
 6698.00    0.18989   0.29414    0.000
 6699.00    0.19352   0.29196    0.000
 6700.00    0.19501   0.28857    0.000
 6701.00    0.17043   0.28642    0.000
 6702.00    0.13646   0.28699    0.000
 6703.00    0.13963   0.28907    0.000
 6704.00    0.15411   0.29150    0.000
 6705.00    0.17736   0.29322    0.000
 6706.00    0.20284   0.29315    0.000
 6707.00    0.21057   0.29110    0.000
 6708.00    0.21464   0.28841    0.000
 6709.00    0.22480   0.28734    0.000
 6710.00    0.23595   0.28868    0.000
 6711.00    0.22638   0.29023    0.000
 6712.00    0.21430   0.29043    0.000
 6713.00    0.22431   0.29003    0.000
 6714.00    0.23615   0.28933    0.000
 6715.00    0.24318   0.28874    0.000
 6716.00    0.24998   0.28865    0.000
 6717.00    0.26226   0.28814    0.000
 6718.00    0.27386   0.28668    0.000
 6719.00    0.24332   0.28449    0.000
 6720.00    0.21319   0.28129    0.000
 6721.00    0.19098   0.27747    0.000
 6722.00    0.17093   0.27587    0.000
 6723.00    0.17572   0.27917    0.000
 6724.00    0.17664   0.28453    0.000
 6725.00    0.14682   0.28702    0.000
 6726.00    0.12650   0.28670    0.000
 6727.00    0.16313   0.28700    0.000
 6728.00    0.19614   0.28847    0.000
 6729.00    0.21195   0.28864    0.000
 6730.00    0.22461   0.28686    0.000
 6731.00    0.22507   0.28554    0.000
 6732.00    0.23231   0.28614    0.000
 6733.00    0.26139   0.28771    0.000
 6734.00    0.26446   0.28915    0.000
 6735.00    0.19663   0.28980    0.000
 6736.00    0.15171   0.28934    0.000
 6737.00    0.16030   0.28814    0.000
 6738.00    0.17935   0.28711    0.000
 6739.00    0.21955   0.28693    0.000
 6740.00    0.24577   0.28745    0.000
 6741.00    0.24741   0.28727    0.000
 6742.00    0.26400   0.28541    0.000
 6743.00    0.30359   0.28317    0.000
 6744.00    0.31588   0.28274    0.000
 6745.00    0.29126   0.28406    0.000
 6746.00    0.26251   0.28462    0.000
 6747.00    0.22884   0.28330    0.000
 6748.00    0.22336   0.28247    0.000
 6749.00    0.24748   0.28344    0.000
 6750.00    0.27075   0.28439    0.000
 6751.00    0.29324   0.28419    0.000
 6752.00    0.27029   0.28302    0.000
 6753.00    0.21025   0.28118    0.012
 6754.00    0.23014   0.27984    0.012
 6755.00    0.30744   0.28026    0.012
 6756.00    0.34645   0.28142    0.012
 6757.00    0.36130   0.28152    0.013
 6758.00    0.33908   0.28180    0.013
 6759.00    0.29643   0.28306    0.012
 6760.00    0.29452   0.28374    0.013
 6761.00    0.31212   0.28393    0.013
 6762.00    0.30235   0.28503    0.013
 6763.00    0.28127   0.28681    0.013
 6764.00    0.23535   0.28816    0.013
 6765.00    0.18066   0.28835    0.013
 6766.00    0.21995   0.28747    0.012
 6767.00    0.28728   0.28694    0.012
 6768.00    0.32782   0.28718    0.012
 6769.00    0.36173   0.28682    0.012
 6770.00    0.36122   0.28484    0.011
 6771.00    0.35382   0.28154    0.011
 6772.00    0.35296   0.27929    0.011
 6773.00    0.35313   0.28011    0.011
 6774.00    0.34534   0.28187    0.011
 6775.00    0.33663   0.28177    0.012
 6776.00    0.31315   0.28099    0.012
 6777.00    0.28851   0.28193    0.012
 6778.00    0.27459   0.28434    0.012
 6779.00    0.26114   0.28653    0.012
 6780.00    0.23859   0.28766    0.012
 6781.00    0.21645   0.28759    0.013
 6782.00    0.21835   0.28696    0.013
 6783.00    0.21807   0.28722    0.013
 6784.00    0.17847   0.28770    0.012
 6785.00    0.14486   0.28664    0.012
 6786.00    0.17686   0.28417    0.012
 6787.00    0.21247   0.28089    0.012
 6788.00    0.27583   0.27766    0.012
 6789.00    0.32746   0.27620    0.011
 6790.00    0.31072   0.27666    0.012
 6791.00    0.28990   0.27834    0.012
 6792.00    0.25023   0.28096    0.012
 6793.00    0.21937   0.28294    0.012
 6794.00    0.22186   0.28327    0.012
 6795.00    0.21552   0.28308    0.012
 6796.00    0.18131   0.28287    0.012
 6797.00    0.15570   0.28169    0.012
 6798.00    0.15314   0.27988    0.012
 6799.00    0.17076   0.27904    0.012
 6800.00    0.23474   0.27926    0.012
 6801.00    0.26412   0.27973    0.012
 6802.00    0.22468   0.28012    0.012
 6803.00    0.18241   0.28057    0.012
 6804.00    0.13522   0.28131    0.013
 6805.00    0.10804   0.28206    0.013
 6806.00    0.11121   0.28247    0.012
 6807.00    0.14047   0.28199    0.012
 6808.00    0.20450   0.28074    0.012
 6809.00    0.23558   0.28022    0.012
 6810.00    0.22798   0.28051    0.012
 6811.00    0.23879   0.28030    0.012
 6812.00    0.26867   0.28009    0.012
 6813.00    0.26986   0.28003    0.012
 6814.00    0.24486   0.27921    0.012
 6815.00    0.24069   0.27883    0.012
 6816.00    0.25326   0.27977    0.012
 6817.00    0.26257   0.28051    0.012
 6818.00    0.26956   0.27950    0.012
 6819.00    0.24572   0.27765    0.012
 6820.00    0.20272   0.27783    0.012
 6821.00    0.20872   0.28034    0.012
 6822.00    0.24130   0.28210    0.012
 6823.00    0.24158   0.28141    0.012
 6824.00    0.22662   0.27943    0.012
 6825.00    0.24243   0.27862    0.012
 6826.00    0.27075   0.28019    0.012
 6827.00    0.25538   0.28241    0.012
 6828.00    0.22483   0.28332    0.013
 6829.00    0.24470   0.28307    0.013
 6830.00    0.27932   0.28241    0.013
 6831.00    0.25185   0.28077    0.012
 6832.00    0.20933   0.27803    0.012
 6833.00    0.20932   0.27645    0.012
 6834.00    0.21761   0.27758    0.012
 6835.00    0.28510   0.27973    0.012
 6836.00    0.36162   0.28061    0.012
 6837.00    0.33905   0.28033    0.012
 6838.00    0.30536   0.28060    0.013
 6839.00    0.29267   0.28164    0.013
 6840.00    0.28156   0.28180    0.013
 6841.00    0.28743   0.28051    0.013
 6842.00    0.29398   0.27819    0.013
 6843.00    0.24630   0.27512    0.013
 6844.00    0.20174   0.27210    0.012
 6845.00    0.29620   0.26943    0.012
 6846.00    0.37891   0.26749    0.013
 6847.00    0.26324   0.26805    0.013
 6848.00    0.15803   0.27150    0.012
 6849.00    0.16236   0.27560    0.013
 6850.00    0.16920   0.27801    0.013
 6851.00    0.19475   0.27862    0.013
 6852.00    0.21613   0.27864    0.012
 6853.00    0.21388   0.27873    0.012
 6854.00    0.22427   0.27880    0.012
 6855.00    0.29179   0.27858    0.012
 6856.00    0.33737   0.27838    0.012
 6857.00    0.30178   0.27849    0.012
 6858.00    0.29539   0.27712    0.012
 6859.00    0.37948   0.27322    0.012
 6860.00    0.42899   0.27025    0.012
 6861.00    0.38751   0.27069    0.012
 6862.00    0.33327   0.27226    0.012
 6863.00    0.25019   0.27341    0.012
 6864.00    0.18100   0.27381    0.012
 6865.00    0.13900   0.27224    0.012
 6866.00    0.12707   0.27020    0.012
 6867.00    0.16645   0.27127    0.013
 6868.00    0.18958   0.27516    0.013
 6869.00    0.18843   0.27781    0.013
 6870.00    0.18001   0.27700    0.013
 6871.00    0.16205   0.27394    0.013
 6872.00    0.15048   0.27073    0.013
 6873.00    0.14630   0.27002    0.013
 6874.00    0.14724   0.27235    0.012
 6875.00    0.15341   0.27420    0.012
 6876.00    0.18288   0.27320    0.012
 6877.00    0.23333   0.27181    0.012
 6878.00    0.22485   0.27210    0.012
 6879.00    0.16962   0.27244    0.012
 6880.00    0.16611   0.27242    0.012
 6881.00    0.19869   0.27342    0.012
 6882.00    0.21689   0.27502    0.012
 6883.00    0.22630   0.27571    0.011
 6884.00    0.24539   0.27510    0.012
 6885.00    0.26967   0.27338    0.012
 6886.00    0.24367   0.27082    0.012
 6887.00    0.19436   0.26911    0.012
 6888.00    0.20812   0.26997    0.012
 6889.00    0.24709   0.27226    0.012
 6890.00    0.23226   0.27333    0.012
 6891.00    0.19908   0.27333    0.013
 6892.00    0.16897   0.27465    0.013
 6893.00    0.13973   0.27642    0.013
 6894.00    0.17990   0.27714    0.013
 6895.00    0.23652   0.27803    0.013
 6896.00    0.24175   0.27850    0.013
 6897.00    0.23718   0.27757    0.013
 6898.00    0.22729   0.27664    0.013
 6899.00    0.21661   0.27584    0.012
 6900.00    0.23990   0.27458    0.012
 6901.00    0.26686   0.27428    0.012
 6902.00    0.26142   0.27572    0.012
 6903.00    0.25369   0.27685    0.012
 6904.00    0.22697   0.27596    0.012
 6905.00    0.19958   0.27511    0.012
 6906.00    0.20873   0.27595    0.012
 6907.00    0.21662   0.27689    0.012
 6908.00    0.17670   0.27656    0.012
 6909.00    0.13833   0.27562    0.012
 6910.00    0.12436   0.27567    0.012
 6911.00    0.12024   0.27693    0.012
 6912.00    0.21479   0.27801    0.012
 6913.00    0.29202   0.27812    0.012
 6914.00    0.24474   0.27763    0.012
 6915.00    0.20485   0.27671    0.012
 6916.00    0.20569   0.27537    0.012
 6917.00    0.19807   0.27354    0.012
 6918.00    0.15320   0.27114    0.012
 6919.00    0.12695   0.26936    0.012
 6920.00    0.16820   0.26967    0.012
 6921.00    0.21368   0.27077    0.013
 6922.00    0.27203   0.27159    0.013
 6923.00    0.29774   0.27273    0.012
 6924.00    0.23911   0.27405    0.012
 6925.00    0.17552   0.27511    0.012
 6926.00    0.10093   0.27578    0.012
 6927.00    0.07890   0.27504    0.012
 6928.00    0.15815   0.27211    0.012
 6929.00    0.21465   0.26865    0.012
 6930.00    0.23292   0.26715    0.012
 6931.00    0.25642   0.26846    0.012
 6932.00    0.28763   0.27105    0.012
 6933.00    0.29294   0.27260    0.012
 6934.00    0.26474   0.27273    0.013
 6935.00    0.26784   0.27243    0.013
 6936.00    0.30668   0.27161    0.013
 6937.00    0.30192   0.26994    0.013
 6938.00    0.25330   0.26899    0.013
 6939.00    0.24166   0.27026    0.013
 6940.00    0.26285   0.27211    0.013
 6941.00    0.22901   0.27240    0.013
 6942.00    0.15216   0.27178    0.013
 6943.00    0.15889   0.27195    0.013
 6944.00    0.22309   0.27308    0.013
 6945.00    0.23694   0.27395    0.013
 6946.00    0.22045   0.27365    0.012
 6947.00    0.19168   0.27185    0.012
 6948.00    0.15646   0.26888    0.012
 6949.00    0.20116   0.26553    0.012
 6950.00    0.28232   0.26435    0.012
 6951.00    0.25977   0.26661    0.012
 6952.00    0.19648   0.26974    0.012
 6953.00    0.11324   0.27168    0.012
 6954.00    0.02334   0.27172    0.012
 6955.00    0.09532   0.26976    0.012
 6956.00    0.21277   0.26755    0.012
 6957.00    0.17973   0.26684    0.012
 6958.00    0.11186   0.26710    0.012
 6959.00    0.16046   0.26760    0.013
 6960.00    0.23067   0.26871    0.013
 6961.00    0.21184   0.27024    0.013
 6962.00    0.18025   0.27104    0.013
 6963.00    0.20383   0.27121    0.013
 6964.00    0.23313   0.27145    0.013
 6965.00    0.21036   0.27163    0.013
 6966.00    0.18411   0.27163    0.013
 6967.00    0.24027   0.27156    0.013
 6968.00    0.29905   0.27178    0.013
 6969.00    0.25011   0.27157    0.012
 6970.00    0.20195   0.27040    0.012
 6971.00    0.17760   0.27017    0.012
 6972.00    0.15497   0.27205    0.012
 6973.00    0.15812   0.27379    0.012
 6974.00    0.16413   0.27344    0.012
 6975.00    0.19752   0.27147    0.012
 6976.00    0.21931   0.27008    0.012
 6977.00    0.16038   0.27108    0.012
 6978.00    0.11861   0.27222    0.012
 6979.00    0.16893   0.27064    0.013
 6980.00    0.20320   0.26734    0.013
 6981.00    0.16837   0.26356    0.013
 6982.00    0.14152   0.25852    0.013
 6983.00    0.14298   0.25434    0.013
 6984.00    0.14054   0.25561    0.013
 6985.00    0.12647   0.26189    0.013
 6986.00    0.12620   0.26775    0.013
 6987.00    0.16099   0.27070    0.013
 6988.00    0.18544   0.27193    0.013
 6989.00    0.18729   0.27223    0.013
 6990.00    0.17904   0.27187    0.012
 6991.00    0.15166   0.27134    0.012
 6992.00    0.13610   0.27035    0.012
 6993.00    0.14012   0.26847    0.012
 6994.00    0.15593   0.26707    0.012
 6995.00    0.18885   0.26792    0.012
 6996.00    0.20295   0.26993    0.012
 6997.00    0.19305   0.27091    0.012
 6998.00    0.20009   0.27032    0.012
 6999.00    0.22619   0.26945    0.013
 7000.00    0.22181   0.26962    0.013
 7001.00    0.18720   0.27034    0.013
 7002.00    0.16086   0.26993    0.013
 7003.00    0.14177   0.26725    0.013
 7004.00    0.15610   0.26366    0.013
 7005.00    0.19618   0.26239    0.013
 7006.00    0.16125   0.26428    0.013
 7007.00    0.07549   0.26614    0.013
 7008.00    0.12286   0.26515    0.013
 7009.00    0.24928   0.26279    0.013
 7010.00    0.26546   0.26184    0.013
 7011.00    0.22455   0.26253    0.013
 7012.00    0.21318   0.26425    0.012
 7013.00    0.21508   0.26643    0.012
 7014.00    0.20130   0.26765    0.012
 7015.00    0.18147   0.26705    0.012
 7016.00    0.16344   0.26592    0.012
 7017.00    0.14601   0.26596    0.012
 7018.00    0.18017   0.26620    0.012
 7019.00    0.22851   0.26389    0.012
 7020.00    0.22424   0.25856    0.013
 7021.00    0.20808   0.25442    0.013
 7022.00    0.20043   0.25640    0.013
 7023.00    0.19431   0.26249    0.013
 7024.00    0.20238   0.26712    0.013
 7025.00    0.21240   0.26880    0.013
 7026.00    0.32183   0.26790    0.013
 7027.00    0.44111   0.26443    0.014
 7028.00    0.29473   0.26025    0.013
 7029.00    0.13171   0.25866    0.013
 7030.00    0.21278   0.26039    0.013
 7031.00    0.30038   0.26283    0.013
 7032.00    0.28122   0.26426    0.013
 7033.00    0.26292   0.26504    0.013
 7034.00    0.26822   0.26592    0.013
 7035.00    0.27304   0.26678    0.012
 7036.00    0.27115   0.26683    0.013
 7037.00    0.26709   0.26594    0.013
 7038.00    0.24301   0.26492    0.013
 7039.00    0.22194   0.26457    0.012
 7040.00    0.22112   0.26517    0.013
 7041.00    0.21652   0.26518    0.013
 7042.00    0.19222   0.26226    0.013
 7043.00    0.17715   0.25899    0.013
 7044.00    0.20095   0.26095    0.013
 7045.00    0.22159   0.26713    0.013
 7046.00    0.23130   0.27219    0.013
 7047.00    0.21575   0.27399    0.013
 7048.00    0.12631   0.27280    0.013
 7049.00    0.06645   0.26962    0.013
 7050.00    0.08047   0.26726   -2.000
 7051.00    0.06673   0.26808   -2.000
 7052.00   -0.00670   0.27082   -2.000
 7053.00    0.00327   0.27276   -2.000
 7054.00    0.16900   0.27283   -2.000
 7055.00    0.25223   0.27148   -2.000
 7056.00    0.20089   0.26826   -2.000
 7057.00    0.19460   0.26281   -2.000
 7058.00    0.25277   0.25784   -2.000
 7059.00    0.26397   0.25606   -2.000
 7060.00    0.21609   0.25709   -2.000
 7061.00    0.19521   0.25934   -2.000
 7062.00    0.20427   0.26086   -2.000
 7063.00    0.21032   0.25991   -2.000
 7064.00    0.21344   0.25705   -2.000
 7065.00    0.19937   0.25498   -2.000
 7066.00    0.17048   0.25525   -2.000
 7067.00    0.15059   0.25696   -2.000
 7068.00    0.13755   0.25884   -2.000
 7069.00    0.11933   0.26024   -2.000
 7070.00    0.09766   0.25971   -2.000
 7071.00    0.17497   0.25658   -2.000
 7072.00    0.31018   0.25233   -2.000
 7073.00    0.30421   0.24996   -2.000
 7074.00    0.22628   0.25178   -2.000
 7075.00    0.17945   0.25601   -2.000
 7076.00    0.14634   0.25904   -2.000
 7077.00    0.21894   0.25982   -2.000
 7078.00    0.33163   0.25982   -2.000
 7079.00    0.31021   0.25989   -2.000
 7080.00    0.24559   0.25933   -2.000
 7081.00    0.21320   0.25862   -2.000
 7082.00    0.18949   0.25890   -2.000
 7083.00    0.24393   0.25969   -2.000
 7084.00    0.31562   0.26038   -2.000
 7085.00    0.28597   0.26095   -2.000
 7086.00    0.23852   0.26034   -2.000
 7087.00    0.16939   0.25743   -2.000
 7088.00    0.09735   0.25228   -2.000
 7089.00    0.16319   0.24727   -2.000
 7090.00    0.24214   0.24577   -2.000
 7091.00    0.14468   0.24690   -2.000
 7092.00    0.03687   0.24743   -2.000
 7093.00    0.12190   0.24691   -2.000
 7094.00    0.21101   0.24586   -2.000
 7095.00    0.20887   0.24474   -2.000
 7096.00    0.20710   0.24469   -2.000
 7097.00    0.21472   0.24510   -2.000
 7098.00    0.22106   0.24506   -2.000
 7099.00    0.21025   0.24510   -2.000
 7100.00    0.20200   0.24519   -2.000
 7101.00    0.21635   0.24552   -2.000
 7102.00    0.22985   0.24634   -2.000
 7103.00    0.23783   0.24800   -2.000
 7104.00    0.24131   0.25008   -2.000
 7105.00    0.22185   0.25077   -2.000
 7106.00    0.20298   0.25007   -2.000
 7107.00    0.18651   0.24919   -2.000
 7108.00    0.16398   0.24944   -2.000
 7109.00    0.12080   0.25102   -2.000
 7110.00    0.11789   0.25198   -2.000
 7111.00    0.23066   0.25090   -2.000
 7112.00    0.27465   0.24930   -2.000
 7113.00    0.14986   0.24866   -2.000
 7114.00    0.05901   0.24813   -2.000
 7115.00    0.03998   0.24627   -2.000
 7116.00    0.05303   0.24419   -2.000
 7117.00    0.12506   0.24417   -2.000
 7118.00    0.17357   0.24601   -2.000
 7119.00    0.18430   0.24775   -2.000
 7120.00    0.23696   0.24852   -2.000
 7121.00    0.34876   0.24884   -2.000
 7122.00    0.43614   0.24893   -2.000
 7123.00    0.49321   0.24850   -2.000
 7124.00   -0.28208   0.24797   -2.000
 7125.00   -1.96742   0.24741   -2.000
 7126.00   -2.02948   0.24617   -2.000
 7127.00   -0.52610   0.24559   -2.000
 7128.00    0.17571   0.24698   -2.000
 7129.00    0.19590   0.24825   -2.000
 7130.00    0.25203   0.24721   -2.000
 7131.00    0.33508   0.24530   -2.000
 7132.00    0.34304   0.24505   -2.000
 7133.00    0.30159   0.24555   -2.000
 7134.00    0.22299   0.24386   -2.000
 7135.00    0.12298   0.24069   -2.000
 7136.00    0.11601   0.23967   -2.000
 7137.00    0.15572   0.24188   -2.000
 7138.00    0.23070   0.24505   -2.000
 7139.00    0.32099   0.24758   -2.000
 7140.00    0.28882   0.24884   -2.000
 7141.00    0.21102   0.24952   -2.000
 7142.00    0.20584   0.25013   -2.000
 7143.00    0.22362   0.24935   -2.000
 7144.00    0.19734   0.24785   -2.000
 7145.00    0.15945   0.24767   -2.000
 7146.00    0.18393   0.24872   -2.000
 7147.00    0.22185   0.24930   -2.000
 7148.00    0.22467   0.24895   -2.000
 7149.00    0.22149   0.24807   -2.000
 7150.00    0.19488   0.24732   -2.000
 7151.00    0.16524   0.24610   -2.000
 7152.00    0.16222   0.24254   -2.000
 7153.00    0.16162   0.23931   -2.000
 7154.00    0.18818   0.24032   -2.000
 7155.00    0.21623   0.24354   -2.000
 7156.00    0.22572   0.24636   -2.000
 7157.00    0.23578   0.24882   -2.000
 7158.00    0.33418   0.25028   -2.000
 7159.00    0.43333   0.24976   -2.000
 7160.00    0.54974   0.24856   -2.000
 7161.00    0.65502   0.24897   -2.000
 7162.00    0.62003   0.25066   -2.000
 7163.00    0.57049   0.25054   -2.000
 7164.00    0.39682   0.24847   -2.000
 7165.00    0.22341   0.24713   -2.000
 7166.00    0.05159   0.24761   -2.000
 7167.00   -0.04079   0.24774   -2.000
 7168.00    0.26122   0.24436   -2.000
 7169.00    0.50270   0.23885   -2.000
 7170.00    0.50053   0.23658   -2.000
 7171.00    0.47259   0.23974   -2.000
 7172.00    0.35859   0.24485   -2.000
 7173.00    0.25806   0.24802   -2.000
 7174.00    0.19551   0.24877   -2.000
 7175.00    0.16628   0.24865   -2.000
 7176.00    0.21743   0.24921   -2.000
 7177.00    0.25071   0.25046   -2.000
 7178.00    0.24677   0.25075   -2.000
 7179.00    0.25400   0.24962   -2.000
 7180.00    0.28142   0.24705   -2.000
 7181.00    0.28852   0.24475   -2.000
 7182.00    0.26346   0.24563   -2.000
 7183.00    0.21818   0.24777   -2.000
 7184.00    0.14483   0.24656   -2.000
 7185.00    0.11270   0.24191   -2.000
 7186.00    0.13099   0.23870   -2.000
 7187.00    0.21680   0.24056   -2.000
 7188.00    0.37541   0.24524   -2.000
 7189.00    0.41041   0.24767   -2.000
 7190.00    0.32786   0.24665   -2.000
 7191.00    0.27680   0.24292   -2.000
 7192.00    0.25214   0.23822   -2.000
 7193.00    0.22626   0.23644   -2.000
 7194.00    0.19946   0.23810   -2.000
 7195.00    0.18166   0.24093   -2.000
 7196.00    0.16968   0.24255   -2.000
 7197.00    0.21003   0.24199   -2.000
 7198.00    0.28005   0.24106   -2.000
 7199.00    0.39754   0.24198   -2.000
 7200.00    0.53849   0.24403   -2.000
 7201.00    0.61543   0.24393   -2.000
 7202.00    0.66503   0.24252   -2.000
 7203.00    0.49138   0.24309   -2.000
 7204.00    0.23604   0.24495   -2.000
 7205.00    0.11954   0.24491   -2.000
 7206.00    0.04605   0.24310   -2.000
 7207.00    0.04814   0.24242   -2.000
 7208.00    0.06975   0.24433   -2.000
 7209.00    0.11150   0.24702   -2.000
 7210.00    0.15749   0.24663   -2.000
 7211.00    0.22993   0.24122   -2.000
 7212.00    0.30676   0.23538   -2.000
 7213.00    0.38148   0.23470   -2.000
 7214.00    0.45592   0.23839   -2.000
 7215.00    0.40190   0.24315   -2.000
 7216.00    0.33675   0.24628   -2.000
 7217.00    0.24090   0.24618   -2.000
 7218.00    0.14350   0.24387   -2.000
