###################################################################
## OUTPUT of StarlightChains_v04.for    [Cid@UFSC - 01/Apr/2007] ##
###################################################################

## Some input info
KUG0210-078._26_40.txt                   [arq_obs]
Base.CB07.vall.4m                        [arq_base]
Masks.EmLines.NEW.gm                     [arq_masks]
StCv04.C11.config                        [arq_config]
   66                                    [N_base]
    0                                    [N_YAV_components = # of components with extra extinction!]
    0                                    [i_FitPowerLaw (1/0 = Yes/No)]
-9.99                                    [alpha_PowerLaw]
CCM                                      [red_law_option]
 1.458241                                [q_norm = A(l_norm)/A(V)]

## (Re)Sampling Parameters
 3741.00                                 [l_ini (A)]
 7218.00                                 [l_fin (A)]
    1.00                                 [dl    (A)]     (OBS: dl_cushion =    50.00 A)

## Normalization info
 4020.00                                 [l_norm (A) - for base]
 4010.00                                 [llow_norm (A) - window for f_obs]
 4060.00                                 [lupp_norm (A) - window for f_obs]
1.241049E-17                             [fobs_norm (in input units)]

## S/N
 3691.00                                 [llow_SN (A) - window for S/N]
 7268.00                                 [lupp_SN (A) - window for S/N]
   2.908                                 [S/N in S/N window]
   5.003                                 [S/N in norm. window]
   0.010                                 [S/N_err in S/N window]
   0.017                                 [S/N_err in norm. window]
  1.0000                                 [fscale_chi2]

## etc...
    -2007336                             [idum_orig]
  2432                                   [NOl_eff]
  2416                                   [Nl_eff]
    16    NSIGMA                         [Ntot_cliped & clip_method]
  1017520                                [Nglobal_steps]
   7                                     [N_chains]
  43                                     [NEX0s_base = N_base in EX0s-fits]
 0   0   1       16   2.0   2.056E+03    [Clip-Bug, RC-Crash & Burn-In warning-flags, n_censored_weights, wei_nsig_threshold & wei_limit]
    26     26.060     25.669      0.392  [idt_all, wdt_TotTime, wdt_UsrTime & wdt_SysTime (sec)]

## Synthesis Results - Best model ##

 1.31341E-05                             [chi2/Nl_eff]
    28.59988                             [adev (%)]

    91.94905                             [sum-of-x (%)]
 5.17895E-18                             [Flux_tot (units of input spectrum!)]
 4.51060E-14                             [Mini_tot (???)]
 2.38777E-14                             [Mcor_tot (???)]

  31.79                                  [v0_min  (km/s)]
   0.00                                  [vd_min  (km/s)]
-0.5882                                  [AV_min  (mag)]
 0.0000                                  [YAV_min (mag)]

# j     x_j(%)      Mini_j(%)     Mcor_j(%)     age_j(yr)     Z_j      (L/M)_j    YAV?  Mstars   component_j        a/Fe...       SSP_chi2r SSP_adev(%)   SSP_AV   SSP_x(%)
  1      1.5948     1.8203E-02    3.4386E-02    1.000000E+06  0.00400  1.094E-02    0   1.0000   age020_m42            0.0000     1.5938E-05    31.5305   1.9166    76.8752
  2      2.8726     8.9520E-03    1.6909E-02    3.160000E+06  0.00400  4.007E-02    0   0.9999   age045_m42            0.0000     1.4522E-05    30.5620   1.1382    83.4589
  3      0.0000     0.0000E+00    0.0000E+00    5.010000E+06  0.00400  2.539E-02    0   0.9488   age055_m42            0.0000     1.5192E-05    30.9520   1.4900    80.6799
  4      0.0000     0.0000E+00    0.0000E+00    6.610000E+06  0.00400  2.620E-02    0   0.9220   age061_m42            0.0000     1.4523E-05    30.3244   1.0756    83.4417
  5      0.0000     0.0000E+00    0.0000E+00    1.000000E+07  0.00400  1.322E-02    0   0.8862   age070_m42            0.0000     1.4243E-05    29.2707   0.8828    83.5627
  6      0.0000     0.0000E+00    0.0000E+00    1.445000E+07  0.00400  7.883E-03    0   0.8571   age078_m42            0.0000     1.4694E-05    29.7020   1.2145    81.2564
  7      0.0000     0.0000E+00    0.0000E+00    2.512000E+07  0.00400  5.251E-03    0   0.8174   age090_m42            0.0000     1.4112E-05    28.9980   0.7673    83.8065
  8      0.0000     0.0000E+00    0.0000E+00    4.000000E+07  0.00400  3.649E-03    0   0.7851   age104_m42            0.0000     1.3899E-05    28.9313   0.5202    84.9534
  9      1.3699     5.5215E-02    7.9573E-02    5.500000E+07  0.00400  3.098E-03    0   0.7629   age110_m42            0.0000     1.3902E-05    29.2246   0.6239    85.9338
 10      0.0000     0.0000E+00    0.0000E+00    1.015200E+08  0.00400  2.228E-03    0   0.7207   age116_m42            0.0000     1.3948E-05    29.3585   0.6111    86.7516
 11      0.0000     0.0000E+00    0.0000E+00    2.861200E+08  0.00400  1.093E-03    0   0.6648   age125_m42            0.0000     1.3518E-05    28.5083   0.0600    89.0610
 12      0.0000     0.0000E+00    0.0000E+00    5.088000E+08  0.00400  6.597E-04    0   0.6365   age130_m42            0.0000     1.3657E-05    28.8872  -0.0069    91.0036
 13     32.0250     1.8757E+01    2.0544E+01    1.434000E+09  0.00400  2.132E-04    0   0.5798   age139_m42            0.0000     1.3218E-05    28.8678  -1.0000    93.4836
 14      0.0000     0.0000E+00    0.0000E+00    4.250000E+09  0.00400  5.895E-05    0   0.5377   age158_m42            0.0000     1.5208E-05    29.7686  -1.0000    82.3961
 15      0.0000     0.0000E+00    0.0000E+00    7.500000E+09  0.00400  3.510E-05    0   0.5212   age171_m42            0.0000     1.6842E-05    30.5783  -1.0000    78.2414
 16      0.4055     2.5253E+00    2.4014E+00    1.300000E+10  0.00400  2.005E-05    0   0.5034   age193_m42            0.0000     1.8679E-05    31.5349  -1.0000    74.4549
 17      4.0532     3.3189E+01    3.1141E+01    1.800000E+10  0.00400  1.525E-05    0   0.4967   age213_m42            0.0000     1.8829E-05    31.6757  -1.0000    73.6727
 18      0.0000     0.0000E+00    0.0000E+00    1.000000E+06  0.00800  1.238E-02    0   1.0000   age020_m52            0.0000     1.5968E-05    31.5507   1.9129    77.0304
 19      0.0000     0.0000E+00    0.0000E+00    3.160000E+06  0.00800  3.074E-02    0   0.9966   age045_m52            0.0000     1.5936E-05    31.5409   1.8330    77.8007
 20      0.0000     0.0000E+00    0.0000E+00    5.010000E+06  0.00800  2.668E-02    0   0.9443   age055_m52            0.0000     1.5384E-05    31.0355   1.5826    79.7444
 21      0.4858     2.8400E-03    4.9233E-03    6.610000E+06  0.00800  2.136E-02    0   0.9177   age061_m52            0.0000     1.4203E-05    29.5428   0.3777    84.6393
 22      0.0000     0.0000E+00    0.0000E+00    1.000000E+07  0.00800  1.215E-02    0   0.8827   age070_m52            0.0000     1.4393E-05    29.1162   1.0922    82.7643
 23      2.1361     3.0600E-02    4.9434E-02    1.445000E+07  0.00800  8.717E-03    0   0.8552   age078_m52            0.0000     1.4546E-05    29.5615   1.1780    82.4628
 24      0.0000     0.0000E+00    0.0000E+00    2.512000E+07  0.00800  5.592E-03    0   0.8162   age090_m52            0.0000     1.4040E-05    28.8415   0.8308    84.8195
 25      0.0000     0.0000E+00    0.0000E+00    4.000000E+07  0.00800  3.896E-03    0   0.7841   age104_m52            0.0000     1.3851E-05    28.8177   0.7153    86.0796
 26      0.0000     0.0000E+00    0.0000E+00    1.015200E+08  0.00800  2.148E-03    0   0.7226   age116_m52            0.0000     1.3850E-05    29.1061   0.6029    86.9686
 27     15.8797     1.9979E+00    2.5222E+00    2.861200E+08  0.00800  9.925E-04    0   0.6683   age125_m52            0.0000     1.3625E-05    28.8337   0.0605    91.8415
 28      8.9411     3.5545E+00    4.1215E+00    9.047900E+08  0.00800  3.141E-04    0   0.6138   age135_m52            0.0000     1.3636E-05    29.2577  -0.8273    97.6583
 29      0.0000     0.0000E+00    0.0000E+00    1.434000E+09  0.00800  1.719E-04    0   0.5853   age139_m52            0.0000     1.4405E-05    28.7896  -1.0000    88.4370
 30      0.0000     0.0000E+00    0.0000E+00    2.500000E+09  0.00800  7.872E-05    0   0.5600   age150_m52            0.0000     1.6909E-05    30.4149  -1.0000    80.8893
 31      0.0000     0.0000E+00    0.0000E+00    4.250000E+09  0.00800  4.336E-05    0   0.5426   age158_m52            0.0000     1.7173E-05    30.6053  -1.0000    79.7931
 32      0.0000     0.0000E+00    0.0000E+00    6.250000E+09  0.00800  3.159E-05    0   0.5319   age166_m52            0.0000     1.9649E-05    31.8683  -1.0000    75.5665
 33      2.1790     1.9993E+01    1.9159E+01    1.300000E+10  0.00800  1.361E-05    0   0.5073   age193_m52            0.0000     2.6593E-05    35.8696  -1.0000    64.7910
 34      0.0000     0.0000E+00    0.0000E+00    1.800000E+10  0.00800  9.886E-06    0   0.4990   age213_m52            0.0000     2.9151E-05    36.9729  -1.0000    61.9354
 35      0.0000     0.0000E+00    0.0000E+00    1.000000E+06  0.02000  1.544E-02    0   1.0000   age020_m62            0.0000     1.6040E-05    31.5826   1.9120    77.1532
 36      0.0000     0.0000E+00    0.0000E+00    3.160000E+06  0.02000  3.762E-02    0   0.9858   age045_m62            0.0000     1.6102E-05    31.6142   1.8477    77.8697
 37      1.1661     4.4177E-03    7.7960E-03    5.010000E+06  0.02000  3.296E-02    0   0.9342   age055_m62            0.0000     1.5010E-05    30.8790   1.4273    82.1570
 38      0.7953     8.6057E-03    1.4405E-02    8.710000E+06  0.02000  1.154E-02    0   0.8861   age067_m62            0.0000     1.4669E-05    27.5465   0.7130    81.8462
 39      0.8695     1.4168E-02    2.2675E-02    1.445000E+07  0.02000  7.663E-03    0   0.8472   age078_m62            0.0000     1.4217E-05    28.4259   0.7901    83.7001
 40      3.6562     1.0074E-01    1.5413E-01    2.512000E+07  0.02000  4.532E-03    0   0.8099   age090_m62            0.0000     1.4157E-05    28.1768   0.7884    83.3646
 41      0.0000     0.0000E+00    0.0000E+00    5.500000E+07  0.02000  2.733E-03    0   0.7595   age110_m62            0.0000     1.4014E-05    28.9003   0.7052    85.2668
 42      0.3740     3.4110E-02    4.5008E-02    1.609000E+08  0.02000  1.369E-03    0   0.6985   age120_m62            0.0000     1.3888E-05    28.9309   0.4663    89.3191
 43      1.4624     2.0260E-01    2.5696E-01    2.861200E+08  0.02000  9.013E-04    0   0.6714   age125_m62            0.0000     1.3892E-05    28.8774   0.1671    93.0600
 44      4.0741     1.0118E+00    1.2326E+00    5.088000E+08  0.02000  5.028E-04    0   0.6449   age130_m62            0.0000     1.3968E-05    29.4298  -0.3073    97.6724
 45      0.0000     0.0000E+00    0.0000E+00    9.047900E+08  0.02000  2.428E-04    0   0.6179   age135_m62            0.0000     1.3955E-05    29.9763  -0.9292    97.8420
 46      0.0000     0.0000E+00    0.0000E+00    1.434000E+09  0.02000  1.263E-04    0   0.5908   age139_m62            0.0000     1.4946E-05    29.6341  -1.0000    89.8723
 47      0.0000     0.0000E+00    0.0000E+00    2.500000E+09  0.02000  5.985E-05    0   0.5673   age150_m62            0.0000     1.7939E-05    30.9960  -1.0000    81.4053
 48      0.0000     0.0000E+00    0.0000E+00    4.250000E+09  0.02000  3.271E-05    0   0.5468   age158_m62            0.0000     2.2039E-05    33.0249  -1.0000    74.0574
 49      1.8733     1.7200E+01    1.6789E+01    1.000000E+10  0.02000  1.360E-05    0   0.5167   age181_m62            0.0000     2.8243E-05    35.8547  -1.0000    65.7529
 50      0.0000     0.0000E+00    0.0000E+00    1.800000E+10  0.02000  7.124E-06    0   0.5013   age213_m62            0.0000     3.2853E-05    37.6897  -1.0000    60.3132
 51      0.0000     0.0000E+00    0.0000E+00    1.000000E+06  0.05000  2.592E-02    0   0.9998   age020_m72            0.0000     1.6226E-05    31.6347   1.9106    77.0314
 52      0.0020     5.1943E-06    9.3973E-06    3.160000E+06  0.05000  4.845E-02    0   0.9577   age045_m72            0.0000     1.5748E-05    31.4542   1.7088    79.3684
 53      0.0011     4.6383E-06    8.0146E-06    5.010000E+06  0.05000  3.072E-02    0   0.9147   age055_m72            0.0000     1.4963E-05    29.4750   1.3347    81.0514
 54      0.0000     0.0000E+00    0.0000E+00    6.610000E+06  0.05000  1.455E-02    0   0.8877   age061_m72            0.0000     1.4916E-05    26.9943   0.8113    81.3937
 55      0.0000     0.0000E+00    0.0000E+00    1.000000E+07  0.05000  9.074E-03    0   0.8524   age070_m72            0.0000     1.4949E-05    29.3604   1.5092    80.8356
 56      1.2694     3.7295E-02    5.5671E-02    2.512000E+07  0.05000  4.250E-03    0   0.7902   age090_m72            0.0000     1.4372E-05    28.8674   1.1958    82.8585
 57      3.8514     1.5579E-01    2.2419E-01    4.000000E+07  0.05000  3.087E-03    0   0.7618   age104_m72            0.0000     1.4074E-05    28.4316   0.9742    84.2388
 58      0.0000     0.0000E+00    0.0000E+00    1.015200E+08  0.05000  1.700E-03    0   0.7096   age116_m72            0.0000     1.3833E-05    28.6534   0.6397    88.3221
 59      0.0000     0.0000E+00    0.0000E+00    2.861200E+08  0.05000  7.384E-04    0   0.6633   age125_m72            0.0000     1.4014E-05    29.1410  -0.0171    95.5071
 60      0.5044     1.6493E-01    1.9853E-01    5.088000E+08  0.05000  3.819E-04    0   0.6372   age130_m72            0.0000     1.4076E-05    29.8950  -0.5867    98.7440
 61      0.0000     0.0000E+00    0.0000E+00    9.047900E+08  0.05000  1.676E-04    0   0.6110   age135_m72            0.0000     1.5423E-05    30.4112  -1.0000    92.2104
 62      0.0000     0.0000E+00    0.0000E+00    1.434000E+09  0.05000  8.837E-05    0   0.5874   age139_m72            0.0000     1.8329E-05    31.0619  -1.0000    82.5566
 63      0.0000     0.0000E+00    0.0000E+00    2.500000E+09  0.05000  4.233E-05    0   0.5598   age150_m72            0.0000     2.2586E-05    33.2117  -1.0000    74.6284
 64      0.1073     9.3329E-01    9.2541E-01    6.250000E+09  0.05000  1.435E-05    0   0.5249   age166_m72            0.0000     3.0107E-05    36.8038  -1.0000    63.2630
 65      0.0000     0.0000E+00    0.0000E+00    1.300000E+10  0.05000  6.513E-06    0   0.5036   age193_m72            0.0000     3.6374E-05    39.1496  -1.0000    57.2367
 66      0.0000     0.0000E+00    0.0000E+00    1.800000E+10  0.05000  4.527E-06    0   0.4945   age213_m72            0.0000     4.0167E-05    40.3919  -1.0000    53.4030


## Synthesis Results - Average & Chains ##

# j      x_j: min, <> & last-chain-values for 1 ...  7 chains
  1      1.5948      1.0113      0.7629      4.0201      1.3622      0.7449      0.5534      0.2955      0.5986
  2      2.8726      1.0088      0.0000      1.5485      1.7973      0.7123      0.5565      1.8691      0.0000
  3      0.0000      1.2097      1.1113      0.3234      0.0000      0.0000      3.2830      2.4959      1.6241
  4      0.0000      1.5339      2.7165      0.0000      0.0000      1.7614      1.4258      1.7961      1.2583
  5      0.0000      2.0947      7.6162      0.0000      0.6543      1.7978      2.3216      3.3359      0.0000
  6      0.0000      1.5433      3.5996      4.5652      0.4303      0.8934      1.4807      0.0000      1.0250
  7      0.0000      1.6738      0.9453      2.1803      1.6801      2.5793      4.0195      0.0835      0.0000
  8      0.0000      0.8764      0.1260      3.8338      1.3400      0.0000      1.9654      0.0000      1.2930
  9      1.3699      1.1862      0.2539      0.0000      0.8831      0.6000      3.5911      1.0915      3.0994
 10      0.0000      1.0212      0.0000      1.7633      0.0453      0.0000      2.5764      1.2361      2.8670
 11      0.0000      1.1887      4.9930      0.0000      1.8803      1.3338      1.1165      6.9313      0.0294
 12      0.0000      0.9856      1.2049      1.9873      0.0000      0.0000      1.7549      2.6733      3.1319
 13     32.0250      1.4586      7.5831      0.0000      2.0213      5.5823      1.3406      0.9707      0.0000
 14      0.0000      1.2599      4.8466      0.0000      1.7409      0.0000      4.1739      0.0000      0.0000
 15      0.0000      1.1990      0.0000      1.1457      0.0000      3.7417      0.5806      0.0000      3.3908
 16      0.4055      1.3232      0.0000      1.1296      0.8971      0.0000      0.7574      0.0000      0.0000
 17      4.0532      1.3062      3.1535      0.0000      2.8029      2.9036      0.0000      0.3512      2.7123
 18      0.0000      1.4109      1.0914      5.1218      0.0152      0.7947      0.0000      1.9743      0.7878
 19      0.0000      1.1267      0.0000      1.5775      0.0000      0.9259      0.4291      0.0000      1.8911
 20      0.0000      1.3129      0.3865      0.0000      0.0183      0.2834      0.5541      0.8962      1.1626
 21      0.4858      1.0430      0.9813      0.0000      1.6426      0.7328      1.3807      0.0000      0.0920
 22      0.0000      1.2177      0.0000      0.0000      0.0000      0.4363      1.9549      0.7136      0.0000
 23      2.1361      1.1441      1.9746      0.6189      1.1408      0.4126      0.0000      0.8103      0.7956
 24      0.0000      0.9943      1.5090      1.7648      0.2998      0.0000      0.0000      0.0000      1.6641
 25      0.0000      1.2735      1.6299      0.0000      3.3298      1.9739      0.0000      0.7878      0.5318
 26      0.0000      1.0260      0.7714      0.0000      1.9699      0.7829      2.3101      0.0000      0.2047
 27     15.8797      1.3759      0.6989      5.3416      1.8755      0.0000      0.6212      1.3173      1.4238
 28      8.9411      1.2606      1.8604      1.9160      0.6491      2.7968      0.0000      0.0000      1.9899
 29      0.0000      1.3196      0.2120      2.9513      0.0000      1.5542      3.9918      3.3394      4.3979
 30      0.0000      1.1968      1.4185      1.0687      0.0545      0.0000      1.4373      0.1152      0.0000
 31      0.0000      1.2139      2.0476     10.8315      1.5510      0.0015      0.0000      0.4007      0.7826
 32      0.0000      1.2431      0.7159      0.0000      2.7610      0.9789      1.6405      1.7609      0.0087
 33      2.1790      1.4463      0.0000      3.8223      5.2480      1.9565      0.0000      0.0000      1.2632
 34      0.0000      1.3227      0.8079      0.1733      0.0000      4.0938      1.5715      0.3669      0.2407
 35      0.0000      0.5704      0.0000      0.0000      0.8352      2.1451      2.3568      0.0000      0.0000
 36      0.0000      1.0020      0.8381      0.1923      0.6062      1.6834      0.2672      0.0000      4.6820
 37      1.1661      1.3833      2.2041      3.4819      2.8980      0.7897      0.9387      1.6682      1.9274
 38      0.7953      0.9297      1.2584      0.0000      0.6968      2.4865      0.0000      0.3121      0.0000
 39      0.8695      1.7010      2.2467      2.5585      1.7788      0.0000      1.9854      1.0352      0.3203
 40      3.6562      1.4550      0.0000      0.0000      3.5279      0.1835      3.0314      0.0000      1.0950
 41      0.0000      1.3600      0.4928      0.0000      0.0000      0.7348      1.5652      5.1342      0.8471
 42      0.3740      1.0492      0.0000      1.0121      3.0449      3.7530      3.0479      0.8893      1.5444
 43      1.4624      1.1107      1.6707      5.5704      1.0621      2.3052      0.0462      0.0000      4.6000
 44      4.0741      1.0752      4.0953      0.1087      0.7739      0.7397      1.4544      4.0190      0.1462
 45      0.0000      1.1406      2.2465      0.0000      2.2096      5.4011      0.0000      0.9024      1.5057
 46      0.0000      1.2567      1.3577      0.0000      1.5944      3.1594      0.5333      1.1584      5.6167
 47      0.0000      0.9852      2.5233      3.0582      0.3811      1.0343      0.3284      0.5265      0.0000
 48      0.0000      1.0116      0.0000      1.5464      0.4915      0.1481      2.6786      2.3925      0.0000
 49      1.8733      1.8597      5.4701      1.1571      2.9866      3.4933      2.1977      1.0793      2.8999
 50      0.0000      2.2567      0.0000      0.4448      2.2355      3.6008      1.7981      7.2066      1.4866
 51      0.0000      1.1755      0.8703      0.5629      0.0000      0.1257      0.0000      0.2147      0.0042
 52      0.0020      0.9398      0.0000      0.0000      2.5799      0.1733      1.4100      3.7679      0.4591
 53      0.0011      1.1421      0.0963      0.0000      7.4131      2.2538      0.5545      0.2554      0.0000
 54      0.0000     15.9956      1.3519      1.6595      4.2422     12.7124      5.8306      6.4746     13.7351
 55      0.0000      1.6027      2.0542      2.9158      0.0000      0.5107      0.0000      0.5655      2.0215
 56      1.2694      1.3833      1.0617      2.2138      4.7574      0.0000      0.0000      0.7404      0.0000
 57      3.8514      1.6261      0.0000      0.0000      1.3594      4.5460      1.3360      1.7953      1.5274
 58      0.0000      1.3433      3.6087      0.6659      0.0000      0.3941      0.4981      7.8839      2.3655
 59      0.0000      1.2701      3.1964      6.1645      0.1794      0.3808      3.9179      2.2009      2.2281
 60      0.5044      0.9723      2.5689      0.0000      2.7877      0.9316      2.1357      1.6767      0.0000
 61      0.0000      1.2016      0.1861      3.0464      2.0085      1.0370      3.4333      3.2927      1.9793
 62      0.0000      1.3648      1.0170      0.6221      1.1371      2.7840      1.4753      0.0590      0.0000
 63      0.0000      1.3102      2.4576      1.4928      0.0000      1.6827      1.4981      1.9908      3.0729
 64      0.1073      1.1770      0.0000      0.2529      2.6261      0.0359      0.0000      0.0000      1.2839
 65      0.0000      1.8860      0.6922      2.0237      0.0000      0.0000      1.9191      2.1239      1.8475
 66      0.0000      2.8030      3.2271      0.3297      4.3587      0.0000      4.9948      3.5664      4.1188

# j      m_j: min, <> & last-chain-values for 1 ...  7 chains
  1  3.4386E-02  8.5121E-03  7.1622E-03  4.9583E-02  9.5998E-03  7.1164E-03  4.1582E-03  2.0800E-03  4.6546E-03
  2  1.6909E-02  2.3181E-03  0.0000E+00  5.2139E-03  3.4577E-03  1.8578E-03  1.1413E-03  3.5919E-03  0.0000E+00
  3  0.0000E+00  4.1627E-03  4.2655E-03  1.6305E-03  0.0000E+00  0.0000E+00  1.0084E-02  7.1828E-03  5.1626E-03
  4  0.0000E+00  4.9706E-03  9.8185E-03  0.0000E+00  0.0000E+00  6.4786E-03  4.1241E-03  4.8675E-03  3.7668E-03
  5  0.0000E+00  1.2930E-02  5.2438E-02  0.0000E+00  3.3813E-03  1.2596E-02  1.2792E-02  1.7222E-02  0.0000E+00
  6  0.0000E+00  1.5452E-02  4.0198E-02  6.6974E-02  3.6071E-03  1.0152E-02  1.3233E-02  0.0000E+00  9.4799E-03
  7  0.0000E+00  2.3993E-02  1.5115E-02  4.5795E-02  2.0163E-02  4.1965E-02  5.1428E-02  1.0008E-03  0.0000E+00
  8  0.0000E+00  1.7365E-02  2.7852E-03  1.1130E-01  2.2228E-02  0.0000E+00  3.4758E-02  0.0000E+00  2.3665E-02
  9  7.9573E-02  2.6900E-02  6.4219E-03  0.0000E+00  1.6767E-02  1.5442E-02  7.2688E-02  2.0700E-02  6.4926E-02
 10  0.0000E+00  3.0418E-02  0.0000E+00  7.6961E-02  1.1304E-03  0.0000E+00  6.8500E-02  3.0793E-02  7.8891E-02
 11  0.0000E+00  6.6581E-02  3.1192E-01  0.0000E+00  8.8172E-02  8.4792E-02  5.5817E-02  3.2467E-01  1.5195E-03
 12  0.0000E+00  8.7570E-02  1.1940E-01  2.5872E-01  0.0000E+00  0.0000E+00  1.3917E-01  1.9864E-01  2.5705E-01
 13  2.0544E+01  3.6527E-01  2.1181E+00  0.0000E+00  4.2381E-01  1.5867E+00  2.9965E-01  2.0330E-01  0.0000E+00
 14  0.0000E+00  1.0582E+00  4.5405E+00  0.0000E+00  1.2242E+00  0.0000E+00  3.1293E+00  0.0000E+00  0.0000E+00
 15  0.0000E+00  1.6395E+00  0.0000E+00  2.2955E+00  0.0000E+00  5.8070E+00  7.0865E-01  0.0000E+00  4.2831E+00
 16  2.4014E+00  3.0592E+00  0.0000E+00  3.8268E+00  1.7366E+00  0.0000E+00  1.5630E+00  0.0000E+00  0.0000E+00
 17  3.1141E+01  3.9178E+00  1.0549E+01  0.0000E+00  7.0383E+00  9.8844E+00  0.0000E+00  8.8087E-01  7.5148E+00
 18  0.0000E+00  1.0495E-02  9.0543E-03  5.5823E-02  9.4942E-05  6.7094E-03  0.0000E+00  1.2281E-02  5.4133E-03
 19  0.0000E+00  3.3637E-03  0.0000E+00  6.9009E-03  0.0000E+00  3.1374E-03  1.1436E-03  0.0000E+00  5.2155E-03
 20  0.0000E+00  4.2789E-03  1.4051E-03  0.0000E+00  5.0031E-05  1.0482E-03  1.6121E-03  2.4428E-03  3.5004E-03
 21  4.9233E-03  4.1263E-03  4.3302E-03  0.0000E+00  5.4408E-03  3.2905E-03  4.8757E-03  0.0000E+00  3.3637E-04
 22  0.0000E+00  8.1463E-03  0.0000E+00  0.0000E+00  0.0000E+00  3.3131E-03  1.1674E-02  3.9923E-03  0.0000E+00
 23  4.9434E-02  1.0336E-02  1.9897E-02  8.1923E-03  8.6286E-03  4.2311E-03  0.0000E+00  6.1219E-03  6.6397E-03
 24  0.0000E+00  1.3365E-02  2.2621E-02  3.4757E-02  3.3736E-03  0.0000E+00  0.0000E+00  0.0000E+00  2.0662E-02
 25  0.0000E+00  2.3602E-02  3.3691E-02  0.0000E+00  5.1667E-02  4.1520E-02  0.0000E+00  1.2211E-02  9.1052E-03
 26  0.0000E+00  3.1785E-02  2.6655E-02  0.0000E+00  5.1091E-02  2.7527E-02  6.3877E-02  0.0000E+00  5.8578E-03
 27  2.5222E+00  8.5316E-02  4.8335E-02  4.8532E-01  9.7364E-02  0.0000E+00  3.4381E-02  6.8308E-02  8.1556E-02
 28  4.1215E+00  2.2684E-01  3.7339E-01  5.0519E-01  9.7794E-02  5.7123E-01  0.0000E+00  0.0000E+00  3.3079E-01
 29  0.0000E+00  4.1376E-01  7.4150E-02  1.3559E+00  0.0000E+00  5.5309E-01  1.1172E+00  8.7565E-01  1.2738E+00
 30  0.0000E+00  7.8401E-01  1.0364E+00  1.0258E+00  2.9896E-02  0.0000E+00  8.4041E-01  6.3093E-02  0.0000E+00
 31  0.0000E+00  1.3988E+00  2.6317E+00  1.8289E+01  1.4964E+00  1.9409E-03  0.0000E+00  3.8617E-01  8.3305E-01
 32  0.0000E+00  1.9274E+00  1.2381E+00  0.0000E+00  3.5842E+00  1.7228E+00  2.2703E+00  2.2834E+00  1.2495E-02
 33  1.9159E+01  4.9641E+00  0.0000E+00  1.9224E+01  1.5082E+01  7.6222E+00  0.0000E+00  0.0000E+00  4.0054E+00
 34  0.0000E+00  6.1480E+00  4.1886E+00  1.1801E+00  0.0000E+00  2.1597E+01  6.5198E+00  1.4260E+00  1.0334E+00
 35  0.0000E+00  3.4019E-03  0.0000E+00  0.0000E+00  4.1705E-03  1.4521E-02  1.2547E-02  0.0000E+00  0.0000E+00
 36  0.0000E+00  2.4179E-03  2.2556E-03  6.7997E-04  1.2247E-03  4.6105E-03  5.7559E-04  0.0000E+00  1.0437E-02
 37  7.7960E-03  3.6105E-03  6.4163E-03  1.3316E-02  6.3327E-03  2.3394E-03  2.1870E-03  3.6413E-03  4.6472E-03
 38  1.4405E-02  6.5738E-03  9.9245E-03  0.0000E+00  4.1248E-03  1.9955E-02  0.0000E+00  1.8455E-03  0.0000E+00
 39  2.2675E-02  1.7317E-02  2.5512E-02  3.8167E-02  1.5162E-02  0.0000E+00  1.8042E-02  8.8138E-03  3.0120E-03
 40  1.5413E-01  2.3944E-02  0.0000E+00  0.0000E+00  4.8607E-02  3.4266E-03  4.4528E-02  0.0000E+00  1.6646E-02
 41  0.0000E+00  3.4804E-02  1.4065E-02  0.0000E+00  0.0000E+00  2.1341E-02  3.5753E-02  1.0988E-01  2.0026E-02
 42  4.5008E-02  4.9295E-02  0.0000E+00  6.9677E-02  1.1978E-01  2.0014E-01  1.2782E-01  3.4946E-02  6.7032E-02
 43  2.5696E-01  7.6192E-02  1.2782E-01  5.5990E-01  6.1000E-02  1.7948E-01  2.8274E-03  0.0000E+00  2.9150E-01
 44  1.2326E+00  1.2700E-01  5.3950E-01  1.8816E-02  7.6524E-02  9.9162E-02  1.5332E-01  3.9698E-01  1.5956E-02
 45  0.0000E+00  2.6730E-01  5.8720E-01  0.0000E+00  4.3354E-01  1.4366E+00  0.0000E+00  1.7685E-01  3.2597E-01
 46  0.0000E+00  5.4133E-01  6.5233E-01  0.0000E+00  5.7502E-01  1.5446E+00  2.0505E-01  4.1732E-01  2.2350E+00
 47  0.0000E+00  8.5992E-01  2.4565E+00  3.9113E+00  2.7851E-01  1.0247E+00  2.5583E-01  3.8436E-01  0.0000E+00
 48  0.0000E+00  1.5572E+00  0.0000E+00  3.4882E+00  6.3344E-01  2.5879E-01  3.6805E+00  3.0801E+00  0.0000E+00
 49  1.6789E+01  6.5064E+00  2.1345E+01  5.9319E+00  8.7482E+00  1.3871E+01  6.8629E+00  3.1578E+00  9.3724E+00
 50  0.0000E+00  1.4623E+01  0.0000E+00  4.2229E+00  1.2128E+01  2.6482E+01  1.0400E+01  3.9054E+01  8.8990E+00
 51  0.0000E+00  4.1752E-03  3.4477E-03  2.9296E-03  0.0000E+00  5.0677E-04  0.0000E+00  6.3764E-04  1.3811E-05
 52  9.3973E-06  1.7106E-03  0.0000E+00  0.0000E+00  3.9317E-03  3.5812E-04  2.2909E-03  5.7359E-03  7.7196E-04
 53  8.0146E-06  3.1315E-03  2.9456E-04  0.0000E+00  1.7018E-02  7.0139E-03  1.3570E-03  5.8561E-04  0.0000E+00
 54  0.0000E+00  8.9866E-02  8.4716E-03  1.3662E-02  1.9954E-02  8.1062E-02  2.9239E-02  3.0421E-02  7.1284E-02
 55  0.0000E+00  1.3864E-02  1.9820E-02  3.6958E-02  0.0000E+00  5.0144E-03  0.0000E+00  4.0911E-03  1.6154E-02
 56  5.5671E-02  2.3684E-02  2.0275E-02  5.5540E-02  6.8197E-02  0.0000E+00  0.0000E+00  1.0601E-02  0.0000E+00
 57  2.2419E-01  3.6953E-02  0.0000E+00  0.0000E+00  2.5864E-02  1.1725E-01  2.7100E-02  3.4120E-02  3.2063E-02
 58  0.0000E+00  5.1632E-02  1.5471E-01  3.7503E-02  0.0000E+00  1.7192E-02  1.7091E-02  2.5343E-01  8.3993E-02
 59  0.0000E+00  1.0506E-01  2.9491E-01  7.4718E-01  1.2424E-02  3.5751E-02  2.8928E-01  1.5226E-01  1.7026E-01
 60  1.9853E-01  1.4938E-01  4.4023E-01  0.0000E+00  3.5860E-01  1.6246E-01  2.9289E-01  2.1544E-01  0.0000E+00
 61  0.0000E+00  4.0339E-01  6.9668E-02  1.4985E+00  5.6452E-01  3.9511E-01  1.0288E+00  9.2444E-01  6.1382E-01
 62  0.0000E+00  8.3538E-01  6.9431E-01  5.5792E-01  5.8274E-01  1.9341E+00  8.0601E-01  3.0217E-02  0.0000E+00
 63  0.0000E+00  1.5955E+00  3.3381E+00  2.6637E+00  0.0000E+00  2.3258E+00  1.6285E+00  2.0276E+00  3.4569E+00
 64  9.2541E-01  3.9645E+00  0.0000E+00  1.2482E+00  7.4059E+00  1.3719E-01  0.0000E+00  0.0000E+00  3.9949E+00
 65  0.0000E+00  1.3429E+01  5.4970E+00  2.1114E+01  0.0000E+00  0.0000E+00  1.2197E+01  1.2648E+01  1.2152E+01
 66  0.0000E+00  2.8194E+01  3.6206E+01  4.8593E+00  3.6708E+01  0.0000E+00  4.4845E+01  3.0002E+01  3.8272E+01

# AV, chi2 & Mass for <> & i_chain = 1 ...  7 solutions
AV      -0.5882     -0.8299     -0.9664     -0.7806     -0.9178     -0.9416     -0.9201     -0.8936     -0.8976
chi2 1.3134E-05  1.4980E-05  1.4503E-05  1.4191E-05  1.3922E-05  1.4369E-05  1.4093E-05  1.3952E-05  1.4388E-05
Mass 2.3878E-14  4.4211E-14  3.2997E-14  3.2239E-14  4.6925E-14  3.3526E-14  4.3880E-14  4.8526E-14  4.3696E-14
  31.79                                  [v0_min (km/s) before EX0s...]
   0.00                                  [vd_min (km/s) before EX0s...]


## Synthetic spectrum (Best Model) ##l_obs f_obs f_syn wei
 3478    [Nl_obs]
 3741.00    0.05033   0.65374    0.000
 3742.00    0.15094   0.65073    0.000
 3743.00    0.13018   0.62895    0.000
 3744.00    0.08708   0.60364    0.000
 3745.00    0.03096   0.57380    0.030
 3746.00    0.17518   0.53888    0.030
 3747.00    0.42115   0.50404    0.030
 3748.00    0.48454   0.45503    0.031
 3749.00    0.46765   0.39444    0.031
 3750.00    0.60009   0.36454    0.031
 3751.00    0.78891   0.39423    0.031
 3752.00    0.92411   0.46060    0.031
 3753.00    1.04213   0.52644    0.031
 3754.00    0.86280   0.58559    0.030
 3755.00    0.60378   0.63756    0.029
 3756.00    0.63418   0.66459    0.029
 3757.00    0.72810   0.65330    0.029
 3758.00    0.94262   0.62274    0.029
 3759.00    1.17819   0.61226    0.029
 3760.00    0.94795   0.63020    0.037
 3761.00    0.65583   0.65243    0.053
 3762.00    0.63873   0.66287    0.037
 3763.00    0.64747   0.65830    0.028
 3764.00    0.44942   0.64505    0.026
 3765.00    0.23945   0.63272    0.026
 3766.00    0.23835   0.60847    0.026
 3767.00    0.24304   0.56644    0.026
 3768.00    0.34685   0.52795    0.026
 3769.00    0.45698   0.49361    0.026
 3770.00    0.72053   0.45192    0.026
 3771.00    0.94071   0.43187    0.026
 3772.00    0.59251   0.46342    0.026
 3773.00    0.26675   0.52296    0.026
 3774.00    0.13798   0.57385    0.025
 3775.00    0.05149   0.61010    0.025
 3776.00    0.23908   0.64321    0.025
 3777.00    0.40756   0.67731    0.026
 3778.00    0.47933   0.70711    0.026
 3779.00    0.52285   0.73428    0.026
 3780.00    0.45075   0.76186    0.026
 3781.00    0.38037   0.78111    0.026
 3782.00    0.31579   0.78752    0.027
 3783.00    0.27061   0.79137    0.027
 3784.00    0.28089   0.79863    0.027
 3785.00    0.25060   0.79237    0.027
 3786.00    0.12119   0.76215    0.028
 3787.00    0.08251   0.72845    0.028
 3788.00    0.23507   0.70695    0.027
 3789.00    0.39624   0.69208    0.027
 3790.00    0.57316   0.68040    0.027
 3791.00    0.56519   0.67331    0.027
 3792.00    0.26127   0.65972    0.026
 3793.00    0.21450   0.62621    0.026
 3794.00    0.52891   0.57666    0.026
 3795.00    0.59714   0.52603    0.026
 3796.00    0.36109   0.47829    0.026
 3797.00    0.21423   0.42473    0.026
 3798.00    0.16452   0.38063    0.026
 3799.00    0.26226   0.38535    0.026
 3800.00    0.50169   0.44424    0.026
 3801.00    0.54433   0.51880    0.027
 3802.00    0.42022   0.58157    0.027
 3803.00    0.53523   0.63541    0.027
 3804.00    0.82866   0.67821    0.027
 3805.00    1.07672   0.70051    0.027
 3806.00    1.29503   0.70536    0.027
 3807.00    1.14637   0.70901    0.026
 3808.00    0.78713   0.73022    0.026
 3809.00    0.58524   0.76633    0.026
 3810.00    0.46198   0.79777    0.025
 3811.00    0.45298   0.81178    0.025
 3812.00    0.49338   0.80455    0.025
 3813.00    0.60259   0.78062    0.025
 3814.00    0.73732   0.75677    0.025
 3815.00    0.59840   0.74242    0.025
 3816.00    0.37346   0.74097    0.025
 3817.00    0.42609   0.75781    0.025
 3818.00    0.55153   0.77194    0.026
 3819.00    0.51175   0.74982    0.025
 3820.00    0.43656   0.70630    0.025
 3821.00    0.37688   0.69291    0.025
 3822.00    0.31983   0.71857    0.025
 3823.00    0.43229   0.73691    0.026
 3824.00    0.56650   0.71517    0.026
 3825.00    0.55349   0.67456    0.026
 3826.00    0.52727   0.64723    0.026
 3827.00    0.45456   0.63339    0.026
 3828.00    0.37936   0.61823    0.026
 3829.00    0.49129   0.59863    0.026
 3830.00    0.60643   0.57928    0.026
 3831.00    0.67587   0.55083    0.027
 3832.00    0.75004   0.50081    0.028
 3833.00    0.92941   0.44164    0.027
 3834.00    1.06455   0.39050    0.027
 3835.00    0.64966   0.35790    0.026
 3836.00    0.28957   0.35820    0.026
 3837.00    0.39273   0.38649    0.027
 3838.00    0.48653   0.42201    0.027
 3839.00    0.52140   0.45978    0.027
 3840.00    0.55736   0.50055    0.027
 3841.00    0.59866   0.54570    0.027
 3842.00    0.57094   0.60097    0.026
 3843.00    0.26698   0.65442    0.026
 3844.00    0.08715   0.69099    0.026
 3845.00    0.32001   0.71244    0.026
 3846.00    0.52133   0.72786    0.027
 3847.00    0.63408   0.74708    0.000
 3848.00    0.70009   0.76452    0.000
 3849.00    0.65380   0.76468    0.000
 3850.00    0.60771   0.75646    0.000
 3851.00    0.56203   0.76757    0.000
 3852.00    0.54825   0.79343    0.000
 3853.00    0.59199   0.80721    0.000
 3854.00    0.63303   0.80425    0.000
 3855.00    0.66981   0.79201    0.000
 3856.00    0.65112   0.77755    0.000
 3857.00    0.55562   0.77700    0.000
 3858.00    0.48267   0.78164    0.000
 3859.00    0.43719   0.76874    0.000
 3860.00    0.43501   0.75611    0.000
 3861.00    0.47933   0.77216    0.000
 3862.00    0.53831   0.80408    0.000
 3863.00    0.61118   0.82549    0.000
 3864.00    0.59754   0.82972    0.000
 3865.00    0.51164   0.82182    0.000
 3866.00    0.57295   0.81310    0.000
 3867.00    0.74252   0.81094    0.000
 3868.00    0.69696   0.81359    0.000
 3869.00    0.51244   0.81507    0.000
 3870.00    0.43082   0.80417    0.000
 3871.00    0.40736   0.77808    0.000
 3872.00    0.45333   0.74851    0.000
 3873.00    0.53346   0.73771    0.000
 3874.00    0.45292   0.75323    0.000
 3875.00    0.30404   0.77358    0.000
 3876.00    0.35508   0.77362    0.000
 3877.00    0.47894   0.74458    0.000
 3878.00    0.62700   0.69995    0.000
 3879.00    0.78253   0.67608    0.000
 3880.00    0.83596   0.68118    0.000
 3881.00    0.86318   0.67749    0.025
 3882.00    0.87561   0.65062    0.025
 3883.00    0.88496   0.62595    0.025
 3884.00    0.66936   0.61015    0.025
 3885.00    0.41667   0.57524    0.025
 3886.00    0.62631   0.51343    0.026
 3887.00    0.89321   0.45271    0.026
 3888.00    0.81266   0.40578    0.026
 3889.00    0.70237   0.37614    0.025
 3890.00    0.66154   0.38925    0.025
 3891.00    0.62418   0.44730    0.024
 3892.00    0.78645   0.51509    0.025
 3893.00    0.94814   0.56584    0.025
 3894.00    0.86185   0.59677    0.024
 3895.00    0.78528   0.61667    0.024
 3896.00    0.90755   0.64158    0.024
 3897.00    1.02144   0.67532    0.024
 3898.00    1.03617   0.69847    0.023
 3899.00    1.02786   0.70343    0.023
 3900.00    0.83179   0.70897    0.022
 3901.00    0.65970   0.73074    0.022
 3902.00    0.63407   0.75336    0.021
 3903.00    0.59507   0.76182    0.021
 3904.00    0.49169   0.76586    0.020
 3905.00    0.37535   0.76346    0.020
 3906.00    0.20823   0.75823    0.020
 3907.00    0.10917   0.77467    0.020
 3908.00    0.23197   0.80969    0.021
 3909.00    0.36865   0.83807    0.021
 3910.00    0.54360   0.85049    0.022
 3911.00    0.71172   0.85719    0.023
 3912.00    0.86371   0.86178    0.024
 3913.00    0.93729   0.85452    0.024
 3914.00    0.85086   0.84307    0.025
 3915.00    0.75111   0.84317    0.025
 3916.00    0.62768   0.84587    0.025
 3917.00    0.52874   0.84278    0.026
 3918.00    0.46783   0.83562    0.026
 3919.00    0.41069   0.82171    0.026
 3920.00    0.35868   0.80380    0.026
 3921.00    0.33612   0.79420    0.026
 3922.00    0.34894   0.79815    0.026
 3923.00    0.51268   0.80645    0.026
 3924.00    0.83627   0.81335    0.027
 3925.00    0.95874   0.81279    0.026
 3926.00    0.89332   0.79760    0.026
 3927.00    0.96415   0.77368    0.026
 3928.00    1.14718   0.74888    0.026
 3929.00    1.06969   0.72468    0.026
 3930.00    0.80333   0.69978    0.026
 3931.00    0.76650   0.66861    0.026
 3932.00    0.87573   0.61774    0.025
 3933.00    0.83251   0.54739    0.025
 3934.00    0.70445   0.50445    0.025
 3935.00    0.63786   0.53343    0.025
 3936.00    0.60103   0.60779    0.025
 3937.00    0.58927   0.67500    0.025
 3938.00    0.58799   0.71854    0.025
 3939.00    0.57662   0.74945    0.025
 3940.00    0.56163   0.77531    0.025
 3941.00    0.60909   0.78931    0.024
 3942.00    0.67543   0.79000    0.024
 3943.00    0.70732   0.78104    0.024
 3944.00    0.73057   0.76961    0.025
 3945.00    0.74458   0.77703    0.025
 3946.00    0.75672   0.80431    0.025
 3947.00    0.84777   0.81936    0.025
 3948.00    0.95146   0.81128    0.025
 3949.00    0.95843   0.80437    0.025
 3950.00    0.95385   0.81220    0.025
 3951.00    0.87079   0.81962    0.025
 3952.00    0.78134   0.81040    0.025
 3953.00    0.65807   0.79847    0.025
 3954.00    0.53323   0.80217    0.025
 3955.00    0.61939   0.80334    0.025
 3956.00    0.71148   0.78165    0.025
 3957.00    0.97320   0.75532    0.026
 3958.00    1.20915   0.74693    0.026
 3959.00    0.95691   0.74656    0.026
 3960.00    0.72970   0.72722    0.000
 3961.00    0.78470   0.67970    0.000
 3962.00    0.83250   0.62856    0.000
 3963.00    0.82366   0.59618    0.000
 3964.00    0.80951   0.57038    0.000
 3965.00    0.76383   0.53319    0.000
 3966.00    0.71634   0.48137    0.000
 3967.00    0.66037   0.41663    0.000
 3968.00    0.65008   0.34662    0.000
 3969.00    0.81484   0.29096    0.000
 3970.00    0.91416   0.27272    0.000
 3971.00    0.80437   0.30139    0.000
 3972.00    0.77304   0.36124    0.000
 3973.00    0.95421   0.42615    0.000
 3974.00    1.17760   0.48628    0.000
 3975.00    1.49905   0.54266    0.000
 3976.00    1.70613   0.59024    0.000
 3977.00    1.68349   0.62859    0.000
 3978.00    1.55978   0.66540    0.000
 3979.00    1.25928   0.70186    0.000
 3980.00    1.06018   0.73269    0.000
 3981.00    1.01635   0.75026    0.026
 3982.00    1.08125   0.75387    0.026
 3983.00    1.29240   0.75720    0.026
 3984.00    1.26857   0.77060    0.026
 3985.00    0.96648   0.78951    0.026
 3986.00    0.85261   0.80349    0.026
 3987.00    0.93528   0.81411    0.025
 3988.00    1.02341   0.83041    0.025
 3989.00    1.11656   0.84255    0.025
 3990.00    1.10799   0.84258    0.025
 3991.00    1.01683   0.84583    0.025
 3992.00    0.97395   0.85905    0.024
 3993.00    0.96558   0.87101    0.025
 3994.00    0.89969   0.87103    0.024
 3995.00    0.79775   0.86307    0.024
 3996.00    0.88137   0.85431    0.024
 3997.00    1.06667   0.84423    0.024
 3998.00    1.11196   0.83921    0.024
 3999.00    1.09055   0.85352    0.024
 4000.00    1.00701   0.87717    0.024
 4001.00    0.89793   0.88774    0.024
 4002.00    1.08052   0.88979    0.024
 4003.00    1.36555   0.89383    0.025
 4004.00    1.23947   0.88399    0.025
 4005.00    0.99160   0.85137    0.025
 4006.00    0.97146   0.82827    0.025
 4007.00    1.00727   0.84123    0.024
 4008.00    1.24801   0.86775    0.025
 4009.00    1.52951   0.87976    0.025
 4010.00    1.31256   0.88277    0.025
 4011.00    1.01816   0.88877    0.025
 4012.00    0.84261   0.89223    0.025
 4013.00    0.68073   0.89194    0.025
 4014.00    0.70252   0.89402    0.025
 4015.00    0.73851   0.90052    0.025
 4016.00    0.79570   0.90610    0.025
 4017.00    0.85378   0.90179    0.026
 4018.00    0.93295   0.89763    0.026
 4019.00    1.01226   0.90736    0.026
 4020.00    1.08878   0.91737    0.026
 4021.00    1.14877   0.91359    0.026
 4022.00    0.91730   0.90485    0.026
 4023.00    0.72511   0.89759    0.026
 4024.00    0.95567   0.88322    0.026
 4025.00    1.15764   0.86549    0.026
 4026.00    1.14251   0.86309    0.026
 4027.00    1.12037   0.88021    0.026
 4028.00    1.05779   0.90086    0.026
 4029.00    1.00740   0.90475    0.026
 4030.00    1.01291   0.88313    0.026
 4031.00    0.97763   0.85436    0.025
 4032.00    0.78936   0.84156    0.025
 4033.00    0.64075   0.84183    0.024
 4034.00    0.61647   0.84780    0.024
 4035.00    0.65542   0.86151    0.024
 4036.00    0.86256   0.88496    0.024
 4037.00    1.00506   0.91300    0.024
 4038.00    1.00000   0.93236    0.024
 4039.00    1.06592   0.93387    0.024
 4040.00    1.27218   0.91986    0.024
 4041.00    1.40465   0.90601    0.025
 4042.00    1.40998   0.90688    0.025
 4043.00    1.34942   0.90820    0.025
 4044.00    1.18945   0.88158    0.025
 4045.00    1.05448   0.82973    0.024
 4046.00    0.95266   0.79750    0.024
 4047.00    1.07185   0.81956    0.025
 4048.00    1.44906   0.86629    0.025
 4049.00    1.60224   0.89430    0.025
 4050.00    1.52475   0.90559    0.025
 4051.00    1.34259   0.91079    0.024
 4052.00    1.06537   0.90552    0.024
 4053.00    0.79558   0.89257    0.024
 4054.00    0.53176   0.87950    0.024
 4055.00    0.44006   0.87135    0.024
 4056.00    0.46955   0.87005    0.024
 4057.00    0.55953   0.86527    0.024
 4058.00    0.68687   0.85571    0.024
 4059.00    0.70731   0.85933    0.024
 4060.00    0.67008   0.87876    0.025
 4061.00    0.75713   0.89141    0.025
 4062.00    0.90243   0.87399    0.025
 4063.00    0.91112   0.83011    0.025
 4064.00    0.86461   0.80161    0.024
 4065.00    0.91209   0.81753    0.025
 4066.00    0.99199   0.84420    0.025
 4067.00    0.91747   0.85010    0.025
 4068.00    0.79811   0.85532    0.025
 4069.00    0.82241   0.87417    0.025
 4070.00    0.88122   0.87824    0.025
 4071.00    0.77659   0.84760    0.025
 4072.00    0.64028   0.81737    0.025
 4073.00    0.82687   0.82675    0.025
 4074.00    1.06211   0.85376    0.025
 4075.00    1.13841   0.85585    0.025
 4076.00    1.19713   0.82732    0.025
 4077.00    1.15314   0.78940    0.025
 4078.00    1.10164   0.77195    0.025
 4079.00    1.08075   0.78957    0.025
 4080.00    1.06104   0.82516    0.025
 4081.00    0.93665   0.85301    0.025
 4082.00    0.81311   0.85782    0.025
 4083.00    0.74324   0.84142    0.025
 4084.00    0.66692   0.81970    0.025
 4085.00    0.48431   0.80629    0.025
 4086.00    0.34268   0.80549    0.025
 4087.00    0.62272   0.81612    0.025
 4088.00    0.87894   0.82865    0.025
 4089.00    0.96040   0.82968    0.025
 4090.00    1.05000   0.81681    0.025
 4091.00    1.18533   0.79698    0.025
 4092.00    1.31234   0.77475    0.000
 4093.00    1.40211   0.75727    0.000
 4094.00    1.39824   0.74437    0.000
 4095.00    1.05043   0.71780    0.000
 4096.00    0.83896   0.67616    0.000
 4097.00    1.04684   0.63866    0.000
 4098.00    1.22374   0.60952    0.000
 4099.00    1.31972   0.57547    0.000
 4100.00    1.35478   0.52228    0.000
 4101.00    1.25304   0.45358    0.000
 4102.00    1.21005   0.41160    0.000
 4103.00    1.28140   0.43252    0.000
 4104.00    1.25415   0.49307    0.000
 4105.00    1.05959   0.55492    0.000
 4106.00    0.91964   0.60670    0.000
 4107.00    0.86087   0.64557    0.000
 4108.00    0.87641   0.67094    0.000
 4109.00    0.98906   0.68660    0.000
 4110.00    1.03143   0.69745    0.000
 4111.00    0.99291   0.71005    0.000
 4112.00    0.95962   0.72765    0.000
 4113.00    0.93163   0.75013    0.024
 4114.00    0.93520   0.77299    0.024
 4115.00    0.96704   0.79006    0.024
 4116.00    1.06526   0.80276    0.024
 4117.00    1.21587   0.80988    0.024
 4118.00    1.26706   0.80264    0.024
 4119.00    1.24927   0.78930    0.024
 4120.00    1.11127   0.78954    0.024
 4121.00    0.90014   0.80038    0.024
 4122.00    0.90641   0.80761    0.024
 4123.00    1.02818   0.81269    0.024
 4124.00    1.08624   0.82418    0.024
 4125.00    1.11493   0.83881    0.024
 4126.00    1.06855   0.84262    0.024
 4127.00    0.99236   0.83034    0.024
 4128.00    0.98394   0.81343    0.024
 4129.00    0.99846   0.80783    0.024
 4130.00    0.97542   0.80996    0.024
 4131.00    0.94170   0.80310    0.024
 4132.00    1.04111   0.78757    0.024
 4133.00    1.17178   0.78201    0.024
 4134.00    0.94174   0.79250    0.024
 4135.00    0.64362   0.81369    0.024
 4136.00    0.63108   0.83822    0.024
 4137.00    0.66024   0.85192    0.024
 4138.00    0.79870   0.85761    0.024
 4139.00    0.94878   0.86539    0.024
 4140.00    1.04189   0.87042    0.024
 4141.00    1.13106   0.86413    0.024
 4142.00    0.95307   0.83571    0.024
 4143.00    0.76586   0.78752    0.024
 4144.00    0.83315   0.75846    0.024
 4145.00    0.89807   0.77814    0.025
 4146.00    0.86835   0.81862    0.025
 4147.00    0.84634   0.84361    0.025
 4148.00    0.94360   0.85020    0.025
 4149.00    1.04187   0.84465    0.025
 4150.00    1.15008   0.83608    0.025
 4151.00    1.23409   0.83639    0.025
 4152.00    1.14622   0.84051    0.025
 4153.00    1.03192   0.83648    0.025
 4154.00    0.77333   0.82560    0.024
 4155.00    0.58094   0.81982    0.024
 4156.00    0.67794   0.82224    0.024
 4157.00    0.79324   0.82714    0.027
 4158.00    0.97436   0.83601    0.062
 4159.00    1.13610   0.84861   -1.000
 4160.00    1.23939   0.85648   -1.000
 4161.00    1.25269   0.85640   -1.000
 4162.00    1.03494   0.85752   -1.000
 4163.00    0.86585   0.86149   -1.000
 4164.00    0.80426   0.85995   -1.000
 4165.00    0.73424   0.85595   -1.000
 4166.00    0.64804   0.85215   -1.000
 4167.00    0.59182   0.84217   -1.000
 4168.00    0.58569   0.83352   -1.000
 4169.00    0.66708   0.83870   -1.000
 4170.00    0.87667   0.84638   -1.000
 4171.00    0.96511   0.83493    0.105
 4172.00    0.89751   0.80336    0.032
 4173.00    0.87435   0.77687    0.023
 4174.00    0.90162   0.77760    0.023
 4175.00    0.90122   0.79758    0.023
 4176.00    0.87311   0.81360    0.024
 4177.00    0.90302   0.81332    0.024
 4178.00    0.98416   0.80481    0.023
 4179.00    1.18358   0.80742    0.023
 4180.00    1.47500   0.82317    0.023
 4181.00    1.41980   0.83093    0.023
 4182.00    1.12757   0.82366    0.023
 4183.00    0.91152   0.81900    0.023
 4184.00    0.74115   0.82598    0.023
 4185.00    0.63033   0.83699    0.023
 4186.00    0.55065   0.83617    0.023
 4187.00    0.68862   0.81574    0.023
 4188.00    0.92531   0.80027    0.023
 4189.00    1.00847   0.81132    0.023
 4190.00    1.03171   0.82896    0.023
 4191.00    0.93044   0.83068    0.023
 4192.00    0.78780   0.83080    0.023
 4193.00    0.69767   0.84635    0.023
 4194.00    0.62216   0.85792    0.023
 4195.00    0.80763   0.84495    0.024
 4196.00    1.05298   0.82258    0.024
 4197.00    0.99712   0.80717    0.024
 4198.00    0.88592   0.79103    0.024
 4199.00    0.92154   0.77837    0.024
 4200.00    0.97792   0.78307    0.023
 4201.00    1.03297   0.79039    0.024
 4202.00    1.08788   0.78794    0.024
 4203.00    1.03977   0.79211    0.024
 4204.00    0.98495   0.80555    0.024
 4205.00    0.74347   0.81535    0.023
 4206.00    0.49691   0.82366    0.023
 4207.00    0.66493   0.83471    0.023
 4208.00    0.83383   0.84368    0.023
 4209.00    1.02826   0.84362    0.023
 4210.00    1.20663   0.83530    0.023
 4211.00    1.15133   0.83226    0.023
 4212.00    1.09518   0.84040    0.024
 4213.00    1.03083   0.84620    0.024
 4214.00    0.97039   0.83585    0.024
 4215.00    0.93671   0.80757    0.023
 4216.00    0.86944   0.78403    0.023
 4217.00    0.62367   0.79353    0.023
 4218.00    0.43308   0.82219    0.023
 4219.00    0.47819   0.83983    0.023
 4220.00    0.53765   0.84665    0.023
 4221.00    0.64767   0.85028    0.023
 4222.00    0.78816   0.84295    0.023
 4223.00    1.01890   0.82274    0.023
 4224.00    1.13248   0.79688    0.024
 4225.00    0.95037   0.76241    0.023
 4226.00    0.77116   0.71541    0.023
 4227.00    0.59823   0.68383    0.023
 4228.00    0.55454   0.70772    0.023
 4229.00    0.75455   0.76840    0.022
 4230.00    0.83760   0.81400    0.022
 4231.00    0.72809   0.83169    0.022
 4232.00    0.66423   0.82554    0.021
 4233.00    0.66627   0.80163    0.021
 4234.00    0.67578   0.78794    0.021
 4235.00    0.69477   0.79062    0.021
 4236.00    0.75419   0.78703    0.021
 4237.00    0.85884   0.78344    0.021
 4238.00    0.95676   0.79087    0.021
 4239.00    1.04806   0.79705    0.021
 4240.00    1.11002   0.80126    0.022
 4241.00    1.14646   0.81201    0.022
 4242.00    1.10093   0.81962    0.022
 4243.00    0.99255   0.81974    0.022
 4244.00    0.83574   0.82825    0.022
 4245.00    0.64628   0.84003    0.022
 4246.00    0.60378   0.83173    0.022
 4247.00    0.64803   0.80631    0.023
 4248.00    0.70493   0.78835    0.023
 4249.00    0.76835   0.78256    0.023
 4250.00    0.72076   0.77293    0.023
 4251.00    0.62363   0.76776    0.023
 4252.00    0.67239   0.78393    0.022
 4253.00    0.77709   0.79826    0.022
 4254.00    0.82195   0.78712    0.022
 4255.00    0.84732   0.77313    0.023
 4256.00    0.78717   0.78535    0.022
 4257.00    0.70367   0.81200    0.022
 4258.00    0.65904   0.81755    0.022
 4259.00    0.62313   0.79439    0.022
 4260.00    0.67511   0.76378    0.022
 4261.00    0.74281   0.74983    0.022
 4262.00    0.75711   0.76723    0.022
 4263.00    0.76409   0.80147    0.023
 4264.00    0.82168   0.82470    0.023
 4265.00    0.88420   0.83328    0.023
 4266.00    0.87752   0.83361    0.023
 4267.00    0.86662   0.82123    0.023
 4268.00    0.77480   0.80370    0.022
 4269.00    0.68104   0.79337    0.022
 4270.00    0.63294   0.77761    0.022
 4271.00    0.59375   0.74286    0.022
 4272.00    0.78980   0.71396    0.022
 4273.00    0.95927   0.71800    0.022
 4274.00    0.76327   0.73255    0.022
 4275.00    0.58373   0.73839    0.022
 4276.00    0.55369   0.75487    0.022
 4277.00    0.53196   0.78558    0.022
 4278.00    0.56561   0.80892    0.022
 4279.00    0.59827   0.81048    0.022
 4280.00    0.62585   0.79311    0.022
 4281.00    0.67839   0.77710    0.022
 4282.00    0.83517   0.77413   -2.000
 4283.00    0.89894   0.77797   -2.000
 4284.00    0.64166   0.78210   -2.000
 4285.00    0.50988   0.77786   -2.000
 4286.00    0.74291   0.76750   -2.000
 4287.00    0.89457   0.76450   -2.000
 4288.00    0.84443   0.76112   -2.000
 4289.00    0.77378   0.73866   -2.000
 4290.00    0.65927   0.70966   -2.000
 4291.00    0.63456   0.70808   -2.000
 4292.00    0.77659   0.73779   -2.000
 4293.00    0.84107   0.76529   -2.000
 4294.00    0.77981   0.76545   -2.000
 4295.00    0.71308   0.75405   -2.000
 4296.00    0.63857   0.75045   -2.000
 4297.00    0.65802   0.74526   -2.000
 4298.00    0.79507   0.72745    0.023
 4299.00    0.94347   0.69495    0.024
 4300.00    1.10438   0.66415    0.024
 4301.00    1.08680   0.65906    0.024
 4302.00    0.89556   0.66769    0.024
 4303.00    0.76691   0.67185    0.024
 4304.00    0.69197   0.68058    0.023
 4305.00    0.62145   0.69288    0.023
 4306.00    0.55426   0.69395    0.023
 4307.00    0.52672   0.67792    0.023
 4308.00    0.52551   0.65295    0.023
 4309.00    0.54991   0.64242    0.023
 4310.00    0.58921   0.65665    0.023
 4311.00    0.56583   0.67939    0.023
 4312.00    0.51068   0.69557    0.022
 4313.00    0.59568   0.70338    0.022
 4314.00    0.74216   0.70678    0.022
 4315.00    0.89311   0.72048    0.022
 4316.00    1.04573   0.75693    0.023
 4317.00    1.03070   0.79461    0.023
 4318.00    0.96208   0.80591    0.023
 4319.00    0.95552   0.79717    0.023
 4320.00    0.96556   0.78408    0.023
 4321.00    0.98460   0.77009    0.023
 4322.00    1.00561   0.75779    0.023
 4323.00    0.86901   0.73754    0.023
 4324.00    0.70499   0.69850    0.024
 4325.00    0.64878   0.65279    0.023
 4326.00    0.60682   0.62848    0.023
 4327.00    0.79358   0.64813    0.023
 4328.00    1.00172   0.69408    0.023
 4329.00    1.01186   0.72302    0.023
 4330.00    1.01068   0.71921    0.000
 4331.00    0.97488   0.70232    0.000
 4332.00    0.93859   0.69232    0.000
 4333.00    0.93780   0.68543    0.000
 4334.00    0.93485   0.67439    0.000
 4335.00    0.87995   0.66203    0.000
 4336.00    0.84002   0.63898    0.000
 4337.00    0.99509   0.58859    0.000
 4338.00    1.12383   0.52289    0.000
 4339.00    1.02268   0.46295    0.000
 4340.00    0.91818   0.41162    0.000
 4341.00    0.79207   0.39361    0.000
 4342.00    0.69111   0.43436    0.000
 4343.00    0.71702   0.49835    0.000
 4344.00    0.72191   0.54448    0.000
 4345.00    0.64108   0.58063    0.000
 4346.00    0.61363   0.61412    0.000
 4347.00    0.76680   0.63633    0.000
 4348.00    0.89296   0.65626    0.000
 4349.00    0.94203   0.68329    0.000
 4350.00    0.99489   0.69652    0.000
 4351.00    1.05700   0.67336    0.023
 4352.00    1.09561   0.64013    0.023
 4353.00    1.08475   0.64383    0.023
 4354.00    1.00984   0.67860    0.023
 4355.00    0.81783   0.70673    0.022
 4356.00    0.64414   0.72418    0.022
 4357.00    0.49969   0.74091    0.022
 4358.00    0.51631   0.74679    0.022
 4359.00    0.75877   0.73795    0.022
 4360.00    0.84121   0.73562    0.022
 4361.00    0.72625   0.75247    0.022
 4362.00    0.68010   0.77089    0.022
 4363.00    0.70880   0.77647    0.022
 4364.00    0.79053   0.78076    0.022
 4365.00    0.92315   0.79189    0.022
 4366.00    0.87761   0.79414    0.022
 4367.00    0.68138   0.77699    0.022
 4368.00    0.56500   0.75832    0.022
 4369.00    0.50809   0.75619    0.022
 4370.00    0.50350   0.76184    0.022
 4371.00    0.53314   0.76493    0.022
 4372.00    0.50542   0.76795    0.022
 4373.00    0.44484   0.76443    0.022
 4374.00    0.63348   0.74435    0.022
 4375.00    0.94643   0.72183    0.022
 4376.00    1.03803   0.72364    0.022
 4377.00    1.03411   0.75107    0.022
 4378.00    0.89762   0.77859    0.022
 4379.00    0.71209   0.78739    0.022
 4380.00    0.60607   0.78288    0.022
 4381.00    0.52499   0.77575    0.022
 4382.00    0.55426   0.75360    0.022
 4383.00    0.61241   0.70093    0.021
 4384.00    0.70414   0.64935    0.022
 4385.00    0.80305   0.64789    0.022
 4386.00    0.72303   0.69108    0.022
 4387.00    0.61275   0.72980    0.022
 4388.00    0.56927   0.74145    0.021
 4389.00    0.53433   0.74208    0.021
 4390.00    0.56545   0.74175    0.021
 4391.00    0.60247   0.74315    0.021
 4392.00    0.57073   0.75461    0.021
 4393.00    0.53533   0.76748    0.022
 4394.00    0.57317   0.76157    0.022
 4395.00    0.61125   0.74365    0.022
 4396.00    0.55304   0.74569    0.022
 4397.00    0.49826   0.77304    0.021
 4398.00    0.51902   0.79292    0.021
 4399.00    0.54809   0.78493    0.021
 4400.00    0.67981   0.75990    0.022
 4401.00    0.79135   0.74533    0.022
 4402.00    0.73317   0.75816    0.022
 4403.00    0.67483   0.77015    0.022
 4404.00    0.61544   0.74573    0.022
 4405.00    0.53325   0.71134    0.022
 4406.00    0.33893   0.71373    0.022
 4407.00    0.23995   0.73732    0.022
 4408.00    0.52160   0.74453    0.022
 4409.00    0.74945   0.74628    0.022
 4410.00    0.79890   0.76464    0.022
 4411.00    0.82476   0.78758    0.022
 4412.00    0.78452   0.80106    0.022
 4413.00    0.76263   0.80403    0.022
 4414.00    0.78467   0.78482    0.022
 4415.00    0.75965   0.74626    0.022
 4416.00    0.63724   0.72336    0.022
 4417.00    0.57190   0.73096    0.022
 4418.00    0.60928   0.75272    0.022
 4419.00    0.65406   0.77869    0.022
 4420.00    0.71048   0.79903    0.022
 4421.00    0.70502   0.79864    0.022
 4422.00    0.61407   0.77992    0.022
 4423.00    0.64680   0.76517    0.022
 4424.00    0.82997   0.76759    0.022
 4425.00    0.99154   0.77398    0.022
 4426.00    1.12995   0.77143    0.022
 4427.00    1.02101   0.76595    0.022
 4428.00    0.67810   0.76861    0.022
 4429.00    0.53798   0.77519    0.022
 4430.00    0.56698   0.77057    0.022
 4431.00    0.62532   0.76387    0.023
 4432.00    0.70521   0.77064    0.023
 4433.00    0.75762   0.77374    0.023
 4434.00    0.79231   0.75595    0.023
 4435.00    0.76331   0.73106    0.023
 4436.00    0.69837   0.72517    0.023
 4437.00    0.69560   0.74704    0.023
 4438.00    0.72334   0.77870    0.023
 4439.00    0.75582   0.80012    0.023
 4440.00    0.79032   0.80246    0.023
 4441.00    0.69929   0.78513    0.023
 4442.00    0.56263   0.75751    0.023
 4443.00    0.57531   0.73454    0.023
 4444.00    0.63392   0.73215    0.023
 4445.00    0.67491   0.75543    0.023
 4446.00    0.71139   0.78275    0.023
 4447.00    0.75585   0.78966    0.023
 4448.00    0.80198   0.78583    0.023
 4449.00    0.91869   0.78598    0.023
 4450.00    1.04699   0.78137    0.023
 4451.00    0.82204   0.77384    0.023
 4452.00    0.55353   0.77526    0.023
 4453.00    0.46172   0.77462    0.023
 4454.00    0.38494   0.75530    0.023
 4455.00    0.50541   0.72681    0.023
 4456.00    0.63561   0.71638    0.023
 4457.00    0.64877   0.72805    0.023
 4458.00    0.65940   0.73861    0.023
 4459.00    0.62862   0.73763    0.023
 4460.00    0.60105   0.73425    0.023
 4461.00    0.63879   0.72966    0.000
 4462.00    0.67418   0.72539    0.000
 4463.00    0.68191   0.73685    0.000
 4464.00    0.70185   0.75725    0.000
 4465.00    0.82076   0.76452    0.000
 4466.00    0.93129   0.76123    0.000
 4467.00    0.99085   0.75805    0.000
 4468.00    0.97633   0.75164    0.000
 4469.00    0.60643   0.73921    0.000
 4470.00    0.32573   0.73099    0.000
 4471.00    0.39342   0.73355    0.000
 4472.00    0.49317   0.74503    0.000
 4473.00    0.69717   0.76512    0.000
 4474.00    0.82230   0.78468    0.000
 4475.00    0.73046   0.79020    0.000
 4476.00    0.72487   0.78775    0.000
 4477.00    0.92256   0.79319    0.000
 4478.00    0.99607   0.80167    0.000
 4479.00    0.81664   0.79356    0.000
 4480.00    0.74571   0.76141    0.000
 4481.00    0.86714   0.72133    0.000
 4482.00    0.84302   0.70455    0.023
 4483.00    0.59317   0.72609    0.022
 4484.00    0.59367   0.76364    0.022
 4485.00    0.93514   0.78959    0.023
 4486.00    1.14707   0.80025    0.023
 4487.00    1.20370   0.79895    0.023
 4488.00    1.07869   0.78348    0.023
 4489.00    0.76168   0.75948    0.023
 4490.00    0.68526   0.74479    0.023
 4491.00    0.83322   0.75062    0.023
 4492.00    0.80698   0.76834    0.023
 4493.00    0.63754   0.77844    0.023
 4494.00    0.56018   0.76934    0.023
 4495.00    0.54945   0.75287    0.023
 4496.00    0.64097   0.74748    0.023
 4497.00    0.79744   0.75604    0.023
 4498.00    0.79471   0.77206    0.023
 4499.00    0.70355   0.78572    0.023
 4500.00    0.74015   0.78626    0.022
 4501.00    0.83849   0.77263    0.023
 4502.00    0.74658   0.76540    0.023
 4503.00    0.57532   0.78235    0.023
 4504.00    0.59091   0.80669    0.023
 4505.00    0.67320   0.81611    0.022
 4506.00    0.70791   0.81121    0.022
 4507.00    0.72829   0.79975    0.023
 4508.00    0.75035   0.78887    0.022
 4509.00    0.77283   0.78671    0.022
 4510.00    0.80982   0.79411    0.022
 4511.00    0.84974   0.80026    0.022
 4512.00    0.84418   0.79537    0.022
 4513.00    0.83136   0.78392    0.022
 4514.00    0.67234   0.77347    0.022
 4515.00    0.49594   0.76672    0.022
 4516.00    0.39784   0.76764    0.022
 4517.00    0.30608   0.77117    0.022
 4518.00    0.45855   0.76819    0.022
 4519.00    0.62212   0.76627    0.022
 4520.00    0.52996   0.77298    0.022
 4521.00    0.43819   0.78041    0.022
 4522.00    0.52671   0.77505    0.022
 4523.00    0.61086   0.75922    0.022
 4524.00    0.61308   0.75215    0.022
 4525.00    0.61121   0.75249    0.022
 4526.00    0.56332   0.74495    0.022
 4527.00    0.52494   0.73051    0.022
 4528.00    0.56103   0.71601    0.022
 4529.00    0.60831   0.70763    0.022
 4530.00    0.72181   0.71060    0.022
 4531.00    0.77916   0.72178    0.023
 4532.00    0.57363   0.73404    0.022
 4533.00    0.46257   0.73373    0.022
 4534.00    0.71250   0.71530    0.022
 4535.00    0.88409   0.69908    0.022
 4536.00    0.80585   0.70800    0.022
 4537.00    0.76770   0.74214    0.022
 4538.00    0.83784   0.77414    0.022
 4539.00    0.87252   0.78066    0.022
 4540.00    0.82505   0.76775    0.022
 4541.00    0.81471   0.75347    0.022
 4542.00    0.87880   0.75215    0.023
 4543.00    0.89370   0.76178    0.023
 4544.00    0.82275   0.76332    0.023
 4545.00    0.78873   0.75284    0.023
 4546.00    0.81114   0.74777    0.022
 4547.00    0.77001   0.75155    0.022
 4548.00    0.64357   0.74693    0.022
 4549.00    0.67404   0.72530    0.022
 4550.00    0.88999   0.71006    0.000
 4551.00    1.01303   0.72336    0.000
 4552.00    1.03922   0.74223    0.000
 4553.00    0.97038   0.74145    0.000
 4554.00    0.81418   0.72843    0.000
 4555.00    0.72800   0.71739    0.000
 4556.00    0.69857   0.72008    0.000
 4557.00    0.76610   0.73939    0.000
 4558.00    0.90277   0.75923    0.000
 4559.00    0.93544   0.76730    0.000
 4560.00    0.90302   0.76987    0.000
 4561.00    0.76080   0.77389    0.000
 4562.00    0.55852   0.77530    0.000
 4563.00    0.48769   0.76421    0.000
 4564.00    0.47936   0.74389    0.000
 4565.00    0.50612   0.73203    0.000
 4566.00    0.54727   0.73808    0.000
 4567.00    0.68727   0.75691    0.000
 4568.00    0.86192   0.77389    0.000
 4569.00    0.93907   0.77911    0.000
 4570.00    0.98742   0.77235    0.000
 4571.00    0.90241   0.75168    0.000
 4572.00    0.78474   0.73269    0.000
 4573.00    0.60567   0.74090    0.000
 4574.00    0.41443   0.76269    0.000
 4575.00    0.70805   0.76981    0.000
 4576.00    1.07674   0.76612    0.000
 4577.00    0.89898   0.76426    0.000
 4578.00    0.65869   0.76224    0.000
 4579.00    0.61962   0.75268    0.000
 4580.00    0.59601   0.73659    0.000
 4581.00    0.59688   0.72586    0.000
 4582.00    0.59878   0.72696    0.000
 4583.00    0.60760   0.73012    0.000
 4584.00    0.62279   0.72811    0.000
 4585.00    0.90914   0.72696    0.000
 4586.00    1.16415   0.72927    0.000
 4587.00    0.87147   0.73561    0.000
 4588.00    0.60423   0.74673    0.000
 4589.00    0.60912   0.75630    0.000
 4590.00    0.59523   0.75819    0.000
 4591.00    0.43944   0.75071    0.000
 4592.00    0.33886   0.73903    0.000
 4593.00    0.55557   0.73374    0.000
 4594.00    0.71544   0.73603    0.000
 4595.00    0.61560   0.73755    0.000
 4596.00    0.54517   0.73773    0.000
 4597.00    0.58479   0.74035    0.000
 4598.00    0.61668   0.74425    0.000
 4599.00    0.62442   0.74732    0.000
 4600.00    0.64312   0.74372    0.000
 4601.00    0.69091   0.73523    0.000
 4602.00    0.77048   0.73388    0.000
 4603.00    0.92246   0.73912    0.000
 4604.00    1.05286   0.74298    0.000
 4605.00    1.14066   0.74287    0.000
 4606.00    1.12325   0.74198    0.000
 4607.00    0.92491   0.74560    0.000
 4608.00    0.76329   0.75611    0.000
 4609.00    0.65695   0.76935    0.000
 4610.00    0.61829   0.77417    0.000
 4611.00    0.66917   0.76739    0.000
 4612.00    0.73587   0.75816    0.000
 4613.00    0.82103   0.75194    0.000
 4614.00    0.89898   0.75101    0.000
 4615.00    0.96953   0.75562    0.000
 4616.00    0.86394   0.75631    0.000
 4617.00    0.59868   0.75357    0.000
 4618.00    0.47361   0.75197    0.000
 4619.00    0.46054   0.74543    0.000
 4620.00    0.52193   0.74126    0.000
 4621.00    0.63564   0.74944    0.000
 4622.00    0.74015   0.75848    0.000
 4623.00    0.83899   0.76002    0.000
 4624.00    0.87197   0.75946    0.000
 4625.00    0.86949   0.75644    0.000
 4626.00    0.77699   0.75131    0.000
 4627.00    0.64238   0.75094    0.000
 4628.00    0.64454   0.75128    0.000
 4629.00    0.70184   0.74338    0.000
 4630.00    0.65636   0.73759    0.000
 4631.00    0.57552   0.74661    0.000
 4632.00    0.66548   0.75579    0.000
 4633.00    0.80491   0.74913    0.000
 4634.00    0.72096   0.73758    0.000
 4635.00    0.58352   0.73428    0.000
 4636.00    0.63007   0.73597    0.000
 4637.00    0.71215   0.73408    0.000
 4638.00    0.71778   0.72762    0.000
 4639.00    0.71193   0.72238    0.000
 4640.00    0.76382   0.72170    0.000
 4641.00    0.82205   0.72863    0.000
 4642.00    0.76782   0.74014    0.000
 4643.00    0.70541   0.74485    0.000
 4644.00    0.57163   0.74139    0.000
 4645.00    0.43515   0.73341    0.000
 4646.00    0.58866   0.71801    0.000
 4647.00    0.73747   0.70176    0.000
 4648.00    0.65738   0.69804    0.000
 4649.00    0.58885   0.70720    0.000
 4650.00    0.70923   0.72060    0.000
 4651.00    0.80872   0.72985    0.000
 4652.00    0.69436   0.73362    0.000
 4653.00    0.60251   0.73551    0.000
 4654.00    0.67508   0.73051    0.000
 4655.00    0.72734   0.71843    0.000
 4656.00    0.66609   0.71103    0.000
 4657.00    0.63047   0.71463    0.000
 4658.00    0.70920   0.73035    0.000
 4659.00    0.73474   0.75115    0.000
 4660.00    0.56543   0.76348    0.000
 4661.00    0.44775   0.76099    0.000
 4662.00    0.48847   0.74783    0.000
 4663.00    0.55638   0.73362    0.000
 4664.00    0.69520   0.72673    0.000
 4665.00    0.76907   0.72562    0.000
 4666.00    0.69737   0.71497    0.000
 4667.00    0.65366   0.68910    0.000
 4668.00    0.66433   0.66975    0.000
 4669.00    0.69514   0.67546    0.000
 4670.00    0.76005   0.69665    0.000
 4671.00    0.74427   0.71678    0.000
 4672.00    0.60879   0.72682    0.000
 4673.00    0.58425   0.72541    0.000
 4674.00    0.70441   0.72108    0.000
 4675.00    0.78214   0.72243    0.000
 4676.00    0.81114   0.73098    0.000
 4677.00    0.73388   0.73831    0.000
 4678.00    0.54897   0.73372    0.000
 4679.00    0.65596   0.72112    0.000
 4680.00    1.02385   0.71093    0.000
 4681.00    1.10922   0.70538    0.000
 4682.00    0.97210   0.70446    0.000
 4683.00    0.81443   0.71107    0.000
 4684.00    0.64252   0.72079    0.000
 4685.00    0.66177   0.72439    0.000
 4686.00    0.79712   0.72257    0.000
 4687.00    0.79642   0.72003    0.000
 4688.00    0.72359   0.71849    0.000
 4689.00    0.72673   0.71960    0.000
 4690.00    0.76484   0.71998    0.000
 4691.00    0.61028   0.71583    0.000
 4692.00    0.37938   0.71382    0.000
 4693.00    0.51219   0.71865    0.000
 4694.00    0.76780   0.72519    0.000
 4695.00    0.72730   0.73132    0.000
 4696.00    0.60277   0.73691    0.000
 4697.00    0.63312   0.73539    0.000
 4698.00    0.69973   0.72151    0.000
 4699.00    0.67283   0.70553    0.000
 4700.00    0.62834   0.70203    0.000
 4701.00    0.77537   0.70511    0.000
 4702.00    0.95025   0.69969    0.000
 4703.00    0.83446   0.68824    0.000
 4704.00    0.68794   0.68790    0.000
 4705.00    0.84614   0.70159    0.000
 4706.00    1.02527   0.71095    0.000
 4707.00    0.85451   0.70544    0.000
 4708.00    0.67184   0.69421    0.000
 4709.00    0.71406   0.68850    0.000
 4710.00    0.75057   0.69265    0.000
 4711.00    0.58988   0.70653    0.000
 4712.00    0.43947   0.71865    0.000
 4713.00    0.44655   0.71668    0.000
 4714.00    0.46350   0.70482    0.000
 4715.00    0.57728   0.69762    0.000
 4716.00    0.69768   0.70463    0.000
 4717.00    0.86489   0.71849    0.000
 4718.00    0.96607   0.72665    0.000
 4719.00    0.70799   0.72998    0.000
 4720.00    0.52191   0.73344    0.000
 4721.00    0.64958   0.73398    0.000
 4722.00    0.73615   0.72863    0.000
 4723.00    0.67530   0.72352    0.000
 4724.00    0.66956   0.72656    0.000
 4725.00    0.82977   0.73413    0.000
 4726.00    0.88736   0.73372    0.000
 4727.00    0.68202   0.71783    0.000
 4728.00    0.53077   0.69642    0.000
 4729.00    0.49876   0.68672    0.000
 4730.00    0.45950   0.68829    0.000
 4731.00    0.40639   0.69086    0.000
 4732.00    0.36652   0.69496    0.000
 4733.00    0.34874   0.70248    0.000
 4734.00    0.40515   0.70893    0.000
 4735.00    0.57003   0.71243    0.000
 4736.00    0.62796   0.70864    0.000
 4737.00    0.54838   0.69949    0.000
 4738.00    0.54523   0.70105    0.000
 4739.00    0.62865   0.71191    0.000
 4740.00    0.64870   0.71434    0.000
 4741.00    0.60545   0.70816    0.000
 4742.00    0.60355   0.70594    0.000
 4743.00    0.63809   0.71138    0.000
 4744.00    0.72541   0.71653    0.000
 4745.00    0.85369   0.71548    0.000
 4746.00    0.76387   0.71492    0.000
 4747.00    0.52517   0.71918    0.000
 4748.00    0.49380   0.72109    0.000
 4749.00    0.58648   0.71931    0.000
 4750.00    0.57739   0.71963    0.000
 4751.00    0.51516   0.72072    0.000
 4752.00    0.47372   0.71667    0.000
 4753.00    0.44168   0.70873    0.000
 4754.00    0.48111   0.70201    0.000
 4755.00    0.54837   0.69842    0.000
 4756.00    0.63484   0.69683    0.000
 4757.00    0.72768   0.69639    0.000
 4758.00    0.84198   0.69838    0.000
 4759.00    0.96226   0.70247    0.000
 4760.00    0.86651   0.70645    0.000
 4761.00    0.72135   0.70367    0.021
 4762.00    0.69857   0.69026    0.022
 4763.00    0.69821   0.67667    0.022
 4764.00    0.58499   0.67193    0.021
 4765.00    0.45586   0.67011    0.021
 4766.00    0.50852   0.66736    0.021
 4767.00    0.57962   0.66985    0.022
 4768.00    0.59557   0.67887    0.022
 4769.00    0.60796   0.68963    0.021
 4770.00    0.68552   0.69706    0.021
 4771.00    0.76485   0.69453    0.021
 4772.00    0.73851   0.68525    0.021
 4773.00    0.71145   0.68359    0.021
 4774.00    0.66374   0.69381    0.021
 4775.00    0.61985   0.70382    0.021
 4776.00    0.63115   0.70440    0.021
 4777.00    0.63990   0.70274    0.021
 4778.00    0.62471   0.70340    0.021
 4779.00    0.61259   0.69985    0.021
 4780.00    0.62146   0.69353    0.021
 4781.00    0.64938   0.69168    0.020
 4782.00    0.77821   0.69100    0.020
 4783.00    0.85801   0.68497    0.020
 4784.00    0.72896   0.68086    0.020
 4785.00    0.64140   0.68432    0.020
 4786.00    0.69968   0.68328    0.020
 4787.00    0.76101   0.67688    0.020
 4788.00    0.83135   0.67673    0.020
 4789.00    0.86478   0.67808    0.020
 4790.00    0.80524   0.67772    0.020
 4791.00    0.75118   0.68138    0.020
 4792.00    0.70896   0.68672    0.020
 4793.00    0.68217   0.69303    0.020
 4794.00    0.68440   0.70311    0.020
 4795.00    0.65627   0.71188    0.020
 4796.00    0.57824   0.71267    0.020
 4797.00    0.54837   0.70618    0.020
 4798.00    0.58789   0.69595    0.020
 4799.00    0.62659   0.68475    0.020
 4800.00    0.66424   0.67858    0.020
 4801.00    0.65094   0.68275    0.020
 4802.00    0.58075   0.69394    0.020
 4803.00    0.54737   0.70189    0.020
 4804.00    0.55025   0.69887    0.021
 4805.00    0.48746   0.68776    0.021
 4806.00    0.36762   0.68017    0.020
 4807.00    0.41950   0.67909    0.020
 4808.00    0.60277   0.67822    0.020
 4809.00    0.60669   0.67910    0.020
 4810.00    0.48996   0.68332    0.020
 4811.00    0.57168   0.68591    0.020
 4812.00    0.77034   0.68553    0.020
 4813.00    0.80174   0.68505    0.020
 4814.00    0.74719   0.68589    0.020
 4815.00    0.70562   0.68773    0.020
 4816.00    0.66982   0.69025    0.020
 4817.00    0.78419   0.69332    0.020
 4818.00    0.95602   0.69565    0.020
 4819.00    0.80850   0.69673    0.020
 4820.00    0.55716   0.69619    0.020
 4821.00    0.55717   0.69370    0.020
 4822.00    0.62561   0.68768    0.020
 4823.00    0.62122   0.67237    0.020
 4824.00    0.60056   0.65590    0.020
 4825.00    0.56139   0.65714    0.020
 4826.00    0.51894   0.67158    0.020
 4827.00    0.49027   0.67938    0.020
 4828.00    0.46349   0.67558    0.020
 4829.00    0.53309   0.66890    0.020
 4830.00    0.61206   0.66688    0.020
 4831.00    0.58650   0.66548    0.020
 4832.00    0.55460   0.65905    0.020
 4833.00    0.63275   0.65619    0.020
 4834.00    0.71278   0.66263    0.020
 4835.00    0.60821   0.66823    0.020
 4836.00    0.50560   0.66682    0.020
 4837.00    0.45415   0.66439    0.020
 4838.00    0.41799   0.66201    0.020
 4839.00    0.59061   0.65393    0.020
 4840.00    0.73408   0.64342    0.019
 4841.00    0.61402   0.63994    0.019
 4842.00    0.51679   0.64198    0.019
 4843.00    0.57107   0.63976    0.019
 4844.00    0.62176   0.63600    0.019
 4845.00    0.65396   0.63982    0.019
 4846.00    0.68470   0.64549    0.020
 4847.00    0.70936   0.64170    0.020
 4848.00    0.72961   0.62746    0.000
 4849.00    0.73470   0.61416    0.000
 4850.00    0.72386   0.61242    0.000
 4851.00    0.66684   0.61414    0.000
 4852.00    0.61267   0.60878    0.000
 4853.00    0.56552   0.60012    0.000
 4854.00    0.52559   0.58671    0.000
 4855.00    0.50104   0.56255    0.000
 4856.00    0.49803   0.54023    0.000
 4857.00    0.53492   0.53353    0.000
 4858.00    0.63221   0.52805    0.000
 4859.00    0.82726   0.50139    0.000
 4860.00    0.89437   0.44931    0.000
 4861.00    0.77981   0.39087    0.000
 4862.00    0.67199   0.36999    0.000
 4863.00    0.57260   0.40625    0.000
 4864.00    0.49597   0.45973    0.000
 4865.00    0.44440   0.49690    0.000
 4866.00    0.42334   0.52343    0.000
 4867.00    0.43189   0.54450    0.000
 4868.00    0.41947   0.55881    0.000
 4869.00    0.38909   0.56995    0.000
 4870.00    0.35508   0.57350    0.000
 4871.00    0.31835   0.56187    0.000
 4872.00    0.39561   0.55170    0.000
 4873.00    0.54844   0.56438    0.000
 4874.00    0.70599   0.58858    0.000
 4875.00    0.86629   0.60224    0.020
 4876.00    0.85180   0.60689    0.020
 4877.00    0.74892   0.61244    0.021
 4878.00    0.67144   0.61877    0.021
 4879.00    0.60509   0.62891    0.021
 4880.00    0.61670   0.64115    0.021
 4881.00    0.65761   0.64063    0.021
 4882.00    0.58341   0.63136    0.021
 4883.00    0.47250   0.63087    0.021
 4884.00    0.51608   0.63488    0.021
 4885.00    0.60085   0.63065    0.021
 4886.00    0.53857   0.62251    0.021
 4887.00    0.44421   0.62181    0.021
 4888.00    0.54545   0.62792    0.021
 4889.00    0.68060   0.63052    0.021
 4890.00    0.75842   0.62148    0.021
 4891.00    0.82870   0.60449    0.021
 4892.00    0.76824   0.60315    0.021
 4893.00    0.69563   0.62892    0.021
 4894.00    0.72002   0.65899    0.021
 4895.00    0.74990   0.67664    0.022
 4896.00    0.62167   0.68404    0.022
 4897.00    0.49204   0.68510    0.021
 4898.00    0.60426   0.68283    0.021
 4899.00    0.71135   0.67494    0.021
 4900.00    0.69670   0.66250    0.021
 4901.00    0.68919   0.65752    0.021
 4902.00    0.77395   0.65998    0.021
 4903.00    0.84541   0.65662    0.021
 4904.00    0.80112   0.65105    0.021
 4905.00    0.76627   0.65738    0.021
 4906.00    0.79215   0.67198    0.021
 4907.00    0.81838   0.67880    0.021
 4908.00    0.84630   0.67266    0.021
 4909.00    0.85005   0.65931    0.021
 4910.00    0.75541   0.64426    0.021
 4911.00    0.66639   0.63685    0.021
 4912.00    0.59637   0.64329    0.021
 4913.00    0.54818   0.65446    0.021
 4914.00    0.56214   0.66189    0.021
 4915.00    0.60146   0.66924    0.021
 4916.00    0.70246   0.67584    0.021
 4917.00    0.75370   0.67117    0.021
 4918.00    0.70050   0.64952    0.022
 4919.00    0.71909   0.61809    0.021
 4920.00    0.86870   0.59164    0.021
 4921.00    0.88560   0.58392    0.021
 4922.00    0.69089   0.59869    0.021
 4923.00    0.63337   0.61849    0.020
 4924.00    0.76786   0.62434    0.021
 4925.00    0.79046   0.62561    0.021
 4926.00    0.67527   0.63929    0.021
 4927.00    0.68363   0.65799    0.021
 4928.00    0.82614   0.66848    0.021
 4929.00    0.75861   0.67457    0.021
 4930.00    0.48995   0.67876    0.021
 4931.00    0.40207   0.67821    0.020
 4932.00    0.46683   0.67213    0.020
 4933.00    0.59175   0.65532    0.020
 4934.00    0.76140   0.63580    0.020
 4935.00    0.86425   0.63564    0.020
 4936.00    0.92348   0.64932    0.020
 4937.00    0.83268   0.65047    0.020
 4938.00    0.65611   0.63409    0.020
 4939.00    0.61062   0.61857    0.020
 4940.00    0.63038   0.62300    0.000
 4941.00    0.60024   0.64458    0.000
 4942.00    0.54859   0.66117    0.000
 4943.00    0.55299   0.66683    0.000
 4944.00    0.57806   0.67118    0.000
 4945.00    0.60688   0.67100    0.000
 4946.00    0.63686   0.66392    0.000
 4947.00    0.72313   0.66175    0.000
 4948.00    0.82410   0.66829    0.000
 4949.00    0.92708   0.67387    0.000
 4950.00    1.03049   0.67528    0.000
 4951.00    0.91234   0.67650    0.000
 4952.00    0.75685   0.67550    0.000
 4953.00    0.68123   0.66959    0.000
 4954.00    0.61577   0.66368    0.000
 4955.00    0.74702   0.65919    0.000
 4956.00    0.89573   0.64491    0.000
 4957.00    0.75321   0.61179    0.000
 4958.00    0.59532   0.58518    0.000
 4959.00    0.60344   0.59950    0.000
 4960.00    0.61601   0.63615    0.000
 4961.00    0.72914   0.65632    0.000
 4962.00    0.83484   0.65745    0.000
 4963.00    0.77885   0.65561    0.000
 4964.00    0.72259   0.65414    0.000
 4965.00    0.66287   0.64587    0.000
 4966.00    0.59619   0.63467    0.000
 4967.00    0.47122   0.63030    0.000
 4968.00    0.37718   0.63082    0.000
 4969.00    0.47629   0.63202    0.000
 4970.00    0.57851   0.63464    0.000
 4971.00    0.69598   0.63904    0.000
 4972.00    0.76449   0.64546    0.000
 4973.00    0.63807   0.65131    0.000
 4974.00    0.54551   0.65529    0.000
 4975.00    0.56497   0.65762    0.000
 4976.00    0.56028   0.65633    0.000
 4977.00    0.48810   0.65166    0.000
 4978.00    0.42402   0.64338    0.000
 4979.00    0.37933   0.63431    0.000
 4980.00    0.39462   0.62986    0.000
 4981.00    0.53383   0.62333    0.000
 4982.00    0.58685   0.60553    0.000
 4983.00    0.48503   0.58686    0.000
 4984.00    0.50338   0.58411    0.000
 4985.00    0.71052   0.59547    0.000
 4986.00    0.78862   0.61105    0.000
 4987.00    0.68870   0.62814    0.000
 4988.00    0.64814   0.64009    0.000
 4989.00    0.67963   0.63942    0.000
 4990.00    0.65881   0.63093    0.000
 4991.00    0.58200   0.62356    0.000
 4992.00    0.52146   0.62458    0.000
 4993.00    0.47628   0.63019    0.000
 4994.00    0.52883   0.63037    0.000
 4995.00    0.66273   0.63122    0.000
 4996.00    0.59453   0.63706    0.000
 4997.00    0.37821   0.63967    0.000
 4998.00    0.40566   0.63675    0.000
 4999.00    0.59000   0.62743    0.000
 5000.00    0.61508   0.61313    0.000
 5001.00    0.55050   0.60331    0.000
 5002.00    0.51098   0.60225    0.000
 5003.00    0.48372   0.60723    0.000
 5004.00    0.58426   0.61175    0.000
 5005.00    0.73891   0.60577    0.000
 5006.00    0.65782   0.59037    0.000
 5007.00    0.49124   0.58457    0.000
 5008.00    0.42753   0.59896    0.000
 5009.00    0.39536   0.61787    0.000
 5010.00    0.38915   0.62460    0.000
 5011.00    0.38956   0.61952    0.000
 5012.00    0.50760   0.60645    0.000
 5013.00    0.65007   0.58980    0.000
 5014.00    0.59447   0.57765    0.000
 5015.00    0.50644   0.57621    0.000
 5016.00    0.52857   0.58512    0.000
 5017.00    0.56423   0.59128    0.000
 5018.00    0.57723   0.58646    0.000
 5019.00    0.58831   0.58402    0.000
 5020.00    0.53366   0.59397    0.000
 5021.00    0.47579   0.60395    0.000
 5022.00    0.49457   0.60189    0.000
 5023.00    0.51393   0.59843    0.000
 5024.00    0.49590   0.60562    0.000
 5025.00    0.47869   0.61522    0.000
 5026.00    0.47772   0.61728    0.000
 5027.00    0.48141   0.61079    0.000
 5028.00    0.53946   0.60371    0.000
 5029.00    0.58760   0.60833    0.020
 5030.00    0.55570   0.61869    0.020
 5031.00    0.54464   0.62354    0.020
 5032.00    0.65987   0.62770    0.020
 5033.00    0.72499   0.63529    0.019
 5034.00    0.55041   0.63776    0.020
 5035.00    0.42340   0.62505    0.020
 5036.00    0.48171   0.60457    0.020
 5037.00    0.53086   0.59737    0.020
 5038.00    0.55032   0.60228    0.020
 5039.00    0.55973   0.59778    0.020
 5040.00    0.54152   0.57706    0.019
 5041.00    0.50720   0.55307    0.019
 5042.00    0.43499   0.55067    0.019
 5043.00    0.39321   0.57739    0.019
 5044.00    0.41332   0.60738    0.019
 5045.00    0.42456   0.62453    0.019
 5046.00    0.42013   0.63497    0.019
 5047.00    0.43544   0.63654    0.019
 5048.00    0.48131   0.62376    0.019
 5049.00    0.49884   0.60518    0.019
 5050.00    0.47786   0.59441    0.019
 5051.00    0.45007   0.59272    0.019
 5052.00    0.41414   0.59481    0.019
 5053.00    0.42583   0.60236    0.019
 5054.00    0.48777   0.61427    0.019
 5055.00    0.48700   0.62118    0.019
 5056.00    0.42785   0.62066    0.019
 5057.00    0.43016   0.62022    0.019
 5058.00    0.48293   0.62465    0.018
 5059.00    0.51934   0.62867    0.018
 5060.00    0.54394   0.62921    0.019
 5061.00    0.52805   0.63157    0.019
 5062.00    0.48648   0.63498    0.019
 5063.00    0.48197   0.63195    0.019
 5064.00    0.49801   0.61614    0.018
 5065.00    0.58948   0.59554    0.019
 5066.00    0.71732   0.59010    0.019
 5067.00    0.75397   0.59852    0.019
 5068.00    0.75265   0.60162    0.019
 5069.00    0.73872   0.60039    0.019
 5070.00    0.72030   0.60588    0.019
 5071.00    0.68330   0.61040    0.019
 5072.00    0.64072   0.60349    0.020
 5073.00    0.60958   0.59721    0.019
 5074.00    0.58131   0.60196    0.019
 5075.00    0.55973   0.60595    0.019
 5076.00    0.53952   0.60369    0.019
 5077.00    0.52053   0.60441    0.019
 5078.00    0.50173   0.60462    0.019
 5079.00    0.47002   0.58968    0.019
 5080.00    0.43678   0.56805    0.019
 5081.00    0.42284   0.56416    0.019
 5082.00    0.41045   0.57561    0.018
 5083.00    0.44453   0.58312    0.019
 5084.00    0.48069   0.58605    0.019
 5085.00    0.42515   0.59432    0.018
 5086.00    0.37094   0.60425    0.018
 5087.00    0.43703   0.60716    0.018
 5088.00    0.50203   0.60559    0.018
 5089.00    0.54694   0.60639    0.018
 5090.00    0.58981   0.60828    0.019
 5091.00    0.60987   0.60843    0.019
 5092.00    0.63149   0.61105    0.019
 5093.00    0.66523   0.61788    0.019
 5094.00    0.67404   0.62233    0.020
 5095.00    0.53600   0.61842    0.019
 5096.00    0.43326   0.60823    0.019
 5097.00    0.49526   0.59711    0.019
 5098.00    0.55868   0.58549    0.020
 5099.00    0.62751   0.57386    0.019
 5100.00    0.67600   0.57207    0.019
 5101.00    0.65983   0.58474    0.019
 5102.00    0.60174   0.59890    0.019
 5103.00    0.43062   0.60335    0.019
 5104.00    0.34762   0.60021    0.019
 5105.00    0.46835   0.59614    0.019
 5106.00    0.50630   0.59253    0.019
 5107.00    0.37863   0.58562    0.019
 5108.00    0.34865   0.57923    0.019
 5109.00    0.48888   0.57957    0.019
 5110.00    0.57849   0.58078    0.019
 5111.00    0.59088   0.58246    0.020
 5112.00    0.62971   0.59064    0.020
 5113.00    0.70396   0.59855    0.019
 5114.00    0.71484   0.60186    0.019
 5115.00    0.65096   0.60441    0.020
 5116.00    0.57649   0.60670    0.020
 5117.00    0.49100   0.61059    0.020
 5118.00    0.42028   0.61543    0.020
 5119.00    0.36313   0.61547    0.020
 5120.00    0.40019   0.60924    0.020
 5121.00    0.51348   0.60046    0.019
 5122.00    0.52383   0.59200    0.019
 5123.00    0.46090   0.58141    0.019
 5124.00    0.45344   0.56940    0.019
 5125.00    0.48063   0.56524    0.018
 5126.00    0.41874   0.56973    0.018
 5127.00    0.30822   0.57344    0.019
 5128.00    0.26928   0.57324    0.019
 5129.00    0.26429   0.57134    0.018
 5130.00    0.28383   0.57103    0.019
 5131.00    0.31340   0.57639    0.019
 5132.00    0.35482   0.58442    0.019
 5133.00    0.40039   0.58770    0.018
 5134.00    0.44968   0.58831    0.018
 5135.00    0.50007   0.59373    0.018
 5136.00    0.43608   0.59821    0.018
 5137.00    0.34414   0.59159    0.018
 5138.00    0.43054   0.57921    0.018
 5139.00    0.55216   0.56795    0.018
 5140.00    0.60426   0.56540    0.018
 5141.00    0.64565   0.57454    0.018
 5142.00    0.61272   0.57569    0.019
 5143.00    0.57134   0.56631    0.019
 5144.00    0.52025   0.56815    0.018
 5145.00    0.46843   0.57650    0.018
 5146.00    0.45800   0.57504    0.018
 5147.00    0.44927   0.56877    0.018
 5148.00    0.54338   0.56770    0.018
 5149.00    0.63246   0.57326    0.019
 5150.00    0.47389   0.57743    0.018
 5151.00    0.32336   0.57268    0.018
 5152.00    0.31201   0.56497    0.018
 5153.00    0.30194   0.56122    0.019
 5154.00    0.30540   0.56061    0.019
 5155.00    0.32723   0.56462    0.019
 5156.00    0.48727   0.57532    0.019
 5157.00    0.62817   0.58855    0.019
 5158.00    0.65948   0.59801    0.019
 5159.00    0.66850   0.60021    0.019
 5160.00    0.57603   0.59928    0.019
 5161.00    0.49889   0.59882    0.019
 5162.00    0.47901   0.59349    0.019
 5163.00    0.42732   0.58570    0.019
 5164.00    0.27638   0.58153    0.019
 5165.00    0.21034   0.57030    0.019
 5166.00    0.36915   0.53958    0.019
 5167.00    0.47109   0.49701    0.019
 5168.00    0.44368   0.46775    0.019
 5169.00    0.39843   0.47261    0.019
 5170.00    0.31804   0.50111    0.019
 5171.00    0.26409   0.51433    0.019
 5172.00    0.25550   0.48992    0.019
 5173.00    0.23546   0.46173    0.020
 5174.00    0.19821   0.47670    0.020
 5175.00    0.21578   0.52306    0.020
 5176.00    0.30576   0.55703    0.020
 5177.00    0.36514   0.56825    0.020
 5178.00    0.38892   0.57182    0.019
 5179.00    0.43039   0.57293    0.019
 5180.00    0.49000   0.56888    0.019
 5181.00    0.48026   0.55835    0.019
 5182.00    0.40776   0.53432    0.019
 5183.00    0.35731   0.49167    0.018
 5184.00    0.32445   0.45776    0.019
 5185.00    0.34214   0.47157    0.019
 5186.00    0.39530   0.51983    0.019
 5187.00    0.39811   0.55704    0.019
 5188.00    0.36994   0.56748    0.019
 5189.00    0.39966   0.56747    0.019
 5190.00    0.46051   0.57248    0.000
 5191.00    0.49289   0.57018    0.000
 5192.00    0.51199   0.55008    0.000
 5193.00    0.55815   0.53660    0.000
 5194.00    0.61519   0.54465    0.000
 5195.00    0.53123   0.55447    0.000
 5196.00    0.39889   0.55681    0.000
 5197.00    0.41240   0.56184    0.000
 5198.00    0.46805   0.56953    0.000
 5199.00    0.50660   0.57654    0.000
 5200.00    0.54108   0.58293    0.000
 5201.00    0.57490   0.58420    0.000
 5202.00    0.60859   0.57936    0.000
 5203.00    0.62144   0.57265    0.000
 5204.00    0.63118   0.56187    0.000
 5205.00    0.59719   0.54305    0.000
 5206.00    0.55842   0.52765    0.000
 5207.00    0.42108   0.52576    0.000
 5208.00    0.27662   0.52550    0.000
 5209.00    0.32181   0.52196    0.000
 5210.00    0.37409   0.52853    0.000
 5211.00    0.39428   0.54586    0.018
 5212.00    0.41360   0.56568    0.018
 5213.00    0.40657   0.58289    0.018
 5214.00    0.40031   0.59024    0.018
 5215.00    0.40630   0.58289    0.018
 5216.00    0.40391   0.56831    0.018
 5217.00    0.31621   0.56186    0.018
 5218.00    0.25773   0.56929    0.018
 5219.00    0.41186   0.58226    0.019
 5220.00    0.56137   0.59139    0.019
 5221.00    0.68507   0.59631    0.019
 5222.00    0.78446   0.59781    0.019
 5223.00    0.77571   0.59260    0.019
 5224.00    0.73060   0.57930    0.019
 5225.00    0.55271   0.55972    0.019
 5226.00    0.45524   0.53578    0.019
 5227.00    0.60395   0.51652    0.019
 5228.00    0.70448   0.52183    0.020
 5229.00    0.67967   0.55087    0.019
 5230.00    0.62460   0.57564    0.019
 5231.00    0.50187   0.58548    0.019
 5232.00    0.44880   0.58299    0.019
 5233.00    0.53077   0.56792    0.020
 5234.00    0.59040   0.55501    0.020
 5235.00    0.61225   0.55712    0.019
 5236.00    0.57671   0.56980    0.019
 5237.00    0.45618   0.58428    0.019
 5238.00    0.43785   0.59270    0.019
 5239.00    0.55258   0.59389    0.019
 5240.00    0.61619   0.59263    0.019
 5241.00    0.62119   0.59262    0.019
 5242.00    0.65903   0.59234    0.019
 5243.00    0.73009   0.58994    0.019
 5244.00    0.69650   0.59124    0.019
 5245.00    0.56953   0.59685    0.019
 5246.00    0.49910   0.59267    0.019
 5247.00    0.47311   0.57486    0.019
 5248.00    0.45993   0.56287    0.019
 5249.00    0.45561   0.56512    0.019
 5250.00    0.41286   0.56498    0.019
 5251.00    0.34681   0.55944    0.019
 5252.00    0.39915   0.56220    0.019
 5253.00    0.51416   0.57114    0.019
 5254.00    0.55669   0.57373    0.019
 5255.00    0.56594   0.56833    0.019
 5256.00    0.55535   0.56802    0.019
 5257.00    0.53691   0.58125    0.019
 5258.00    0.52615   0.59629    0.019
 5259.00    0.51798   0.60154    0.019
 5260.00    0.51076   0.59681    0.019
 5261.00    0.50382   0.58396    0.019
 5262.00    0.59819   0.56477    0.019
 5263.00    0.71622   0.54405    0.019
 5264.00    0.67822   0.52727    0.019
 5265.00    0.61097   0.51537    0.020
 5266.00    0.55477   0.51008    0.019
 5267.00    0.50016   0.51904    0.019
 5268.00    0.47057   0.53282    0.019
 5269.00    0.44361   0.52156    0.019
 5270.00    0.35224   0.49381    0.019
 5271.00    0.25649   0.49573    0.019
 5272.00    0.26279   0.52890    0.019
 5273.00    0.27252   0.55332    0.019
 5274.00    0.35828   0.55757    0.019
 5275.00    0.44437   0.55297    0.019
 5276.00    0.53810   0.54927    0.019
 5277.00    0.62295   0.56034    0.019
 5278.00    0.57257   0.58216    0.019
 5279.00    0.52262   0.59365    0.018
 5280.00    0.47680   0.58907    0.018
 5281.00    0.44359   0.57711    0.018
 5282.00    0.49923   0.56542    0.018
 5283.00    0.55365   0.55566    0.019
 5284.00    0.60146   0.55066    0.018
 5285.00    0.63301   0.56026    0.018
 5286.00    0.59391   0.58237    0.019
 5287.00    0.57305   0.59807    0.019
 5288.00    0.61740   0.59936    0.019
 5289.00    0.66093   0.59553    0.020
 5290.00    0.70195   0.59602    0.019
 5291.00    0.68690   0.59904    0.019
 5292.00    0.52849   0.59817    0.019
 5293.00    0.41310   0.59367    0.019
 5294.00    0.39233   0.59085    0.019
 5295.00    0.33742   0.58921    0.019
 5296.00    0.21738   0.57990    0.019
 5297.00    0.19130   0.55942    0.019
 5298.00    0.32165   0.54034    0.019
 5299.00    0.44206   0.54047    0.019
 5300.00    0.54794   0.55632    0.019
 5301.00    0.57411   0.56623    0.019
 5302.00    0.49799   0.56566    0.019
 5303.00    0.45016   0.56921    0.019
 5304.00    0.43430   0.58180    0.019
 5305.00    0.41860   0.59362    0.019
 5306.00    0.40306   0.59531    0.019
 5307.00    0.38492   0.58868    0.019
 5308.00    0.36448   0.58385    0.019
 5309.00    0.41662   0.58712    0.019
 5310.00    0.52501   0.59352    0.019
 5311.00    0.63018   0.59571    0.019
 5312.00    0.73316   0.59332    0.019
 5313.00    0.69547   0.58939    0.019
 5314.00    0.57377   0.58631    0.019
 5315.00    0.59955   0.58358    0.019
 5316.00    0.70217   0.57634    0.019
 5317.00    0.65508   0.56792    0.019
 5318.00    0.54035   0.56915    0.018
 5319.00    0.55426   0.57711    0.018
 5320.00    0.61814   0.58059    0.018
 5321.00    0.56478   0.57946    0.018
 5322.00    0.47266   0.57733    0.017
 5323.00    0.38307   0.57126    0.018
 5324.00    0.29417   0.55946    0.018
 5325.00    0.34532   0.55234    0.018
 5326.00    0.42842   0.55503    0.018
 5327.00    0.35532   0.54643    0.018
 5328.00    0.25370   0.51496    0.018
 5329.00    0.35011   0.49353    0.018
 5330.00    0.47430   0.51199    0.018
 5331.00    0.43314   0.54729    0.018
 5332.00    0.37528   0.56589    0.017
 5333.00    0.30349   0.56731    0.018
 5334.00    0.23080   0.56935    0.018
 5335.00    0.44247   0.57685    0.018
 5336.00    0.66193   0.57956    0.018
 5337.00    0.60386   0.57526    0.018
 5338.00    0.54370   0.57148    0.018
 5339.00    0.42398   0.56685    0.018
 5340.00    0.32854   0.55350    0.018
 5341.00    0.58136   0.54104    0.018
 5342.00    0.79797   0.54620    0.019
 5343.00    0.67575   0.56226    0.018
 5344.00    0.56827   0.57211    0.018
 5345.00    0.56134   0.57148    0.018
 5346.00    0.55817   0.56561    0.018
 5347.00    0.57483   0.56364    0.018
 5348.00    0.56401   0.56351    0.018
 5349.00    0.43647   0.55808    0.018
 5350.00    0.31401   0.55583    0.018
 5351.00    0.20933   0.56525    0.018
 5352.00    0.18423   0.57726    0.019
 5353.00    0.39365   0.58132    0.019
 5354.00    0.55311   0.58227    0.019
 5355.00    0.58702   0.58781    0.019
 5356.00    0.58410   0.59366    0.019
 5357.00    0.50150   0.59522    0.019
 5358.00    0.42618   0.59508    0.019
 5359.00    0.36452   0.59516    0.019
 5360.00    0.33381   0.59376    0.019
 5361.00    0.35385   0.58768    0.019
 5362.00    0.42147   0.57754    0.019
 5363.00    0.55755   0.56964    0.019
 5364.00    0.57651   0.56620    0.019
 5365.00    0.44731   0.56297    0.019
 5366.00    0.37496   0.56061    0.019
 5367.00    0.36598   0.56171    0.018
 5368.00    0.37421   0.56264   -2.000
 5369.00    0.39936   0.55795   -2.000
 5370.00    0.48683   0.54330   -2.000
 5371.00    0.62834   0.52477   -2.000
 5372.00    0.53594   0.52059   -2.000
 5373.00    0.26486   0.53885   -2.000
 5374.00    0.13324   0.56371   -2.000
 5375.00    0.09525   0.57864   -2.000
 5376.00    0.27908   0.58287   -2.000
 5377.00    0.59338   0.58073   -2.000
 5378.00    0.67747   0.57860   -2.000
 5379.00    0.64350   0.57854   -2.000
 5380.00    0.59489   0.57598   -2.000
 5381.00    0.53978   0.57084   -2.000
 5382.00    0.46533   0.56668   -2.000
 5383.00    0.38350   0.56303    0.018
 5384.00    0.32666   0.56149    0.018
 5385.00    0.27792   0.56666    0.017
 5386.00    0.30155   0.57357    0.017
 5387.00    0.34482   0.57565    0.017
 5388.00    0.47151   0.57372    0.017
 5389.00    0.61678   0.56871    0.017
 5390.00    0.57449   0.56155    0.018
 5391.00    0.49889   0.55635    0.018
 5392.00    0.32872   0.55415    0.018
 5393.00    0.14573   0.55208    0.018
 5394.00    0.35953   0.55048    0.018
 5395.00    0.61166   0.54989    0.018
 5396.00    0.61852   0.54411    0.018
 5397.00    0.61063   0.53056    0.018
 5398.00    0.50899   0.52614    0.018
 5399.00    0.40616   0.54016    0.018
 5400.00    0.50962   0.55386    0.018
 5401.00    0.60632   0.55684    0.019
 5402.00    0.52852   0.55822    0.018
 5403.00    0.45635   0.55685    0.018
 5404.00    0.46041   0.54282    0.018
 5405.00    0.45021   0.52192    0.019
 5406.00    0.31175   0.51080    0.018
 5407.00    0.20396   0.51852    0.018
 5408.00    0.29890   0.53463    0.018
 5409.00    0.37618   0.53930    0.019
 5410.00    0.36264   0.53124    0.019
 5411.00    0.35605   0.52958    0.019
 5412.00    0.37829   0.54279    0.018
 5413.00    0.40166   0.55710    0.018
 5414.00    0.42890   0.56077    0.018
 5415.00    0.46580   0.55721    0.018
 5416.00    0.53063   0.55797    0.018
 5417.00    0.55775   0.56576    0.018
 5418.00    0.49173   0.57130    0.018
 5419.00    0.45242   0.56932    0.018
 5420.00    0.47000   0.56341    0.018
 5421.00    0.44925   0.55986    0.018
 5422.00    0.35762   0.56186    0.018
 5423.00    0.31964   0.56209    0.018
 5424.00    0.36834   0.55309    0.018
 5425.00    0.45994   0.54641    0.018
 5426.00    0.61235   0.55415    0.018
 5427.00    0.63636   0.56748    0.017
 5428.00    0.50025   0.56900    0.017
 5429.00    0.39262   0.55036    0.017
 5430.00    0.31631   0.52910    0.017
 5431.00    0.28349   0.53009    0.017
 5432.00    0.29286   0.54268    0.017
 5433.00    0.27296   0.54321    0.017
 5434.00    0.22805   0.53394    0.017
 5435.00    0.25574   0.52728    0.017
 5436.00    0.33809   0.52983    0.017
 5437.00    0.40385   0.54091    0.017
 5438.00    0.45863   0.55513    0.017
 5439.00    0.45444   0.56712    0.017
 5440.00    0.41610   0.57360    0.017
 5441.00    0.35878   0.57552    0.017
 5442.00    0.29188   0.57569    0.017
 5443.00    0.35306   0.57541    0.017
 5444.00    0.47021   0.57156    0.017
 5445.00    0.51738   0.55882    0.017
 5446.00    0.53832   0.53717    0.018
 5447.00    0.49656   0.51854    0.018
 5448.00    0.43485   0.52033    0.018
 5449.00    0.44554   0.53902    0.018
 5450.00    0.47549   0.55404    0.018
 5451.00    0.47611   0.55845    0.018
 5452.00    0.47035   0.55748    0.018
 5453.00    0.31926   0.55397    0.019
 5454.00    0.14308   0.54465    0.020
 5455.00    0.26334   0.52728    0.021
 5456.00    0.42248   0.51461    0.022
 5457.00    0.52071   0.52306    0.021
 5458.00    0.61332   0.54397    0.021
 5459.00    0.60839   0.55708    0.020
 5460.00    0.59799   0.55751    0.018
 5461.00    0.63404   0.55168    0.018
 5462.00    0.67015   0.54356    0.018
 5463.00    0.60388   0.53424    0.018
 5464.00    0.53815   0.53141    0.018
 5465.00    0.48514   0.53898    0.018
 5466.00    0.44041   0.54578    0.018
 5467.00    0.50195   0.54702    0.018
 5468.00    0.55146   0.54962    0.018
 5469.00    0.49678   0.55248    0.018
 5470.00    0.44993   0.54992    0.018
 5471.00    0.45327   0.54555    0.018
 5472.00    0.47280   0.54429    0.018
 5473.00    0.57350   0.54174    0.017
 5474.00    0.62697   0.53685    0.017
 5475.00    0.48871   0.53346    0.017
 5476.00    0.37905   0.52432    0.017
 5477.00    0.36561   0.51064    0.017
 5478.00    0.35340   0.51260   -2.000
 5479.00    0.34469   0.53065   -2.000
 5480.00    0.33049   0.54132   -2.000
 5481.00    0.30297   0.53545   -2.000
 5482.00    0.31917   0.52724   -2.000
 5483.00    0.42695   0.52948   -2.000
 5484.00    0.46608   0.53936   -2.000
 5485.00    0.38017   0.54973   -2.000
 5486.00   -0.03527   0.55363   -2.000
 5487.00   -0.97527   0.54695   -2.000
 5488.00   -1.52274   0.53797   -2.000
 5489.00   -1.52184   0.53752   -2.000
 5490.00   -0.91304   0.54214   -2.000
 5491.00    0.44310   0.54501   -2.000
 5492.00    1.29462   0.54746   -2.000
 5493.00    1.59929   0.54759   -2.000
 5494.00    1.50056   0.54471   -2.000
 5495.00    1.01624   0.54511   -2.000
 5496.00    0.64959   0.54637   -2.000
 5497.00    0.38211   0.54083   -2.000
 5498.00    0.25210   0.53505   -2.000
 5499.00    0.22413   0.54023   -2.000
 5500.00    0.26469   0.54721   -2.000
 5501.00    0.34995   0.54236   -2.000
 5502.00    0.38271   0.53270    0.027
 5503.00    0.38551   0.53088    0.108
 5504.00    0.42172   0.53578   -1.000
 5505.00    0.47454   0.53782   -1.000
 5506.00    0.53447   0.53134   -1.000
 5507.00    0.59747   0.52411   -1.000
 5508.00    0.58870   0.52833    0.047
 5509.00    0.55348   0.53798    0.020
 5510.00    0.40819   0.54067    0.018
 5511.00    0.22856   0.53649    0.018
 5512.00    0.36870   0.52785    0.018
 5513.00    0.59206   0.51928    0.017
 5514.00    0.51638   0.51771    0.017
 5515.00    0.37722   0.52293    0.017
 5516.00    0.45277   0.53030    0.017
 5517.00    0.56436   0.53703    0.017
 5518.00    0.57910   0.54383    0.017
 5519.00    0.58157   0.55028    0.017
 5520.00    0.43948   0.55244    0.017
 5521.00    0.28464   0.55049    0.016
 5522.00    0.30299   0.54837    0.016
 5523.00    0.33039   0.54788    0.016
 5524.00    0.36784   0.54792    0.016
 5525.00    0.40609   0.54549    0.016
 5526.00    0.49167   0.53894    0.016
 5527.00    0.56982   0.52831    0.016
 5528.00    0.48837   0.51573    0.016
 5529.00    0.41065   0.51175    0.016
 5530.00    0.37850   0.52325    0.016
 5531.00    0.36002   0.53810    0.016
 5532.00    0.45540   0.54328    0.016
 5533.00    0.53187   0.54106    0.016
 5534.00    0.49077   0.53710    0.016
 5535.00    0.44926   0.53235    0.016
 5536.00    0.40583   0.53116    0.016
 5537.00    0.37164   0.53570    0.017
 5538.00    0.37415   0.53929    0.017
 5539.00    0.37957   0.54074    0.017
 5540.00    0.39462   0.54470    0.016
 5541.00    0.40921   0.54932    0.016
 5542.00    0.42251   0.54912    0.017
 5543.00    0.45969   0.54307    0.017
 5544.00    0.55384   0.53712    0.017
 5545.00    0.64279   0.53615    0.017
 5546.00    0.72103   0.53732    0.017
 5547.00    0.74862   0.53886    0.017
 5548.00    0.68542   0.54335    0.017
 5549.00    0.61114   0.54872    0.017
 5550.00    0.51948   0.55077    0.017
 5551.00    0.45340   0.55047    0.017
 5552.00    0.42256   0.54890    0.017
 5553.00    0.36552   0.54446    0.017
 5554.00    0.27673   0.53805    0.017
 5555.00    0.29682   0.53470    0.017
 5556.00    0.43322   0.53682    0.017
 5557.00    0.53375   0.53925    0.017
 5558.00    0.60047   0.53890    0.017
 5559.00    0.58980   0.53885    0.017
 5560.00    0.51481   0.53988    0.017
 5561.00    0.48487   0.53958    0.017
 5562.00    0.48790   0.53654    0.017
 5563.00    0.47938   0.53163    0.017
 5564.00    0.46346   0.52857    0.016
 5565.00    0.51550   0.52813    0.016
 5566.00    0.60572   0.52676    0.016
 5567.00    0.64339   0.52575    0.016
 5568.00    0.65536   0.52650    0.016
 5569.00    0.62520   0.52514    0.016
 5570.00    0.57724   0.52328    0.016
 5571.00    0.49454   0.52626    0.016
 5572.00    0.39927   0.52714    0.016
 5573.00    0.37116   0.52139    0.016
 5574.00    0.36361   0.52155    0.016
 5575.00    0.36932   0.52898    0.016
 5576.00    0.37841   0.53146    0.016
 5577.00    0.41854   0.53105    0.016
 5578.00    0.46510   0.53353    0.016
 5579.00    0.47602   0.53531    0.016
 5580.00    0.48114   0.53644    0.016
 5581.00    0.50170   0.53618    0.016
 5582.00    0.52414   0.53213    0.016
 5583.00    0.48354   0.52963    0.017
 5584.00    0.43763   0.53084    0.017
 5585.00    0.48659   0.52914    0.017
 5586.00    0.54013   0.51989    0.016
 5587.00    0.46843   0.50545    0.017
 5588.00    0.39384   0.49381    0.017
 5589.00    0.25887   0.49115    0.017
 5590.00    0.13046   0.49718    0.017
 5591.00    0.13232   0.50807    0.017
 5592.00    0.14594   0.51651    0.017
 5593.00    0.29600   0.51760    0.017
 5594.00    0.43882   0.51381    0.017
 5595.00    0.52344   0.51349    0.017
 5596.00    0.58451   0.52251    0.017
 5597.00    0.50337   0.52961    0.017
 5598.00    0.43582   0.52280    0.018
 5599.00    0.43310   0.51200    0.017
 5600.00    0.43237   0.50935    0.017
 5601.00    0.43937   0.50902    0.017
 5602.00    0.45903   0.50447    0.017
 5603.00    0.51964   0.50167    0.017
 5604.00    0.53872   0.50876    0.017
 5605.00    0.44405   0.52358    0.017
 5606.00    0.38707   0.53520    0.016
 5607.00    0.41852   0.53986    0.016
 5608.00    0.43360   0.54041    0.016
 5609.00    0.41546   0.53947    0.016
 5610.00    0.37454   0.53836    0.016
 5611.00    0.29339   0.53844    0.016
 5612.00    0.28466   0.54015    0.015
 5613.00    0.38781   0.54021    0.015
 5614.00    0.46709   0.53147    0.015
 5615.00    0.51397   0.51082    0.015
 5616.00    0.52913   0.49405    0.015
 5617.00    0.50639   0.49907    0.015
 5618.00    0.47219   0.51453    0.015
 5619.00    0.42591   0.52127    0.015
 5620.00    0.43927   0.52100    0.015
 5621.00    0.50804   0.52289    0.015
 5622.00    0.48783   0.52735    0.016
 5623.00    0.39474   0.52725    0.016
 5624.00    0.30726   0.51770    0.016
 5625.00    0.22384   0.50687    0.016
 5626.00    0.23882   0.50750    0.016
 5627.00    0.31608   0.51645    0.016
 5628.00    0.40813   0.52267    0.016
 5629.00    0.50837   0.52618    0.016
 5630.00    0.46114   0.52996    0.016
 5631.00    0.34296   0.53221    0.016
 5632.00    0.35750   0.53241    0.016
 5633.00    0.42717   0.53091    0.016
 5634.00    0.44727   0.52824    0.016
 5635.00    0.44975   0.52550    0.016
 5636.00    0.44863   0.52231    0.016
 5637.00    0.44643   0.51794    0.017
 5638.00    0.48804   0.51502    0.016
 5639.00    0.54056   0.51616    0.016
 5640.00    0.52427   0.51794    0.016
 5641.00    0.49407   0.51568    0.016
 5642.00    0.49024   0.51339    0.016
 5643.00    0.49059   0.51560    0.016
 5644.00    0.47963   0.51807    0.016
 5645.00    0.46735   0.51877    0.015
 5646.00    0.52479   0.52015    0.016
 5647.00    0.58780   0.52205    0.016
 5648.00    0.50924   0.52373    0.016
 5649.00    0.42439   0.52360    0.016
 5650.00    0.46313   0.52179    0.016
 5651.00    0.50248   0.52212    0.015
 5652.00    0.50328   0.52595    0.015
 5653.00    0.50379   0.52884    0.015
 5654.00    0.49917   0.52606    0.015
 5655.00    0.49343   0.51995    0.015
 5656.00    0.47535   0.51739    0.015
 5657.00    0.45938   0.51507    0.015
 5658.00    0.45977   0.50267    0.015
 5659.00    0.46753   0.49028    0.015
 5660.00    0.51861   0.49588    0.015
 5661.00    0.55133   0.50883    0.015
 5662.00    0.49867   0.50945    0.015
 5663.00    0.44625   0.50406    0.015
 5664.00    0.39474   0.50708    0.015
 5665.00    0.36520   0.51599    0.015
 5666.00    0.40533   0.52052    0.015
 5667.00    0.45850   0.51793    0.016
 5668.00    0.54671   0.51317    0.016
 5669.00    0.59470   0.51153    0.016
 5670.00    0.54989   0.51321    0.016
 5671.00    0.52274   0.51583    0.016
 5672.00    0.53084   0.51934    0.016
 5673.00    0.51363   0.52474    0.016
 5674.00    0.45241   0.52811    0.016
 5675.00    0.43552   0.52641    0.016
 5676.00    0.48613   0.52404    0.016
 5677.00    0.48098   0.52593    0.016
 5678.00    0.40122   0.52756    0.017
 5679.00    0.38751   0.52472    0.016
 5680.00    0.45159   0.52214    0.016
 5681.00    0.47844   0.52112    0.016
 5682.00    0.46662   0.51656    0.016
 5683.00    0.46840   0.50941    0.016
 5684.00    0.48265   0.50806    0.015
 5685.00    0.42946   0.51223    0.015
 5686.00    0.32182   0.51409    0.015
 5687.00    0.29907   0.50998    0.015
 5688.00    0.33666   0.50470    0.015
 5689.00    0.38422   0.50470    0.015
 5690.00    0.43800   0.51027    0.015
 5691.00    0.42776   0.51700    0.015
 5692.00    0.38264   0.52202    0.015
 5693.00    0.38805   0.52512    0.015
 5694.00    0.41739   0.52512    0.015
 5695.00    0.45775   0.52314    0.015
 5696.00    0.50261   0.52256    0.015
 5697.00    0.50644   0.52205    0.015
 5698.00    0.49595   0.51793    0.015
 5699.00    0.53284   0.51260    0.015
 5700.00    0.58365   0.51045    0.016
 5701.00    0.54073   0.50742    0.016
 5702.00    0.47497   0.50317    0.016
 5703.00    0.39439   0.50377    0.016
 5704.00    0.31089   0.50895    0.015
 5705.00    0.31562   0.51186    0.015
 5706.00    0.33390   0.50830    0.015
 5707.00    0.38023   0.50196    0.016
 5708.00    0.42974   0.49614    0.016
 5709.00    0.36360   0.48972    0.016
 5710.00    0.28871   0.48638    0.015
 5711.00    0.26277   0.48821    0.016
 5712.00    0.23882   0.49112    0.016
 5713.00    0.35836   0.49807    0.016
 5714.00    0.47471   0.50911    0.016
 5715.00    0.41295   0.51565    0.016
 5716.00    0.35452   0.51724    0.016
 5717.00    0.35321   0.51761    0.016
 5718.00    0.35649   0.51692    0.015
 5719.00    0.40828   0.51748    0.015
 5720.00    0.44984   0.52031    0.016
 5721.00    0.41479   0.52265    0.015
 5722.00    0.38553   0.52476    0.015
 5723.00    0.38932   0.52672    0.015
 5724.00    0.40220   0.52680    0.015
 5725.00    0.45637   0.52493    0.015
 5726.00    0.49797   0.52058    0.015
 5727.00    0.49277   0.51367    0.015
 5728.00    0.47020   0.51024    0.015
 5729.00    0.39356   0.51455    0.015
 5730.00    0.34867   0.51902    0.015
 5731.00    0.38770   0.51651    0.015
 5732.00    0.41857   0.51194    0.015
 5733.00    0.43094   0.51342    0.015
 5734.00    0.44118   0.51878    0.015
 5735.00    0.44719   0.52208    0.015
 5736.00    0.46301   0.52204    0.015
 5737.00    0.49565   0.51980    0.015
 5738.00    0.51291   0.51813    0.015
 5739.00    0.50711   0.51783    0.015
 5740.00    0.47852   0.51775    0.000
 5741.00    0.41988   0.51759    0.000
 5742.00    0.41110   0.51687    0.000
 5743.00    0.46022   0.51539    0.000
 5744.00    0.47147   0.51553    0.000
 5745.00    0.44395   0.51879    0.000
 5746.00    0.43495   0.52214    0.000
 5747.00    0.44268   0.52050    0.000
 5748.00    0.41825   0.51372    0.000
 5749.00    0.36821   0.51026    0.000
 5750.00    0.37377   0.51501    0.000
 5751.00    0.41826   0.52013    0.000
 5752.00    0.44222   0.51735    0.000
 5753.00    0.45356   0.50764    0.000
 5754.00    0.42760   0.49917    0.000
 5755.00    0.38162   0.49983    0.000
 5756.00    0.39884   0.50883    0.000
 5757.00    0.44550   0.51759    0.000
 5758.00    0.50386   0.52163    0.000
 5759.00    0.56691   0.52127    0.000
 5760.00    0.56965   0.51685    0.000
 5761.00    0.55173   0.51024    0.000
 5762.00    0.52356   0.50296    0.000
 5763.00    0.49243   0.49801    0.000
 5764.00    0.52843   0.50109    0.000
 5765.00    0.58041   0.51073    0.000
 5766.00    0.51367   0.51751    0.000
 5767.00    0.42415   0.51913    0.000
 5768.00    0.32462   0.51880    0.000
 5769.00    0.22360   0.51804    0.000
 5770.00    0.26167   0.51702    0.000
 5771.00    0.31488   0.51584    0.000
 5772.00    0.30741   0.51391    0.000
 5773.00    0.29559   0.51214    0.000
 5774.00    0.30873   0.51112    0.000
 5775.00    0.32279   0.50971    0.000
 5776.00    0.38127   0.50994    0.000
 5777.00    0.43721   0.51248    0.000
 5778.00    0.39579   0.51356    0.000
 5779.00    0.35579   0.51123    0.000
 5780.00    0.33862   0.50433    0.000
 5781.00    0.32951   0.49350    0.000
 5782.00    0.40189   0.48600    0.000
 5783.00    0.46401   0.48692    0.000
 5784.00    0.45178   0.48993    0.000
 5785.00    0.43002   0.48903    0.000
 5786.00    0.35534   0.48893    0.000
 5787.00    0.29266   0.49523    0.000
 5788.00    0.28318   0.50315    0.000
 5789.00    0.28186   0.50722    0.000
 5790.00    0.31025   0.50677    0.000
 5791.00    0.33840   0.50246   -2.000
 5792.00    0.36578   0.50058   -2.000
 5793.00    0.37051   0.50451   -2.000
 5794.00    0.31645   0.50976   -2.000
 5795.00    0.26531   0.51369   -2.000
 5796.00    0.22067   0.51503   -2.000
 5797.00    0.22228   0.51116   -2.000
 5798.00    0.31336   0.50486   -2.000
 5799.00    0.36792   0.50484   -2.000
 5800.00    0.36088   0.51207   -2.000
 5801.00    0.37328   0.51876   -2.000
 5802.00    0.41440   0.52138   -2.000
 5803.00    0.46471   0.52062   -2.000
 5804.00    0.52696   0.51561   -2.000
 5805.00    0.56849   0.50927   -2.000
 5806.00    0.58629   0.50678   -2.000
 5807.00    0.59481   0.50835   -2.000
 5808.00    0.59396   0.51094   -2.000
 5809.00    0.59155   0.51193   -2.000
 5810.00    0.58775   0.51264   -2.000
 5811.00    0.50678   0.51389    0.000
 5812.00    0.36526   0.51433    0.000
 5813.00    0.30997   0.51380    0.000
 5814.00    0.31419   0.51203    0.000
 5815.00    0.32184   0.50792    0.000
 5816.00    0.33157   0.50278    0.000
 5817.00    0.32427   0.50149    0.000
 5818.00    0.30799   0.50636    0.000
 5819.00    0.31271   0.51277    0.000
 5820.00    0.32707   0.51576    0.000
 5821.00    0.39396   0.51613    0.000
 5822.00    0.48158   0.51544    0.000
 5823.00    0.47059   0.51375    0.000
 5824.00    0.42646   0.51229    0.000
 5825.00    0.42777   0.51277    0.000
 5826.00    0.44191   0.51403    0.000
 5827.00    0.42784   0.51389    0.000
 5828.00    0.40720   0.51350    0.000
 5829.00    0.39842   0.51390    0.000
 5830.00    0.39184   0.51445    0.000
 5831.00    0.36628   0.51443    0.000
 5832.00    0.33799   0.51404    0.000
 5833.00    0.33714   0.51377    0.000
 5834.00    0.33917   0.51251    0.000
 5835.00    0.30649   0.51071    0.000
 5836.00    0.27147   0.51098    0.000
 5837.00    0.20214   0.51248    0.000
 5838.00    0.13167   0.51132    0.000
 5839.00    0.04067   0.50890    0.000
 5840.00   -0.04437   0.50967    0.000
 5841.00    0.05910   0.51290    0.000
 5842.00    0.16534   0.51542    0.000
 5843.00    0.31344   0.51579    0.000
 5844.00    0.44245   0.51465    0.000
 5845.00    0.38623   0.51233    0.000
 5846.00    0.33221   0.50930    0.000
 5847.00    0.29361   0.50564    0.000
 5848.00    0.25382   0.50289    0.000
 5849.00    0.20767   0.50308    0.000
 5850.00    0.17517   0.50445    0.000
 5851.00    0.20181   0.50387    0.000
 5852.00    0.24050   0.49997    0.000
 5853.00    0.32227   0.49325    0.000
 5854.00    0.39221   0.48862    0.000
 5855.00    0.42676   0.49052    0.000
 5856.00    0.44894   0.49242    0.000
 5857.00    0.43956   0.48624    0.000
 5858.00    0.43920   0.47754    0.000
 5859.00    0.45865   0.47763    0.000
 5860.00    0.46747   0.48560    0.000
 5861.00    0.45605   0.49280    0.000
 5862.00    0.42448   0.49479    0.000
 5863.00    0.35943   0.49287    0.000
 5864.00    0.33033   0.49325    0.000
 5865.00    0.35360   0.49616    0.000
 5866.00    0.36690   0.49552    0.000
 5867.00    0.36743   0.49124    0.000
 5868.00    0.37748   0.49084    0.000
 5869.00    0.39827   0.49583    0.000
 5870.00    0.42608   0.50065    0.000
 5871.00    0.46087   0.50264    0.000
 5872.00    0.48175   0.50172    0.000
 5873.00    0.49041   0.49903    0.000
 5874.00    0.46862   0.49673    0.000
 5875.00    0.42327   0.49522    0.000
 5876.00    0.41059   0.49346    0.000
 5877.00    0.42011   0.49192    0.000
 5878.00    0.39916   0.49169    0.000
 5879.00    0.36004   0.49097    0.000
 5880.00    0.34573   0.48802    0.000
 5881.00    0.34432   0.48588    0.000
 5882.00    0.39275   0.48716    0.000
 5883.00    0.46363   0.48817    0.000
 5884.00    0.50934   0.48553    0.000
 5885.00    0.54528   0.48311    0.000
 5886.00    0.53433   0.48338    0.000
 5887.00    0.50790   0.48142    0.000
 5888.00    0.45853   0.46806    0.000
 5889.00    0.40281   0.43503    0.000
 5890.00    0.38298   0.39424    0.000
 5891.00    0.37131   0.38233    0.000
 5892.00    0.37979   0.40924    0.000
 5893.00    0.39193   0.43940    0.000
 5894.00    0.30418   0.44853    0.000
 5895.00    0.20249   0.43488    0.000
 5896.00    0.17737   0.40785    0.000
 5897.00    0.15994   0.40053    0.000
 5898.00    0.17504   0.42528    0.000
 5899.00    0.19220   0.45132    0.000
 5900.00    0.26695   0.46308    0.000
 5901.00    0.34361   0.47071    0.014
 5902.00    0.49505   0.47723    0.014
 5903.00    0.64026   0.48025    0.014
 5904.00    0.60977   0.48165    0.014
 5905.00    0.57954   0.48220    0.014
 5906.00    0.55288   0.48126    0.014
 5907.00    0.52282   0.48139    0.014
 5908.00    0.46103   0.48386    0.014
 5909.00    0.40034   0.48558    0.014
 5910.00    0.34706   0.48504    0.014
 5911.00    0.30672   0.48570    0.014
 5912.00    0.33453   0.48749    0.014
 5913.00    0.35989   0.48538    0.014
 5914.00    0.37493   0.47815    0.014
 5915.00    0.39915   0.47185    0.014
 5916.00    0.45548   0.47177    0.014
 5917.00    0.49576   0.47545    0.014
 5918.00    0.48883   0.47993    0.014
 5919.00    0.46204   0.48278    0.014
 5920.00    0.38546   0.48427    0.014
 5921.00    0.34371   0.48479    0.015
 5922.00    0.37719   0.48289    0.015
 5923.00    0.40346   0.48143    0.015
 5924.00    0.41619   0.48289    0.014
 5925.00    0.44008   0.48513    0.014
 5926.00    0.48222   0.48664    0.015
 5927.00    0.49819   0.48697    0.015
 5928.00    0.47658   0.48517    0.014
 5929.00    0.44457   0.48139    0.014
 5930.00    0.39942   0.47693    0.014
 5931.00    0.38628   0.47632    0.014
 5932.00    0.40877   0.48199    0.014
 5933.00    0.43669   0.48652    0.014
 5934.00    0.46993   0.48411    0.014
 5935.00    0.49641   0.47916    0.014
 5936.00    0.51702   0.47918    0.014
 5937.00    0.49975   0.48371    0.014
 5938.00    0.45361   0.48733    0.013
 5939.00    0.42262   0.48848    0.013
 5940.00    0.40177   0.48677    0.013
 5941.00    0.41396   0.48158    0.013
 5942.00    0.44554   0.47730    0.013
 5943.00    0.45981   0.47812    0.013
 5944.00    0.46524   0.48134    0.013
 5945.00    0.50118   0.48425    0.014
 5946.00    0.55067   0.48696    0.014
 5947.00    0.56740   0.48698    0.014
 5948.00    0.57166   0.48193    0.014
 5949.00    0.53310   0.47523    0.014
 5950.00    0.48069   0.47401    0.014
 5951.00    0.44985   0.47880    0.014
 5952.00    0.42485   0.48031    0.014
 5953.00    0.44689   0.47598    0.014
 5954.00    0.47938   0.47486    0.014
 5955.00    0.44396   0.47911    0.014
 5956.00    0.39653   0.47980    0.014
 5957.00    0.39378   0.47515    0.014
 5958.00    0.39706   0.47291    0.014
 5959.00    0.36684   0.47601    0.014
 5960.00    0.33340   0.48095    0.014
 5961.00    0.35968   0.48511    0.014
 5962.00    0.38952   0.48721    0.014
 5963.00    0.37919   0.48776    0.014
 5964.00    0.36810   0.48691    0.014
 5965.00    0.39776   0.48453    0.014
 5966.00    0.42525   0.48125    0.013
 5967.00    0.39742   0.48059    0.013
 5968.00    0.37143   0.48334    0.013
 5969.00    0.37009   0.48544    0.013
 5970.00    0.37261   0.48651    0.013
 5971.00    0.40980   0.48752    0.013
 5972.00    0.44438   0.48785    0.013
 5973.00    0.46190   0.48748    0.013
 5974.00    0.48137   0.48640    0.013
 5975.00    0.51088   0.48305    0.013
 5976.00    0.52780   0.47762    0.013
 5977.00    0.49255   0.47291    0.014
 5978.00    0.46488   0.47116    0.014
 5979.00    0.46319   0.47287    0.014
 5980.00    0.47272   0.47722    0.014
 5981.00    0.51467   0.48158    0.014
 5982.00    0.55180   0.48271    0.014
 5983.00    0.57704   0.47891    0.014
 5984.00    0.59046   0.47134    0.014
 5985.00    0.57878   0.46644    0.014
 5986.00    0.58557   0.46918    0.014
 5987.00    0.62648   0.47453    0.014
 5988.00    0.61737   0.47700    0.014
 5989.00    0.52759   0.47846    0.014
 5990.00    0.45648   0.48024    0.014
 5991.00    0.41178   0.47971    0.014
 5992.00    0.39303   0.47784    0.014
 5993.00    0.40656   0.47980    0.013
 5994.00    0.44737   0.48468    0.013
 5995.00    0.51811   0.48685    0.013
 5996.00    0.55287   0.48455    0.013
 5997.00    0.55279   0.48027    0.013
 5998.00    0.54528   0.47654    0.013
 5999.00    0.53141   0.47557    0.013
 6000.00    0.53413   0.47755    0.013
 6001.00    0.54932   0.47943    0.013
 6002.00    0.57146   0.47804    0.013
 6003.00    0.59821   0.47371    0.013
 6004.00    0.59258   0.47233    0.013
 6005.00    0.56823   0.47546    0.014
 6006.00    0.52272   0.47656    0.014
 6007.00    0.46655   0.47227    0.013
 6008.00    0.46590   0.46565    0.014
 6009.00    0.48946   0.46340    0.014
 6010.00    0.46782   0.46993    0.014
 6011.00    0.42928   0.47793    0.014
 6012.00    0.37260   0.47840    0.014
 6013.00    0.31016   0.47305    0.014
 6014.00    0.35102   0.46983    0.014
 6015.00    0.41926   0.47190    0.014
 6016.00    0.49971   0.47325    0.014
 6017.00    0.58281   0.47132    0.014
 6018.00    0.57138   0.47125    0.014
 6019.00    0.54367   0.47273    0.014
 6020.00    0.46476   0.47018    0.014
 6021.00    0.37917   0.46595    0.014
 6022.00    0.40272   0.46555    0.014
 6023.00    0.43628   0.46784    0.014
 6024.00    0.50233   0.46899    0.014
 6025.00    0.57018   0.47024    0.013
 6026.00    0.54797   0.47384    0.013
 6027.00    0.52363   0.47585    0.013
 6028.00    0.48403   0.47633    0.013
 6029.00    0.44516   0.47907    0.014
 6030.00    0.42317   0.48157    0.013
 6031.00    0.40228   0.48161    0.013
 6032.00    0.39548   0.48135    0.013
 6033.00    0.38997   0.48271    0.013
 6034.00    0.39561   0.48392    0.013
 6035.00    0.39867   0.48365    0.013
 6036.00    0.38527   0.48324    0.013
 6037.00    0.36800   0.48309    0.013
 6038.00    0.33141   0.48262    0.013
 6039.00    0.31843   0.48112    0.013
 6040.00    0.40103   0.47879    0.013
 6041.00    0.46892   0.47727    0.014
 6042.00    0.48742   0.47719    0.014
 6043.00    0.49384   0.47849    0.014
 6044.00    0.46602   0.48123    0.014
 6045.00    0.43296   0.48309    0.014
 6046.00    0.38722   0.48330    0.014
 6047.00    0.34747   0.48344    0.014
 6048.00    0.32023   0.48390    0.014
 6049.00    0.33595   0.48348    0.014
 6050.00    0.42978   0.48302    0.014
 6051.00    0.50886   0.48393    0.014
 6052.00    0.56451   0.48391    0.014
 6053.00    0.58716   0.48158    0.014
 6054.00    0.56380   0.47887    0.014
 6055.00    0.55332   0.47686    0.014
 6056.00    0.55864   0.47439    0.014
 6057.00    0.54220   0.47276    0.013
 6058.00    0.50224   0.47396    0.013
 6059.00    0.47852   0.47692    0.013
 6060.00    0.47031   0.47967    0.013
 6061.00    0.47305   0.48058    0.013
 6062.00    0.48500   0.47947    0.013
 6063.00    0.48492   0.47653    0.013
 6064.00    0.47591   0.47175    0.013
 6065.00    0.48274   0.46452    0.013
 6066.00    0.49988   0.45980    0.013
 6067.00    0.50953   0.46525    0.013
 6068.00    0.51493   0.47534    0.013
 6069.00    0.49760   0.48084    0.013
 6070.00    0.46900   0.48229    0.013
 6071.00    0.47892   0.48276    0.013
 6072.00    0.50536   0.48346    0.013
 6073.00    0.54016   0.48378    0.014
 6074.00    0.57804   0.48336    0.014
 6075.00    0.54024   0.48288    0.014
 6076.00    0.47887   0.48227    0.013
 6077.00    0.46230   0.47988    0.013
 6078.00    0.45736   0.47508    0.013
 6079.00    0.50088   0.47013    0.013
 6080.00    0.55467   0.46908    0.014
 6081.00    0.58426   0.46998    0.014
 6082.00    0.60980   0.46808    0.014
 6083.00    0.56749   0.46597    0.013
 6084.00    0.51662   0.46732    0.013
 6085.00    0.48881   0.46841    0.013
 6086.00    0.46302   0.46780    0.013
 6087.00    0.45498   0.46928    0.013
 6088.00    0.44785   0.47248    0.013
 6089.00    0.42103   0.47293    0.013
 6090.00    0.39385   0.46867    0.013
 6091.00    0.36593   0.46470    0.013
 6092.00    0.34026   0.46515    0.013
 6093.00    0.36265   0.46693    0.013
 6094.00    0.38335   0.46871    0.013
 6095.00    0.38340   0.47285    0.013
 6096.00    0.38495   0.47618    0.013
 6097.00    0.39880   0.47509    0.013
 6098.00    0.41023   0.47315    0.013
 6099.00    0.40662   0.47398    0.013
 6100.00    0.39953   0.47586    0.013
 6101.00    0.37551   0.47368    0.013
 6102.00    0.35976   0.46152    0.013
 6103.00    0.37677   0.44516    0.013
 6104.00    0.38506   0.44352    0.014
 6105.00    0.36464   0.45785    0.014
 6106.00    0.35361   0.46965    0.014
 6107.00    0.36873   0.47149    0.014
 6108.00    0.37915   0.46859    0.014
 6109.00    0.37838   0.46800    0.014
 6110.00    0.39349   0.47147    0.014
 6111.00    0.44128   0.47247    0.013
 6112.00    0.46961   0.46991    0.013
 6113.00    0.46312   0.47014    0.013
 6114.00    0.46752   0.47372    0.013
 6115.00    0.48900   0.47565    0.013
 6116.00    0.51550   0.47359    0.013
 6117.00    0.54893   0.47043    0.013
 6118.00    0.55809   0.47067    0.013
 6119.00    0.53791   0.47145    0.013
 6120.00    0.52482   0.46697    0.013
 6121.00    0.51930   0.45770    0.013
 6122.00    0.52699   0.44630    0.013
 6123.00    0.54711   0.44144    0.013
 6124.00    0.54104   0.45084    0.013
 6125.00    0.51324   0.46303    0.013
 6126.00    0.47525   0.46603    0.013
 6127.00    0.42982   0.46395    0.013
 6128.00    0.40159   0.46236    0.013
 6129.00    0.38440   0.46262    0.013
 6130.00    0.42511   0.46580    0.013
 6131.00    0.49831   0.47014    0.013
 6132.00    0.54456   0.47193    0.014
 6133.00    0.57766   0.47128    0.014
 6134.00    0.57321   0.46942    0.014
 6135.00    0.55292   0.46327    0.014
 6136.00    0.53862   0.44997    0.014
 6137.00    0.52647   0.43283    0.014
 6138.00    0.54694   0.42641    0.014
 6139.00    0.57737   0.44026    0.014
 6140.00    0.52223   0.45851    0.014
 6141.00    0.44535   0.46212    0.014
 6142.00    0.47104   0.45463    0.014
 6143.00    0.51790   0.45327    0.014
 6144.00    0.57368   0.46202    0.013
 6145.00    0.63091   0.46994    0.013
 6146.00    0.57660   0.47167    0.013
 6147.00    0.50871   0.47002    0.012
 6148.00    0.41061   0.46664    0.013
 6149.00    0.30998   0.46136    0.013
 6150.00    0.34349   0.45704    0.013
 6151.00    0.38342   0.45609    0.013
 6152.00    0.43369   0.45903    0.013
 6153.00    0.48334   0.46323    0.013
 6154.00    0.48883   0.46391    0.013
 6155.00    0.49343   0.45979    0.013
 6156.00    0.48033   0.45710    0.013
 6157.00    0.46639   0.45770    0.013
 6158.00    0.44260   0.45716    0.014
 6159.00    0.42418   0.45531    0.014
 6160.00    0.44867   0.45064    0.014
 6161.00    0.46990   0.43691    0.014
 6162.00    0.47153   0.41673    0.014
 6163.00    0.47581   0.40594    0.014
 6164.00    0.49263   0.41243    0.014
 6165.00    0.50606   0.42670    0.014
 6166.00    0.50636   0.43676    0.013
 6167.00    0.50857   0.44135    0.013
 6168.00    0.51697   0.44226    0.013
 6169.00    0.52360   0.43507    0.013
 6170.00    0.52540   0.42400    0.013
 6171.00    0.52722   0.42497    0.013
 6172.00    0.52908   0.43748    0.013
 6173.00    0.52032   0.44542    0.013
 6174.00    0.49007   0.44539    0.013
 6175.00    0.47104   0.44537    0.013
 6176.00    0.47177   0.44599    0.013
 6177.00    0.47454   0.44542    0.013
 6178.00    0.48044   0.44658    0.013
 6179.00    0.47356   0.44998    0.012
 6180.00    0.44939   0.45064    0.012
 6181.00    0.43475   0.44987    0.013
 6182.00    0.43149   0.45200    0.013
 6183.00    0.41280   0.45417    0.013
 6184.00    0.37789   0.45422    0.013
 6185.00    0.36438   0.45339    0.013
 6186.00    0.37074   0.45081    0.013
 6187.00    0.41418   0.44591    0.014
 6188.00    0.48795   0.44221    0.014
 6189.00    0.53020   0.44090    0.014
 6190.00    0.54975   0.43858    0.014
 6191.00    0.51984   0.43037    0.014
 6192.00    0.45868   0.42181    0.014
 6193.00    0.43645   0.42619    0.013
 6194.00    0.43573   0.43874    0.013
 6195.00    0.36964   0.44584    0.014
 6196.00    0.27215   0.44808   -2.000
 6197.00    0.06384   0.44991   -2.000
 6198.00   -0.19042   0.44991   -2.000
 6199.00   -0.28084   0.44522   -2.000
 6200.00   -0.31318   0.43816   -2.000
 6201.00    0.03478   0.43632   -2.000
 6202.00    0.49655   0.44150   -2.000
 6203.00    0.87920   0.44728   -2.000
 6204.00    1.24220   0.44937   -2.000
 6205.00    1.16102   0.44913   -2.000
 6206.00    0.99039   0.44946   -2.000
 6207.00    0.73863   0.45057   -2.000
 6208.00    0.47406   0.45122    0.013
 6209.00    0.45163   0.45128    0.013
 6210.00    0.45758   0.45025    0.013
 6211.00    0.49308   0.44777    0.013
 6212.00    0.53092   0.44464    0.013
 6213.00    0.49871   0.43914    0.013
 6214.00    0.46343   0.43051    0.013
 6215.00    0.44608   0.42481    0.013
 6216.00    0.42977   0.42448    0.013
 6217.00    0.45368   0.42854    0.013
 6218.00    0.47868   0.43408    0.013
 6219.00    0.52371   0.43420    0.013
 6220.00    0.56486   0.42939    0.013
 6221.00    0.56333   0.42793    0.013
 6222.00    0.55825   0.43154    0.013
 6223.00    0.52588   0.43532    0.014
 6224.00    0.49458   0.43579    0.014
 6225.00    0.46960   0.43456    0.014
 6226.00    0.45739   0.43525    0.014
 6227.00    0.50437   0.43649    0.014
 6228.00    0.54237   0.43656    0.014
 6229.00    0.54630   0.43391    0.013
 6230.00    0.54954   0.42521    0.013
 6231.00    0.55063   0.41482    0.013
 6232.00    0.54834   0.41335    0.013
 6233.00    0.53695   0.42035    0.013
 6234.00    0.51418   0.42920    0.013
 6235.00    0.46520   0.43782    0.012
 6236.00    0.43819   0.44232    0.012
 6237.00    0.45497   0.44063    0.013
 6238.00    0.46459   0.43601    0.013
 6239.00    0.46177   0.43114    0.013
 6240.00    0.44927   0.42709    0.013
 6241.00    0.42206   0.42604    0.013
 6242.00    0.40874   0.42751    0.013
 6243.00    0.41397   0.42522    0.013
 6244.00    0.42418   0.42115    0.013
 6245.00    0.44023   0.42138    0.013
 6246.00    0.45519   0.42200    0.013
 6247.00    0.46904   0.42226    0.013
 6248.00    0.47408   0.42717    0.013
 6249.00    0.47109   0.43440    0.013
 6250.00    0.47147   0.43831    0.013
 6251.00    0.47457   0.43678    0.013
 6252.00    0.47448   0.42921    0.013
 6253.00    0.47212   0.41988    0.013
 6254.00    0.46542   0.41661    0.013
 6255.00    0.45602   0.41895    0.013
 6256.00    0.45603   0.42054    0.013
 6257.00    0.46116   0.41778    0.013
 6258.00    0.44832   0.41300    0.013
 6259.00    0.42700   0.41119    0.014
 6260.00    0.34147   0.41647    0.014
 6261.00    0.22979   0.42415    0.015
 6262.00    0.19189   0.42894    0.016
 6263.00    0.17965   0.43426    0.016
 6264.00    0.31227   0.43816    0.016
 6265.00    0.48738   0.43494    0.015
 6266.00    0.62855   0.43042    0.015
 6267.00    0.76147   0.43211    0.014
 6268.00    0.72020   0.43545    0.014
 6269.00    0.64475   0.43487    0.013
 6270.00    0.57967   0.43249    0.013
 6271.00    0.51618   0.43200    0.013
 6272.00    0.51233   0.43412    0.013
 6273.00    0.51520   0.43723    0.013
 6274.00    0.46541   0.43838    0.013
 6275.00    0.41167   0.43714    0.013
 6276.00    0.40616   0.43639    0.013
 6277.00    0.40259   0.43667    0.013
 6278.00    0.37763   0.43624    0.013
 6279.00    0.35410   0.43415    0.013
 6280.00    0.39453   0.42962    0.000
 6281.00    0.43451   0.42519    0.000
 6282.00    0.46670   0.42562    0.000
 6283.00    0.49546   0.42969    0.000
 6284.00    0.48815   0.43354    0.000
 6285.00    0.48295   0.43522    0.000
 6286.00    0.49346   0.43559    0.000
 6287.00    0.50771   0.43811    0.000
 6288.00    0.54328   0.44204    0.000
 6289.00    0.57487   0.44442    0.000
 6290.00    0.58846   0.44353    0.000
 6291.00    0.59035   0.43962    0.000
 6292.00    0.54883   0.43593    0.000
 6293.00    0.50393   0.43467    0.000
 6294.00    0.44858   0.43579    0.000
 6295.00    0.40660   0.43742    0.000
 6296.00    0.39989   0.43515    0.000
 6297.00    0.40861   0.42876    0.000
 6298.00    0.45224   0.42524    0.000
 6299.00    0.48546   0.42780    0.000
 6300.00    0.49826   0.43057    0.000
 6301.00    0.49940   0.42778    0.000
 6302.00    0.48060   0.42227    0.000
 6303.00    0.46269   0.42175    0.000
 6304.00    0.44613   0.42722    0.000
 6305.00    0.44456   0.43254    0.000
 6306.00    0.46273   0.43442    0.000
 6307.00    0.48778   0.43695    0.000
 6308.00    0.52081   0.44144    0.000
 6309.00    0.54314   0.44320    0.000
 6310.00    0.55451   0.44078    0.000
 6311.00    0.54733   0.43713    0.000
 6312.00    0.52341   0.43469    0.000
 6313.00    0.51869   0.43471    0.000
 6314.00    0.52921   0.43491    0.000
 6315.00    0.55624   0.43103    0.000
 6316.00    0.59481   0.42765    0.000
 6317.00    0.59008   0.42828    0.000
 6318.00    0.55879   0.42619    0.000
 6319.00    0.54754   0.42218    0.000
 6320.00    0.54701   0.42503    0.000
 6321.00    0.52264   0.43160    0.012
 6322.00    0.48717   0.43414    0.013
 6323.00    0.47364   0.43383    0.013
 6324.00    0.46889   0.43571    0.013
 6325.00    0.47122   0.43920    0.013
 6326.00    0.47597   0.44050    0.013
 6327.00    0.50325   0.43969    0.013
 6328.00    0.53700   0.43868    0.013
 6329.00    0.56835   0.43921    0.013
 6330.00    0.59912   0.43899    0.013
 6331.00    0.57519   0.43734    0.012
 6332.00    0.54081   0.43869    0.012
 6333.00    0.54354   0.44220    0.012
 6334.00    0.55177   0.44250    0.012
 6335.00    0.57813   0.43533    0.012
 6336.00    0.60644   0.42478    0.012
 6337.00    0.60675   0.42123    0.012
 6338.00    0.60507   0.42578    0.012
 6339.00    0.58467   0.43121    0.012
 6340.00    0.56359   0.43498    0.012
 6341.00    0.56101   0.43902    0.012
 6342.00    0.55791   0.44059    0.012
 6343.00    0.53380   0.43727    0.012
 6344.00    0.50854   0.43090    0.012
 6345.00    0.46496   0.42689    0.013
 6346.00    0.42702   0.42799    0.013
 6347.00    0.44602   0.42949    0.013
 6348.00    0.46730   0.43081    0.013
 6349.00    0.50514   0.43465    0.013
 6350.00    0.54411   0.43902    0.013
 6351.00    0.58934   0.44052    0.013
 6352.00    0.62203   0.44035    0.013
 6353.00    0.59932   0.43913    0.013
 6354.00    0.57186   0.43509    0.013
 6355.00    0.52714   0.42967    0.013
 6356.00    0.48517   0.42744    0.013
 6357.00    0.45158   0.42899    0.012
 6358.00    0.41947   0.42739    0.012
 6359.00    0.39117   0.42148    0.012
 6360.00    0.36870   0.41859    0.012
 6361.00    0.35921   0.41968    0.012
 6362.00    0.37599   0.41884    0.012
 6363.00    0.44350   0.41659    0.012
 6364.00    0.50208   0.41773    0.013
 6365.00    0.54561   0.42187    0.012
 6366.00    0.58045   0.42587    0.012
 6367.00    0.60247   0.42910    0.013
 6368.00    0.61303   0.43262    0.013
 6369.00    0.60874   0.43479    0.013
 6370.00    0.59148   0.43340    0.013
 6371.00    0.55939   0.43066    0.013
 6372.00    0.54660   0.43130    0.013
 6373.00    0.55326   0.43536    0.013
 6374.00    0.59668   0.43864    0.013
 6375.00    0.67277   0.43912    0.013
 6376.00    0.68889   0.43881    0.013
 6377.00    0.65803   0.43852    0.013
 6378.00    0.59601   0.43626    0.013
 6379.00    0.51253   0.43195    0.013
 6380.00    0.49218   0.42877    0.013
 6381.00    0.50997   0.42822    0.013
 6382.00    0.51531   0.42974    0.013
 6383.00    0.51409   0.43228    0.013
 6384.00    0.50412   0.43291    0.013
 6385.00    0.49015   0.43149    0.012
 6386.00    0.50984   0.43144    0.012
 6387.00    0.54278   0.43328    0.012
 6388.00    0.57031   0.43439    0.012
 6389.00    0.59602   0.43387    0.012
 6390.00    0.60156   0.43339    0.012
 6391.00    0.60143   0.43334    0.012
 6392.00    0.59351   0.43103    0.012
 6393.00    0.58378   0.42349    0.013
 6394.00    0.61910   0.41632    0.013
 6395.00    0.66280   0.41932    0.013
 6396.00    0.66139   0.42889    0.013
 6397.00    0.65350   0.43568    0.013
 6398.00    0.61357   0.43713    0.013
 6399.00    0.57030   0.43124    0.013
 6400.00    0.55427   0.41876    0.013
 6401.00    0.54006   0.41263    0.013
 6402.00    0.56577   0.42171    0.013
 6403.00    0.59278   0.43390    0.013
 6404.00    0.56631   0.43902    0.013
 6405.00    0.53991   0.43958    0.013
 6406.00    0.51643   0.43766    0.013
 6407.00    0.49441   0.43330    0.012
 6408.00    0.49426   0.42780    0.012
 6409.00    0.49207   0.42668    0.012
 6410.00    0.47019   0.43089    0.012
 6411.00    0.44828   0.43087    0.012
 6412.00    0.42625   0.42532    0.012
 6413.00    0.41781   0.42447    0.012
 6414.00    0.48258   0.42840    0.012
 6415.00    0.53570   0.43071    0.012
 6416.00    0.53853   0.43168    0.012
 6417.00    0.54085   0.43265    0.012
 6418.00    0.54139   0.43247    0.012
 6419.00    0.53909   0.43037    0.012
 6420.00    0.52827   0.42471    0.012
 6421.00    0.52226   0.41759    0.013
 6422.00    0.52848   0.41688    0.012
 6423.00    0.53333   0.42549    0.012
 6424.00    0.53515   0.43464    0.013
 6425.00    0.54385   0.43688    0.013
 6426.00    0.56565   0.43619    0.013
 6427.00    0.56679   0.43710    0.013
 6428.00    0.53369   0.43844    0.013
 6429.00    0.51195   0.43692    0.013
 6430.00    0.50673   0.43029    0.013
 6431.00    0.53331   0.42127    0.013
 6432.00    0.60053   0.41831    0.013
 6433.00    0.65267   0.42365    0.013
 6434.00    0.68782   0.43019    0.013
 6435.00    0.67818   0.43412    0.013
 6436.00    0.62404   0.43599    0.012
 6437.00    0.56793   0.43555    0.012
 6438.00    0.51010   0.42928    0.012
 6439.00    0.48530   0.41800    0.012
 6440.00    0.48601   0.41399    0.012
 6441.00    0.48096   0.42318    0.012
 6442.00    0.47201   0.43422    0.012
 6443.00    0.46312   0.43886    0.012
 6444.00    0.45427   0.43984    0.013
 6445.00    0.49315   0.44004    0.013
 6446.00    0.55679   0.44028    0.013
 6447.00    0.57071   0.44020    0.013
 6448.00    0.56227   0.43694    0.013
 6449.00    0.52747   0.42620    0.013
 6450.00    0.48247   0.41127    0.013
 6451.00    0.49573   0.40619    0.013
 6452.00    0.52815   0.41614    0.013
 6453.00    0.54014   0.42791    0.013
 6454.00    0.54650   0.43264    0.013
 6455.00    0.54311   0.42962    0.013
 6456.00    0.53750   0.42276    0.013
 6457.00    0.53279   0.42085    0.012
 6458.00    0.52824   0.42702    0.012
 6459.00    0.54090   0.43458    0.012
 6460.00    0.55596   0.43795    0.012
 6461.00    0.59649   0.43498    0.012
 6462.00    0.63957   0.42334    0.012
 6463.00    0.62112   0.40944    0.012
 6464.00    0.59878   0.40854    0.012
 6465.00    0.56875   0.41978    0.012
 6466.00    0.53855   0.42937    0.012
 6467.00    0.52363   0.43401    0.012
 6468.00    0.50951   0.43564    0.012
 6469.00    0.51751   0.43426    0.012
 6470.00    0.52487   0.43067    0.013
 6471.00    0.52310   0.42659    0.013
 6472.00    0.52440   0.42338    0.013
 6473.00    0.55411   0.42426    0.013
 6474.00    0.58309   0.42716    0.013
 6475.00    0.60711   0.42554    0.013
 6476.00    0.62940   0.42240    0.013
 6477.00    0.64256   0.42411    0.013
 6478.00    0.66033   0.42827    0.013
 6479.00    0.69757   0.42979    0.013
 6480.00    0.72147   0.42892    0.013
 6481.00    0.69884   0.42490    0.013
 6482.00    0.66540   0.41695    0.013
 6483.00    0.60026   0.41112    0.012
 6484.00    0.55205   0.41302    0.012
 6485.00    0.54621   0.41887    0.012
 6486.00    0.54516   0.42291    0.012
 6487.00    0.55441   0.42455    0.012
 6488.00    0.55274   0.42535    0.012
 6489.00    0.53064   0.42536    0.012
 6490.00    0.50677   0.42360    0.012
 6491.00    0.48001   0.42014    0.012
 6492.00    0.45863   0.41624    0.012
 6493.00    0.44495   0.40970    0.012
 6494.00    0.44139   0.39645    0.012
 6495.00    0.45059   0.38167    0.013
 6496.00    0.48494   0.37617    0.013
 6497.00    0.54721   0.37999    0.013
 6498.00    0.59866   0.38750    0.013
 6499.00    0.63952   0.39469    0.013
 6500.00    0.63626   0.39969    0.013
 6501.00    0.59489   0.40630    0.013
 6502.00    0.56409   0.41330    0.013
 6503.00    0.54135   0.41766    0.013
 6504.00    0.53929   0.41991    0.013
 6505.00    0.55107   0.42143    0.013
 6506.00    0.56054   0.42303    0.013
 6507.00    0.56866   0.42359    0.012
 6508.00    0.56404   0.42177    0.012
 6509.00    0.55292   0.41943    0.012
 6510.00    0.55203   0.41960    0.012
 6511.00    0.55565   0.42166    0.012
 6512.00    0.55881   0.42267    0.012
 6513.00    0.56178   0.42231    0.012
 6514.00    0.53704   0.42097    0.012
 6515.00    0.50337   0.41810    0.012
 6516.00    0.48220   0.41394    0.012
 6517.00    0.46442   0.41079    0.012
 6518.00    0.49747   0.40926    0.013
 6519.00    0.54177   0.40875    0.013
 6520.00    0.60561   0.41147    0.013
 6521.00    0.67290   0.41691    0.013
 6522.00    0.68930   0.42030    0.013
 6523.00    0.69885   0.42054    0.013
 6524.00    0.66118   0.42004    0.013
 6525.00    0.61901   0.42007    0.013
 6526.00    0.56593   0.41898    0.013
 6527.00    0.51220   0.41580    0.012
 6528.00    0.47029   0.41398    0.000
 6529.00    0.42924   0.41598    0.000
 6530.00    0.47121   0.41869    0.000
 6531.00    0.51301   0.41856    0.000
 6532.00    0.55035   0.41581    0.000
 6533.00    0.58291   0.41275    0.000
 6534.00    0.55163   0.41181    0.000
 6535.00    0.52511   0.41399    0.000
 6536.00    0.54100   0.41683    0.000
 6537.00    0.56522   0.41737    0.000
 6538.00    0.64406   0.41629    0.000
 6539.00    0.71021   0.41635    0.000
 6540.00    0.71152   0.41783    0.000
 6541.00    0.70005   0.41833    0.000
 6542.00    0.63584   0.41589    0.000
 6543.00    0.59304   0.41197    0.000
 6544.00    0.62337   0.40859    0.000
 6545.00    0.62491   0.40455    0.000
 6546.00    0.54358   0.39787    0.000
 6547.00    0.49663   0.39286    0.000
 6548.00    0.53425   0.39486    0.000
 6549.00    0.57092   0.39937    0.000
 6550.00    0.60560   0.40016    0.000
 6551.00    0.62745   0.39744    0.000
 6552.00    0.62570   0.39409    0.000
 6553.00    0.62302   0.39112    0.000
 6554.00    0.61883   0.38679    0.000
 6555.00    0.60310   0.38036    0.000
 6556.00    0.57106   0.37482    0.000
 6557.00    0.56446   0.37285    0.000
 6558.00    0.58945   0.37290    0.000
 6559.00    0.63661   0.37033    0.000
 6560.00    0.70802   0.36278    0.000
 6561.00    0.76123   0.34580    0.000
 6562.00    0.79683   0.30954    0.000
 6563.00    0.80346   0.26618    0.000
 6564.00    0.78541   0.25943    0.000
 6565.00    0.70994   0.29892    0.000
 6566.00    0.59139   0.34126    0.000
 6567.00    0.52455   0.36242    0.000
 6568.00    0.49180   0.37132    0.000
 6569.00    0.49476   0.37411    0.000
 6570.00    0.51833   0.37486    0.000
 6571.00    0.54457   0.37832    0.000
 6572.00    0.57216   0.38130    0.000
 6573.00    0.55822   0.37985    0.000
 6574.00    0.52620   0.37724    0.000
 6575.00    0.51724   0.37778    0.000
 6576.00    0.51688   0.38309    0.000
 6577.00    0.54206   0.39131    0.000
 6578.00    0.57534   0.39796    0.000
 6579.00    0.60741   0.40102    0.000
 6580.00    0.63915   0.40048    0.000
 6581.00    0.67299   0.39804    0.000
 6582.00    0.70728   0.39711    0.000
 6583.00    0.67361   0.39995    0.000
 6584.00    0.62828   0.40314    0.000
 6585.00    0.57131   0.40394    0.000
 6586.00    0.51281   0.40279    0.000
 6587.00    0.52463   0.40210    0.000
 6588.00    0.54286   0.40447    0.000
 6589.00    0.59256   0.40806    0.000
 6590.00    0.64400   0.41001    0.000
 6591.00    0.61747   0.40908    0.000
 6592.00    0.58896   0.40285    0.000
 6593.00    0.53209   0.39156    0.000
 6594.00    0.47753   0.38443    0.000
 6595.00    0.47603   0.38967    0.000
 6596.00    0.47779   0.39983    0.000
 6597.00    0.52093   0.40444    0.000
 6598.00    0.55970   0.40336    0.000
 6599.00    0.56096   0.40149    0.000
 6600.00    0.56422   0.40298    0.000
 6601.00    0.58027   0.40750    0.000
 6602.00    0.60082   0.41076    0.000
 6603.00    0.64379   0.41075    0.000
 6604.00    0.66559   0.40851    0.000
 6605.00    0.60196   0.40546    0.000
 6606.00    0.54529   0.40351    0.000
 6607.00    0.51192   0.40292    0.000
 6608.00    0.49360   0.40110    0.000
 6609.00    0.51784   0.39741    0.012
 6610.00    0.54201   0.39635    0.012
 6611.00    0.56602   0.40167    0.012
 6612.00    0.58671   0.40795    0.012
 6613.00    0.60048   0.40876    0.013
 6614.00    0.58591   0.40624    0.013
 6615.00    0.51995   0.40598    0.012
 6616.00    0.46609   0.40874    0.012
 6617.00    0.43144   0.41013    0.012
 6618.00    0.43291   0.40957    0.012
 6619.00    0.48467   0.40912    0.013
 6620.00    0.53286   0.40972    0.013
 6621.00    0.57668   0.41072    0.013
 6622.00    0.58516   0.41093    0.012
 6623.00    0.55547   0.40920    0.012
 6624.00    0.50782   0.40520    0.012
 6625.00    0.44306   0.40090    0.012
 6626.00    0.42635   0.39984    0.012
 6627.00    0.45002   0.40218    0.012
 6628.00    0.47130   0.40399    0.012
 6629.00    0.49082   0.40432    0.012
 6630.00    0.46819   0.40422    0.012
 6631.00    0.41819   0.40346    0.012
 6632.00    0.37855   0.40159    0.012
 6633.00    0.34481   0.39822    0.012
 6634.00    0.37287   0.39409    0.012
 6635.00    0.43151   0.39338    0.012
 6636.00    0.50822   0.39762    0.012
 6637.00    0.59268   0.40230    0.012
 6638.00    0.59930   0.40446    0.013
 6639.00    0.57738   0.40412    0.013
 6640.00    0.58150   0.40296    0.013
 6641.00    0.59371   0.40320    0.013
 6642.00    0.59319   0.40417    0.013
 6643.00    0.58939   0.40118    0.012
 6644.00    0.58616   0.39500    0.012
 6645.00    0.58304   0.39434    0.012
 6646.00    0.57594   0.39920    0.012
 6647.00    0.56819   0.40216    0.012
 6648.00    0.54684   0.40201    0.012
 6649.00    0.52378   0.40208    0.012
 6650.00    0.53797   0.40253    0.012
 6651.00    0.55541   0.40187    0.012
 6652.00    0.56465   0.40012    0.012
 6653.00    0.57348   0.39886    0.012
 6654.00    0.53789   0.39872    0.012
 6655.00    0.50248   0.39910    0.012
 6656.00    0.53525   0.39931    0.012
 6657.00    0.56742   0.39898    0.012
 6658.00    0.58692   0.39892    0.012
 6659.00    0.60447   0.39919    0.012
 6660.00    0.59864   0.39899    0.013
 6661.00    0.59093   0.39783    0.013
 6662.00    0.56769   0.39557    0.013
 6663.00    0.54767   0.39139    0.013
 6664.00    0.54756   0.38766    0.013
 6665.00    0.54148   0.38920    0.012
 6666.00    0.50638   0.39316    0.013
 6667.00    0.47736   0.39463    0.013
 6668.00    0.47235   0.39479    0.012
 6669.00    0.49434   0.39601    0.012
 6670.00    0.60502   0.39848    0.012
 6671.00    0.68661   0.40059    0.012
 6672.00    0.68749   0.40133    0.012
 6673.00    0.66407   0.40091    0.012
 6674.00    0.58296   0.40060    0.013
 6675.00    0.52688   0.40059    0.013
 6676.00    0.52222   0.39944    0.014
 6677.00    0.51186   0.39377    0.014
 6678.00    0.49135   0.38366    0.014
 6679.00    0.47789   0.37883    0.014
 6680.00    0.47544   0.38432    0.013
 6681.00    0.47069   0.39122    0.013
 6682.00    0.46277   0.39304    0.013
 6683.00    0.47545   0.39340    0.012
 6684.00    0.51298   0.39462    0.013
 6685.00    0.54521   0.39562    0.013
 6686.00    0.57181   0.39560    0.013
 6687.00    0.55650   0.39505    0.013
 6688.00    0.50183   0.39434    0.013
 6689.00    0.49482   0.39421    0.013
 6690.00    0.52727   0.39503    0.013
 6691.00    0.56057   0.39563    0.013
 6692.00    0.59447   0.39561    0.012
 6693.00    0.62423   0.39538    0.012
 6694.00    0.65134   0.39509    0.012
 6695.00    0.64935   0.39356    0.012
 6696.00    0.63108   0.39024    0.000
 6697.00    0.62861   0.38737    0.000
 6698.00    0.63385   0.38756    0.000
 6699.00    0.64456   0.38974    0.000
 6700.00    0.65757   0.39259    0.000
 6701.00    0.63999   0.39517    0.000
 6702.00    0.61140   0.39564    0.000
 6703.00    0.63381   0.39374    0.000
 6704.00    0.67175   0.39080    0.000
 6705.00    0.69779   0.38896    0.000
 6706.00    0.72081   0.39001    0.000
 6707.00    0.70685   0.39224    0.000
 6708.00    0.68528   0.39348    0.000
 6709.00    0.65507   0.39350    0.000
 6710.00    0.62345   0.39265    0.000
 6711.00    0.55837   0.39141    0.000
 6712.00    0.48925   0.39137    0.000
 6713.00    0.53954   0.39111    0.000
 6714.00    0.59974   0.38903    0.000
 6715.00    0.66288   0.38638    0.000
 6716.00    0.72616   0.38301    0.000
 6717.00    0.70594   0.37774    0.000
 6718.00    0.68445   0.37293    0.000
 6719.00    0.65691   0.37436    0.000
 6720.00    0.63152   0.38073    0.000
 6721.00    0.64787   0.38463    0.000
 6722.00    0.65946   0.38461    0.000
 6723.00    0.61641   0.38498    0.000
 6724.00    0.57522   0.38703    0.000
 6725.00    0.54878   0.38775    0.000
 6726.00    0.53131   0.38601    0.000
 6727.00    0.56768   0.38441    0.000
 6728.00    0.60000   0.38548    0.000
 6729.00    0.61309   0.38772    0.000
 6730.00    0.63548   0.38892    0.000
 6731.00    0.69374   0.38915    0.000
 6732.00    0.74639   0.38859    0.000
 6733.00    0.78093   0.38768    0.000
 6734.00    0.78653   0.38686    0.000
 6735.00    0.71327   0.38699    0.000
 6736.00    0.64716   0.38777    0.000
 6737.00    0.59781   0.38821    0.000
 6738.00    0.58318   0.38664    0.000
 6739.00    0.63869   0.38383    0.000
 6740.00    0.66309   0.38232    0.000
 6741.00    0.63276   0.38321    0.000
 6742.00    0.60063   0.38424    0.000
 6743.00    0.56575   0.38262    0.000
 6744.00    0.57252   0.38098    0.000
 6745.00    0.63562   0.38245    0.000
 6746.00    0.66148   0.38426    0.000
 6747.00    0.64303   0.38408    0.000
 6748.00    0.60119   0.38276    0.000
 6749.00    0.53481   0.38088    0.000
 6750.00    0.49812   0.37829    0.000
 6751.00    0.48893   0.37706    0.000
 6752.00    0.51675   0.37849    0.000
 6753.00    0.57478   0.37937    0.014
 6754.00    0.57378   0.37973    0.015
 6755.00    0.53037   0.38197    0.015
 6756.00    0.55847   0.38414    0.015
 6757.00    0.63165   0.38536    0.015
 6758.00    0.68521   0.38671    0.015
 6759.00    0.72794   0.38795    0.015
 6760.00    0.69405   0.38869    0.015
 6761.00    0.62345   0.38882    0.015
 6762.00    0.58889   0.38839    0.015
 6763.00    0.56924   0.38753    0.015
 6764.00    0.55356   0.38747    0.015
 6765.00    0.53927   0.38738    0.015
 6766.00    0.52951   0.38617    0.014
 6767.00    0.52110   0.38287    0.014
 6768.00    0.52555   0.37935    0.014
 6769.00    0.53320   0.37937    0.014
 6770.00    0.56194   0.38165    0.014
 6771.00    0.59491   0.38167    0.014
 6772.00    0.61602   0.38043    0.014
 6773.00    0.63527   0.38164    0.014
 6774.00    0.60544   0.38456    0.014
 6775.00    0.56989   0.38735    0.014
 6776.00    0.57506   0.38900    0.014
 6777.00    0.58345   0.38943    0.014
 6778.00    0.64719   0.38932    0.014
 6779.00    0.71335   0.38929    0.015
 6780.00    0.66420   0.38941    0.014
 6781.00    0.61454   0.38840    0.014
 6782.00    0.59768   0.38560    0.014
 6783.00    0.58349   0.38121    0.014
 6784.00    0.61762   0.37682    0.014
 6785.00    0.64796   0.37479    0.014
 6786.00    0.63671   0.37573    0.014
 6787.00    0.62700   0.37761    0.014
 6788.00    0.62915   0.37976    0.013
 6789.00    0.62301   0.38158    0.013
 6790.00    0.56855   0.38200    0.014
 6791.00    0.52379   0.38144    0.014
 6792.00    0.52388   0.38132    0.014
 6793.00    0.52467   0.38085    0.014
 6794.00    0.52814   0.37932    0.014
 6795.00    0.52765   0.37874    0.014
 6796.00    0.51466   0.37928    0.014
 6797.00    0.52458   0.37987    0.014
 6798.00    0.59583   0.38055    0.014
 6799.00    0.63820   0.38097    0.014
 6800.00    0.61420   0.38166    0.014
 6801.00    0.61652   0.38278    0.014
 6802.00    0.67117   0.38368    0.014
 6803.00    0.69759   0.38388    0.014
 6804.00    0.67507   0.38280    0.014
 6805.00    0.65483   0.38158    0.014
 6806.00    0.63804   0.38134    0.013
 6807.00    0.61361   0.38057    0.013
 6808.00    0.57898   0.37993    0.013
 6809.00    0.55721   0.38079    0.013
 6810.00    0.55051   0.38057    0.013
 6811.00    0.54926   0.37950    0.013
 6812.00    0.55363   0.38029    0.014
 6813.00    0.57027   0.38143    0.014
 6814.00    0.59808   0.38088    0.014
 6815.00    0.61019   0.37873    0.014
 6816.00    0.60965   0.37771    0.014
 6817.00    0.62138   0.37963    0.014
 6818.00    0.64180   0.38199    0.014
 6819.00    0.62725   0.38171    0.014
 6820.00    0.59099   0.37930    0.014
 6821.00    0.56072   0.37809    0.014
 6822.00    0.53370   0.37962    0.014
 6823.00    0.55471   0.38215    0.014
 6824.00    0.59836   0.38321    0.013
 6825.00    0.61811   0.38341    0.013
 6826.00    0.62814   0.38341    0.014
 6827.00    0.57397   0.38223    0.013
 6828.00    0.49752   0.37887    0.013
 6829.00    0.51090   0.37619    0.013
 6830.00    0.55056   0.37735    0.013
 6831.00    0.56908   0.38051    0.013
 6832.00    0.58247   0.38215    0.013
 6833.00    0.58666   0.38146    0.013
 6834.00    0.58905   0.38102    0.014
 6835.00    0.60913   0.38211    0.014
 6836.00    0.63190   0.38316    0.014
 6837.00    0.61525   0.38267    0.014
 6838.00    0.59417   0.38079    0.014
 6839.00    0.61622   0.37807    0.015
 6840.00    0.64151   0.37496    0.015
 6841.00    0.56818   0.37186    0.015
 6842.00    0.49093   0.36905    0.015
 6843.00    0.49987   0.36887    0.014
 6844.00    0.51099   0.37199    0.014
 6845.00    0.58491   0.37637    0.014
 6846.00    0.65665   0.37936    0.014
 6847.00    0.69147   0.37963    0.013
 6848.00    0.71858   0.37909    0.013
 6849.00    0.66494   0.37923    0.013
 6850.00    0.61313   0.37896    0.013
 6851.00    0.57491   0.37820    0.013
 6852.00    0.54622   0.37804    0.013
 6853.00    0.57146   0.37819    0.013
 6854.00    0.59318   0.37695    0.013
 6855.00    0.59901   0.37294    0.013
 6856.00    0.59436   0.36940    0.013
 6857.00    0.55089   0.36999    0.013
 6858.00    0.53834   0.37204    0.013
 6859.00    0.62158   0.37313    0.014
 6860.00    0.67418   0.37374    0.014
 6861.00    0.64622   0.37238    0.014
 6862.00    0.60736   0.36985    0.014
 6863.00    0.54388   0.37070    0.014
 6864.00    0.47547   0.37545    0.014
 6865.00    0.39742   0.37923    0.014
 6866.00    0.38874   0.37874    0.014
 6867.00    0.49844   0.37561    0.014
 6868.00    0.58568   0.37278    0.014
 6869.00    0.63933   0.37132    0.014
 6870.00    0.67443   0.37237    0.014
 6871.00    0.68517   0.37399    0.013
 6872.00    0.68441   0.37327    0.013
 6873.00    0.67036   0.37162    0.013
 6874.00    0.62595   0.37245    0.013
 6875.00    0.55054   0.37430    0.013
 6876.00    0.51028   0.37526    0.013
 6877.00    0.50166   0.37647    0.013
 6878.00    0.49683   0.37816    0.013
 6879.00    0.49499   0.37956    0.013
 6880.00    0.52086   0.37978    0.013
 6881.00    0.56605   0.37807    0.014
 6882.00    0.56675   0.37435    0.014
 6883.00    0.54021   0.37111    0.014
 6884.00    0.57611   0.37126    0.014
 6885.00    0.64536   0.37366    0.014
 6886.00    0.66774   0.37499    0.014
 6887.00    0.66838   0.37507    0.014
 6888.00    0.64349   0.37631    0.014
 6889.00    0.60840   0.37847    0.014
 6890.00    0.55073   0.37968    0.014
 6891.00    0.48537   0.37992    0.014
 6892.00    0.49740   0.38036    0.013
 6893.00    0.53161   0.38044    0.013
 6894.00    0.55925   0.37954    0.013
 6895.00    0.58532   0.37851    0.013
 6896.00    0.57722   0.37765    0.013
 6897.00    0.56260   0.37739    0.013
 6898.00    0.55842   0.37760    0.013
 6899.00    0.55579   0.37832    0.014
 6900.00    0.55650   0.37832    0.014
 6901.00    0.55756   0.37681    0.014
 6902.00    0.55922   0.37649    0.014
 6903.00    0.56093   0.37852    0.014
 6904.00    0.61293   0.38023    0.014
 6905.00    0.66675   0.37966    0.014
 6906.00    0.57713   0.37860    0.014
 6907.00    0.48830   0.37968    0.014
 6908.00    0.44310   0.38213    0.014
 6909.00    0.40259   0.38275    0.014
 6910.00    0.43641   0.38173    0.014
 6911.00    0.47845   0.38041    0.014
 6912.00    0.60272   0.37938    0.014
 6913.00    0.70360   0.37822    0.014
 6914.00    0.63638   0.37519    0.014
 6915.00    0.57097   0.37210    0.013
 6916.00    0.51551   0.37259    0.013
 6917.00    0.48434   0.37424    0.014
 6918.00    0.56023   0.37479    0.013
 6919.00    0.61498   0.37545    0.013
 6920.00    0.59314   0.37628    0.013
 6921.00    0.57038   0.37777    0.014
 6922.00    0.54480   0.37964    0.014
 6923.00    0.51846   0.37947    0.014
 6924.00    0.49014   0.37645    0.014
 6925.00    0.47782   0.37239    0.014
 6926.00    0.50109   0.37064    0.014
 6927.00    0.52548   0.37250    0.014
 6928.00    0.55204   0.37641    0.015
 6929.00    0.55813   0.37904    0.015
 6930.00    0.52983   0.37958    0.014
 6931.00    0.52221   0.37921    0.014
 6932.00    0.54503   0.37803    0.014
 6933.00    0.56176   0.37582    0.014
 6934.00    0.57058   0.37431    0.014
 6935.00    0.55349   0.37577    0.014
 6936.00    0.50683   0.37789    0.014
 6937.00    0.47271   0.37810    0.014
 6938.00    0.45118   0.37755    0.014
 6939.00    0.46290   0.37745    0.014
 6940.00    0.50412   0.37824    0.014
 6941.00    0.51463   0.37949    0.014
 6942.00    0.50114   0.37994    0.014
 6943.00    0.53022   0.37885    0.014
 6944.00    0.58857   0.37618    0.015
 6945.00    0.56766   0.37214    0.015
 6946.00    0.49897   0.37017    0.015
 6947.00    0.50283   0.37345    0.015
 6948.00    0.54485   0.37822    0.015
 6949.00    0.53905   0.38048    0.015
 6950.00    0.51142   0.38034    0.015
 6951.00    0.49659   0.37832    0.015
 6952.00    0.48679   0.37584    0.015
 6953.00    0.46614   0.37499    0.015
 6954.00    0.44185   0.37478    0.015
 6955.00    0.46523   0.37446    0.015
 6956.00    0.50200   0.37549    0.014
 6957.00    0.55020   0.37757    0.014
 6958.00    0.60104   0.37878    0.014
 6959.00    0.62114   0.37885    0.014
 6960.00    0.63553   0.37858    0.014
 6961.00    0.60196   0.37860    0.014
 6962.00    0.56153   0.37924    0.014
 6963.00    0.55298   0.37985    0.014
 6964.00    0.54773   0.38019    0.014
 6965.00    0.49987   0.37992    0.014
 6966.00    0.44917   0.37885    0.014
 6967.00    0.46543   0.37861    0.015
 6968.00    0.48384   0.38029    0.015
 6969.00    0.48118   0.38229    0.015
 6970.00    0.47927   0.38228    0.015
 6971.00    0.49988   0.38073    0.015
 6972.00    0.52077   0.37949    0.015
 6973.00    0.54576   0.37996    0.015
 6974.00    0.55602   0.38100    0.015
 6975.00    0.42474   0.37995    0.015
 6976.00    0.33572   0.37670    0.015
 6977.00    0.54065   0.37260    0.015
 6978.00    0.69776   0.36674    0.015
 6979.00    0.59817   0.36028    0.015
 6980.00    0.51940   0.36049    0.014
 6981.00    0.53038   0.36809    0.014
 6982.00    0.54776   0.37564    0.014
 6983.00    0.58787   0.37981    0.014
 6984.00    0.62919   0.38152    0.014
 6985.00    0.67411   0.38196    0.015
 6986.00    0.69645   0.38185    0.015
 6987.00    0.66144   0.38162    0.015
 6988.00    0.61585   0.38022    0.016
 6989.00    0.54712   0.37717    0.015
 6990.00    0.52276   0.37475    0.015
 6991.00    0.58254   0.37539    0.016
 6992.00    0.59851   0.37786    0.016
 6993.00    0.54195   0.37994    0.016
 6994.00    0.47853   0.37982    0.015
 6995.00    0.40516   0.37811    0.016
 6996.00    0.39635   0.37804    0.016
 6997.00    0.46993   0.37930    0.015
 6998.00    0.46882   0.37955    0.015
 6999.00    0.38367   0.37710    0.015
 7000.00    0.41098   0.37303    0.015
 7001.00    0.54986   0.37136    0.015
 7002.00    0.61693   0.37382    0.015
 7003.00    0.62117   0.37663    0.015
 7004.00    0.61078   0.37589    0.015
 7005.00    0.58912   0.37258    0.015
 7006.00    0.55756   0.37095    0.015
 7007.00    0.51929   0.37162    0.015
 7008.00    0.52882   0.37338    0.015
 7009.00    0.56673   0.37552    0.015
 7010.00    0.48450   0.37720    0.015
 7011.00    0.34005   0.37715    0.015
 7012.00    0.40476   0.37571    0.015
 7013.00    0.56337   0.37574    0.016
 7014.00    0.56990   0.37703    0.016
 7015.00    0.51773   0.37504    0.016
 7016.00    0.52232   0.36807    0.016
 7017.00    0.54555   0.36184    0.016
 7018.00    0.49970   0.36436    0.016
 7019.00    0.43485   0.37288    0.015
 7020.00    0.47004   0.37875    0.015
 7021.00    0.52786   0.38070    0.015
 7022.00    0.56668   0.37988    0.015
 7023.00    0.60207   0.37633    0.015
 7024.00    0.55550   0.37130    0.015
 7025.00    0.49757   0.36894    0.015
 7026.00    0.46044   0.37094    0.015
 7027.00    0.42537   0.37426    0.015
 7028.00    0.43398   0.37554    0.015
 7029.00    0.44532   0.37570    0.015
 7030.00    0.34196   0.37661    0.015
 7031.00    0.23642   0.37810    0.015
 7032.00    0.41364   0.37882    0.016
 7033.00    0.58397   0.37817    0.016
 7034.00    0.56520   0.37708    0.016
 7035.00    0.55061   0.37658    0.016
 7036.00    0.59495   0.37722    0.016
 7037.00    0.62448   0.37755    0.016
 7038.00    0.51742   0.37372    0.016
 7039.00    0.43186   0.36847    0.016
 7040.00    0.49115   0.37073    0.016
 7041.00    0.53791   0.37933    0.015
 7042.00    0.51921   0.38567    0.015
 7043.00    0.51486   0.38802    0.015
 7044.00    0.57095   0.38777    0.015
 7045.00    0.60635   0.38529    0.015
 7046.00    0.56971   0.38317    0.015
 7047.00    0.54430   0.38435    0.015
 7048.00    0.55169   0.38719    0.015
 7049.00    0.55682   0.38881    0.015
 7050.00    0.55631   0.38840   -2.000
 7051.00    0.52936   0.38648   -2.000
 7052.00    0.44554   0.38258   -2.000
 7053.00    0.43660   0.37600   -2.000
 7054.00    0.56751   0.36920   -2.000
 7055.00    0.67835   0.36480   -2.000
 7056.00    0.75643   0.36320   -2.000
 7057.00    0.74585   0.36476   -2.000
 7058.00    0.60845   0.36714   -2.000
 7059.00    0.57042   0.36671   -2.000
 7060.00    0.65741   0.36300   -2.000
 7061.00    0.65319   0.35947   -2.000
 7062.00    0.54781   0.35921   -2.000
 7063.00    0.48216   0.36097   -2.000
 7064.00    0.45537   0.36290   -2.000
 7065.00    0.50437   0.36467   -2.000
 7066.00    0.61874   0.36448   -2.000
 7067.00    0.61775   0.36195   -2.000
 7068.00    0.52912   0.35890   -2.000
 7069.00    0.52021   0.35668   -2.000
 7070.00    0.56453   0.35818   -2.000
 7071.00    0.56664   0.36288   -2.000
 7072.00    0.54407   0.36643   -2.000
 7073.00    0.56994   0.36784   -2.000
 7074.00    0.62050   0.36863   -2.000
 7075.00    0.54761   0.36898   -2.000
 7076.00    0.42021   0.36831   -2.000
 7077.00    0.48504   0.36732   -2.000
 7078.00    0.62278   0.36722   -2.000
 7079.00    0.55805   0.36774   -2.000
 7080.00    0.42812   0.36807   -2.000
 7081.00    0.42218   0.36838   -2.000
 7082.00    0.44964   0.36819   -2.000
 7083.00    0.50683   0.36556   -2.000
 7084.00    0.57057   0.35955   -2.000
 7085.00    0.55764   0.35272   -2.000
 7086.00    0.53123   0.35001   -2.000
 7087.00    0.51431   0.35077   -2.000
 7088.00    0.49865   0.34951   -2.000
 7089.00    0.51898   0.34620   -2.000
 7090.00    0.54272   0.34358   -2.000
 7091.00    0.50132   0.34236   -2.000
 7092.00    0.45610   0.34286   -2.000
 7093.00    0.50529   0.34444   -2.000
 7094.00    0.55630   0.34429   -2.000
 7095.00    0.53741   0.34396   -2.000
 7096.00    0.51690   0.34358   -2.000
 7097.00    0.45621   0.34353   -2.000
 7098.00    0.40707   0.34419   -2.000
 7099.00    0.51149   0.34692   -2.000
 7100.00    0.59721   0.35239   -2.000
 7101.00    0.51718   0.35419   -2.000
 7102.00    0.43890   0.35307   -2.000
 7103.00    0.37208   0.35129   -2.000
 7104.00    0.33160   0.35113   -2.000
 7105.00    0.42532   0.35317   -2.000
 7106.00    0.50636   0.35528   -2.000
 7107.00    0.53522   0.35509   -2.000
 7108.00    0.54792   0.35400   -2.000
 7109.00    0.50557   0.35391   -2.000
 7110.00    0.47380   0.35347   -2.000
 7111.00    0.47243   0.35095   -2.000
 7112.00    0.50110   0.34827   -2.000
 7113.00    0.60345   0.34880   -2.000
 7114.00    0.64617   0.35166   -2.000
 7115.00    0.56269   0.35363   -2.000
 7116.00    0.51648   0.35446   -2.000
 7117.00    0.53881   0.35567   -2.000
 7118.00    0.51755   0.35678   -2.000
 7119.00    0.42624   0.35673   -2.000
 7120.00    0.42520   0.35627   -2.000
 7121.00    0.55141   0.35555   -2.000
 7122.00    0.61611   0.35373   -2.000
 7123.00    0.60449   0.35231   -2.000
 7124.00    0.52297   0.35383   -2.000
 7125.00    0.36501   0.35459   -2.000
 7126.00    0.27605   0.35082   -2.000
 7127.00    0.25364   0.34623   -2.000
 7128.00    0.31020   0.34493   -2.000
 7129.00    0.43392   0.34558   -2.000
 7130.00    0.42609   0.34398   -2.000
 7131.00    0.31973   0.34012   -2.000
 7132.00    0.32734   0.33848   -2.000
 7133.00    0.40994   0.34139   -2.000
 7134.00    0.52626   0.34536   -2.000
 7135.00    0.66199   0.34824   -2.000
 7136.00    0.71103   0.34954   -2.000
 7137.00    0.71657   0.35000   -2.000
 7138.00    0.63670   0.35040   -2.000
 7139.00    0.51975   0.34885   -2.000
 7140.00    0.55771   0.34728   -2.000
 7141.00    0.65336   0.34817   -2.000
 7142.00    0.56920   0.35029   -2.000
 7143.00    0.42824   0.35089   -2.000
 7144.00    0.35851   0.35094   -2.000
 7145.00    0.30757   0.35093   -2.000
 7146.00    0.48186   0.35049   -2.000
 7147.00    0.70469   0.34888   -2.000
 7148.00    0.58997   0.34366   -2.000
 7149.00    0.41755   0.33863   -2.000
 7150.00    0.39845   0.34085   -2.000
 7151.00    0.39919   0.34663   -2.000
 7152.00    0.40032   0.35035   -2.000
 7153.00    0.40149   0.35310   -2.000
 7154.00    0.43538   0.35516   -2.000
 7155.00    0.47105   0.35492   -2.000
 7156.00    0.43967   0.35425   -2.000
 7157.00    0.40786   0.35599   -2.000
 7158.00    0.46500   0.35826   -2.000
 7159.00    0.50400   0.35706   -2.000
 7160.00    0.13135   0.35373   -2.000
 7161.00   -0.19596   0.35191   -2.000
 7162.00    0.04774   0.35297   -2.000
 7163.00    0.28979   0.35335   -2.000
 7164.00    0.51784   0.34844   -2.000
 7165.00    0.75960   0.34101   -2.000
 7166.00    1.08832   0.33837   -2.000
 7167.00    1.25770   0.34324   -2.000
 7168.00    0.63594   0.34964   -2.000
 7169.00    0.17333   0.35194   -2.000
 7170.00    0.35128   0.35117   -2.000
 7171.00    0.52130   0.35107   -2.000
 7172.00    0.66486   0.35279   -2.000
 7173.00    0.72899   0.35481   -2.000
 7174.00    0.56910   0.35548   -2.000
 7175.00    0.46872   0.35415   -2.000
 7176.00    0.51185   0.35133   -2.000
 7177.00    0.52152   0.34927   -2.000
 7178.00    0.46151   0.35060   -2.000
 7179.00    0.44882   0.35249   -2.000
 7180.00    0.52184   0.35033   -2.000
 7181.00    0.54884   0.34525   -2.000
 7182.00    0.50300   0.34249   -2.000
 7183.00    0.50259   0.34531   -2.000
 7184.00    0.56531   0.35133   -2.000
 7185.00    0.55120   0.35454   -2.000
 7186.00    0.44316   0.35322   -2.000
 7187.00    0.38352   0.34836   -2.000
 7188.00    0.37605   0.34180   -2.000
 7189.00    0.40509   0.33905   -2.000
 7190.00    0.46884   0.34120   -2.000
 7191.00    0.54183   0.34557   -2.000
 7192.00    0.62256   0.34947   -2.000
 7193.00    0.62885   0.34971   -2.000
 7194.00    0.58021   0.34883   -2.000
 7195.00    0.57493   0.34995   -2.000
 7196.00    0.59776   0.35151   -2.000
 7197.00    0.56504   0.34994   -2.000
 7198.00    0.50081   0.34714   -2.000
 7199.00    0.32342   0.34789   -2.000
 7200.00    0.09016   0.35034   -2.000
 7201.00    0.03968   0.35027   -2.000
 7202.00    0.06725   0.34697   -2.000
 7203.00    0.21761   0.34460   -2.000
 7204.00    0.41289   0.34762   -2.000
 7205.00    0.60386   0.35265   -2.000
 7206.00    0.79349   0.35262   -2.000
 7207.00    0.67194   0.34557   -2.000
 7208.00    0.47007   0.33752   -2.000
 7209.00    0.50570   0.33658   -2.000
 7210.00    0.59130   0.34127   -2.000
 7211.00    0.51472   0.34727   -2.000
 7212.00    0.41122   0.35232   -2.000
 7213.00    0.31971   0.35299   -2.000
 7214.00    0.22970   0.35083   -2.000
 7215.00    0.30104   0.34895   -2.000
 7216.00    0.38635   0.34840   -2.000
 7217.00    0.42017   0.34947   -2.000
 7218.00    0.45137   0.35218   -2.000
