###################################################################
## OUTPUT of StarlightChains_v04.for    [Cid@UFSC - 01/Apr/2007] ##
###################################################################

## Some input info
KUG0210-078._46_45.txt                   [arq_obs]
Base.CB07.vall.4m                        [arq_base]
Masks.EmLines.NEW.gm                     [arq_masks]
StCv04.C11.config                        [arq_config]
   66                                    [N_base]
    0                                    [N_YAV_components = # of components with extra extinction!]
    0                                    [i_FitPowerLaw (1/0 = Yes/No)]
-9.99                                    [alpha_PowerLaw]
CCM                                      [red_law_option]
 1.458241                                [q_norm = A(l_norm)/A(V)]

## (Re)Sampling Parameters
 3741.00                                 [l_ini (A)]
 7218.00                                 [l_fin (A)]
    1.00                                 [dl    (A)]     (OBS: dl_cushion =    50.00 A)

## Normalization info
 4020.00                                 [l_norm (A) - for base]
 4010.00                                 [llow_norm (A) - window for f_obs]
 4060.00                                 [lupp_norm (A) - window for f_obs]
1.444332E-17                             [fobs_norm (in input units)]

## S/N
 3691.00                                 [llow_SN (A) - window for S/N]
 7268.00                                 [lupp_SN (A) - window for S/N]
   2.291                                 [S/N in S/N window]
   4.145                                 [S/N in norm. window]
   0.009                                 [S/N_err in S/N window]
   0.017                                 [S/N_err in norm. window]
  1.0000                                 [fscale_chi2]

## etc...
    -2007896                             [idum_orig]
  2422                                   [NOl_eff]
  2386                                   [Nl_eff]
    36    NSIGMA                         [Ntot_cliped & clip_method]
  2133600                                [Nglobal_steps]
   7                                     [N_chains]
  32                                     [NEX0s_base = N_base in EX0s-fits]
 0   0   1       36   2.0   3.653E+03    [Clip-Bug, RC-Crash & Burn-In warning-flags, n_censored_weights, wei_nsig_threshold & wei_limit]
    27     26.051     25.403      0.648  [idt_all, wdt_TotTime, wdt_UsrTime & wdt_SysTime (sec)]

## Synthesis Results - Best model ##

 2.23750E-05                             [chi2/Nl_eff]
    40.92249                             [adev (%)]

   104.12741                             [sum-of-x (%)]
 3.99572E-18                             [Flux_tot (units of input spectrum!)]
 2.20455E-14                             [Mini_tot (???)]
 1.27652E-14                             [Mcor_tot (???)]

-151.59                                  [v0_min  (km/s)]
  87.03                                  [vd_min  (km/s)]
-0.9869                                  [AV_min  (mag)]
 0.0000                                  [YAV_min (mag)]

# j     x_j(%)      Mini_j(%)     Mcor_j(%)     age_j(yr)     Z_j      (L/M)_j    YAV?  Mstars   component_j        a/Fe...       SSP_chi2r SSP_adev(%)   SSP_AV   SSP_x(%)
  1      0.0000     0.0000E+00    0.0000E+00    1.000000E+06  0.00400  1.094E-02    0   1.0000   age020_m42            0.0000     3.2225E-05    54.5322   1.8618    82.8164
  2      0.0000     0.0000E+00    0.0000E+00    3.160000E+06  0.00400  4.007E-02    0   0.9999   age045_m42            0.0000     2.7439E-05    48.9315   1.0496    90.0017
  3      0.0000     0.0000E+00    0.0000E+00    5.010000E+06  0.00400  2.539E-02    0   0.9488   age055_m42            0.0000     2.9568E-05    51.4263   1.4169    86.9895
  4      0.0000     0.0000E+00    0.0000E+00    6.610000E+06  0.00400  2.620E-02    0   0.9220   age061_m42            0.0000     2.7325E-05    48.6802   0.9875    89.9288
  5      0.0000     0.0000E+00    0.0000E+00    1.000000E+07  0.00400  1.322E-02    0   0.8862   age070_m42            0.0000     2.8415E-05    51.2675   0.8029    89.7584
  6      0.0000     0.0000E+00    0.0000E+00    1.445000E+07  0.00400  7.883E-03    0   0.8571   age078_m42            0.0000     2.9578E-05    52.5111   1.1396    87.4038
  7      0.0000     0.0000E+00    0.0000E+00    2.512000E+07  0.00400  5.251E-03    0   0.8174   age090_m42            0.0000     2.8290E-05    51.2998   0.6860    90.0089
  8      0.0000     0.0000E+00    0.0000E+00    4.000000E+07  0.00400  3.649E-03    0   0.7851   age104_m42            0.0000     2.7421E-05    50.1496   0.4313    91.2561
  9      0.0000     0.0000E+00    0.0000E+00    5.500000E+07  0.00400  3.098E-03    0   0.7629   age110_m42            0.0000     2.6413E-05    47.7395   0.5248    92.4798
 10      0.0000     0.0000E+00    0.0000E+00    1.015200E+08  0.00400  2.228E-03    0   0.7207   age116_m42            0.0000     2.5706E-05    45.9677   0.5084    93.4027
 11      0.0000     0.0000E+00    0.0000E+00    2.861200E+08  0.00400  1.093E-03    0   0.6648   age125_m42            0.0000     2.5009E-05    45.1762  -0.0488    95.7295
 12      1.2416     3.2759E-01    3.6010E-01    5.088000E+08  0.00400  6.597E-04    0   0.6365   age130_m42            0.0000     2.4137E-05    42.6067  -0.1296    98.0096
 13     12.5568     1.0252E+01    1.0265E+01    1.434000E+09  0.00400  2.132E-04    0   0.5798   age139_m42            0.0000     2.2918E-05    45.0962  -1.0000    99.2506
 14      0.0000     0.0000E+00    0.0000E+00    4.250000E+09  0.00400  5.895E-05    0   0.5377   age158_m42            0.0000     2.7451E-05    59.1636  -1.0000    90.2890
 15      5.8986     2.9252E+01    2.6330E+01    7.500000E+09  0.00400  3.510E-05    0   0.5212   age171_m42            0.0000     3.0648E-05    64.6804  -1.0000    87.0251
 16      0.1938     1.6821E+00    1.4623E+00    1.300000E+10  0.00400  2.005E-05    0   0.5034   age193_m42            0.0000     3.4311E-05    69.5337  -1.0000    83.9369
 17      0.0000     0.0000E+00    0.0000E+00    1.800000E+10  0.00400  1.525E-05    0   0.4967   age213_m42            0.0000     3.4671E-05    70.3088  -1.0000    83.1828
 18      0.0000     0.0000E+00    0.0000E+00    1.000000E+06  0.00800  1.238E-02    0   1.0000   age020_m52            0.0000     3.2186E-05    54.5940   1.8595    82.9619
 19      0.0000     0.0000E+00    0.0000E+00    3.160000E+06  0.00800  3.074E-02    0   0.9966   age045_m52            0.0000     3.1759E-05    54.0996   1.7723    83.8869
 20      0.0062     4.0128E-05    6.5441E-05    5.010000E+06  0.00800  2.668E-02    0   0.9443   age055_m52            0.0000     3.0131E-05    52.3290   1.5123    85.9542
 21      0.0000     0.0000E+00    0.0000E+00    6.610000E+06  0.00800  2.136E-02    0   0.9177   age061_m52            0.0000     2.8596E-05    52.8447   0.3037    90.8166
 22      0.0000     0.0000E+00    0.0000E+00    1.000000E+07  0.00800  1.215E-02    0   0.8827   age070_m52            0.0000     2.9301E-05    52.9417   1.0180    88.8505
 23      0.0000     0.0000E+00    0.0000E+00    1.445000E+07  0.00800  8.717E-03    0   0.8552   age078_m52            0.0000     2.9082E-05    51.9902   1.0998    88.6864
 24      0.0000     0.0000E+00    0.0000E+00    2.512000E+07  0.00800  5.592E-03    0   0.8162   age090_m52            0.0000     2.7928E-05    51.0014   0.7458    91.1122
 25      0.0000     0.0000E+00    0.0000E+00    4.000000E+07  0.00800  3.896E-03    0   0.7841   age104_m52            0.0000     2.6893E-05    49.3875   0.6227    92.5316
 26      0.0000     0.0000E+00    0.0000E+00    1.015200E+08  0.00800  2.148E-03    0   0.7226   age116_m52            0.0000     2.5777E-05    46.9844   0.5010    93.5755
 27      0.2607     4.5720E-02    5.2768E-02    2.861200E+08  0.00800  9.925E-04    0   0.6683   age125_m52            0.0000     2.3821E-05    42.6348  -0.0607    98.8431
 28      0.0000     0.0000E+00    0.0000E+00    9.047900E+08  0.00800  3.141E-04    0   0.6138   age135_m52            0.0000     2.2308E-05    40.4555  -0.9868   105.5893
 29      0.0000     0.0000E+00    0.0000E+00    1.434000E+09  0.00800  1.719E-04    0   0.5853   age139_m52            0.0000     2.5248E-05    54.6355  -1.0000    96.2598
 30      0.0000     0.0000E+00    0.0000E+00    2.500000E+09  0.00800  7.872E-05    0   0.5600   age150_m52            0.0000     3.0007E-05    62.6724  -1.0000    90.0303
 31      0.0000     0.0000E+00    0.0000E+00    4.250000E+09  0.00800  4.336E-05    0   0.5426   age158_m52            0.0000     3.0731E-05    63.7530  -1.0000    88.9178
 32      0.0000     0.0000E+00    0.0000E+00    6.250000E+09  0.00800  3.159E-05    0   0.5319   age166_m52            0.0000     3.5310E-05    68.9301  -1.0000    85.6419
 33      0.0000     0.0000E+00    0.0000E+00    1.300000E+10  0.00800  1.361E-05    0   0.5073   age193_m52            0.0000     4.8991E-05    80.3503  -1.0000    76.2114
 34      0.0000     0.0000E+00    0.0000E+00    1.800000E+10  0.00800  9.886E-06    0   0.4990   age213_m52            0.0000     5.4027E-05    82.1371  -1.0000    73.5832
 35      0.0000     0.0000E+00    0.0000E+00    1.000000E+06  0.02000  1.544E-02    0   1.0000   age020_m62            0.0000     3.2288E-05    54.7100   1.8558    83.1351
 36      0.0000     0.0000E+00    0.0000E+00    3.160000E+06  0.02000  3.762E-02    0   0.9858   age045_m62            0.0000     3.2191E-05    54.3599   1.7892    83.9853
 37      0.0000     0.0000E+00    0.0000E+00    5.010000E+06  0.02000  3.296E-02    0   0.9342   age055_m62            0.0000     2.8433E-05    50.0070   1.3511    88.5415
 38      0.0000     0.0000E+00    0.0000E+00    8.710000E+06  0.02000  1.154E-02    0   0.8861   age067_m62            0.0000     3.3075E-05    59.8355   0.6523    87.4735
 39      0.1509     3.4267E-03    5.0136E-03    1.445000E+07  0.02000  7.663E-03    0   0.8472   age078_m62            0.0000     2.9868E-05    54.5625   0.7125    89.8191
 40      0.0000     0.0000E+00    0.0000E+00    2.512000E+07  0.02000  4.532E-03    0   0.8099   age090_m62            0.0000     2.9669E-05    54.3051   0.7102    89.4095
 41      0.0000     0.0000E+00    0.0000E+00    5.500000E+07  0.02000  2.733E-03    0   0.7595   age110_m62            0.0000     2.7269E-05    49.9551   0.6165    91.6324
 42      0.0000     0.0000E+00    0.0000E+00    1.609000E+08  0.02000  1.369E-03    0   0.6985   age120_m62            0.0000     2.4962E-05    44.6026   0.3537    96.1769
 43      0.0000     0.0000E+00    0.0000E+00    2.861200E+08  0.02000  9.013E-04    0   0.6714   age125_m62            0.0000     2.3744E-05    40.5510  -0.0001   100.7192
 44     28.1796     9.7555E+00    1.0865E+01    5.088000E+08  0.02000  5.028E-04    0   0.6449   age130_m62            0.0000     2.2375E-05    38.3586  -0.4680   105.7848
 45      7.2185     5.1750E+00    5.5223E+00    9.047900E+08  0.02000  2.428E-04    0   0.6179   age135_m62            0.0000     2.2374E-05    41.4578  -1.0000   104.8723
 46      6.9959     9.6416E+00    9.8374E+00    1.434000E+09  0.02000  1.263E-04    0   0.5908   age139_m62            0.0000     2.5524E-05    52.3898  -1.0000    97.6777
 47      0.0000     0.0000E+00    0.0000E+00    2.500000E+09  0.02000  5.985E-05    0   0.5673   age150_m62            0.0000     3.1481E-05    63.0880  -1.0000    90.9907
 48      0.0822     4.3759E-01    4.1322E-01    4.250000E+09  0.02000  3.271E-05    0   0.5468   age158_m62            0.0000     3.9181E-05    70.6508  -1.0000    84.9026
 49      0.0000     0.0000E+00    0.0000E+00    1.000000E+10  0.02000  1.360E-05    0   0.5167   age181_m62            0.0000     5.1308E-05    77.8434  -1.0000    77.5728
 50      0.0000     0.0000E+00    0.0000E+00    1.800000E+10  0.02000  7.124E-06    0   0.5013   age213_m62            0.0000     6.0598E-05    81.3099  -1.0000    72.4003
 51      0.0000     0.0000E+00    0.0000E+00    1.000000E+06  0.05000  2.592E-02    0   0.9998   age020_m72            0.0000     3.2736E-05    55.4714   1.8595    82.9595
 52      0.0000     0.0000E+00    0.0000E+00    3.160000E+06  0.05000  4.845E-02    0   0.9577   age045_m72            0.0000     3.0605E-05    52.5613   1.6430    85.6348
 53      0.0000     0.0000E+00    0.0000E+00    5.010000E+06  0.05000  3.072E-02    0   0.9147   age055_m72            0.0000     3.0677E-05    54.2987   1.2565    87.2916
 54      0.2136     2.5553E-03    3.9174E-03    6.610000E+06  0.05000  1.455E-02    0   0.8877   age061_m72            0.0000     3.4743E-05    61.8122   0.7531    86.8449
 55      0.0000     0.0000E+00    0.0000E+00    1.000000E+07  0.05000  9.074E-03    0   0.8524   age070_m72            0.0000     3.0803E-05    54.0288   1.4361    87.0042
 56      0.0000     0.0000E+00    0.0000E+00    2.512000E+07  0.05000  4.250E-03    0   0.7902   age090_m72            0.0000     2.8747E-05    51.7640   1.1131    89.1131
 57      0.0000     0.0000E+00    0.0000E+00    4.000000E+07  0.05000  3.087E-03    0   0.7618   age104_m72            0.0000     2.7969E-05    50.9309   0.8828    90.5640
 58      0.9003     9.2180E-02    1.1296E-01    1.015200E+08  0.05000  1.700E-03    0   0.7096   age116_m72            0.0000     2.5496E-05    45.9040   0.5344    94.9785
 59     19.0368     4.4876E+00    5.1406E+00    2.861200E+08  0.05000  7.384E-04    0   0.6633   age125_m72            0.0000     2.2751E-05    39.1491  -0.1673   103.2930
 60      0.0000     0.0000E+00    0.0000E+00    5.088000E+08  0.05000  3.819E-04    0   0.6372   age130_m72            0.0000     2.2021E-05    39.6396  -0.7558   107.1040
 61     18.9681     1.9700E+01    2.0787E+01    9.047900E+08  0.05000  1.676E-04    0   0.6110   age135_m72            0.0000     2.5136E-05    50.3234  -1.0000   100.2863
 62      0.0000     0.0000E+00    0.0000E+00    1.434000E+09  0.05000  8.837E-05    0   0.5874   age139_m72            0.0000     3.1743E-05    63.1214  -1.0000    92.4375
 63      2.2241     9.1457E+00    8.8419E+00    2.500000E+09  0.05000  4.233E-05    0   0.5598   age150_m72            0.0000     3.9965E-05    70.2116  -1.0000    85.7160
 64      0.0000     0.0000E+00    0.0000E+00    6.250000E+09  0.05000  1.435E-05    0   0.5249   age166_m72            0.0000     5.5057E-05    79.7347  -1.0000    75.2295
 65      0.0000     0.0000E+00    0.0000E+00    1.300000E+10  0.05000  6.513E-06    0   0.5036   age193_m72            0.0000     6.7974E-05    84.0840  -1.0000    69.5684
 66      0.0000     0.0000E+00    0.0000E+00    1.800000E+10  0.05000  4.527E-06    0   0.4945   age213_m72            0.0000     7.6077E-05    86.2770  -1.0000    65.6592


## Synthesis Results - Average & Chains ##

# j      x_j: min, <> & last-chain-values for 1 ...  7 chains
  1      0.0000      0.1006      0.4068      0.8153      0.3056      0.1225      0.0734      0.3531      0.0518
  2      0.0000      0.1175      0.1738      0.1269      0.0000      0.2270      0.2041      0.6497      0.2570
  3      0.0000      0.1120      0.3008      0.0301      0.2505      0.1229      0.2288      0.3514      0.0000
  4      0.0000      0.1112      0.2695      0.3782      0.2478      0.1647      0.0000      0.5085      0.0000
  5      0.0000      0.0831      0.0000      0.0587      0.0187      0.1107      0.1318      0.5292      0.0000
  6      0.0000      0.1478      0.2187      0.3554      0.1434      0.2229      0.1360      0.0000      0.3337
  7      0.0000      0.1188      0.0000      0.2054      0.2085      0.5966      0.3497      0.0005      0.6519
  8      0.0000      0.1159      0.3250      0.0156      0.0534      0.3440      0.3588      0.1230      0.0786
  9      0.0000      0.0923      0.3002      0.0000      0.0805      0.0000      0.1534      0.0305      0.0510
 10      0.0000      0.1180      0.4291      0.0000      0.0724      0.1277      0.1748      0.2499      0.4192
 11      0.0000      0.1242      0.3205      0.0168      0.4395      0.6368      0.3331      0.0405      0.0800
 12      1.2416      0.0887      0.0833      0.1259      0.3728      0.1590      0.2299      0.0000      0.1942
 13     12.5568      0.1100      0.2186      0.0537      0.1642      0.0220      0.0000      0.7967      0.5124
 14      0.0000      0.0878      0.0196      0.1377      0.1449      0.3526      0.0129      0.0178      0.2168
 15      5.8986      0.1028      0.2335      0.5124      0.0000      0.0000      0.2175      0.0079      0.3371
 16      0.1938      0.0887      0.1355      0.3442      0.0806      0.0522      0.2109      0.0000      0.2338
 17      0.0000      0.0618      0.0000      0.2295      0.0000      0.0626      0.0000      0.0448      0.0000
 18      0.0000      0.0752      0.4179      0.1730      0.1904      0.4305      0.2746      0.0487      0.1921
 19      0.0000      0.0675      0.2460      0.0791      0.6226      0.2623      0.1061      0.0000      0.0131
 20      0.0062      0.1060      0.0527      0.3247      0.1021      0.0000      0.2950      0.5512      0.6466
 21      0.0000      0.1107      0.0923      0.4241      0.3302      0.2222      0.4128      0.0000      0.6345
 22      0.0000      0.1040      0.4587      0.1507      0.2750      0.1166      0.1456      0.5662      0.1836
 23      0.0000      0.1105      0.1151      0.1005      0.0000      0.2186      0.2153      0.2651      0.4912
 24      0.0000      0.0761      0.0715      0.0000      0.0078      0.4722      0.3589      0.0674      0.2206
 25      0.0000      0.0730      0.0000      0.1557      0.0194      0.2411      0.4559      0.4666      0.0000
 26      0.0000      0.0904      0.0000      0.0874      0.1781      0.2783      0.1906      0.2330      0.0425
 27      0.2607      0.1049      0.0740      0.2168      0.1880      0.6380      0.0000      0.0000      0.2094
 28      0.0000      0.0830      0.0778      0.4529      0.1517      0.0599      0.0000      0.0000      0.1421
 29      0.0000      0.0761      0.1978      0.3810      0.0000      0.0000      0.2256      0.3551      0.0000
 30      0.0000      0.1021      0.0000      0.0000      0.0000      0.0000      0.3254      0.0000      0.0689
 31      0.0000      0.1043      0.2814      0.0309      0.0000      0.2079      0.0372      0.0639      0.0319
 32      0.0000      0.1158      0.1229      0.6577      0.0000      0.0000      0.0000      0.2361      0.0535
 33      0.0000      0.0752      0.0870      0.0976      0.0187      0.0005      0.2233      0.0487      0.0000
 34      0.0000      0.0686      0.5427      0.0136      0.0270      0.2551      0.2901      0.0000      0.0873
 35      0.0000      0.0785      0.0000      0.0000      0.1073      0.3082      0.2730      0.2122      0.0000
 36      0.0000      0.1326      0.0017      0.1906      0.2601      0.1335      0.4276      0.1715      0.0000
 37      0.0000      0.1296      0.1354      0.0964      0.5441      0.5701      0.0875      0.1731      0.6450
 38      0.0000      0.1050      0.1790      0.1931      0.0996      0.1584      0.1720      0.1868      0.0813
 39      0.1509      0.1588      0.4309      0.3247      0.1648      0.3406      0.5503      0.4652      0.3347
 40      0.0000      0.1100      0.6890      0.2832      0.2954      0.0812      0.2119      0.1700      0.2689
 41      0.0000      0.1043      0.2077      0.1748      0.1081      0.0000      0.5684      0.3700      0.1774
 42      0.0000      0.1408      0.1724      0.1838      0.0000      0.3049      0.1618      0.5192      0.3841
 43      0.0000      0.0924      0.7689      0.0000      0.1608      0.0000      0.4328      0.0876      0.0000
 44     28.1796     36.6292     35.0358     33.7411     35.5320     34.1095     33.9309     34.7531     34.3912
 45      7.2185      0.1151      0.2725      0.4315      0.4605      0.2176      0.6802      0.1704      0.2959
 46      6.9959      0.0774      0.1560      0.0000      0.0000      0.0879      0.2093      0.4439      0.2083
 47      0.0000      0.0729      0.1115      0.0000      0.0000      0.0000      0.0880      0.0000      0.0591
 48      0.0822      0.0825      0.0000      0.1114      0.1659      0.2188      0.2046      0.0000      0.2931
 49      0.0000      0.0717      0.2354      0.3132      0.0000      0.0000      0.2501      0.2462      0.0600
 50      0.0000      0.1527      0.6301      0.1557      0.0000      0.6123      0.4623      0.0000      0.1271
 51      0.0000      0.0851      0.0000      0.3115      0.0000      0.0486      0.1080      0.1794      0.3104
 52      0.0000      0.0745      0.0000      0.0326      0.3948      0.0000      0.1388      0.0058      0.0393
 53      0.0000      0.0990      0.1155      0.0006      0.0708      0.2485      0.0774      0.1577      0.8835
 54      0.2136      0.0765      0.0000      0.0735      0.0826      0.1291      0.2552      0.0000      0.2676
 55      0.0000      0.0869      0.0552      0.3227      0.3670      0.2901      0.0000      0.0276      0.2469
 56      0.0000      0.1156      0.0881      0.6482      0.0000      0.3390      0.3888      0.0000      0.0549
 57      0.0000      0.1226      0.0917      0.2114      0.0000      0.5537      0.1154      0.1422      0.1726
 58      0.9003      0.1078      0.2791      0.1701      0.4220      0.1148      0.1108      0.3429      0.2863
 59     19.0368      0.1026      0.0959      0.0877      0.4477      0.0844      0.1575      0.0646      0.2322
 60      0.0000      0.1133      0.3070      0.9542      0.0000      0.4490      0.2814      0.0090      0.0000
 61     18.9681      0.1060      0.4100      0.3483      0.1314      0.3989      0.5286      0.1170      0.2045
 62      0.0000      0.1080      0.4533      0.5384      0.0000      0.0000      0.1839      0.0399      0.1940
 63      2.2241      0.0937      0.2595      0.2865      0.1812      0.3403      0.3097      0.0192      0.2137
 64      0.0000      0.0863      0.0180      0.1435      0.2475      0.5816      0.0000      0.5063      0.0000
 65      0.0000      0.1178      0.0921      0.8095      0.1611      0.1529      0.2639      0.0282      0.4398
 66      0.0000     65.2484     60.3948     60.4508     63.3332     60.7190     60.3616     62.1244     60.7778

# j      m_j: min, <> & last-chain-values for 1 ...  7 chains
  1  0.0000E+00  1.2730E-04  5.5003E-04  1.0968E-03  3.9908E-04  1.6490E-04  9.9336E-05  4.6928E-04  7.0023E-05
  2  0.0000E+00  4.0590E-05  6.4163E-05  4.6615E-05  0.0000E+00  8.3464E-05  7.5423E-05  2.3574E-04  9.4837E-05
  3  0.0000E+00  5.7950E-05  1.6626E-04  1.6541E-05  1.3370E-04  6.7669E-05  1.2667E-04  1.9096E-04  0.0000E+00
  4  0.0000E+00  5.4172E-05  1.4026E-04  1.9588E-04  1.2457E-04  8.5406E-05  0.0000E+00  2.6018E-04  0.0000E+00
  5  0.0000E+00  7.7157E-05  0.0000E+00  5.7916E-05  1.7951E-05  1.0932E-04  1.3084E-04  5.1587E-04  0.0000E+00
  6  0.0000E+00  2.2244E-04  3.5173E-04  5.6876E-04  2.2276E-04  3.5699E-04  2.1907E-04  0.0000E+00  5.3643E-04
  7  0.0000E+00  2.5608E-04  0.0000E+00  4.7056E-04  4.6368E-04  1.3680E-03  8.0640E-04  1.2133E-06  1.5006E-03
  8  0.0000E+00  3.4511E-04  1.0343E-03  4.9522E-05  1.6417E-04  1.0902E-03  1.1433E-03  3.8487E-04  2.4993E-04
  9  0.0000E+00  3.1474E-04  1.0936E-03  0.0000E+00  2.8320E-04  0.0000E+00  5.5956E-04  1.0929E-04  1.8584E-04
 10  0.0000E+00  5.2857E-04  2.0530E-03  0.0000E+00  3.3445E-04  6.0841E-04  8.3740E-04  1.1752E-03  2.0052E-03
 11  0.0000E+00  1.0458E-03  2.8836E-03  1.5059E-04  3.8184E-03  5.7054E-03  3.0008E-03  3.5777E-04  7.1934E-04
 12  3.6010E-01  1.1844E-03  1.1883E-03  1.7882E-03  5.1389E-03  2.2595E-03  3.2860E-03  0.0000E+00  2.7710E-03
 13  1.0265E+01  4.1430E-03  8.7922E-03  2.1508E-03  6.3782E-03  8.8020E-04  0.0000E+00  3.1505E-02  2.0605E-02
 14  0.0000E+00  1.1092E-02  2.6417E-03  1.8487E-02  1.8881E-02  4.7381E-02  1.7490E-03  2.3556E-03  2.9234E-02
 15  2.6330E+01  2.1140E-02  5.1280E-02  1.1198E-01  0.0000E+00  0.0000E+00  4.7846E-02  1.6988E-03  7.4022E-02
 16  1.4623E+00  3.0822E-02  5.0309E-02  1.2718E-01  2.8918E-02  1.9292E-02  7.8433E-02  0.0000E+00  8.6817E-02
 17  0.0000E+00  2.7843E-02  0.0000E+00  1.1001E-01  0.0000E+00  3.0025E-02  0.0000E+00  2.1196E-02  0.0000E+00
 18  0.0000E+00  8.4034E-05  4.9930E-04  2.0570E-04  2.1969E-04  5.1224E-04  3.2853E-04  5.7193E-05  2.2940E-04
 19  0.0000E+00  3.0275E-05  1.1795E-04  3.7722E-05  2.8835E-04  1.2528E-04  5.0950E-05  0.0000E+00  6.2874E-06
 20  6.5441E-05  5.1943E-05  2.7590E-05  1.6911E-04  5.1610E-05  0.0000E+00  1.5468E-04  2.8366E-04  3.3841E-04
 21  0.0000E+00  6.5833E-05  5.8677E-05  2.6818E-04  2.0266E-04  1.4066E-04  2.6271E-04  0.0000E+00  4.0312E-04
 22  0.0000E+00  1.0461E-04  4.9292E-04  1.6109E-04  2.8544E-04  1.2483E-04  1.5669E-04  5.9809E-04  1.9720E-04
 23  0.0000E+00  1.5012E-04  1.6698E-04  1.4507E-04  0.0000E+00  3.1587E-04  3.1283E-04  3.7818E-04  7.1254E-04
 24  0.0000E+00  1.5384E-04  1.5446E-04  0.0000E+00  1.6329E-05  1.0154E-03  7.7591E-04  1.4294E-04  4.7606E-04
 25  0.0000E+00  2.0347E-04  0.0000E+00  4.6105E-04  5.5721E-05  7.1475E-04  1.3592E-03  1.3655E-03  0.0000E+00
 26  0.0000E+00  4.2085E-04  0.0000E+00  4.3295E-04  8.5567E-04  1.3792E-03  9.4981E-04  1.1397E-03  2.1155E-04
 27  5.2768E-02  9.7784E-04  7.3653E-04  2.1488E-03  1.8082E-03  6.3290E-03  0.0000E+00  0.0000E+00  2.0854E-03
 28  0.0000E+00  2.2467E-03  2.2495E-03  1.3026E-02  4.2356E-03  1.7236E-03  0.0000E+00  0.0000E+00  4.1052E-03
 29  0.0000E+00  3.5868E-03  9.9634E-03  1.9093E-02  0.0000E+00  0.0000E+00  1.1378E-02  1.7581E-02  0.0000E+00
 30  0.0000E+00  1.0058E-02  0.0000E+00  0.0000E+00  0.0000E+00  0.0000E+00  3.4291E-02  0.0000E+00  7.2426E-03
 31  0.0000E+00  1.8074E-02  5.2082E-02  5.6890E-03  0.0000E+00  3.8323E-02  6.8917E-03  1.1629E-02  5.9116E-03
 32  0.0000E+00  2.6991E-02  3.0612E-02  1.6298E-01  0.0000E+00  0.0000E+00  0.0000E+00  5.7810E-02  1.3327E-02
 33  0.0000E+00  3.8822E-02  4.7992E-02  5.3546E-02  9.9592E-03  2.7284E-04  1.2330E-01  2.6379E-02  0.0000E+00
 34  0.0000E+00  4.7957E-02  4.0519E-01  1.0097E-02  1.9473E-02  1.8971E-01  2.1687E-01  0.0000E+00  6.5157E-02
 35  0.0000E+00  7.0341E-05  0.0000E+00  0.0000E+00  9.9270E-05  2.9409E-04  2.6186E-04  1.9983E-04  0.0000E+00
 36  0.0000E+00  4.8114E-05  6.5652E-07  7.3517E-05  9.7375E-05  5.1552E-05  1.6596E-04  6.5347E-05  0.0000E+00
 37  0.0000E+00  5.0865E-05  5.6773E-05  4.0203E-05  2.2032E-04  2.3804E-04  3.6723E-05  7.1333E-05  2.7034E-04
 38  0.0000E+00  1.1161E-04  2.0325E-04  2.1825E-04  1.0920E-04  1.7922E-04  1.9562E-04  2.0854E-04  9.2275E-05
 39  5.0136E-03  2.4306E-04  7.0472E-04  5.2826E-04  2.6023E-04  5.5476E-04  9.0113E-04  7.4778E-04  5.4711E-04
 40  0.0000E+00  2.7209E-04  1.8212E-03  7.4491E-04  7.5405E-04  2.1374E-04  5.6099E-04  4.4180E-04  7.1066E-04
 41  0.0000E+00  4.0111E-04  8.5395E-04  7.1492E-04  4.2933E-04  0.0000E+00  2.3398E-03  1.4950E-03  7.2909E-04
 42  0.0000E+00  9.9430E-04  1.3008E-03  1.3805E-03  0.0000E+00  2.2916E-03  1.2230E-03  3.8516E-03  2.8978E-03
 43  0.0000E+00  9.5264E-04  8.4722E-03  0.0000E+00  1.7109E-03  0.0000E+00  4.7752E-03  9.4863E-04  0.0000E+00
 44  1.0865E+01  6.5037E-01  6.6469E-01  6.3692E-01  6.5105E-01  6.4449E-01  6.4462E-01  6.4815E-01  6.5226E-01
 45  5.5223E+00  4.0540E-03  1.0257E-02  1.6161E-02  1.6743E-02  8.1585E-03  2.5639E-02  6.3047E-03  1.1134E-02
 46  9.8374E+00  5.0152E-03  1.0795E-02  0.0000E+00  0.0000E+00  6.0573E-03  1.4499E-02  3.0193E-02  1.4406E-02
 47  0.0000E+00  9.5711E-03  1.5627E-02  0.0000E+00  0.0000E+00  0.0000E+00  1.2360E-02  0.0000E+00  8.2867E-03
 48  4.1322E-01  1.9085E-02  0.0000E+00  2.7398E-02  3.9625E-02  5.3875E-02  5.0665E-02  0.0000E+00  7.2449E-02
 49  0.0000E+00  3.7722E-02  1.3228E-01  1.7513E-01  0.0000E+00  0.0000E+00  1.4073E-01  1.3599E-01  3.3681E-02
 50  0.0000E+00  1.4877E-01  6.5588E-01  1.6129E-01  0.0000E+00  6.3468E-01  4.8180E-01  0.0000E+00  1.3223E-01
 51  0.0000E+00  4.5430E-05  0.0000E+00  1.7681E-04  0.0000E+00  2.7608E-05  6.1720E-05  1.0063E-04  1.7702E-04
 52  0.0000E+00  2.0373E-05  0.0000E+00  9.4879E-06  1.1149E-04  0.0000E+00  4.0629E-05  1.6589E-06  1.1479E-05
 53  0.0000E+00  4.0791E-05  5.0853E-05  2.7752E-07  3.0100E-05  1.0902E-04  3.4142E-05  6.8295E-05  3.8897E-04
 54  3.9174E-03  6.4572E-05  0.0000E+00  6.6030E-05  7.2025E-05  1.1605E-04  2.3064E-04  0.0000E+00  2.4141E-04
 55  0.0000E+00  1.1296E-04  7.6720E-05  4.4612E-04  4.9250E-04  4.0152E-04  0.0000E+00  3.7716E-05  3.4299E-04
 56  0.0000E+00  2.9756E-04  2.4218E-04  1.7736E-03  0.0000E+00  9.2859E-04  1.0708E-03  0.0000E+00  1.5082E-04
 57  0.0000E+00  4.1884E-04  3.3458E-04  7.6792E-04  0.0000E+00  2.0129E-03  4.2194E-04  5.1017E-04  6.2975E-04
 58  1.1296E-01  6.2266E-04  1.7231E-03  1.0447E-03  2.5165E-03  7.0569E-04  6.8526E-04  2.0810E-03  1.7671E-03
 59  5.1406E+00  1.2757E-03  1.2746E-03  1.1593E-03  5.7456E-03  1.1167E-03  2.0955E-03  8.4364E-04  3.0844E-03
 60  0.0000E+00  2.6162E-03  7.5778E-03  2.3432E-02  0.0000E+00  1.1036E-02  6.9547E-03  2.1756E-04  0.0000E+00
 61  2.0787E+01  5.3503E-03  2.2108E-02  1.8686E-02  6.8448E-03  2.1422E-02  2.8546E-02  6.2027E-03  1.1022E-02
 62  0.0000E+00  9.9401E-03  4.4571E-02  5.2670E-02  0.0000E+00  0.0000E+00  1.8108E-02  3.8587E-03  1.9065E-02
 63  8.8419E+00  1.7152E-02  5.0758E-02  5.5766E-02  3.4226E-02  6.6295E-02  6.0662E-02  3.6926E-03  4.1788E-02
 64  0.0000E+00  4.3687E-02  9.7139E-03  7.7234E-02  1.2933E-01  3.1338E-01  0.0000E+00  2.6931E-01  0.0000E+00
 65  0.0000E+00  1.2608E-01  1.0531E-01  9.2116E-01  1.7789E-01  1.7414E-01  3.0229E-01  3.1746E-02  5.0284E-01
 66  0.0000E+00  9.8665E+01  9.7580E+01  9.7182E+01  9.8829E+01  9.7707E+01  9.7663E+01  9.8675E+01  9.8170E+01

# AV, chi2 & Mass for <> & i_chain = 1 ...  7 solutions
AV      -0.9869     -0.9980     -1.0000     -1.0000     -1.0000     -1.0000     -1.0000     -1.0000     -1.0000
chi2 2.2375E-05  6.9398E-05  6.2316E-05  6.3650E-05  6.4903E-05  6.2339E-05  6.2282E-05  6.3334E-05  6.1614E-05
Mass 1.2765E-14  2.7309E-13  2.5490E-13  2.5618E-13  2.6392E-13  2.5593E-13  2.5454E-13  2.5929E-13  2.5497E-13
-151.59                                  [v0_min (km/s) before EX0s...]
  87.03                                  [vd_min (km/s) before EX0s...]


## Synthetic spectrum (Best Model) ##l_obs f_obs f_syn wei
 3478    [Nl_obs]
 3741.00    1.35533   0.59332    0.000
 3742.00    1.21560   0.56455    0.000
 3743.00    0.78836   0.53145    0.000
 3744.00    0.63064   0.49270    0.000
 3745.00    0.62996   0.44801    0.047
 3746.00    0.69113   0.40021    0.046
 3747.00    0.78370   0.36423    0.043
 3748.00    0.51541   0.36276    0.041
 3749.00    0.08844   0.40265    0.039
 3750.00    0.04876   0.46749    0.039
 3751.00    0.15530   0.53613    0.039
 3752.00    0.18867   0.59581    0.039
 3753.00    0.19857   0.63549    0.039
 3754.00    0.32206   0.64327    0.039
 3755.00    0.47598   0.62106    0.039
 3756.00    0.64327   0.59216    0.039
 3757.00    0.81349   0.58172    0.039
 3758.00    0.49211   0.59295    0.038
 3759.00    0.08491   0.61146    0.038
 3760.00   -0.11026   0.62460    0.000
 3761.00   -0.27727   0.62801    0.000
 3762.00   -0.10412   0.62173    0.000
 3763.00    0.10099   0.60484    0.038
 3764.00   -0.00042   0.57532    0.000
 3765.00   -0.11952   0.53741    0.000
 3766.00   -0.05661   0.49965    0.000
 3767.00    0.01122   0.46630    0.036
 3768.00    0.15243   0.44472    0.037
 3769.00    0.28851   0.44976    0.038
 3770.00    0.29987   0.48475    0.037
 3771.00    0.31882   0.53181    0.037
 3772.00    0.43713   0.57266    0.037
 3773.00    0.55789   0.60612    0.037
 3774.00    0.70020   0.63998    0.037
 3775.00    0.81122   0.67686    0.038
 3776.00    0.71938   0.71391    0.039
 3777.00    0.60990   0.74862    0.040
 3778.00    0.41113   0.77764    0.037
 3779.00    0.26989   0.79635    0.035
 3780.00    0.36416   0.80551    0.036
 3781.00    0.42046   0.81002    0.036
 3782.00    0.34800   0.80689    0.036
 3783.00    0.30715   0.78587    0.036
 3784.00    0.35671   0.74797    0.037
 3785.00    0.36572   0.70980    0.037
 3786.00    0.27567   0.68371    0.037
 3787.00    0.27627   0.66881    0.038
 3788.00    0.46790   0.66004    0.041
 3789.00    0.71553   0.65055    0.043
 3790.00    1.06573   0.63012    0.041
 3791.00    1.21764   0.59314    0.040
 3792.00    1.05211   0.54491    0.039
 3793.00    0.88525   0.49437    0.039
 3794.00    0.71653   0.44580    0.039
 3795.00    0.54298   0.40509    0.038
 3796.00    0.36346   0.38838    0.036
 3797.00    0.31998   0.41051    0.035
 3798.00    0.42471   0.46621    0.037
 3799.00    0.38234   0.53483    0.037
 3800.00    0.19861   0.59962    0.036
 3801.00    0.07408   0.65245    0.036
 3802.00   -0.00027   0.68749    0.000
 3803.00    0.00171   0.70336    0.037
 3804.00    0.06064   0.70922    0.037
 3805.00    0.29397   0.72142    0.037
 3806.00    0.64164   0.75029    0.039
 3807.00    0.78282   0.78926    0.039
 3808.00    0.80551   0.82013    0.040
 3809.00    0.76972   0.82730    0.041
 3810.00    0.70470   0.80750    0.041
 3811.00    0.65578   0.77267    0.043
 3812.00    0.61381   0.74346    0.046
 3813.00    0.69821   0.73504    0.042
 3814.00    0.82947   0.74895    0.037
 3815.00    0.88543   0.77234    0.036
 3816.00    0.91770   0.78350    0.037
 3817.00    0.81368   0.77068    0.043
 3818.00    0.67391   0.74741    0.053
 3819.00    0.80094   0.73617    0.047
 3820.00    0.98514   0.73681    0.040
 3821.00    0.96996   0.72675    0.039
 3822.00    0.92094   0.69506    0.039
 3823.00    0.73747   0.65655    0.037
 3824.00    0.53674   0.62791    0.036
 3825.00    0.59709   0.60935    0.035
 3826.00    0.68088   0.59337    0.035
 3827.00    0.63242   0.57522    0.040
 3828.00    0.57686   0.55032    0.047
 3829.00    0.47805   0.51234    0.041
 3830.00    0.37890   0.46148    0.036
 3831.00    0.32375   0.40929    0.036
 3832.00    0.27480   0.37022    0.036
 3833.00    0.36377   0.35398    0.036
 3834.00    0.45960   0.36256    0.036
 3835.00    0.64069   0.38861    0.038
 3836.00    0.80621   0.42189    0.040
 3837.00    0.84021   0.45876    0.047
 3838.00    0.85269   0.50185    0.054
 3839.00    0.72979   0.55354    0.045
 3840.00    0.64402   0.60937    0.039
 3841.00    0.74141   0.65846    0.038
 3842.00    0.78248   0.69374    0.038
 3843.00    0.59805   0.71817    0.038
 3844.00    0.44676   0.73950    0.039
 3845.00    0.40568   0.76025    0.039
 3846.00    0.41653   0.77426    0.040
 3847.00    0.57326   0.77890    0.000
 3848.00    0.72732   0.78527    0.000
 3849.00    0.87498   0.80359    0.000
 3850.00    0.93506   0.82609    0.000
 3851.00    0.81351   0.83787    0.000
 3852.00    0.73586   0.83493    0.000
 3853.00    0.73743   0.82434    0.000
 3854.00    0.78575   0.81570    0.000
 3855.00    0.90778   0.81167    0.000
 3856.00    0.92784   0.80637    0.000
 3857.00    0.80671   0.80098    0.000
 3858.00    0.73994   0.80868    0.000
 3859.00    0.73938   0.83331    0.000
 3860.00    0.81005   0.86060    0.000
 3861.00    0.95724   0.87615    0.000
 3862.00    1.10317   0.87807    0.000
 3863.00    1.24791   0.87278    0.000
 3864.00    1.21876   0.86879    0.000
 3865.00    1.04436   0.87078    0.000
 3866.00    0.77639   0.87452    0.000
 3867.00    0.43961   0.86997    0.000
 3868.00    0.26537   0.84994    0.000
 3869.00    0.19612   0.81740    0.000
 3870.00    0.29415   0.78711    0.000
 3871.00    0.48672   0.77667    0.000
 3872.00    0.75782   0.78782    0.000
 3873.00    1.06754   0.80067    0.000
 3874.00    0.96707   0.79238    0.000
 3875.00    0.69218   0.75971    0.000
 3876.00    0.42569   0.72294    0.000
 3877.00    0.16227   0.70408    0.000
 3878.00    0.12020   0.69965    0.000
 3879.00    0.14637   0.68901    0.000
 3880.00    0.17092   0.66543    0.000
 3881.00    0.19504   0.63630    0.038
 3882.00    0.28214   0.60116    0.035
 3883.00    0.38241   0.55282    0.036
 3884.00    0.21358   0.49514    0.036
 3885.00    0.00038   0.44240    0.000
 3886.00    0.00916   0.40747    0.036
 3887.00    0.04543   0.40119    0.036
 3888.00    0.30849   0.42965    0.036
 3889.00    0.59097   0.48313    0.037
 3890.00    0.21082   0.53979    0.037
 3891.00   -0.20236   0.58350    0.000
 3892.00   -0.03301   0.61317    0.000
 3893.00    0.14536   0.63755    0.036
 3894.00    0.28953   0.66369    0.036
 3895.00    0.42773   0.68885    0.036
 3896.00    0.44367   0.70658    0.036
 3897.00    0.46527   0.72025    0.036
 3898.00    0.55389   0.74021    0.035
 3899.00    0.60798   0.76650    0.034
 3900.00    0.38084   0.78621    0.032
 3901.00    0.19875   0.79196    0.031
 3902.00    0.29185   0.78895    0.031
 3903.00    0.41077   0.78586    0.031
 3904.00    0.65393   0.79371    0.030
 3905.00    0.82589   0.82077    0.030
 3906.00    0.71902   0.85991    0.030
 3907.00    0.62623   0.89504    0.031
 3908.00    0.57929   0.91720    0.032
 3909.00    0.54342   0.92573    0.032
 3910.00    0.53804   0.92136    0.033
 3911.00    0.54382   0.90823    0.033
 3912.00    0.57592   0.89611    0.033
 3913.00    0.67194   0.89002    0.034
 3914.00    0.89840   0.88532    0.035
 3915.00    0.96248   0.87792    0.036
 3916.00    0.73816   0.86799    0.036
 3917.00    0.61225   0.85716    0.036
 3918.00    0.63924   0.84928    0.036
 3919.00    0.70517   0.84879    0.036
 3920.00    0.82423   0.85543    0.037
 3921.00    0.73855   0.86331    0.037
 3922.00    0.40692   0.86428    0.035
 3923.00    0.32130   0.85167    0.035
 3924.00    0.49621   0.82478    0.036
 3925.00    0.51403   0.78738    0.037
 3926.00    0.38509   0.74260    0.036
 3927.00    0.65013   0.69159    0.037
 3928.00    1.23963   0.63286    0.039
 3929.00    1.25406   0.56367    0.040
 3930.00    0.85160   0.48871    0.039
 3931.00    0.44145   0.43027    0.038
 3932.00    0.02641   0.41937    0.037
 3933.00    0.12377   0.46607    0.037
 3934.00    0.50629   0.54722    0.038
 3935.00    0.69668   0.63016    0.039
 3936.00    0.79405   0.69829    0.039
 3937.00    0.88454   0.75010    0.039
 3938.00    0.97215   0.78525    0.039
 3939.00    1.01557   0.80204    0.039
 3940.00    1.04318   0.80364    0.039
 3941.00    0.84313   0.79961    0.039
 3942.00    0.57427   0.80311    0.037
 3943.00    0.52720   0.82056    0.037
 3944.00    0.53584   0.84086    0.037
 3945.00    0.79526   0.84778    0.037
 3946.00    1.10581   0.84248    0.037
 3947.00    1.21638   0.83868    0.038
 3948.00    1.29493   0.84072    0.038
 3949.00    1.23051   0.84140    0.039
 3950.00    1.14903   0.83857    0.039
 3951.00    0.98055   0.83823    0.038
 3952.00    0.80499   0.83793    0.037
 3953.00    0.75887   0.82544    0.037
 3954.00    0.71870   0.80104    0.037
 3955.00    0.65453   0.78093    0.036
 3956.00    0.59501   0.77206    0.036
 3957.00    0.79446   0.76032    0.037
 3958.00    0.97498   0.72896    0.037
 3959.00    0.79702   0.67964    0.037
 3960.00    0.61762   0.62870    0.000
 3961.00    0.42207   0.58487    0.000
 3962.00    0.24932   0.54076    0.000
 3963.00    0.25578   0.48524    0.000
 3964.00    0.26562   0.41619    0.000
 3965.00    0.29550   0.34336    0.000
 3966.00    0.36918   0.28468    0.000
 3967.00    0.64848   0.25782    0.000
 3968.00    0.83107   0.27042    0.000
 3969.00    0.64309   0.31566    0.000
 3970.00    0.51986   0.37781    0.000
 3971.00    0.60362   0.44317    0.000
 3972.00    0.76104   0.50564    0.000
 3973.00    1.11796   0.56299    0.000
 3974.00    1.34793   0.61388    0.000
 3975.00    1.28312   0.66026    0.000
 3976.00    1.09750   0.70503    0.000
 3977.00    0.66921   0.74538    0.000
 3978.00    0.44312   0.77368    0.000
 3979.00    0.57069   0.78676    0.000
 3980.00    0.56748   0.79245    0.000
 3981.00    0.36407   0.80253    0.039
 3982.00    0.48230   0.82055    0.039
 3983.00    1.03311   0.84139    0.041
 3984.00    1.26013   0.86020    0.041
 3985.00    1.10370   0.87715    0.040
 3986.00    1.03161   0.89190    0.039
 3987.00    1.04759   0.90177    0.039
 3988.00    0.93171   0.90935    0.039
 3989.00    0.69437   0.92104    0.038
 3990.00    0.70149   0.93624    0.037
 3991.00    0.90707   0.94643    0.038
 3992.00    0.96132   0.94452    0.038
 3993.00    0.90744   0.93120    0.037
 3994.00    0.90039   0.91385    0.036
 3995.00    0.92268   0.90395    0.036
 3996.00    1.01552   0.91195    0.036
 3997.00    1.14701   0.93631    0.037
 3998.00    1.07639   0.96189    0.037
 3999.00    0.90949   0.97593    0.037
 4000.00    0.67942   0.97698    0.036
 4001.00    0.42339   0.96500    0.035
 4002.00    0.43326   0.93962    0.035
 4003.00    0.53651   0.91387    0.035
 4004.00    0.63234   0.90982    0.036
 4005.00    0.72598   0.93218    0.036
 4006.00    0.66039   0.96268    0.036
 4007.00    0.55568   0.98326    0.035
 4008.00    0.62273   0.99076    0.035
 4009.00    0.72392   0.99021    0.035
 4010.00    0.67516   0.98716    0.035
 4011.00    0.60309   0.98651    0.035
 4012.00    0.52030   0.99018    0.035
 4013.00    0.43627   0.99546    0.034
 4014.00    0.62242   0.99827    0.035
 4015.00    0.82946   1.00019    0.035
 4016.00    0.64416   1.00755    0.035
 4017.00    0.44234   1.01920    0.035
 4018.00    0.71452   1.02468    0.035
 4019.00    0.99415   1.01824    0.036
 4020.00    1.41081   1.00423    0.037
 4021.00    1.79101   0.98947    0.037
 4022.00    1.52834   0.98086    0.037
 4023.00    1.25722   0.98592    0.036
 4024.00    0.89511   1.00331    0.037
 4025.00    0.59222   1.01795    0.037
 4026.00    0.73884   1.01349    0.037
 4027.00    0.86211   0.98571    0.036
 4028.00    0.85072   0.94598    0.037
 4029.00    0.82401   0.91353    0.037
 4030.00    0.72713   0.90047    0.036
 4031.00    0.72899   0.90660    0.036
 4032.00    1.10121   0.92713    0.036
 4033.00    1.30875   0.95770    0.036
 4034.00    1.00000   0.99235    0.036
 4035.00    0.82542   1.02141    0.035
 4036.00    1.00779   1.03523    0.036
 4037.00    1.13178   1.03177    0.037
 4038.00    1.12249   1.01954    0.037
 4039.00    1.16062   1.00948    0.037
 4040.00    1.29253   1.00044    0.038
 4041.00    1.26477   0.97830    0.038
 4042.00    0.96195   0.93806    0.038
 4043.00    0.84268   0.90137    0.038
 4044.00    1.00028   0.89782    0.037
 4045.00    1.10026   0.92902    0.037
 4046.00    1.12384   0.96805    0.038
 4047.00    1.18282   0.99323    0.039
 4048.00    1.28311   1.00230    0.039
 4049.00    1.31395   0.99865    0.052
 4050.00    1.27330   0.98455    0.162
 4051.00    1.28642   0.96551   -1.000
 4052.00    1.34837   0.94976   -1.000
 4053.00    1.36748   0.94172   -1.000
 4054.00    1.35231   0.93842   -1.000
 4055.00    1.24683   0.93667   -1.000
 4056.00    1.07775   0.94078   -1.000
 4057.00    0.95035   0.95383   -1.000
 4058.00    0.84871   0.96500   -1.000
 4059.00    0.76570   0.95670   -1.000
 4060.00    0.69274   0.92642   -1.000
 4061.00    0.73710   0.89562   -1.000
 4062.00    0.83645   0.88796   -1.000
 4063.00    0.80641   0.90149   -1.000
 4064.00    0.72410   0.91729   -1.000
 4065.00    0.79856   0.92898   -1.000
 4066.00    0.92708   0.94159   -1.000
 4067.00    1.00184   0.94888   -1.000
 4068.00    1.06100   0.93839   -1.000
 4069.00    0.92041   0.91702   -1.000
 4070.00    0.73184   0.90694   -1.000
 4071.00    0.79559   0.91350   -1.000
 4072.00    0.90822   0.91654   -1.000
 4073.00    0.81607   0.89666   -1.000
 4074.00    0.69305   0.85871   -1.000
 4075.00    0.56962   0.82834    0.072
 4076.00    0.44614   0.82838    0.034
 4077.00    0.59637   0.85836    0.034
 4078.00    0.76665   0.89699    0.034
 4079.00    0.93787   0.92115    0.035
 4080.00    1.10912   0.92113    0.035
 4081.00    0.99005   0.90328    0.035
 4082.00    0.87063   0.88235    0.035
 4083.00    0.79875   0.87106    0.035
 4084.00    0.73594   0.87402    0.034
 4085.00    0.82265   0.88609    0.034
 4086.00    0.89152   0.89568    0.035
 4087.00    0.77687   0.89350    0.034
 4088.00    0.70058   0.87902    0.033
 4089.00    0.90577   0.85815    0.034
 4090.00    1.08483   0.83687    0.035
 4091.00    1.11731   0.81555    0.035
 4092.00    1.15357   0.78843    0.000
 4093.00    1.20680   0.75182    0.000
 4094.00    1.17500   0.71032    0.000
 4095.00    0.83091   0.66987    0.000
 4096.00    0.58793   0.62842    0.000
 4097.00    0.65595   0.57912    0.000
 4098.00    0.70236   0.52347    0.000
 4099.00    0.69231   0.47979    0.000
 4100.00    0.70914   0.47151    0.000
 4101.00    0.78634   0.50423    0.000
 4102.00    0.82666   0.56111    0.000
 4103.00    0.79525   0.62016    0.000
 4104.00    0.76356   0.66803    0.000
 4105.00    0.73140   0.70092    0.000
 4106.00    0.77776   0.72114    0.000
 4107.00    0.94083   0.73441    0.000
 4108.00    0.95839   0.74765    0.000
 4109.00    0.78579   0.76606    0.000
 4110.00    0.82551   0.79065    0.000
 4111.00    1.10960   0.81846    0.000
 4112.00    1.17843   0.84520    0.000
 4113.00    1.02874   0.86655    0.035
 4114.00    1.03490   0.87739    0.035
 4115.00    1.18060   0.87455    0.036
 4116.00    1.18035   0.86372    0.036
 4117.00    1.06496   0.85742    0.035
 4118.00    0.84622   0.86094    0.035
 4119.00    0.55575   0.86810    0.035
 4120.00    0.69073   0.87408    0.051
 4121.00    1.08460   0.88225    0.200
 4122.00    1.13730   0.89411   -1.000
 4123.00    1.00876   0.90218   -1.000
 4124.00    0.88201   0.89843   -1.000
 4125.00    0.75608   0.88502   -1.000
 4126.00    0.64429   0.87184   -1.000
 4127.00    0.53811   0.86454   -1.000
 4128.00    0.59490   0.85895    0.091
 4129.00    0.70685   0.85044    0.039
 4130.00    0.75770   0.84420    0.034
 4131.00    0.79116   0.85038    0.033
 4132.00    0.75214   0.87169    0.033
 4133.00    0.69611   0.90021    0.033
 4134.00    0.68878   0.92519    0.033
 4135.00    0.69064   0.94253    0.033
 4136.00    0.72976   0.95519    0.033
 4137.00    0.77432   0.96336    0.033
 4138.00    0.85178   0.95975    0.033
 4139.00    0.93273   0.93713    0.034
 4140.00    1.09784   0.90026    0.033
 4141.00    1.26878   0.86928    0.033
 4142.00    1.26807   0.86431    0.034
 4143.00    1.26143   0.88469    0.035
 4144.00    1.27042   0.91073    0.034
 4145.00    1.27242   0.92504    0.034
 4146.00    1.04254   0.92462    0.034
 4147.00    0.83218   0.91704    0.034
 4148.00    0.92365   0.91129    0.033
 4149.00    1.00535   0.90961    0.033
 4150.00    0.99063   0.90690    0.033
 4151.00    0.97998   0.89886    0.033
 4152.00    0.99826   0.88837    0.033
 4153.00    1.00902   0.88220    0.034
 4154.00    0.97876   0.88433    0.033
 4155.00    0.94800   0.89453    0.033
 4156.00    0.91504   0.90928    0.033
 4157.00    0.86663   0.92234    0.033
 4158.00    0.76263   0.92966    0.033
 4159.00    0.68250   0.93381    0.032
 4160.00    0.67440   0.93912    0.032
 4161.00    0.77606   0.94482    0.032
 4162.00    1.15957   0.94703    0.033
 4163.00    1.43326   0.94357    0.034
 4164.00    1.46439   0.93562    0.034
 4165.00    1.40255   0.92858    0.034
 4166.00    1.16261   0.92694    0.034
 4167.00    0.98365   0.92479    0.034
 4168.00    0.90660   0.90917    0.034
 4169.00    0.84825   0.87708    0.034
 4170.00    0.81731   0.84343    0.033
 4171.00    0.87749   0.82789    0.033
 4172.00    1.05502   0.83522    0.034
 4173.00    0.98949   0.85150    0.034
 4174.00    0.64812   0.86004    0.033
 4175.00    0.51638   0.85839    0.033
 4176.00    0.59444   0.85800    0.033
 4177.00    0.71983   0.86762    0.034
 4178.00    0.88699   0.88166    0.034
 4179.00    0.96519   0.88940    0.034
 4180.00    0.97421   0.89051    0.033
 4181.00    0.97370   0.89320    0.033
 4182.00    0.96667   0.90007    0.033
 4183.00    0.90580   0.90339    0.033
 4184.00    0.81265   0.89624    0.034
 4185.00    0.75367   0.88545    0.034
 4186.00    0.71255   0.88500    0.033
 4187.00    0.85463   0.89661    0.034
 4188.00    1.07981   0.90982    0.034
 4189.00    0.86084   0.92025    0.034
 4190.00    0.46856   0.93158    0.034
 4191.00    0.54963   0.94033    0.034
 4192.00    0.78792   0.93551    0.035
 4193.00    0.65457   0.91482    0.034
 4194.00    0.41765   0.88770    0.034
 4195.00    0.55706   0.86394    0.034
 4196.00    0.78281   0.84949    0.034
 4197.00    0.91279   0.84723    0.034
 4198.00    1.02517   0.85245    0.034
 4199.00    0.99947   0.85650    0.034
 4200.00    0.95425   0.85862    0.034
 4201.00    0.90120   0.86414    0.033
 4202.00    0.84736   0.87457    0.033
 4203.00    0.70702   0.88814    0.033
 4204.00    0.56104   0.90297    0.032
 4205.00    0.51718   0.91522    0.032
 4206.00    0.47712   0.92047    0.032
 4207.00    0.86112   0.91969    0.032
 4208.00    1.22202   0.91969    0.033
 4209.00    0.90397   0.92456    0.033
 4210.00    0.61958   0.92836    0.032
 4211.00    0.82526   0.92020    0.033
 4212.00    1.00577   0.89810    0.033
 4213.00    0.94813   0.87639    0.033
 4214.00    0.90336   0.87411    0.032
 4215.00    0.94703   0.89391    0.032
 4216.00    0.99460   0.91995    0.031
 4217.00    1.06286   0.93743    0.032
 4218.00    1.04224   0.94316    0.032
 4219.00    0.64198   0.93760    0.031
 4220.00    0.36570   0.91892    0.031
 4221.00    0.52623   0.88603    0.031
 4222.00    0.62880   0.84139    0.031
 4223.00    0.55975   0.79429    0.031
 4224.00    0.53141   0.76441    0.030
 4225.00    0.60584   0.77224    0.030
 4226.00    0.73876   0.81733    0.030
 4227.00    0.99880   0.87361    0.030
 4228.00    1.12591   0.91143    0.030
 4229.00    1.00231   0.91807    0.030
 4230.00    0.94301   0.90045    0.030
 4231.00    0.98954   0.87721    0.029
 4232.00    1.00229   0.86340    0.029
 4233.00    0.96629   0.86020    0.030
 4234.00    0.94404   0.86219    0.030
 4235.00    0.93924   0.86635    0.029
 4236.00    1.02925   0.87179    0.029
 4237.00    1.22536   0.87956    0.028
 4238.00    1.21744   0.89138    0.028
 4239.00    1.00821   0.90510    0.028
 4240.00    0.89050   0.91687    0.028
 4241.00    0.85245   0.92554    0.029
 4242.00    0.88555   0.92829    0.029
 4243.00    0.97320   0.91922    0.029
 4244.00    0.96199   0.89922    0.029
 4245.00    0.88414   0.87886    0.029
 4246.00    0.93905   0.86551    0.029
 4247.00    1.07232   0.85723    0.030
 4248.00    1.17882   0.85322    0.031
 4249.00    1.27154   0.85727    0.032
 4250.00    1.32412   0.86650    0.032
 4251.00    1.35880   0.87181    0.032
 4252.00    1.22444   0.87309    0.031
 4253.00    1.02527   0.87921    0.031
 4254.00    0.76381   0.89048    0.030
 4255.00    0.48205   0.89420    0.030
 4256.00    0.38696   0.88106    0.029
 4257.00    0.34284   0.85792    0.029
 4258.00    0.57572   0.84264    0.029
 4259.00    0.87067   0.84918    0.030
 4260.00    1.09560   0.87616    0.030
 4261.00    1.30801   0.90891    0.031
 4262.00    1.28402   0.93325    0.031
 4263.00    1.22770   0.94351    0.031
 4264.00    1.02800   0.93949    0.031
 4265.00    0.81430   0.92327    0.030
 4266.00    0.85222   0.89836    0.030
 4267.00    0.90552   0.86693    0.030
 4268.00    0.83126   0.83134    0.031
 4269.00    0.75348   0.80097    0.031
 4270.00    0.65696   0.78795    0.030
 4271.00    0.56537   0.79355    0.029
 4272.00    0.60418   0.80981    0.029
 4273.00    0.64926   0.83268    0.029
 4274.00    0.78050   0.86089    0.030
 4275.00    0.85818   0.88658    0.031
 4276.00    0.44927   0.89912    0.031
 4277.00    0.15095   0.89577    0.031
 4278.00    0.58937   0.88342    0.031
 4279.00    0.94148   0.87125    0.031
 4280.00    0.84678   0.86401    0.031
 4281.00    0.73575   0.86131    0.031
 4282.00    0.55657   0.85976   -2.000
 4283.00    0.40803   0.85591   -2.000
 4284.00    0.36529   0.84737   -2.000
 4285.00    0.41144   0.83102   -2.000
 4286.00    0.71600   0.80572   -2.000
 4287.00    1.03215   0.78082   -2.000
 4288.00    1.37704   0.77389   -2.000
 4289.00    1.55669   0.79139   -2.000
 4290.00    1.38310   0.81804   -2.000
 4291.00    1.29578   0.83329   -2.000
 4292.00    1.36862   0.83248   -2.000
 4293.00    1.23581   0.82399   -2.000
 4294.00    0.76948   0.81207   -2.000
 4295.00    0.57148   0.79220   -2.000
 4296.00    0.75520   0.76179   -2.000
 4297.00    0.86980   0.72920   -2.000
 4298.00    0.89790   0.70815    0.032
 4299.00    0.87700   0.70384    0.032
 4300.00    0.80205   0.71133    0.033
 4301.00    0.73410   0.72441    0.033
 4302.00    0.67294   0.73700    0.032
 4303.00    0.73802   0.74111    0.031
 4304.00    0.91139   0.73262    0.032
 4305.00    1.02357   0.71732    0.032
 4306.00    1.08950   0.70857    0.032
 4307.00    1.03343   0.71671    0.032
 4308.00    0.89636   0.73866    0.032
 4309.00    1.06603   0.76041    0.032
 4310.00    1.41408   0.77113    0.031
 4311.00    1.44050   0.77401    0.031
 4312.00    1.30394   0.78321    0.030
 4313.00    1.05368   0.80868    0.030
 4314.00    0.75353   0.84351    0.030
 4315.00    0.77776   0.86976    0.030
 4316.00    0.92417   0.87645    0.030
 4317.00    1.12060   0.86658    0.030
 4318.00    1.33302   0.84954    0.030
 4319.00    1.24879   0.83149    0.031
 4320.00    1.08527   0.80990    0.031
 4321.00    0.98291   0.77754    0.031
 4322.00    0.89393   0.73670    0.031
 4323.00    0.85422   0.70586    0.031
 4324.00    0.82308   0.70461    0.030
 4325.00    0.98142   0.73151    0.030
 4326.00    1.16482   0.76305    0.031
 4327.00    1.13156   0.77715    0.031
 4328.00    1.07804   0.77205    0.031
 4329.00    0.90539   0.76006    0.030
 4330.00    0.72592   0.74988    0.000
 4331.00    0.81500   0.74038    0.000
 4332.00    0.90968   0.72525    0.000
 4333.00    0.92956   0.69623    0.000
 4334.00    0.94274   0.64751    0.000
 4335.00    0.79509   0.58340    0.000
 4336.00    0.66591   0.51811    0.000
 4337.00    0.77707   0.46799    0.000
 4338.00    0.90924   0.44733    0.000
 4339.00    1.22498   0.46318    0.000
 4340.00    1.45921   0.50663    0.000
 4341.00    1.16703   0.55832    0.000
 4342.00    0.90632   0.60546    0.000
 4343.00    0.80440   0.64604    0.000
 4344.00    0.72238   0.68102    0.000
 4345.00    0.72156   0.71076    0.000
 4346.00    0.70418   0.73301    0.000
 4347.00    0.63076   0.74019    0.000
 4348.00    0.63082   0.72776    0.000
 4349.00    0.84057   0.70767    0.000
 4350.00    0.97951   0.70225    0.000
 4351.00    0.94584   0.72104    0.030
 4352.00    0.92721   0.75365    0.030
 4353.00    0.94020   0.78490    0.030
 4354.00    1.00983   0.80632    0.037
 4355.00    1.18303   0.81504    0.097
 4356.00    1.25130   0.81454   -1.000
 4357.00    1.15190   0.81532   -1.000
 4358.00    1.09689   0.82585   -1.000
 4359.00    1.10412   0.84381   -1.000
 4360.00    1.04006   0.86151   -1.000
 4361.00    0.88805   0.87534   -1.000
 4362.00    0.84008   0.88427    0.119
 4363.00    0.90526   0.88407    0.039
 4364.00    0.93647   0.87128    0.029
 4365.00    0.93509   0.85164    0.029
 4366.00    0.92113   0.83701    0.029
 4367.00    0.89652   0.83396    0.029
 4368.00    0.90463   0.83934    0.029
 4369.00    0.93712   0.84440    0.029
 4370.00    0.98515   0.83982    0.029
 4371.00    1.04336   0.82267    0.029
 4372.00    0.96307   0.80350    0.029
 4373.00    0.80346   0.80027    0.029
 4374.00    0.69229   0.81975    0.029
 4375.00    0.60530   0.84931    0.028
 4376.00    0.70510   0.87030    0.028
 4377.00    0.88550   0.87393    0.028
 4378.00    0.93966   0.86045    0.029
 4379.00    0.94711   0.82960    0.029
 4380.00    0.92502   0.78319    0.029
 4381.00    0.89367   0.73693    0.028
 4382.00    0.85302   0.71599    0.028
 4383.00    0.80994   0.73109    0.028
 4384.00    0.85896   0.76701    0.029
 4385.00    0.92765   0.79957    0.029
 4386.00    0.94269   0.81680    0.029
 4387.00    0.94867   0.82172    0.028
 4388.00    0.90407   0.82316    0.028
 4389.00    0.85302   0.82689    0.028
 4390.00    0.89373   0.83055    0.028
 4391.00    0.94263   0.82807    0.027
 4392.00    0.88898   0.82191    0.028
 4393.00    0.82987   0.82389    0.028
 4394.00    0.85575   0.83849    0.028
 4395.00    0.88284   0.85324    0.028
 4396.00    0.87349   0.85289    0.028
 4397.00    0.86643   0.83821    0.028
 4398.00    0.90993   0.82465    0.028
 4399.00    0.95813   0.82293    0.028
 4400.00    1.06433   0.82556    0.029
 4401.00    1.15910   0.81871    0.029
 4402.00    1.15768   0.80416    0.028
 4403.00    1.14597   0.79657    0.028
 4404.00    1.06978   0.80125    0.028
 4405.00    0.97916   0.81051    0.028
 4406.00    0.81754   0.82054    0.028
 4407.00    0.70802   0.83545    0.028
 4408.00    0.80642   0.85536    0.028
 4409.00    0.84273   0.87204    0.028
 4410.00    0.67316   0.87521    0.027
 4411.00    0.55517   0.85929    0.027
 4412.00    0.58167   0.82966    0.027
 4413.00    0.62934   0.80282    0.028
 4414.00    0.72774   0.79428    0.028
 4415.00    0.82205   0.80695    0.028
 4416.00    0.90792   0.83237    0.028
 4417.00    1.02912   0.85681    0.028
 4418.00    1.21390   0.86756    0.028
 4419.00    1.23265   0.86187    0.028
 4420.00    0.99003   0.84986    0.027
 4421.00    0.86500   0.84372    0.027
 4422.00    0.90244   0.84547    0.028
 4423.00    0.93893   0.84893    0.028
 4424.00    0.97428   0.85018    0.028
 4425.00    0.97269   0.85018    0.029
 4426.00    0.93150   0.84929    0.029
 4427.00    0.93563   0.84605    0.029
 4428.00    0.98263   0.84172    0.028
 4429.00    0.88683   0.83859    0.028
 4430.00    0.67194   0.83344    0.028
 4431.00    0.58826   0.82150    0.028
 4432.00    0.60090   0.80741    0.028
 4433.00    0.69836   0.80460    0.028
 4434.00    0.85049   0.82114    0.028
 4435.00    0.91181   0.84990    0.029
 4436.00    0.92190   0.87411    0.029
 4437.00    0.93507   0.87996    0.029
 4438.00    0.94975   0.86405    0.029
 4439.00    0.89201   0.83430    0.029
 4440.00    0.80354   0.80667    0.029
 4441.00    0.87676   0.79710    0.029
 4442.00    1.00876   0.81052    0.029
 4443.00    0.95790   0.83607    0.028
 4444.00    0.85081   0.85716    0.028
 4445.00    0.86568   0.86609    0.029
 4446.00    0.91177   0.86534    0.029
 4447.00    0.82633   0.85962    0.029
 4448.00    0.71346   0.85306    0.029
 4449.00    0.73635   0.84785    0.028
 4450.00    0.78153   0.84016    0.028
 4451.00    0.78995   0.82390    0.028
 4452.00    0.79383   0.80174    0.028
 4453.00    0.81458   0.78539    0.028
 4454.00    0.83678   0.78196    0.029
 4455.00    0.90515   0.78626    0.028
 4456.00    0.97580   0.78922    0.027
 4457.00    1.00566   0.78763    0.027
 4458.00    1.03656   0.78422    0.028
 4459.00    1.17327   0.78443    0.028
 4460.00    1.29375   0.79274    0.028
 4461.00    1.08551   0.80694    0.000
 4462.00    0.90373   0.81877    0.000
 4463.00    1.03289   0.82243    0.000
 4464.00    1.15789   0.81834    0.000
 4465.00    1.24919   0.80965    0.000
 4466.00    1.33845   0.80096    0.000
 4467.00    1.41529   0.79865    0.000
 4468.00    1.43217   0.80703    0.000
 4469.00    1.16138   0.82438    0.000
 4470.00    0.95362   0.84451    0.000
 4471.00    0.99194   0.86113    0.000
 4472.00    1.02637   0.87107    0.000
 4473.00    1.04812   0.87590    0.000
 4474.00    1.04084   0.87879    0.000
 4475.00    0.95370   0.87738    0.000
 4476.00    0.96164   0.86332    0.000
 4477.00    1.19364   0.83300    0.000
 4478.00    1.24080   0.79732    0.000
 4479.00    0.91150   0.77661    0.000
 4480.00    0.71331   0.78369    0.000
 4481.00    0.74758   0.81268    0.000
 4482.00    0.85471   0.84556    0.028
 4483.00    1.07487   0.86673    0.028
 4484.00    1.15601   0.86951    0.028
 4485.00    1.04780   0.85528    0.028
 4486.00    0.99504   0.83291    0.028
 4487.00    1.00878   0.81586    0.028
 4488.00    0.96405   0.81320    0.028
 4489.00    0.85752   0.82221    0.028
 4490.00    0.82017   0.83120    0.028
 4491.00    0.84734   0.83113    0.028
 4492.00    0.93173   0.82437    0.028
 4493.00    1.06316   0.82087    0.027
 4494.00    1.02999   0.82716    0.027
 4495.00    0.87770   0.84064    0.028
 4496.00    0.88523   0.85252    0.028
 4497.00    0.99427   0.85546    0.028
 4498.00    0.95137   0.85125    0.027
 4499.00    0.82407   0.85096    0.027
 4500.00    0.90511   0.86329    0.027
 4501.00    1.08681   0.88359    0.028
 4502.00    1.01696   0.89865    0.028
 4503.00    0.84217   0.90015    0.027
 4504.00    0.91614   0.89035    0.027
 4505.00    1.07890   0.87808    0.027
 4506.00    1.21371   0.87203    0.028
 4507.00    1.34010   0.87449    0.028
 4508.00    1.26273   0.87959    0.028
 4509.00    1.13433   0.87916    0.028
 4510.00    0.95771   0.87024    0.027
 4511.00    0.77129   0.85645    0.027
 4512.00    0.83007   0.84421    0.027
 4513.00    0.92796   0.83802    0.027
 4514.00    0.79502   0.83749    0.027
 4515.00    0.63464   0.83916    0.027
 4516.00    0.73577   0.84116    0.027
 4517.00    0.85807   0.84346    0.027
 4518.00    1.05249   0.84411    0.028
 4519.00    1.25019   0.83977    0.028
 4520.00    1.00785   0.83068    0.027
 4521.00    0.76173   0.82093    0.027
 4522.00    0.59842   0.81216    0.026
 4523.00    0.45606   0.80173    0.026
 4524.00    0.70690   0.78794    0.027
 4525.00    0.93839   0.77361    0.027
 4526.00    0.95315   0.76423    0.027
 4527.00    0.96339   0.76379    0.027
 4528.00    0.93833   0.77099    0.026
 4529.00    0.91724   0.77859    0.026
 4530.00    0.91963   0.77866    0.026
 4531.00    0.89778   0.77127    0.026
 4532.00    0.76248   0.76739    0.027
 4533.00    0.69467   0.77900    0.027
 4534.00    0.88482   0.80541    0.027
 4535.00    1.03799   0.83218    0.027
 4536.00    1.07320   0.84456    0.028
 4537.00    1.07607   0.84055    0.028
 4538.00    0.99159   0.83036    0.027
 4539.00    0.91155   0.82485    0.027
 4540.00    0.84181   0.82569    0.027
 4541.00    0.75268   0.82678    0.027
 4542.00    0.62470   0.82395    0.027
 4543.00    0.57668   0.81897    0.027
 4544.00    0.66828   0.81291    0.027
 4545.00    0.73648   0.80230    0.027
 4546.00    0.76892   0.78687    0.027
 4547.00    0.82030   0.77544    0.027
 4548.00    0.89714   0.77639    0.027
 4549.00    0.97954   0.78509    0.027
 4550.00    1.06852   0.78883    0.000
 4551.00    1.13024   0.78265    0.000
 4552.00    1.16353   0.77449    0.000
 4553.00    0.99577   0.77573    0.000
 4554.00    0.64315   0.78955    0.000
 4555.00    0.55278   0.80898    0.000
 4556.00    0.67493   0.82550    0.000
 4557.00    0.75878   0.83633    0.000
 4558.00    0.81531   0.84185    0.000
 4559.00    0.97350   0.84013    0.000
 4560.00    1.19529   0.82895    0.000
 4561.00    1.05710   0.81227    0.000
 4562.00    0.72202   0.80065    0.000
 4563.00    0.82650   0.80274    0.000
 4564.00    1.13994   0.81740    0.000
 4565.00    1.04098   0.83483    0.000
 4566.00    0.77288   0.84416    0.000
 4567.00    0.78622   0.84013    0.000
 4568.00    0.89819   0.82620    0.000
 4569.00    0.97971   0.81354    0.000
 4570.00    1.05224   0.81245    0.000
 4571.00    0.93430   0.82189    0.000
 4572.00    0.76971   0.83162    0.000
 4573.00    0.68324   0.83485    0.000
 4574.00    0.61227   0.83233    0.000
 4575.00    0.49250   0.82576    0.000
 4576.00    0.36519   0.81462    0.000
 4577.00    0.46954   0.80012    0.000
 4578.00    0.60040   0.78672    0.000
 4579.00    0.66655   0.77777    0.000
 4580.00    0.72773   0.77309    0.000
 4581.00    0.82663   0.77205    0.000
 4582.00    0.92710   0.77546    0.000
 4583.00    0.89638   0.78326    0.000
 4584.00    0.86452   0.79336    0.000
 4585.00    0.83233   0.80314    0.000
 4586.00    0.80864   0.81012    0.000
 4587.00    0.93350   0.81174    0.000
 4588.00    1.03386   0.80712    0.000
 4589.00    0.87218   0.79926    0.000
 4590.00    0.72317   0.79334    0.000
 4591.00    0.66996   0.79188    0.000
 4592.00    0.66135   0.79321    0.000
 4593.00    0.90911   0.79520    0.000
 4594.00    1.05254   0.79767    0.000
 4595.00    0.71930   0.80061    0.000
 4596.00    0.48879   0.80229    0.000
 4597.00    0.64262   0.80106    0.000
 4598.00    0.82600   0.79826    0.000
 4599.00    1.10182   0.79711    0.000
 4600.00    1.23085   0.79851    0.000
 4601.00    0.97024   0.80040    0.000
 4602.00    0.73659   0.80179    0.000
 4603.00    0.56438   0.80508    0.000
 4604.00    0.43583   0.81335    0.000
 4605.00    0.39342   0.82606    0.000
 4606.00    0.42596   0.83800    0.000
 4607.00    0.58735   0.84306    0.000
 4608.00    0.72056   0.83954    0.000
 4609.00    0.81134   0.83130    0.000
 4610.00    0.85046   0.82400    0.000
 4611.00    0.82121   0.82067    0.000
 4612.00    0.73292   0.82030    0.000
 4613.00    0.57581   0.81985    0.000
 4614.00    0.58121   0.81730    0.000
 4615.00    0.75364   0.81256    0.000
 4616.00    0.75239   0.80765    0.000
 4617.00    0.59370   0.80647    0.000
 4618.00    0.53504   0.81136    0.000
 4619.00    0.55629   0.81972    0.000
 4620.00    0.64709   0.82633    0.000
 4621.00    0.78676   0.82809    0.000
 4622.00    0.81494   0.82547    0.000
 4623.00    0.77437   0.82096    0.000
 4624.00    0.80447   0.81641    0.000
 4625.00    0.87262   0.81160    0.000
 4626.00    0.89218   0.80697    0.000
 4627.00    0.88902   0.80579    0.000
 4628.00    0.96899   0.80943    0.000
 4629.00    1.08246   0.81289    0.000
 4630.00    0.99545   0.81016    0.000
 4631.00    0.83948   0.80216    0.000
 4632.00    0.73286   0.79484    0.000
 4633.00    0.64053   0.79115    0.000
 4634.00    0.70931   0.78915    0.000
 4635.00    0.81669   0.78677    0.000
 4636.00    0.78805   0.78504    0.000
 4637.00    0.73314   0.78646    0.000
 4638.00    0.74193   0.79169    0.000
 4639.00    0.76028   0.79792    0.000
 4640.00    0.73234   0.80043    0.000
 4641.00    0.69931   0.79596    0.000
 4642.00    0.66484   0.78436    0.000
 4643.00    0.63028   0.76863    0.000
 4644.00    0.71144   0.75478    0.000
 4645.00    0.79698   0.74944    0.000
 4646.00    0.84457   0.75521    0.000
 4647.00    0.89030   0.76850    0.000
 4648.00    0.87449   0.78261    0.000
 4649.00    0.86124   0.79210    0.000
 4650.00    0.88983   0.79415    0.000
 4651.00    0.90409   0.78851    0.000
 4652.00    0.77171   0.77852    0.000
 4653.00    0.65097   0.77104    0.000
 4654.00    0.61526   0.77298    0.000
 4655.00    0.61551   0.78606    0.000
 4656.00    0.81680   0.80444    0.000
 4657.00    0.95913   0.81808    0.000
 4658.00    0.83842   0.81984    0.000
 4659.00    0.74100   0.81020    0.000
 4660.00    0.72886   0.79547    0.000
 4661.00    0.72642   0.78119    0.000
 4662.00    0.75376   0.76682    0.000
 4663.00    0.79458   0.74858    0.000
 4664.00    0.87059   0.72815    0.000
 4665.00    0.88989   0.71484    0.000
 4666.00    0.78211   0.71663    0.000
 4667.00    0.73174   0.73201    0.000
 4668.00    0.79283   0.75184    0.000
 4669.00    0.84089   0.76728    0.000
 4670.00    0.86686   0.77548    0.000
 4671.00    0.84859   0.77961    0.000
 4672.00    0.76466   0.78422    0.000
 4673.00    0.78721   0.78971    0.000
 4674.00    0.94865   0.79176    0.000
 4675.00    1.00650   0.78672    0.000
 4676.00    0.94533   0.77633    0.000
 4677.00    0.85847   0.76606    0.000
 4678.00    0.74556   0.76049    0.000
 4679.00    0.63974   0.76128    0.000
 4680.00    0.54024   0.76724    0.000
 4681.00    0.68684   0.77488    0.000
 4682.00    1.02726   0.78044    0.000
 4683.00    1.01806   0.78218    0.000
 4684.00    0.76668   0.78086    0.000
 4685.00    0.59147   0.77831    0.000
 4686.00    0.46252   0.77565    0.000
 4687.00    0.61417   0.77287    0.000
 4688.00    0.91460   0.77016    0.000
 4689.00    0.96573   0.76904    0.000
 4690.00    0.90214   0.77110    0.000
 4691.00    0.88251   0.77626    0.000
 4692.00    0.88029   0.78239    0.000
 4693.00    0.83569   0.78567    0.000
 4694.00    0.77677   0.78224    0.000
 4695.00    0.67641   0.77190    0.000
 4696.00    0.56428   0.75960    0.000
 4697.00    0.64593   0.75057    0.000
 4698.00    0.77295   0.74488    0.000
 4699.00    0.82111   0.73971    0.000
 4700.00    0.85444   0.73570    0.000
 4701.00    0.90133   0.73658    0.000
 4702.00    0.95019   0.74225    0.000
 4703.00    0.88794   0.74688    0.000
 4704.00    0.81393   0.74552    0.000
 4705.00    0.79102   0.74007    0.000
 4706.00    0.77161   0.73724    0.000
 4707.00    0.62386   0.74180    0.000
 4708.00    0.47174   0.75199    0.000
 4709.00    0.62710   0.76077    0.000
 4710.00    0.77605   0.76225    0.000
 4711.00    0.70085   0.75765    0.000
 4712.00    0.63238   0.75442    0.000
 4713.00    0.66722   0.75852    0.000
 4714.00    0.70292   0.76878    0.000
 4715.00    0.74700   0.77988    0.000
 4716.00    0.79528   0.78818    0.000
 4717.00    0.87323   0.79274    0.000
 4718.00    0.91807   0.79354    0.000
 4719.00    0.78275   0.79172    0.000
 4720.00    0.68284   0.79022    0.000
 4721.00    0.73732   0.79099    0.000
 4722.00    0.78495   0.79142    0.000
 4723.00    0.80804   0.78578    0.000
 4724.00    0.79821   0.77152    0.000
 4725.00    0.68932   0.75325    0.000
 4726.00    0.60183   0.73858    0.000
 4727.00    0.56916   0.73154    0.000
 4728.00    0.53300   0.73175    0.000
 4729.00    0.48916   0.73744    0.000
 4730.00    0.49895   0.74613    0.000
 4731.00    0.61128   0.75422    0.000
 4732.00    0.69983   0.75811    0.000
 4733.00    0.74872   0.75700    0.000
 4734.00    0.75703   0.75487    0.000
 4735.00    0.70601   0.75657    0.000
 4736.00    0.75085   0.76147    0.000
 4737.00    0.91892   0.76507    0.000
 4738.00    0.94997   0.76580    0.000
 4739.00    0.82582   0.76616    0.000
 4740.00    0.77703   0.76798    0.000
 4741.00    0.80352   0.77007    0.000
 4742.00    0.81126   0.77135    0.000
 4743.00    0.80247   0.77262    0.000
 4744.00    0.83731   0.77431    0.000
 4745.00    0.90604   0.77555    0.000
 4746.00    0.89181   0.77600    0.000
 4747.00    0.82096   0.77569    0.000
 4748.00    0.79293   0.77357    0.000
 4749.00    0.79051   0.76840    0.000
 4750.00    0.85484   0.76083    0.000
 4751.00    0.95400   0.75307    0.000
 4752.00    0.89242   0.74731    0.000
 4753.00    0.75808   0.74486    0.000
 4754.00    0.73367   0.74620    0.000
 4755.00    0.75206   0.75056    0.000
 4756.00    0.78541   0.75542    0.000
 4757.00    0.82371   0.75673    0.000
 4758.00    0.83815   0.75099    0.000
 4759.00    0.84594   0.73878    0.000
 4760.00    0.78614   0.72498    0.000
 4761.00    0.71088   0.71433    0.022
 4762.00    0.69536   0.70866    0.022
 4763.00    0.69078   0.70852    0.022
 4764.00    0.73010   0.71431    0.022
 4765.00    0.77560   0.72487    0.022
 4766.00    0.70123   0.73637    0.022
 4767.00    0.61471   0.74386    0.022
 4768.00    0.72452   0.74503    0.022
 4769.00    0.84703   0.74323    0.022
 4770.00    0.83834   0.74437    0.022
 4771.00    0.82577   0.75034    0.023
 4772.00    0.85868   0.75762    0.023
 4773.00    0.88914   0.76246    0.023
 4774.00    0.84863   0.76436    0.023
 4775.00    0.80676   0.76371    0.023
 4776.00    0.74520   0.76042    0.022
 4777.00    0.68730   0.75568    0.022
 4778.00    0.66390   0.75109    0.022
 4779.00    0.66735   0.74645    0.022
 4780.00    0.85462   0.74133    0.022
 4781.00    0.98798   0.73708    0.022
 4782.00    0.83583   0.73411    0.022
 4783.00    0.69992   0.73105    0.021
 4784.00    0.63320   0.72823    0.022
 4785.00    0.58338   0.72698    0.022
 4786.00    0.59299   0.72730    0.022
 4787.00    0.58317   0.72924    0.022
 4788.00    0.51593   0.73353    0.022
 4789.00    0.50368   0.74071    0.023
 4790.00    0.62992   0.75065    0.022
 4791.00    0.71838   0.76133    0.022
 4792.00    0.72488   0.76872    0.022
 4793.00    0.66856   0.76923    0.023
 4794.00    0.49401   0.76240    0.023
 4795.00    0.44962   0.75111    0.023
 4796.00    0.61914   0.74034    0.022
 4797.00    0.74589   0.73512    0.022
 4798.00    0.81102   0.73745    0.022
 4799.00    0.79974   0.74416    0.023
 4800.00    0.69161   0.74870    0.023
 4801.00    0.70634   0.74652    0.023
 4802.00    0.85828   0.73907    0.023
 4803.00    0.88475   0.73173    0.023
 4804.00    0.78762   0.72772    0.023
 4805.00    0.81171   0.72692    0.023
 4806.00    0.94110   0.72835    0.023
 4807.00    0.93512   0.73079    0.023
 4808.00    0.82555   0.73290    0.022
 4809.00    0.79575   0.73425    0.022
 4810.00    0.81961   0.73567    0.022
 4811.00    0.73410   0.73811    0.023
 4812.00    0.58414   0.74171    0.023
 4813.00    0.59994   0.74595    0.023
 4814.00    0.70093   0.75014    0.023
 4815.00    0.75056   0.75364    0.023
 4816.00    0.77733   0.75567    0.023
 4817.00    0.70086   0.75470    0.023
 4818.00    0.58490   0.74872    0.023
 4819.00    0.51226   0.73646    0.023
 4820.00    0.45370   0.72006    0.023
 4821.00    0.57249   0.70726    0.023
 4822.00    0.73955   0.70511    0.023
 4823.00    0.73251   0.71191    0.023
 4824.00    0.68657   0.71959    0.023
 4825.00    0.54514   0.72234    0.023
 4826.00    0.38669   0.72041    0.023
 4827.00    0.49378   0.71672    0.023
 4828.00    0.63705   0.71255    0.023
 4829.00    0.77199   0.70881    0.023
 4830.00    0.90613   0.70762    0.023
 4831.00    0.87901   0.70944    0.023
 4832.00    0.84210   0.71169    0.023
 4833.00    0.72366   0.71183    0.023
 4834.00    0.60459   0.70938    0.022
 4835.00    0.76210   0.70428    0.023
 4836.00    0.90965   0.69687    0.023
 4837.00    0.79725   0.68945    0.023
 4838.00    0.69244   0.68471    0.023
 4839.00    0.69134   0.68262    0.023
 4840.00    0.68057   0.68157    0.023
 4841.00    0.58244   0.68160    0.022
 4842.00    0.51903   0.68255    0.021
 4843.00    0.68597   0.68131    0.021
 4844.00    0.80164   0.67436    0.022
 4845.00    0.65276   0.66269    0.022
 4846.00    0.55379   0.65212    0.022
 4847.00    0.66259   0.64689    0.022
 4848.00    0.74034   0.64471    0.000
 4849.00    0.71118   0.63991    0.000
 4850.00    0.66610   0.62847    0.000
 4851.00    0.57490   0.60952    0.000
 4852.00    0.53501   0.58651    0.000
 4853.00    0.62211   0.56590    0.000
 4854.00    0.64800   0.54973    0.000
 4855.00    0.54332   0.53129    0.000
 4856.00    0.49379   0.50219    0.000
 4857.00    0.54644   0.46330    0.000
 4858.00    0.61626   0.42852    0.000
 4859.00    0.71385   0.41603    0.000
 4860.00    0.78934   0.43183    0.000
 4861.00    0.83345   0.46532    0.000
 4862.00    0.81299   0.50218    0.000
 4863.00    0.71185   0.53443    0.000
 4864.00    0.70299   0.55969    0.000
 4865.00    0.79575   0.57741    0.000
 4866.00    0.78160   0.58688    0.000
 4867.00    0.66361   0.58741    0.000
 4868.00    0.62456   0.58210    0.000
 4869.00    0.65313   0.57948    0.000
 4870.00    0.72083   0.58636    0.000
 4871.00    0.81804   0.60066    0.000
 4872.00    0.78227   0.61554    0.000
 4873.00    0.65834   0.62741    0.000
 4874.00    0.60428   0.63759    0.000
 4875.00    0.59076   0.64853    0.021
 4876.00    0.62817   0.66036    0.021
 4877.00    0.69133   0.66945    0.021
 4878.00    0.73522   0.67185    0.021
 4879.00    0.77066   0.66850    0.021
 4880.00    0.75092   0.66323    0.021
 4881.00    0.71043   0.65779    0.021
 4882.00    0.69902   0.65249    0.021
 4883.00    0.69688   0.64883    0.021
 4884.00    0.68206   0.64841    0.021
 4885.00    0.66386   0.64966    0.021
 4886.00    0.65415   0.64841    0.021
 4887.00    0.64629   0.64289    0.021
 4888.00    0.65464   0.63822    0.021
 4889.00    0.66579   0.64377    0.021
 4890.00    0.65789   0.66260    0.021
 4891.00    0.64748   0.68769    0.021
 4892.00    0.72766   0.70946    0.021
 4893.00    0.81625   0.72251    0.021
 4894.00    0.82356   0.72623    0.021
 4895.00    0.82626   0.72245    0.021
 4896.00    0.76677   0.71374    0.021
 4897.00    0.70662   0.70410    0.021
 4898.00    0.72873   0.69771    0.021
 4899.00    0.74816   0.69508    0.021
 4900.00    0.70410   0.69443    0.021
 4901.00    0.66239   0.69640    0.021
 4902.00    0.65094   0.70261    0.021
 4903.00    0.64616   0.71043    0.021
 4904.00    0.69939   0.71354    0.021
 4905.00    0.73963   0.70786    0.021
 4906.00    0.69636   0.69502    0.021
 4907.00    0.65419   0.68116    0.021
 4908.00    0.61755   0.67356    0.021
 4909.00    0.60216   0.67589    0.021
 4910.00    0.67329   0.68574    0.022
 4911.00    0.73225   0.69765    0.022
 4912.00    0.75019   0.70653    0.022
 4913.00    0.74291   0.70760    0.021
 4914.00    0.66384   0.69675    0.021
 4915.00    0.61115   0.67423    0.022
 4916.00    0.62265   0.64711    0.022
 4917.00    0.64059   0.62640    0.022
 4918.00    0.67204   0.61968    0.021
 4919.00    0.69288   0.62566    0.021
 4920.00    0.69438   0.63625    0.022
 4921.00    0.64126   0.64598    0.022
 4922.00    0.50103   0.65690    0.021
 4923.00    0.49814   0.67211    0.021
 4924.00    0.68746   0.68933    0.021
 4925.00    0.72836   0.70398    0.021
 4926.00    0.58649   0.71380    0.021
 4927.00    0.56119   0.71776    0.021
 4928.00    0.66246   0.71480    0.022
 4929.00    0.74094   0.70473    0.022
 4930.00    0.79760   0.69013    0.022
 4931.00    0.79267   0.67747    0.021
 4932.00    0.73572   0.67220    0.021
 4933.00    0.71178   0.67151    0.021
 4934.00    0.71238   0.66788    0.022
 4935.00    0.67647   0.65994    0.022
 4936.00    0.61674   0.65489    0.021
 4937.00    0.57422   0.66032    0.021
 4938.00    0.54156   0.67550    0.021
 4939.00    0.59453   0.69247    0.021
 4940.00    0.69013   0.70443    0.000
 4941.00    0.70174   0.70954    0.000
 4942.00    0.67719   0.70901    0.000
 4943.00    0.77272   0.70620    0.000
 4944.00    0.91258   0.70523    0.000
 4945.00    0.83304   0.70752    0.000
 4946.00    0.68486   0.71110    0.000
 4947.00    0.78925   0.71364    0.000
 4948.00    0.95954   0.71405    0.000
 4949.00    0.87328   0.71184    0.000
 4950.00    0.73239   0.70707    0.000
 4951.00    0.71277   0.69988    0.000
 4952.00    0.71358   0.68859    0.000
 4953.00    0.66232   0.67117    0.000
 4954.00    0.60443   0.65131    0.000
 4955.00    0.59630   0.64062    0.000
 4956.00    0.59258   0.64800    0.000
 4957.00    0.67521   0.66799    0.000
 4958.00    0.76240   0.68705    0.000
 4959.00    0.75656   0.69732    0.000
 4960.00    0.75064   0.69911    0.000
 4961.00    0.87884   0.69486    0.000
 4962.00    0.99753   0.68640    0.000
 4963.00    0.90969   0.67683    0.000
 4964.00    0.81968   0.67005    0.000
 4965.00    0.70306   0.66756    0.000
 4966.00    0.59412   0.66855    0.000
 4967.00    0.54951   0.67205    0.000
 4968.00    0.51722   0.67757    0.000
 4969.00    0.56195   0.68445    0.000
 4970.00    0.61292   0.69120    0.000
 4971.00    0.69453   0.69615    0.000
 4972.00    0.75393   0.69805    0.000
 4973.00    0.72496   0.69599    0.000
 4974.00    0.68497   0.68998    0.000
 4975.00    0.60855   0.68103    0.000
 4976.00    0.56550   0.67033    0.000
 4977.00    0.61570   0.65811    0.000
 4978.00    0.64680   0.64320    0.000
 4979.00    0.63222   0.62611    0.000
 4980.00    0.63839   0.61211    0.000
 4981.00    0.68741   0.60804    0.000
 4982.00    0.73566   0.61599    0.000
 4983.00    0.78252   0.63207    0.000
 4984.00    0.74887   0.64972    0.000
 4985.00    0.58871   0.66258    0.000
 4986.00    0.50236   0.66721    0.000
 4987.00    0.51782   0.66517    0.000
 4988.00    0.58696   0.66099    0.000
 4989.00    0.72127   0.65852    0.000
 4990.00    0.76378   0.65876    0.000
 4991.00    0.70803   0.66090    0.000
 4992.00    0.64347   0.66457    0.000
 4993.00    0.57058   0.66854    0.000
 4994.00    0.57221   0.66955    0.000
 4995.00    0.63587   0.66510    0.000
 4996.00    0.67801   0.65531    0.000
 4997.00    0.70439   0.64315    0.000
 4998.00    0.71720   0.63320    0.000
 4999.00    0.72128   0.62813    0.000
 5000.00    0.70691   0.62652    0.000
 5001.00    0.68214   0.62419    0.000
 5002.00    0.70919   0.61867    0.000
 5003.00    0.76164   0.61330    0.000
 5004.00    0.77039   0.61475    0.000
 5005.00    0.76063   0.62488    0.000
 5006.00    0.78091   0.63717    0.000
 5007.00    0.81207   0.64283    0.000
 5008.00    0.86741   0.63835    0.000
 5009.00    0.93016   0.62639    0.000
 5010.00    0.79477   0.61305    0.000
 5011.00    0.60878   0.60436    0.000
 5012.00    0.59096   0.60234    0.000
 5013.00    0.60807   0.60385    0.000
 5014.00    0.54342   0.60388    0.000
 5015.00    0.46540   0.60156    0.000
 5016.00    0.51031   0.60133    0.000
 5017.00    0.57030   0.60624    0.000
 5018.00    0.66553   0.61367    0.000
 5019.00    0.76374   0.62014    0.000
 5020.00    0.73313   0.62600    0.000
 5021.00    0.69624   0.63263    0.000
 5022.00    0.60866   0.63817    0.000
 5023.00    0.52421   0.63963    0.000
 5024.00    0.67806   0.63737    0.000
 5025.00    0.81849   0.63527    0.000
 5026.00    0.68974   0.63734    0.000
 5027.00    0.56912   0.64355    0.000
 5028.00    0.54328   0.65123    0.000
 5029.00    0.52243   0.65846    0.021
 5030.00    0.54179   0.66287    0.020
 5031.00    0.56309   0.66097    0.020
 5032.00    0.59621   0.65182    0.020
 5033.00    0.62831   0.63950    0.021
 5034.00    0.65556   0.62925    0.021
 5035.00    0.67543   0.62087    0.021
 5036.00    0.66660   0.60965    0.021
 5037.00    0.65559   0.59531    0.021
 5038.00    0.63751   0.58509    0.021
 5039.00    0.60849   0.58779    0.021
 5040.00    0.54949   0.60534    0.021
 5041.00    0.52478   0.62974    0.021
 5042.00    0.58071   0.65034    0.021
 5043.00    0.61463   0.66108    0.020
 5044.00    0.60381   0.66014    0.020
 5045.00    0.60358   0.64953    0.020
 5046.00    0.62211   0.63518    0.020
 5047.00    0.64504   0.62395    0.020
 5048.00    0.67478   0.61948    0.020
 5049.00    0.65295   0.62172    0.020
 5050.00    0.56101   0.62909    0.020
 5051.00    0.49837   0.63882    0.020
 5052.00    0.47081   0.64730    0.020
 5053.00    0.45628   0.65270    0.019
 5054.00    0.45548   0.65613    0.019
 5055.00    0.52098   0.65952    0.019
 5056.00    0.64819   0.66336    0.020
 5057.00    0.64713   0.66692    0.020
 5058.00    0.54083   0.66898    0.020
 5059.00    0.55691   0.66729    0.020
 5060.00    0.66139   0.65957    0.020
 5061.00    0.68865   0.64668    0.020
 5062.00    0.66693   0.63340    0.019
 5063.00    0.65791   0.62531    0.019
 5064.00    0.65592   0.62365    0.019
 5065.00    0.62151   0.62520    0.019
 5066.00    0.57148   0.62751    0.019
 5067.00    0.58986   0.62972    0.019
 5068.00    0.63672   0.63028    0.019
 5069.00    0.64931   0.62826    0.019
 5070.00    0.64970   0.62579    0.019
 5071.00    0.57167   0.62545    0.019
 5072.00    0.47005   0.62648    0.019
 5073.00    0.48925   0.62663    0.019
 5074.00    0.53864   0.62400    0.019
 5075.00    0.55455   0.61648    0.019
 5076.00    0.56369   0.60415    0.019
 5077.00    0.55662   0.59225    0.019
 5078.00    0.54697   0.58774    0.019
 5079.00    0.62337   0.59179    0.019
 5080.00    0.70996   0.60005    0.019
 5081.00    0.67967   0.60883    0.019
 5082.00    0.63999   0.61716    0.019
 5083.00    0.64851   0.62408    0.019
 5084.00    0.65919   0.62842    0.019
 5085.00    0.62935   0.63079    0.018
 5086.00    0.59848   0.63297    0.018
 5087.00    0.54044   0.63576    0.018
 5088.00    0.48768   0.63906    0.018
 5089.00    0.53310   0.64292    0.018
 5090.00    0.57809   0.64647    0.018
 5091.00    0.61818   0.64715    0.018
 5092.00    0.65560   0.64243    0.018
 5093.00    0.67217   0.63190    0.019
 5094.00    0.68177   0.61760    0.019
 5095.00    0.65031   0.60373    0.019
 5096.00    0.62603   0.59533    0.019
 5097.00    0.63524   0.59586    0.019
 5098.00    0.64852   0.60446    0.019
 5099.00    0.67731   0.61545    0.019
 5100.00    0.67792   0.62282    0.019
 5101.00    0.58889   0.62447    0.019
 5102.00    0.53322   0.62162    0.019
 5103.00    0.56747   0.61622    0.019
 5104.00    0.57882   0.60986    0.019
 5105.00    0.53723   0.60423    0.019
 5106.00    0.50167   0.60150    0.019
 5107.00    0.47819   0.60257    0.019
 5108.00    0.46562   0.60707    0.020
 5109.00    0.47207   0.61433    0.020
 5110.00    0.50871   0.62200    0.019
 5111.00    0.59140   0.62788    0.019
 5112.00    0.63555   0.63222    0.019
 5113.00    0.62806   0.63593    0.020
 5114.00    0.62210   0.63924    0.020
 5115.00    0.61796   0.64100    0.021
 5116.00    0.59271   0.63916    0.021
 5117.00    0.54549   0.63295    0.021
 5118.00    0.52242   0.62314    0.020
 5119.00    0.52151   0.61128    0.020
 5120.00    0.53738   0.59948    0.020
 5121.00    0.56681   0.59016    0.020
 5122.00    0.61171   0.58543    0.020
 5123.00    0.66760   0.58500    0.020
 5124.00    0.67436   0.58615    0.020
 5125.00    0.65042   0.58698    0.020
 5126.00    0.59694   0.58798    0.019
 5127.00    0.52734   0.59056    0.019
 5128.00    0.49181   0.59512    0.019
 5129.00    0.47244   0.60048    0.019
 5130.00    0.50417   0.60530    0.019
 5131.00    0.55681   0.60923    0.020
 5132.00    0.57674   0.61167    0.019
 5133.00    0.58522   0.61064    0.019
 5134.00    0.59195   0.60440    0.019
 5135.00    0.59816   0.59555    0.019
 5136.00    0.60161   0.58888    0.019
 5137.00    0.60438   0.58617    0.019
 5138.00    0.55943   0.58661    0.019
 5139.00    0.50506   0.58748    0.019
 5140.00    0.52444   0.58738    0.019
 5141.00    0.55519   0.58820    0.019
 5142.00    0.56758   0.58957    0.019
 5143.00    0.57788   0.58889    0.019
 5144.00    0.48462   0.58693    0.019
 5145.00    0.38347   0.58633    0.018
 5146.00    0.37595   0.58749    0.018
 5147.00    0.37227   0.58848    0.018
 5148.00    0.44208   0.58699    0.018
 5149.00    0.51112   0.58333    0.018
 5150.00    0.52272   0.58029    0.018
 5151.00    0.53119   0.58048    0.018
 5152.00    0.48534   0.58549    0.019
 5153.00    0.44796   0.59489    0.019
 5154.00    0.50060   0.60550    0.019
 5155.00    0.54640   0.61378    0.019
 5156.00    0.54069   0.61775    0.019
 5157.00    0.53170   0.61717    0.019
 5158.00    0.50385   0.61321    0.018
 5159.00    0.47783   0.60667    0.018
 5160.00    0.46009   0.59745    0.019
 5161.00    0.44649   0.58412    0.019
 5162.00    0.44833   0.56369    0.019
 5163.00    0.45344   0.53629    0.018
 5164.00    0.46877   0.50911    0.019
 5165.00    0.46063   0.49232    0.019
 5166.00    0.39032   0.49024    0.019
 5167.00    0.36490   0.49646    0.019
 5168.00    0.44156   0.50050    0.019
 5169.00    0.49097   0.49951    0.019
 5170.00    0.48669   0.50209    0.019
 5171.00    0.46177   0.51772    0.019
 5172.00    0.40144   0.54399    0.019
 5173.00    0.40379   0.56934    0.019
 5174.00    0.50038   0.58583    0.019
 5175.00    0.53194   0.59315    0.020
 5176.00    0.47762   0.59301    0.020
 5177.00    0.47424   0.58497    0.019
 5178.00    0.53011   0.56760    0.019
 5179.00    0.49401   0.54253    0.019
 5180.00    0.36355   0.51757    0.019
 5181.00    0.30905   0.50468    0.019
 5182.00    0.32328   0.51178    0.019
 5183.00    0.41841   0.53398    0.019
 5184.00    0.57806   0.55753    0.019
 5185.00    0.52383   0.57318    0.019
 5186.00    0.31953   0.57954    0.019
 5187.00    0.31600   0.57852    0.019
 5188.00    0.43602   0.57209    0.019
 5189.00    0.52973   0.56301    0.019
 5190.00    0.60932   0.55686    0.000
 5191.00    0.60843   0.55709    0.000
 5192.00    0.56998   0.56113    0.000
 5193.00    0.57054   0.56568    0.000
 5194.00    0.58679   0.57122    0.000
 5195.00    0.62555   0.57843    0.000
 5196.00    0.67204   0.58606    0.000
 5197.00    0.56783   0.59196    0.000
 5198.00    0.42007   0.59377    0.000
 5199.00    0.39902   0.59015    0.000
 5200.00    0.40823   0.58099    0.000
 5201.00    0.51859   0.56765    0.000
 5202.00    0.64841   0.55311    0.000
 5203.00    0.54268   0.54136    0.000
 5204.00    0.40173   0.53543    0.000
 5205.00    0.41115   0.53545    0.000
 5206.00    0.43705   0.54043    0.000
 5207.00    0.42253   0.55093    0.000
 5208.00    0.40510   0.56586    0.000
 5209.00    0.44495   0.58081    0.000
 5210.00    0.48694   0.59086    0.000
 5211.00    0.43925   0.59282    0.018
 5212.00    0.39722   0.58779    0.018
 5213.00    0.57670   0.58136    0.018
 5214.00    0.74151   0.57993    0.018
 5215.00    0.66858   0.58566    0.018
 5216.00    0.60030   0.59557    0.018
 5217.00    0.57936   0.60470    0.018
 5218.00    0.56452   0.60928    0.018
 5219.00    0.59405   0.60748    0.018
 5220.00    0.60765   0.59833    0.018
 5221.00    0.53255   0.58182    0.018
 5222.00    0.47412   0.56060    0.018
 5223.00    0.48980   0.54130    0.018
 5224.00    0.50823   0.53227    0.018
 5225.00    0.53666   0.53811    0.018
 5226.00    0.56113   0.55532    0.018
 5227.00    0.57350   0.57306    0.018
 5228.00    0.56372   0.58197    0.018
 5229.00    0.49627   0.58065    0.018
 5230.00    0.45952   0.57356    0.018
 5231.00    0.49147   0.56800    0.018
 5232.00    0.56512   0.56949    0.019
 5233.00    0.71963   0.57768    0.018
 5234.00    0.79088   0.58846    0.018
 5235.00    0.72140   0.59752    0.018
 5236.00    0.64847   0.60302    0.019
 5237.00    0.57046   0.60550    0.019
 5238.00    0.54205   0.60621    0.019
 5239.00    0.57820   0.60636    0.019
 5240.00    0.62446   0.60667    0.019
 5241.00    0.68232   0.60679    0.018
 5242.00    0.72703   0.60491    0.019
 5243.00    0.75845   0.59918    0.019
 5244.00    0.72058   0.59041    0.019
 5245.00    0.62089   0.58200    0.019
 5246.00    0.56489   0.57657    0.019
 5247.00    0.54324   0.57417    0.019
 5248.00    0.55979   0.57420    0.019
 5249.00    0.60275   0.57641    0.019
 5250.00    0.59545   0.57906    0.019
 5251.00    0.55767   0.58055    0.019
 5252.00    0.52368   0.58239    0.019
 5253.00    0.49171   0.58753    0.019
 5254.00    0.46352   0.59638    0.019
 5255.00    0.43707   0.60470    0.019
 5256.00    0.45072   0.60688    0.019
 5257.00    0.48021   0.60007    0.019
 5258.00    0.50978   0.58486    0.019
 5259.00    0.53937   0.56438    0.019
 5260.00    0.59261   0.54296    0.019
 5261.00    0.65254   0.52499    0.019
 5262.00    0.62036   0.51391    0.019
 5263.00    0.56669   0.51071    0.019
 5264.00    0.60932   0.51196    0.019
 5265.00    0.67002   0.51207    0.019
 5266.00    0.54775   0.50905    0.019
 5267.00    0.39897   0.50764    0.019
 5268.00    0.42509   0.51447    0.019
 5269.00    0.46961   0.52880    0.019
 5270.00    0.60645   0.54226    0.019
 5271.00    0.74958   0.54931    0.019
 5272.00    0.64263   0.55292    0.020
 5273.00    0.52730   0.55905    0.020
 5274.00    0.51394   0.56999    0.019
 5275.00    0.50025   0.58210    0.018
 5276.00    0.47243   0.58868    0.019
 5277.00    0.44893   0.58685    0.019
 5278.00    0.49140   0.57910    0.019
 5279.00    0.52883   0.57003    0.018
 5280.00    0.51711   0.56442    0.018
 5281.00    0.50665   0.56610    0.018
 5282.00    0.50503   0.57589    0.018
 5283.00    0.50574   0.59036    0.018
 5284.00    0.51903   0.60326    0.018
 5285.00    0.52382   0.61080    0.018
 5286.00    0.49168   0.61387    0.018
 5287.00    0.48337   0.61483    0.018
 5288.00    0.56035   0.61448    0.018
 5289.00    0.62242   0.61232    0.018
 5290.00    0.63967   0.60822    0.018
 5291.00    0.65849   0.60215    0.018
 5292.00    0.68132   0.59328    0.018
 5293.00    0.69334   0.58109    0.018
 5294.00    0.68162   0.56810    0.018
 5295.00    0.66554   0.55957    0.018
 5296.00    0.64114   0.55884    0.018
 5297.00    0.60823   0.56423    0.019
 5298.00    0.56114   0.57137    0.019
 5299.00    0.52943   0.57812    0.019
 5300.00    0.52019   0.58544    0.019
 5301.00    0.53999   0.59338    0.019
 5302.00    0.59707   0.59951    0.019
 5303.00    0.61642   0.60181    0.019
 5304.00    0.59311   0.60142    0.018
 5305.00    0.55121   0.60132    0.018
 5306.00    0.49076   0.60312    0.018
 5307.00    0.47531   0.60571    0.018
 5308.00    0.49946   0.60674    0.018
 5309.00    0.52143   0.60500    0.018
 5310.00    0.54172   0.60088    0.018
 5311.00    0.52700   0.59498    0.018
 5312.00    0.48842   0.58792    0.018
 5313.00    0.48409   0.58144    0.018
 5314.00    0.50023   0.57799    0.018
 5315.00    0.47260   0.57901    0.018
 5316.00    0.42218   0.58316    0.018
 5317.00    0.44595   0.58679    0.018
 5318.00    0.50322   0.58704    0.018
 5319.00    0.54817   0.58294    0.018
 5320.00    0.58833   0.57517    0.018
 5321.00    0.60106   0.56582    0.018
 5322.00    0.60473   0.55609    0.018
 5323.00    0.49780   0.54490    0.018
 5324.00    0.36020   0.53155    0.018
 5325.00    0.43668   0.52033    0.018
 5326.00    0.56200   0.51872    0.018
 5327.00    0.66885   0.52983    0.018
 5328.00    0.77234   0.54783    0.019
 5329.00    0.67795   0.56374    0.018
 5330.00    0.55580   0.57378    0.018
 5331.00    0.50216   0.57920    0.017
 5332.00    0.45542   0.58175    0.017
 5333.00    0.47034   0.58157    0.017
 5334.00    0.48922   0.57833    0.017
 5335.00    0.44002   0.57220    0.017
 5336.00    0.38894   0.56437    0.017
 5337.00    0.39619   0.55784    0.017
 5338.00    0.40443   0.55632    0.017
 5339.00    0.44140   0.56114    0.017
 5340.00    0.47907   0.56921    0.017
 5341.00    0.52682   0.57511    0.017
 5342.00    0.57157   0.57631    0.017
 5343.00    0.58829   0.57412    0.017
 5344.00    0.59458   0.57077    0.017
 5345.00    0.52978   0.56815    0.017
 5346.00    0.47055   0.56776    0.017
 5347.00    0.44065   0.57081    0.017
 5348.00    0.42537   0.57718    0.017
 5349.00    0.47221   0.58484    0.017
 5350.00    0.51225   0.59186    0.017
 5351.00    0.52843   0.59783    0.017
 5352.00    0.55244   0.60309    0.017
 5353.00    0.59952   0.60730    0.018
 5354.00    0.60705   0.60965    0.018
 5355.00    0.51521   0.60986    0.018
 5356.00    0.44279   0.60775    0.018
 5357.00    0.41236   0.60283    0.017
 5358.00    0.43333   0.59517    0.017
 5359.00    0.55082   0.58617    0.018
 5360.00    0.59651   0.57783    0.018
 5361.00    0.52443   0.57164    0.018
 5362.00    0.48856   0.56788    0.018
 5363.00    0.50480   0.56554    0.018
 5364.00    0.52221   0.56304    0.017
 5365.00    0.54109   0.55818    0.017
 5366.00    0.55556   0.54989    0.018
 5367.00    0.56511   0.54069    0.018
 5368.00    0.57590   0.53614   -2.000
 5369.00    0.58793   0.54083   -2.000
 5370.00    0.59929   0.55396   -2.000
 5371.00    0.61006   0.56986   -2.000
 5372.00    0.71578   0.58212   -2.000
 5373.00    0.89403   0.58818   -2.000
 5374.00    0.88817   0.58931   -2.000
 5375.00    0.75869   0.58755   -2.000
 5376.00    0.64460   0.58424   -2.000
 5377.00    0.53958   0.57998   -2.000
 5378.00    0.48637   0.57547   -2.000
 5379.00    0.45974   0.57194   -2.000
 5380.00    0.46014   0.57098   -2.000
 5381.00    0.47256   0.57295   -2.000
 5382.00    0.53575   0.57665   -2.000
 5383.00    0.61833   0.57982    0.017
 5384.00    0.61496   0.58023    0.017
 5385.00    0.58371   0.57724    0.017
 5386.00    0.51487   0.57189    0.017
 5387.00    0.43581   0.56591    0.016
 5388.00    0.45156   0.56075    0.016
 5389.00    0.48842   0.55711    0.017
 5390.00    0.49124   0.55460    0.016
 5391.00    0.48801   0.55192    0.016
 5392.00    0.47229   0.54751    0.016
 5393.00    0.45488   0.54170    0.016
 5394.00    0.45200   0.53768    0.016
 5395.00    0.45052   0.53839    0.017
 5396.00    0.49640   0.54366    0.016
 5397.00    0.54512   0.55017    0.016
 5398.00    0.59102   0.55382    0.016
 5399.00    0.63631   0.55198    0.016
 5400.00    0.59119   0.54415    0.016
 5401.00    0.54592   0.53257    0.016
 5402.00    0.49638   0.52235    0.016
 5403.00    0.45169   0.51848    0.016
 5404.00    0.47286   0.52130    0.017
 5405.00    0.48702   0.52667    0.017
 5406.00    0.43824   0.53093    0.017
 5407.00    0.39408   0.53453    0.016
 5408.00    0.38047   0.53990    0.017
 5409.00    0.38608   0.54733    0.017
 5410.00    0.49050   0.55426    0.017
 5411.00    0.57779   0.55881    0.017
 5412.00    0.59401   0.56206    0.017
 5413.00    0.58997   0.56560    0.017
 5414.00    0.51637   0.56907    0.017
 5415.00    0.46818   0.57063    0.017
 5416.00    0.49353   0.56935    0.017
 5417.00    0.50135   0.56644    0.017
 5418.00    0.46589   0.56351    0.017
 5419.00    0.45679   0.56040    0.017
 5420.00    0.50382   0.55677    0.017
 5421.00    0.52604   0.55424    0.017
 5422.00    0.50237   0.55496    0.017
 5423.00    0.49444   0.55852    0.017
 5424.00    0.51195   0.56056    0.017
 5425.00    0.53139   0.55683    0.016
 5426.00    0.55360   0.54894    0.016
 5427.00    0.55817   0.54219    0.016
 5428.00    0.54073   0.53931    0.016
 5429.00    0.52663   0.53865    0.017
 5430.00    0.51621   0.53707    0.017
 5431.00    0.51891   0.53473    0.017
 5432.00    0.53433   0.53498    0.016
 5433.00    0.54259   0.54030    0.016
 5434.00    0.54472   0.55030    0.016
 5435.00    0.51979   0.56206    0.016
 5436.00    0.47448   0.57236    0.016
 5437.00    0.45302   0.57913    0.016
 5438.00    0.44733   0.58190    0.016
 5439.00    0.48525   0.58079    0.016
 5440.00    0.54843   0.57532    0.016
 5441.00    0.54556   0.56505    0.016
 5442.00    0.50935   0.55135    0.016
 5443.00    0.48513   0.53898    0.016
 5444.00    0.46614   0.53380    0.016
 5445.00    0.49975   0.53789    0.016
 5446.00    0.55308   0.54797    0.016
 5447.00    0.50849   0.55788    0.016
 5448.00    0.43275   0.56286    0.016
 5449.00    0.44035   0.56144    0.016
 5450.00    0.47012   0.55432    0.016
 5451.00    0.51679   0.54402    0.016
 5452.00    0.56713   0.53555    0.016
 5453.00    0.51443   0.53393    0.016
 5454.00    0.44393   0.54020    0.016
 5455.00    0.46190   0.55025    0.016
 5456.00    0.49147   0.55776    0.016
 5457.00    0.47023   0.55897    0.016
 5458.00    0.44429   0.55432    0.016
 5459.00    0.46941   0.54722    0.016
 5460.00    0.49739   0.54207    0.016
 5461.00    0.48808   0.54129    0.016
 5462.00    0.47824   0.54426    0.016
 5463.00    0.50065   0.54863    0.016
 5464.00    0.52290   0.55232    0.017
 5465.00    0.54161   0.55439    0.017
 5466.00    0.55765   0.55467    0.017
 5467.00    0.53942   0.55323    0.016
 5468.00    0.52057   0.55039    0.016
 5469.00    0.49631   0.54636    0.016
 5470.00    0.47021   0.54122    0.016
 5471.00    0.43228   0.53462    0.016
 5472.00    0.42141   0.52657    0.016
 5473.00    0.54613   0.51932    0.016
 5474.00    0.63935   0.51643    0.016
 5475.00    0.60466   0.51941    0.016
 5476.00    0.57198   0.52559    0.016
 5477.00    0.54606   0.53048    0.016
 5478.00    0.52512   0.53270   -2.000
 5479.00    0.51831   0.53469   -2.000
 5480.00    0.52113   0.53897   -2.000
 5481.00    0.54729   0.54490   -2.000
 5482.00    0.60236   0.54916   -2.000
 5483.00    0.71798   0.54935   -2.000
 5484.00    0.79092   0.54632   -2.000
 5485.00    0.78614   0.54316   -2.000
 5486.00    0.90054   0.54223   -2.000
 5487.00    1.20464   0.54362   -2.000
 5488.00    1.28824   0.54564   -2.000
 5489.00    1.06378   0.54671   -2.000
 5490.00    0.78336   0.54667   -2.000
 5491.00    0.43414   0.54605   -2.000
 5492.00    0.17212   0.54509   -2.000
 5493.00    0.00458   0.54379   -2.000
 5494.00    0.01580   0.54280   -2.000
 5495.00    0.19789   0.54299   -2.000
 5496.00    0.35226   0.54365   -2.000
 5497.00    0.48327   0.54283   -2.000
 5498.00    0.51113   0.53966   -2.000
 5499.00    0.46245   0.53579   -2.000
 5500.00    0.47254   0.53330   -2.000
 5501.00    0.52094   0.53221   -2.000
 5502.00    0.56380   0.53108    0.016
 5503.00    0.60350   0.52980    0.016
 5504.00    0.56913   0.52969    0.016
 5505.00    0.49796   0.53115    0.016
 5506.00    0.50514   0.53276    0.016
 5507.00    0.54600   0.53244    0.016
 5508.00    0.54769   0.52965    0.016
 5509.00    0.53495   0.52613    0.016
 5510.00    0.57472   0.52428    0.016
 5511.00    0.63086   0.52552    0.016
 5512.00    0.61545   0.52972    0.016
 5513.00    0.58143   0.53558    0.016
 5514.00    0.52063   0.54183    0.016
 5515.00    0.45415   0.54729    0.016
 5516.00    0.46803   0.55096    0.016
 5517.00    0.49542   0.55243    0.016
 5518.00    0.46498   0.55210    0.016
 5519.00    0.42721   0.55074    0.016
 5520.00    0.45030   0.54848    0.016
 5521.00    0.47875   0.54459    0.016
 5522.00    0.49405   0.53837    0.016
 5523.00    0.50867   0.53029    0.015
 5524.00    0.47164   0.52256    0.015
 5525.00    0.43424   0.51853    0.015
 5526.00    0.44182   0.52023    0.015
 5527.00    0.44800   0.52632    0.015
 5528.00    0.42380   0.53290    0.015
 5529.00    0.40528   0.53635    0.015
 5530.00    0.45592   0.53586    0.015
 5531.00    0.49783   0.53331    0.015
 5532.00    0.46700   0.53157    0.015
 5533.00    0.43515   0.53229    0.015
 5534.00    0.39695   0.53527    0.015
 5535.00    0.38704   0.53931    0.015
 5536.00    0.51540   0.54316    0.015
 5537.00    0.61212   0.54586    0.015
 5538.00    0.58328   0.54647    0.015
 5539.00    0.55929   0.54454    0.015
 5540.00    0.55135   0.54111    0.015
 5541.00    0.54085   0.53807    0.015
 5542.00    0.52326   0.53694    0.015
 5543.00    0.51643   0.53823    0.015
 5544.00    0.53527   0.54153    0.015
 5545.00    0.53876   0.54571    0.015
 5546.00    0.51059   0.54935    0.015
 5547.00    0.48387   0.55115    0.015
 5548.00    0.45975   0.55054    0.015
 5549.00    0.47138   0.54784    0.015
 5550.00    0.53908   0.54407    0.015
 5551.00    0.55726   0.54072    0.015
 5552.00    0.50727   0.53889    0.015
 5553.00    0.46894   0.53857    0.015
 5554.00    0.44475   0.53895    0.015
 5555.00    0.44242   0.53919    0.015
 5556.00    0.46344   0.53887    0.015
 5557.00    0.46932   0.53772    0.015
 5558.00    0.46094   0.53555    0.015
 5559.00    0.46382   0.53261    0.015
 5560.00    0.47607   0.52966    0.015
 5561.00    0.46114   0.52723    0.015
 5562.00    0.42633   0.52537    0.015
 5563.00    0.42994   0.52392    0.015
 5564.00    0.45822   0.52281    0.015
 5565.00    0.48100   0.52209    0.015
 5566.00    0.50068   0.52185    0.015
 5567.00    0.52225   0.52198    0.015
 5568.00    0.54474   0.52198    0.015
 5569.00    0.56592   0.52174    0.015
 5570.00    0.58653   0.52208    0.015
 5571.00    0.56623   0.52376    0.015
 5572.00    0.53112   0.52647    0.015
 5573.00    0.52351   0.52925    0.015
 5574.00    0.52431   0.53148    0.015
 5575.00    0.46591   0.53313    0.015
 5576.00    0.39244   0.53417    0.015
 5577.00    0.40728   0.53428    0.015
 5578.00    0.44041   0.53336    0.015
 5579.00    0.49373   0.53161    0.015
 5580.00    0.55034   0.52886    0.015
 5581.00    0.52754   0.52421    0.015
 5582.00    0.49504   0.51663    0.015
 5583.00    0.45095   0.50665    0.015
 5584.00    0.40589   0.49698    0.015
 5585.00    0.43056   0.49108    0.015
 5586.00    0.45859   0.49082    0.015
 5587.00    0.42152   0.49531    0.015
 5588.00    0.38393   0.50151    0.015
 5589.00    0.37359   0.50657    0.015
 5590.00    0.36490   0.50965    0.016
 5591.00    0.38920   0.51205    0.015
 5592.00    0.41241   0.51511    0.015
 5593.00    0.42296   0.51798    0.015
 5594.00    0.43260   0.51850    0.016
 5595.00    0.43489   0.51579    0.016
 5596.00    0.43328   0.51111    0.016
 5597.00    0.40805   0.50637    0.016
 5598.00    0.39287   0.50307    0.016
 5599.00    0.42559   0.50265    0.016
 5600.00    0.44322   0.50656    0.016
 5601.00    0.40228   0.51472    0.016
 5602.00    0.36449   0.52474    0.016
 5603.00    0.33689   0.53333    0.015
 5604.00    0.33011   0.53857    0.015
 5605.00    0.38033   0.54065    0.015
 5606.00    0.41663   0.54099    0.015
 5607.00    0.42028   0.54077    0.015
 5608.00    0.42953   0.53987    0.015
 5609.00    0.45012   0.53669    0.015
 5610.00    0.46190   0.52948    0.015
 5611.00    0.45812   0.51873    0.015
 5612.00    0.44593   0.50831    0.015
 5613.00    0.42074   0.50296    0.015
 5614.00    0.41196   0.50409    0.014
 5615.00    0.42544   0.50907    0.014
 5616.00    0.43072   0.51428    0.014
 5617.00    0.42618   0.51794    0.014
 5618.00    0.46464   0.51963    0.014
 5619.00    0.54839   0.51876    0.014
 5620.00    0.57153   0.51506    0.014
 5621.00    0.53834   0.51011    0.015
 5622.00    0.48998   0.50705    0.014
 5623.00    0.42917   0.50804    0.014
 5624.00    0.39209   0.51268    0.014
 5625.00    0.37211   0.51892    0.014
 5626.00    0.38142   0.52478    0.014
 5627.00    0.40926   0.52899    0.014
 5628.00    0.45376   0.53086    0.014
 5629.00    0.50748   0.53027    0.014
 5630.00    0.51479   0.52767    0.014
 5631.00    0.49976   0.52386    0.015
 5632.00    0.45985   0.51961    0.015
 5633.00    0.40960   0.51560    0.014
 5634.00    0.42207   0.51257    0.014
 5635.00    0.45681   0.51096    0.015
 5636.00    0.47566   0.51044    0.015
 5637.00    0.48975   0.51019    0.015
 5638.00    0.49668   0.50990    0.015
 5639.00    0.50182   0.51010    0.014
 5640.00    0.44982   0.51130    0.014
 5641.00    0.38626   0.51337    0.014
 5642.00    0.41250   0.51573    0.014
 5643.00    0.45295   0.51779    0.014
 5644.00    0.47690   0.51910    0.015
 5645.00    0.49890   0.51947    0.015
 5646.00    0.49417   0.51927    0.015
 5647.00    0.48731   0.51925    0.014
 5648.00    0.45745   0.51970    0.014
 5649.00    0.42657   0.51983    0.014
 5650.00    0.46501   0.51843    0.014
 5651.00    0.50209   0.51505    0.014
 5652.00    0.43397   0.51012    0.014
 5653.00    0.37002   0.50408    0.014
 5654.00    0.38295   0.49742    0.014
 5655.00    0.39814   0.49181    0.014
 5656.00    0.43836   0.48956    0.014
 5657.00    0.47121   0.49103    0.014
 5658.00    0.44686   0.49421    0.014
 5659.00    0.42360   0.49732    0.014
 5660.00    0.40668   0.50047    0.014
 5661.00    0.40179   0.50421    0.014
 5662.00    0.45283   0.50764    0.014
 5663.00    0.50023   0.50921    0.014
 5664.00    0.53375   0.50875    0.014
 5665.00    0.54850   0.50774    0.014
 5666.00    0.50368   0.50793    0.014
 5667.00    0.47485   0.51008    0.014
 5668.00    0.48908   0.51382    0.014
 5669.00    0.49076   0.51809    0.014
 5670.00    0.46347   0.52161    0.014
 5671.00    0.43966   0.52350    0.014
 5672.00    0.42281   0.52392    0.014
 5673.00    0.42745   0.52361    0.014
 5674.00    0.46946   0.52297    0.014
 5675.00    0.49577   0.52170    0.014
 5676.00    0.49817   0.51942    0.015
 5677.00    0.48607   0.51602    0.015
 5678.00    0.45457   0.51173    0.015
 5679.00    0.44793   0.50735    0.015
 5680.00    0.47056   0.50413    0.015
 5681.00    0.46931   0.50265    0.015
 5682.00    0.44324   0.50216    0.015
 5683.00    0.41132   0.50150    0.015
 5684.00    0.37405   0.50063    0.014
 5685.00    0.36310   0.50081    0.014
 5686.00    0.37343   0.50314    0.014
 5687.00    0.40302   0.50737    0.014
 5688.00    0.44632   0.51211    0.015
 5689.00    0.46199   0.51592    0.014
 5690.00    0.46046   0.51804    0.014
 5691.00    0.45598   0.51853    0.014
 5692.00    0.44990   0.51787    0.014
 5693.00    0.46114   0.51630    0.014
 5694.00    0.48057   0.51376    0.014
 5695.00    0.52667   0.51018    0.014
 5696.00    0.58365   0.50604    0.015
 5697.00    0.58404   0.50207    0.015
 5698.00    0.56469   0.49914    0.015
 5699.00    0.50971   0.49796    0.015
 5700.00    0.44424   0.49825    0.015
 5701.00    0.44292   0.49850    0.015
 5702.00    0.45723   0.49695    0.014
 5703.00    0.48372   0.49298    0.014
 5704.00    0.51260   0.48759    0.014
 5705.00    0.44821   0.48245    0.014
 5706.00    0.36949   0.47908    0.014
 5707.00    0.36300   0.47850    0.014
 5708.00    0.36469   0.48094    0.014
 5709.00    0.41581   0.48603    0.014
 5710.00    0.47066   0.49284    0.014
 5711.00    0.45101   0.49974    0.014
 5712.00    0.42833   0.50528    0.014
 5713.00    0.40602   0.50894    0.014
 5714.00    0.38497   0.51110    0.014
 5715.00    0.41619   0.51265    0.014
 5716.00    0.44675   0.51438    0.015
 5717.00    0.46605   0.51649    0.014
 5718.00    0.48620   0.51875    0.014
 5719.00    0.51538   0.52062    0.014
 5720.00    0.54204   0.52143    0.014
 5721.00    0.54969   0.52069    0.014
 5722.00    0.55139   0.51838    0.014
 5723.00    0.51911   0.51526    0.014
 5724.00    0.48308   0.51257    0.014
 5725.00    0.42998   0.51119    0.014
 5726.00    0.38800   0.51075    0.014
 5727.00    0.38737   0.51025    0.014
 5728.00    0.39165   0.50953    0.014
 5729.00    0.41125   0.50952    0.014
 5730.00    0.41622   0.51093    0.014
 5731.00    0.38250   0.51313    0.014
 5732.00    0.36618   0.51480    0.014
 5733.00    0.38930   0.51517    0.014
 5734.00    0.42036   0.51447    0.014
 5735.00    0.46700   0.51343    0.014
 5736.00    0.47787   0.51251    0.014
 5737.00    0.42746   0.51172    0.014
 5738.00    0.39677   0.51098    0.014
 5739.00    0.39566   0.51048    0.014
 5740.00    0.41094   0.51061    0.000
 5741.00    0.44782   0.51138    0.000
 5742.00    0.46622   0.51194    0.000
 5743.00    0.46314   0.51124    0.000
 5744.00    0.45466   0.50928    0.000
 5745.00    0.44066   0.50731    0.000
 5746.00    0.44061   0.50646    0.000
 5747.00    0.45319   0.50608    0.000
 5748.00    0.47725   0.50438    0.000
 5749.00    0.51045   0.50065    0.000
 5750.00    0.50719   0.49657    0.000
 5751.00    0.47838   0.49496    0.000
 5752.00    0.47275   0.49725    0.000
 5753.00    0.48135   0.50218    0.000
 5754.00    0.50679   0.50684    0.000
 5755.00    0.54126   0.50880    0.000
 5756.00    0.53450   0.50719    0.000
 5757.00    0.50853   0.50287    0.000
 5758.00    0.46472   0.49786    0.000
 5759.00    0.41374   0.49469    0.000
 5760.00    0.40272   0.49511    0.000
 5761.00    0.40536   0.49917    0.000
 5762.00    0.44609   0.50482    0.000
 5763.00    0.49778   0.50965    0.000
 5764.00    0.50016   0.51231    0.000
 5765.00    0.49080   0.51283    0.000
 5766.00    0.47507   0.51182    0.000
 5767.00    0.45812   0.50996    0.000
 5768.00    0.46674   0.50777    0.000
 5769.00    0.47916   0.50565    0.000
 5770.00    0.48790   0.50410    0.000
 5771.00    0.49623   0.50342    0.000
 5772.00    0.50644   0.50358    0.000
 5773.00    0.51680   0.50414    0.000
 5774.00    0.48053   0.50388    0.000
 5775.00    0.44254   0.50146    0.000
 5776.00    0.46048   0.49629    0.000
 5777.00    0.47869   0.48927    0.000
 5778.00    0.49822   0.48250    0.000
 5779.00    0.51624   0.47787    0.000
 5780.00    0.51008   0.47585    0.000
 5781.00    0.50327   0.47590    0.000
 5782.00    0.48989   0.47770    0.000
 5783.00    0.47958   0.48130    0.000
 5784.00    0.49144   0.48615    0.000
 5785.00    0.50082   0.49058    0.000
 5786.00    0.49639   0.49323    0.000
 5787.00    0.48607   0.49397    0.000
 5788.00    0.44961   0.49407    0.000
 5789.00    0.41948   0.49510    0.000
 5790.00    0.41245   0.49737    0.000
 5791.00    0.41902   0.49988   -2.000
 5792.00    0.46708   0.50126   -2.000
 5793.00    0.51440   0.50090   -2.000
 5794.00    0.55977   0.49973   -2.000
 5795.00    0.58245   0.49957   -2.000
 5796.00    0.55450   0.50157   -2.000
 5797.00    0.51298   0.50500   -2.000
 5798.00    0.44518   0.50786   -2.000
 5799.00    0.40727   0.50846   -2.000
 5800.00    0.41976   0.50647   -2.000
 5801.00    0.45463   0.50292   -2.000
 5802.00    0.52257   0.49969   -2.000
 5803.00    0.55534   0.49807   -2.000
 5804.00    0.54240   0.49826   -2.000
 5805.00    0.52344   0.49959   -2.000
 5806.00    0.49761   0.50127   -2.000
 5807.00    0.47054   0.50278   -2.000
 5808.00    0.44222   0.50371   -2.000
 5809.00    0.41535   0.50359   -2.000
 5810.00    0.38977   0.50215   -2.000
 5811.00    0.38357   0.49964    0.000
 5812.00    0.39258   0.49711    0.000
 5813.00    0.38618   0.49597    0.000
 5814.00    0.36914   0.49717    0.000
 5815.00    0.38117   0.50032    0.000
 5816.00    0.41078   0.50381    0.000
 5817.00    0.44035   0.50620    0.000
 5818.00    0.46990   0.50698    0.000
 5819.00    0.47732   0.50659    0.000
 5820.00    0.47461   0.50588    0.000
 5821.00    0.46101   0.50545    0.000
 5822.00    0.44311   0.50544    0.000
 5823.00    0.45404   0.50558    0.000
 5824.00    0.47467   0.50575    0.000
 5825.00    0.49594   0.50589    0.000
 5826.00    0.51739   0.50598    0.000
 5827.00    0.54226   0.50585    0.000
 5828.00    0.56793   0.50532    0.000
 5829.00    0.54727   0.50433    0.000
 5830.00    0.51795   0.50302    0.000
 5831.00    0.49752   0.50172    0.000
 5832.00    0.47838   0.50082    0.000
 5833.00    0.48498   0.50047    0.000
 5834.00    0.49429   0.50054    0.000
 5835.00    0.47853   0.50089    0.000
 5836.00    0.46108   0.50181    0.000
 5837.00    0.48330   0.50328    0.000
 5838.00    0.50683   0.50483    0.000
 5839.00    0.51171   0.50566    0.000
 5840.00    0.51604   0.50524    0.000
 5841.00    0.50347   0.50348    0.000
 5842.00    0.48973   0.50075    0.000
 5843.00    0.45836   0.49780    0.000
 5844.00    0.43169   0.49537    0.000
 5845.00    0.45053   0.49390    0.000
 5846.00    0.47061   0.49304    0.000
 5847.00    0.49936   0.49178    0.000
 5848.00    0.52284   0.48929    0.000
 5849.00    0.51790   0.48573    0.000
 5850.00    0.50716   0.48209    0.000
 5851.00    0.47126   0.47920    0.000
 5852.00    0.44776   0.47678    0.000
 5853.00    0.46846   0.47417    0.000
 5854.00    0.48189   0.47170    0.000
 5855.00    0.47353   0.47084    0.000
 5856.00    0.46100   0.47256    0.000
 5857.00    0.43783   0.47597    0.000
 5858.00    0.41990   0.47955    0.000
 5859.00    0.41350   0.48219    0.000
 5860.00    0.41742   0.48390    0.000
 5861.00    0.44100   0.48500    0.000
 5862.00    0.45764   0.48554    0.000
 5863.00    0.46272   0.48572    0.000
 5864.00    0.45728   0.48627    0.000
 5865.00    0.43648   0.48781    0.000
 5866.00    0.42604   0.48997    0.000
 5867.00    0.42889   0.49176    0.000
 5868.00    0.43010   0.49246    0.000
 5869.00    0.42944   0.49215    0.000
 5870.00    0.42734   0.49145    0.000
 5871.00    0.42379   0.49081    0.000
 5872.00    0.41740   0.49011    0.000
 5873.00    0.40852   0.48886    0.000
 5874.00    0.40720   0.48688    0.000
 5875.00    0.41173   0.48432    0.000
 5876.00    0.42381   0.48169    0.000
 5877.00    0.44103   0.47950    0.000
 5878.00    0.43759   0.47809    0.000
 5879.00    0.42185   0.47722    0.000
 5880.00    0.41463   0.47626    0.000
 5881.00    0.41185   0.47459    0.000
 5882.00    0.40630   0.47114    0.000
 5883.00    0.39951   0.46368    0.000
 5884.00    0.37866   0.44986    0.000
 5885.00    0.35236   0.43043    0.000
 5886.00    0.35498   0.41061    0.000
 5887.00    0.36714   0.39819    0.000
 5888.00    0.38260   0.39772    0.000
 5889.00    0.39896   0.40522    0.000
 5890.00    0.42415   0.41214    0.000
 5891.00    0.45134   0.41323    0.000
 5892.00    0.45729   0.40975    0.000
 5893.00    0.45937   0.40824    0.000
 5894.00    0.45404   0.41443    0.000
 5895.00    0.44768   0.42732    0.000
 5896.00    0.44829   0.44205    0.000
 5897.00    0.44960   0.45464    0.000
 5898.00    0.45796   0.46347    0.000
 5899.00    0.46676   0.46883    0.000
 5900.00    0.50081   0.47170    0.000
 5901.00    0.53543   0.47297    0.014
 5902.00    0.51553   0.47345    0.013
 5903.00    0.49581   0.47397    0.013
 5904.00    0.48118   0.47493    0.013
 5905.00    0.46694   0.47618    0.013
 5906.00    0.45829   0.47728    0.013
 5907.00    0.45078   0.47776    0.013
 5908.00    0.45390   0.47713    0.013
 5909.00    0.45105   0.47492    0.013
 5910.00    0.40768   0.47141    0.013
 5911.00    0.37176   0.46784    0.013
 5912.00    0.37504   0.46595    0.013
 5913.00    0.38218   0.46637    0.013
 5914.00    0.40574   0.46862    0.013
 5915.00    0.42307   0.47150    0.013
 5916.00    0.41865   0.47381    0.013
 5917.00    0.40987   0.47511    0.013
 5918.00    0.38832   0.47543    0.013
 5919.00    0.37190   0.47531    0.013
 5920.00    0.36840   0.47551    0.013
 5921.00    0.37179   0.47623    0.013
 5922.00    0.39010   0.47697    0.013
 5923.00    0.40562   0.47697    0.013
 5924.00    0.41590   0.47558    0.013
 5925.00    0.42901   0.47306    0.013
 5926.00    0.44674   0.47058    0.013
 5927.00    0.45336   0.46938    0.013
 5928.00    0.44402   0.46996    0.013
 5929.00    0.42474   0.47128    0.013
 5930.00    0.39291   0.47203    0.013
 5931.00    0.38751   0.47204    0.013
 5932.00    0.41152   0.47230    0.013
 5933.00    0.44129   0.47353    0.013
 5934.00    0.47672   0.47522    0.013
 5935.00    0.48793   0.47627    0.013
 5936.00    0.47818   0.47592    0.013
 5937.00    0.45887   0.47418    0.013
 5938.00    0.43228   0.47210    0.013
 5939.00    0.41080   0.47106    0.013
 5940.00    0.39274   0.47153    0.013
 5941.00    0.36837   0.47293    0.013
 5942.00    0.34031   0.47402    0.013
 5943.00    0.36062   0.47369    0.013
 5944.00    0.40570   0.47179    0.013
 5945.00    0.43417   0.46928    0.013
 5946.00    0.45529   0.46745    0.013
 5947.00    0.43911   0.46689    0.013
 5948.00    0.40873   0.46697    0.013
 5949.00    0.39180   0.46690    0.013
 5950.00    0.37923   0.46681    0.013
 5951.00    0.37850   0.46701    0.013
 5952.00    0.38098   0.46717    0.013
 5953.00    0.36198   0.46692    0.013
 5954.00    0.33821   0.46675    0.013
 5955.00    0.33591   0.46751    0.013
 5956.00    0.33741   0.46951    0.013
 5957.00    0.34868   0.47229    0.013
 5958.00    0.36126   0.47483    0.013
 5959.00    0.36063   0.47637    0.013
 5960.00    0.35873   0.47658    0.013
 5961.00    0.35985   0.47578    0.013
 5962.00    0.36116   0.47462    0.013
 5963.00    0.40215   0.47389    0.013
 5964.00    0.44402   0.47420    0.013
 5965.00    0.46350   0.47534    0.013
 5966.00    0.48340   0.47678    0.013
 5967.00    0.51366   0.47801    0.013
 5968.00    0.54022   0.47860    0.013
 5969.00    0.51697   0.47818    0.013
 5970.00    0.49272   0.47653    0.013
 5971.00    0.45954   0.47359    0.013
 5972.00    0.43091   0.46977    0.013
 5973.00    0.43222   0.46617    0.013
 5974.00    0.43049   0.46400    0.013
 5975.00    0.41318   0.46392    0.013
 5976.00    0.39830   0.46543    0.013
 5977.00    0.39352   0.46713    0.013
 5978.00    0.38751   0.46728    0.013
 5979.00    0.37732   0.46519    0.013
 5980.00    0.37082   0.46165    0.013
 5981.00    0.37498   0.45847    0.013
 5982.00    0.37475   0.45740    0.013
 5983.00    0.36370   0.45862    0.013
 5984.00    0.35632   0.46103    0.013
 5985.00    0.35673   0.46341    0.013
 5986.00    0.37304   0.46502    0.013
 5987.00    0.41868   0.46573    0.013
 5988.00    0.44235   0.46610    0.013
 5989.00    0.43057   0.46695    0.013
 5990.00    0.41146   0.46833    0.013
 5991.00    0.38201   0.46928    0.013
 5992.00    0.38304   0.46887    0.013
 5993.00    0.42202   0.46707    0.013
 5994.00    0.44542   0.46476    0.013
 5995.00    0.45171   0.46316    0.013
 5996.00    0.44048   0.46276    0.013
 5997.00    0.41229   0.46294    0.013
 5998.00    0.40083   0.46291    0.013
 5999.00    0.40364   0.46226    0.013
 6000.00    0.40692   0.46131    0.013
 6001.00    0.41055   0.46036    0.013
 6002.00    0.41972   0.45892    0.013
 6003.00    0.43255   0.45674    0.013
 6004.00    0.44500   0.45452    0.013
 6005.00    0.45721   0.45355    0.013
 6006.00    0.45988   0.45470    0.013
 6007.00    0.45772   0.45702    0.013
 6008.00    0.44635   0.45861    0.013
 6009.00    0.43095   0.45853    0.013
 6010.00    0.43087   0.45731    0.013
 6011.00    0.43653   0.45615    0.013
 6012.00    0.44303   0.45555    0.013
 6013.00    0.44980   0.45521    0.013
 6014.00    0.42732   0.45478    0.013
 6015.00    0.39708   0.45401    0.013
 6016.00    0.41098   0.45272    0.013
 6017.00    0.43445   0.45133    0.013
 6018.00    0.45051   0.45060    0.013
 6019.00    0.46530   0.45090    0.013
 6020.00    0.43442   0.45218    0.013
 6021.00    0.39757   0.45405    0.013
 6022.00    0.39600   0.45628    0.013
 6023.00    0.39767   0.45844    0.013
 6024.00    0.40255   0.46036    0.013
 6025.00    0.40762   0.46221    0.013
 6026.00    0.39628   0.46385    0.013
 6027.00    0.38482   0.46524    0.013
 6028.00    0.39734   0.46640    0.013
 6029.00    0.41087   0.46738    0.012
 6030.00    0.44759   0.46810    0.013
 6031.00    0.48186   0.46845    0.013
 6032.00    0.48473   0.46848    0.013
 6033.00    0.48284   0.46827    0.013
 6034.00    0.43996   0.46779    0.013
 6035.00    0.39934   0.46696    0.013
 6036.00    0.37310   0.46574    0.012
 6037.00    0.35652   0.46451    0.012
 6038.00    0.38825   0.46382    0.013
 6039.00    0.41894   0.46396    0.013
 6040.00    0.44538   0.46491    0.013
 6041.00    0.46111   0.46613    0.013
 6042.00    0.44086   0.46710    0.013
 6043.00    0.42027   0.46773    0.013
 6044.00    0.39875   0.46809    0.013
 6045.00    0.37949   0.46821    0.013
 6046.00    0.36571   0.46806    0.013
 6047.00    0.35519   0.46750    0.013
 6048.00    0.35150   0.46629    0.013
 6049.00    0.36367   0.46437    0.013
 6050.00    0.40466   0.46203    0.013
 6051.00    0.43273   0.45981    0.013
 6052.00    0.44029   0.45823    0.013
 6053.00    0.44095   0.45769    0.013
 6054.00    0.43202   0.45837    0.013
 6055.00    0.42478   0.45989    0.013
 6056.00    0.41961   0.46151    0.013
 6057.00    0.40744   0.46230    0.013
 6058.00    0.38770   0.46166    0.013
 6059.00    0.38158   0.45939    0.013
 6060.00    0.38846   0.45604    0.013
 6061.00    0.39697   0.45283    0.013
 6062.00    0.40684   0.45125    0.013
 6063.00    0.40344   0.45256    0.013
 6064.00    0.39021   0.45628    0.013
 6065.00    0.39328   0.46071    0.013
 6066.00    0.40695   0.46437    0.013
 6067.00    0.42483   0.46663    0.013
 6068.00    0.44510   0.46778    0.013
 6069.00    0.47195   0.46828    0.013
 6070.00    0.50206   0.46820    0.013
 6071.00    0.50645   0.46737    0.013
 6072.00    0.49981   0.46552    0.013
 6073.00    0.46561   0.46262    0.013
 6074.00    0.42128   0.45911    0.013
 6075.00    0.37896   0.45572    0.013
 6076.00    0.33727   0.45323    0.013
 6077.00    0.34988   0.45178    0.013
 6078.00    0.37657   0.45084    0.013
 6079.00    0.40075   0.45011    0.013
 6080.00    0.42439   0.44969    0.013
 6081.00    0.41255   0.44962    0.013
 6082.00    0.39477   0.44999    0.012
 6083.00    0.39382   0.45069    0.012
 6084.00    0.39498   0.45132    0.012
 6085.00    0.43297   0.45141    0.012
 6086.00    0.47420   0.45070    0.012
 6087.00    0.49562   0.44958    0.013
 6088.00    0.51601   0.44891    0.013
 6089.00    0.51406   0.44922    0.012
 6090.00    0.51169   0.45057    0.012
 6091.00    0.50730   0.45253    0.012
 6092.00    0.50146   0.45435    0.013
 6093.00    0.46435   0.45546    0.012
 6094.00    0.42905   0.45578    0.012
 6095.00    0.41560   0.45527    0.012
 6096.00    0.40488   0.45334    0.012
 6097.00    0.41676   0.44931    0.012
 6098.00    0.42585   0.44354    0.013
 6099.00    0.41757   0.43799    0.013
 6100.00    0.40923   0.43568    0.013
 6101.00    0.40058   0.43769    0.013
 6102.00    0.39345   0.44221    0.013
 6103.00    0.39233   0.44676    0.013
 6104.00    0.39950   0.44981    0.013
 6105.00    0.43395   0.45139    0.013
 6106.00    0.46636   0.45230    0.013
 6107.00    0.49309   0.45274    0.013
 6108.00    0.50622   0.45287    0.013
 6109.00    0.48691   0.45304    0.013
 6110.00    0.46523   0.45334    0.013
 6111.00    0.43866   0.45354    0.013
 6112.00    0.42429   0.45327    0.013
 6113.00    0.43174   0.45237    0.012
 6114.00    0.43807   0.45096    0.012
 6115.00    0.44267   0.44869    0.012
 6116.00    0.43473   0.44497    0.012
 6117.00    0.40956   0.44019    0.012
 6118.00    0.39620   0.43565    0.012
 6119.00    0.39713   0.43331    0.012
 6120.00    0.40178   0.43433    0.012
 6121.00    0.41040   0.43753    0.012
 6122.00    0.41229   0.44076    0.012
 6123.00    0.40784   0.44274    0.012
 6124.00    0.39749   0.44341    0.012
 6125.00    0.38224   0.44374    0.012
 6126.00    0.39135   0.44469    0.012
 6127.00    0.41825   0.44626    0.012
 6128.00    0.45158   0.44762    0.012
 6129.00    0.48903   0.44755    0.012
 6130.00    0.49621   0.44480    0.012
 6131.00    0.48640   0.43871    0.012
 6132.00    0.46539   0.43033    0.012
 6133.00    0.43891   0.42241    0.013
 6134.00    0.41640   0.41830    0.013
 6135.00    0.39556   0.41959    0.013
 6136.00    0.38896   0.42444    0.013
 6137.00    0.38751   0.42957    0.013
 6138.00    0.41020   0.43327    0.013
 6139.00    0.44027   0.43624    0.013
 6140.00    0.41524   0.43959    0.013
 6141.00    0.37622   0.44297    0.013
 6142.00    0.35989   0.44511    0.012
 6143.00    0.34826   0.44502    0.012
 6144.00    0.37573   0.44296    0.012
 6145.00    0.40954   0.44028    0.012
 6146.00    0.42828   0.43845    0.012
 6147.00    0.44518   0.43812    0.012
 6148.00    0.44896   0.43899    0.012
 6149.00    0.45165   0.44002    0.012
 6150.00    0.45594   0.44025    0.012
 6151.00    0.46031   0.43937    0.012
 6152.00    0.44356   0.43798    0.012
 6153.00    0.42644   0.43661    0.012
 6154.00    0.40575   0.43490    0.012
 6155.00    0.38773   0.43182    0.012
 6156.00    0.42235   0.42627    0.012
 6157.00    0.45638   0.41822    0.013
 6158.00    0.48355   0.40978    0.013
 6159.00    0.50624   0.40427    0.013
 6160.00    0.49305   0.40384    0.013
 6161.00    0.47700   0.40800    0.013
 6162.00    0.44377   0.41393    0.013
 6163.00    0.41483   0.41844    0.013
 6164.00    0.40631   0.41984    0.013
 6165.00    0.39673   0.41840    0.013
 6166.00    0.38303   0.41624    0.012
 6167.00    0.36466   0.41597    0.012
 6168.00    0.33119   0.41844    0.012
 6169.00    0.30971   0.42237    0.012
 6170.00    0.32096   0.42601    0.012
 6171.00    0.33360   0.42834    0.012
 6172.00    0.34950   0.42939    0.012
 6173.00    0.35623   0.42995    0.012
 6174.00    0.34439   0.43070    0.012
 6175.00    0.33963   0.43181    0.012
 6176.00    0.34735   0.43306    0.012
 6177.00    0.35679   0.43437    0.012
 6178.00    0.36888   0.43567    0.012
 6179.00    0.38154   0.43663    0.012
 6180.00    0.39498   0.43687    0.012
 6181.00    0.41021   0.43612    0.012
 6182.00    0.42757   0.43424    0.012
 6183.00    0.43980   0.43154    0.012
 6184.00    0.44664   0.42843    0.012
 6185.00    0.44459   0.42497    0.012
 6186.00    0.43429   0.42129    0.012
 6187.00    0.41918   0.41784    0.013
 6188.00    0.40013   0.41583    0.013
 6189.00    0.37844   0.41679    0.013
 6190.00    0.35485   0.42052    0.012
 6191.00    0.35721   0.42544    0.012
 6192.00    0.37595   0.42977    0.012
 6193.00    0.42402   0.43209    0.012
 6194.00    0.48828   0.43207    0.012
 6195.00    0.59713   0.43030    0.013
 6196.00    0.72739   0.42810   -2.000
 6197.00    0.89978   0.42705   -2.000
 6198.00    1.08964   0.42791   -2.000
 6199.00    1.10433   0.43014   -2.000
 6200.00    1.05694   0.43260   -2.000
 6201.00    0.83581   0.43437   -2.000
 6202.00    0.56268   0.43525   -2.000
 6203.00    0.40449   0.43553   -2.000
 6204.00    0.27486   0.43537   -2.000
 6205.00    0.26965   0.43474   -2.000
 6206.00    0.28951   0.43339   -2.000
 6207.00    0.34933   0.43093   -2.000
 6208.00    0.41546   0.42725    0.013
 6209.00    0.41973   0.42246    0.013
 6210.00    0.41676   0.41738    0.013
 6211.00    0.39106   0.41342    0.012
 6212.00    0.36356   0.41152    0.012
 6213.00    0.36320   0.41164    0.012
 6214.00    0.36403   0.41275    0.012
 6215.00    0.36550   0.41353    0.012
 6216.00    0.36676   0.41368    0.012
 6217.00    0.35732   0.41392    0.012
 6218.00    0.34877   0.41485    0.012
 6219.00    0.35646   0.41648    0.012
 6220.00    0.36488   0.41821    0.012
 6221.00    0.38139   0.41951    0.012
 6222.00    0.39637   0.42020    0.012
 6223.00    0.39951   0.41993    0.012
 6224.00    0.39795   0.41824    0.012
 6225.00    0.36888   0.41485    0.012
 6226.00    0.34687   0.41012    0.012
 6227.00    0.35755   0.40580    0.012
 6228.00    0.36762   0.40408    0.012
 6229.00    0.37535   0.40578    0.012
 6230.00    0.38265   0.41020    0.012
 6231.00    0.38860   0.41541    0.012
 6232.00    0.38605   0.41897    0.012
 6233.00    0.36068   0.41964    0.012
 6234.00    0.34381   0.41769    0.012
 6235.00    0.34648   0.41442    0.012
 6236.00    0.35688   0.41124    0.012
 6237.00    0.38265   0.40898    0.012
 6238.00    0.40222   0.40751    0.012
 6239.00    0.41103   0.40600    0.013
 6240.00    0.40979   0.40437    0.013
 6241.00    0.39329   0.40313    0.014
 6242.00    0.37120   0.40278    0.015
 6243.00    0.34165   0.40399    0.015
 6244.00    0.30585   0.40678    0.015
 6245.00    0.26269   0.40998    0.015
 6246.00    0.25918   0.41205    0.015
 6247.00    0.29679   0.41182    0.015
 6248.00    0.32911   0.40907    0.015
 6249.00    0.35659   0.40500    0.015
 6250.00    0.37652   0.40128    0.015
 6251.00    0.39037   0.39872    0.015
 6252.00    0.40145   0.39721    0.014
 6253.00    0.41056   0.39637    0.013
 6254.00    0.41536   0.39618    0.012
 6255.00    0.41749   0.39718    0.012
 6256.00    0.41487   0.39995    0.012
 6257.00    0.40966   0.40408    0.012
 6258.00    0.42512   0.40857    0.012
 6259.00    0.45036   0.41244    0.013
 6260.00    0.48513   0.41468    0.014
 6261.00    0.52379   0.41524    0.015
 6262.00    0.49565   0.41506    0.015
 6263.00    0.44425   0.41494    0.016
 6264.00    0.35765   0.41497    0.015
 6265.00    0.26074   0.41504    0.015
 6266.00    0.24082   0.41511    0.014
 6267.00    0.23961   0.41533    0.013
 6268.00    0.26399   0.41601    0.013
 6269.00    0.29338   0.41712    0.012
 6270.00    0.32295   0.41823    0.012
 6271.00    0.35255   0.41890    0.012
 6272.00    0.35392   0.41897    0.012
 6273.00    0.35211   0.41827    0.012
 6274.00    0.34048   0.41677    0.012
 6275.00    0.32812   0.41466    0.012
 6276.00    0.34211   0.41233    0.012
 6277.00    0.35715   0.41070    0.012
 6278.00    0.36291   0.41051    0.012
 6279.00    0.36902   0.41173    0.012
 6280.00    0.39200   0.41394    0.000
 6281.00    0.41469   0.41634    0.000
 6282.00    0.43243   0.41846    0.000
 6283.00    0.45077   0.42029    0.000
 6284.00    0.47543   0.42163    0.000
 6285.00    0.49573   0.42220    0.000
 6286.00    0.48352   0.42169    0.000
 6287.00    0.46962   0.42020    0.000
 6288.00    0.44607   0.41840    0.000
 6289.00    0.42489   0.41683    0.000
 6290.00    0.41444   0.41571    0.000
 6291.00    0.40444   0.41469    0.000
 6292.00    0.39611   0.41311    0.000
 6293.00    0.39388   0.41100    0.000
 6294.00    0.41063   0.40892    0.000
 6295.00    0.42401   0.40721    0.000
 6296.00    0.42854   0.40585    0.000
 6297.00    0.42979   0.40465    0.000
 6298.00    0.42366   0.40388    0.000
 6299.00    0.42960   0.40422    0.000
 6300.00    0.45921   0.40592    0.000
 6301.00    0.47597   0.40860    0.000
 6302.00    0.47076   0.41168    0.000
 6303.00    0.44923   0.41462    0.000
 6304.00    0.40327   0.41675    0.000
 6305.00    0.36694   0.41759    0.000
 6306.00    0.34330   0.41706    0.000
 6307.00    0.33114   0.41545    0.000
 6308.00    0.33227   0.41335    0.000
 6309.00    0.34018   0.41122    0.000
 6310.00    0.35504   0.40896    0.000
 6311.00    0.37629   0.40641    0.000
 6312.00    0.40329   0.40391    0.000
 6313.00    0.41639   0.40165    0.000
 6314.00    0.41842   0.39991    0.000
 6315.00    0.41031   0.39953    0.000
 6316.00    0.39511   0.40085    0.000
 6317.00    0.38235   0.40330    0.000
 6318.00    0.37109   0.40630    0.000
 6319.00    0.36012   0.40935    0.000
 6320.00    0.34931   0.41206    0.000
 6321.00    0.33639   0.41421    0.012
 6322.00    0.32250   0.41568    0.012
 6323.00    0.32470   0.41638    0.012
 6324.00    0.33335   0.41643    0.012
 6325.00    0.34324   0.41617    0.012
 6326.00    0.35356   0.41574    0.012
 6327.00    0.33649   0.41535    0.012
 6328.00    0.31155   0.41497    0.012
 6329.00    0.29214   0.41401    0.012
 6330.00    0.27405   0.41179    0.011
 6331.00    0.28502   0.40823    0.011
 6332.00    0.30155   0.40441    0.011
 6333.00    0.33661   0.40196    0.011
 6334.00    0.37442   0.40170    0.011
 6335.00    0.39045   0.40336    0.011
 6336.00    0.40411   0.40596    0.012
 6337.00    0.41221   0.40812    0.012
 6338.00    0.41992   0.40869    0.012
 6339.00    0.41719   0.40758    0.012
 6340.00    0.41408   0.40549    0.011
 6341.00    0.39285   0.40356    0.012
 6342.00    0.37178   0.40256    0.012
 6343.00    0.35898   0.40282    0.012
 6344.00    0.34623   0.40451    0.012
 6345.00    0.33422   0.40707    0.012
 6346.00    0.32404   0.40959    0.012
 6347.00    0.33223   0.41147    0.012
 6348.00    0.33816   0.41218    0.012
 6349.00    0.32772   0.41141    0.012
 6350.00    0.31563   0.40945    0.012
 6351.00    0.29443   0.40696    0.012
 6352.00    0.27928   0.40460    0.011
 6353.00    0.29094   0.40236    0.011
 6354.00    0.30088   0.39991    0.011
 6355.00    0.30464   0.39728    0.011
 6356.00    0.30589   0.39475    0.011
 6357.00    0.29955   0.39247    0.011
 6358.00    0.30413   0.39089    0.011
 6359.00    0.33698   0.39062    0.011
 6360.00    0.36295   0.39183    0.012
 6361.00    0.37360   0.39431    0.012
 6362.00    0.37745   0.39758    0.012
 6363.00    0.36818   0.40086    0.012
 6364.00    0.36159   0.40337    0.012
 6365.00    0.35954   0.40470    0.012
 6366.00    0.36769   0.40504    0.012
 6367.00    0.39091   0.40526    0.012
 6368.00    0.40587   0.40624    0.012
 6369.00    0.41014   0.40803    0.012
 6370.00    0.40906   0.41000    0.012
 6371.00    0.40186   0.41147    0.012
 6372.00    0.39246   0.41197    0.012
 6373.00    0.38083   0.41135    0.012
 6374.00    0.36308   0.40986    0.012
 6375.00    0.33988   0.40810    0.012
 6376.00    0.31379   0.40658    0.012
 6377.00    0.28544   0.40562    0.012
 6378.00    0.28607   0.40539    0.012
 6379.00    0.30666   0.40560    0.012
 6380.00    0.31783   0.40587    0.011
 6381.00    0.32332   0.40632    0.011
 6382.00    0.33590   0.40712    0.011
 6383.00    0.35221   0.40813    0.011
 6384.00    0.37066   0.40905    0.011
 6385.00    0.39008   0.40947    0.011
 6386.00    0.39195   0.40891    0.011
 6387.00    0.38692   0.40702    0.011
 6388.00    0.36749   0.40392    0.011
 6389.00    0.34322   0.40048    0.012
 6390.00    0.33389   0.39841    0.012
 6391.00    0.32877   0.39877    0.012
 6392.00    0.33781   0.40079    0.012
 6393.00    0.35013   0.40285    0.012
 6394.00    0.35886   0.40328    0.012
 6395.00    0.36692   0.40130    0.013
 6396.00    0.35735   0.39844    0.012
 6397.00    0.34524   0.39745    0.012
 6398.00    0.33272   0.39919    0.012
 6399.00    0.32016   0.40258    0.012
 6400.00    0.34464   0.40599    0.012
 6401.00    0.37160   0.40768    0.012
 6402.00    0.38500   0.40696    0.012
 6403.00    0.39797   0.40462    0.012
 6404.00    0.37454   0.40203    0.012
 6405.00    0.35205   0.40041    0.011
 6406.00    0.35858   0.39968    0.012
 6407.00    0.36448   0.39919    0.012
 6408.00    0.36094   0.39912    0.011
 6409.00    0.35796   0.39951    0.011
 6410.00    0.36031   0.40003    0.011
 6411.00    0.36411   0.40072    0.011
 6412.00    0.37805   0.40135    0.011
 6413.00    0.38710   0.40128    0.011
 6414.00    0.36982   0.40033    0.011
 6415.00    0.35478   0.39857    0.011
 6416.00    0.34940   0.39647    0.011
 6417.00    0.34465   0.39533    0.012
 6418.00    0.34218   0.39631    0.012
 6419.00    0.34531   0.39929    0.012
 6420.00    0.36518   0.40301    0.012
 6421.00    0.37956   0.40632    0.012
 6422.00    0.37996   0.40854    0.012
 6423.00    0.37265   0.40929    0.012
 6424.00    0.34844   0.40844    0.012
 6425.00    0.33368   0.40595    0.012
 6426.00    0.33687   0.40210    0.012
 6427.00    0.34465   0.39823    0.012
 6428.00    0.36004   0.39610    0.012
 6429.00    0.36612   0.39639    0.012
 6430.00    0.35865   0.39855    0.012
 6431.00    0.34331   0.40114    0.012
 6432.00    0.31791   0.40246    0.011
 6433.00    0.30167   0.40164    0.011
 6434.00    0.29575   0.39897    0.011
 6435.00    0.30295   0.39633    0.011
 6436.00    0.32321   0.39594    0.011
 6437.00    0.34001   0.39816    0.011
 6438.00    0.35380   0.40187    0.011
 6439.00    0.37175   0.40577    0.011
 6440.00    0.39294   0.40860    0.012
 6441.00    0.40033   0.40980    0.012
 6442.00    0.39836   0.40936    0.012
 6443.00    0.38926   0.40706    0.012
 6444.00    0.37592   0.40265    0.012
 6445.00    0.37646   0.39664    0.012
 6446.00    0.38420   0.39128    0.012
 6447.00    0.39255   0.38891    0.012
 6448.00    0.40117   0.38967    0.012
 6449.00    0.39216   0.39212    0.012
 6450.00    0.37632   0.39425    0.012
 6451.00    0.36421   0.39458    0.012
 6452.00    0.35332   0.39382    0.012
 6453.00    0.35894   0.39396    0.012
 6454.00    0.36912   0.39571    0.011
 6455.00    0.38602   0.39806    0.011
 6456.00    0.40444   0.39935    0.011
 6457.00    0.41039   0.39810    0.011
 6458.00    0.41407   0.39449    0.011
 6459.00    0.39508   0.39109    0.011
 6460.00    0.37293   0.39022    0.011
 6461.00    0.34208   0.39200    0.011
 6462.00    0.31036   0.39549    0.011
 6463.00    0.32553   0.39906    0.011
 6464.00    0.34365   0.40102    0.012
 6465.00    0.34911   0.40101    0.012
 6466.00    0.35413   0.39972    0.012
 6467.00    0.33520   0.39798    0.012
 6468.00    0.31777   0.39670    0.012
 6469.00    0.34214   0.39641    0.012
 6470.00    0.36557   0.39665    0.012
 6471.00    0.37586   0.39702    0.012
 6472.00    0.38317   0.39760    0.012
 6473.00    0.36286   0.39821    0.012
 6474.00    0.34628   0.39846    0.012
 6475.00    0.35502   0.39806    0.012
 6476.00    0.36629   0.39663    0.012
 6477.00    0.39086   0.39392    0.012
 6478.00    0.41342   0.39085    0.011
 6479.00    0.42746   0.38885    0.011
 6480.00    0.43644   0.38863    0.011
 6481.00    0.42774   0.38999    0.011
 6482.00    0.41491   0.39216    0.011
 6483.00    0.38991   0.39408    0.011
 6484.00    0.37921   0.39491    0.011
 6485.00    0.40427   0.39421    0.011
 6486.00    0.42094   0.39176    0.011
 6487.00    0.41955   0.38752    0.011
 6488.00    0.40842   0.38143    0.011
 6489.00    0.37906   0.37357    0.011
 6490.00    0.35300   0.36491    0.011
 6491.00    0.33233   0.35758    0.012
 6492.00    0.31650   0.35343    0.012
 6493.00    0.30759   0.35331    0.012
 6494.00    0.29692   0.35694    0.012
 6495.00    0.28403   0.36274    0.012
 6496.00    0.27216   0.36930    0.012
 6497.00    0.26141   0.37563    0.012
 6498.00    0.27177   0.38100    0.012
 6499.00    0.30280   0.38529    0.012
 6500.00    0.33715   0.38854    0.012
 6501.00    0.37437   0.39074    0.012
 6502.00    0.39628   0.39203    0.012
 6503.00    0.40652   0.39248    0.011
 6504.00    0.39626   0.39228    0.011
 6505.00    0.37228   0.39188    0.011
 6506.00    0.35722   0.39164    0.011
 6507.00    0.34740   0.39154    0.011
 6508.00    0.34958   0.39135    0.011
 6509.00    0.35791   0.39070    0.011
 6510.00    0.36292   0.38917    0.011
 6511.00    0.36648   0.38673    0.012
 6512.00    0.35684   0.38398    0.012
 6513.00    0.34218   0.38170    0.011
 6514.00    0.36236   0.38048    0.012
 6515.00    0.39379   0.38075    0.012
 6516.00    0.41718   0.38250    0.012
 6517.00    0.43840   0.38492    0.012
 6518.00    0.43532   0.38713    0.012
 6519.00    0.42686   0.38860    0.012
 6520.00    0.40671   0.38907    0.012
 6521.00    0.38450   0.38851    0.012
 6522.00    0.38894   0.38717    0.012
 6523.00    0.39697   0.38571    0.011
 6524.00    0.38268   0.38472    0.011
 6525.00    0.36625   0.38432    0.011
 6526.00    0.34802   0.38423    0.011
 6527.00    0.32968   0.38393    0.011
 6528.00    0.32580   0.38318    0.000
 6529.00    0.32227   0.38227    0.000
 6530.00    0.31580   0.38179    0.000
 6531.00    0.30912   0.38199    0.000
 6532.00    0.29691   0.38258    0.000
 6533.00    0.28582   0.38317    0.000
 6534.00    0.28952   0.38361    0.000
 6535.00    0.29530   0.38384    0.000
 6536.00    0.31960   0.38365    0.000
 6537.00    0.34295   0.38278    0.000
 6538.00    0.36001   0.38100    0.000
 6539.00    0.37753   0.37831    0.000
 6540.00    0.39743   0.37490    0.000
 6541.00    0.41605   0.37111    0.000
 6542.00    0.42935   0.36768    0.000
 6543.00    0.44216   0.36545    0.000
 6544.00    0.45322   0.36453    0.000
 6545.00    0.45969   0.36436    0.000
 6546.00    0.45292   0.36409    0.000
 6547.00    0.44030   0.36287    0.000
 6548.00    0.41333   0.36035    0.000
 6549.00    0.39814   0.35671    0.000
 6550.00    0.40793   0.35234    0.000
 6551.00    0.41645   0.34779    0.000
 6552.00    0.42263   0.34343    0.000
 6553.00    0.42499   0.33905    0.000
 6554.00    0.42121   0.33357    0.000
 6555.00    0.45984   0.32540    0.000
 6556.00    0.55838   0.31325    0.000
 6557.00    0.69408   0.29709    0.000
 6558.00    0.87595   0.28012    0.000
 6559.00    0.99203   0.26887    0.000
 6560.00    1.03604   0.26840    0.000
 6561.00    0.99564   0.27839    0.000
 6562.00    0.87367   0.29490    0.000
 6563.00    0.73320   0.31248    0.000
 6564.00    0.57695   0.32629    0.000
 6565.00    0.47946   0.33498    0.000
 6566.00    0.42605   0.34003    0.000
 6567.00    0.39504   0.34295    0.000
 6568.00    0.37880   0.34465    0.000
 6569.00    0.36578   0.34591    0.000
 6570.00    0.35464   0.34739    0.000
 6571.00    0.34385   0.34972    0.000
 6572.00    0.33324   0.35328    0.000
 6573.00    0.33704   0.35763    0.000
 6574.00    0.34710   0.36176    0.000
 6575.00    0.37069   0.36476    0.000
 6576.00    0.39933   0.36627    0.000
 6577.00    0.45692   0.36677    0.000
 6578.00    0.52368   0.36708    0.000
 6579.00    0.57969   0.36761    0.000
 6580.00    0.63286   0.36833    0.000
 6581.00    0.62943   0.36907    0.000
 6582.00    0.61376   0.36976    0.000
 6583.00    0.56235   0.37059    0.000
 6584.00    0.50482   0.37159    0.000
 6585.00    0.43650   0.37230    0.000
 6586.00    0.36677   0.37198    0.000
 6587.00    0.34863   0.36996    0.000
 6588.00    0.33520   0.36637    0.000
 6589.00    0.35157   0.36271    0.000
 6590.00    0.36959   0.36077    0.000
 6591.00    0.37709   0.36116    0.000
 6592.00    0.38409   0.36328    0.000
 6593.00    0.36582   0.36605    0.000
 6594.00    0.34846   0.36855    0.000
 6595.00    0.35207   0.37059    0.000
 6596.00    0.35603   0.37248    0.000
 6597.00    0.36454   0.37420    0.000
 6598.00    0.37228   0.37534    0.000
 6599.00    0.37339   0.37548    0.000
 6600.00    0.37186   0.37450    0.000
 6601.00    0.35361   0.37278    0.000
 6602.00    0.33926   0.37085    0.000
 6603.00    0.34438   0.36906    0.000
 6604.00    0.35128   0.36769    0.000
 6605.00    0.36536   0.36715    0.000
 6606.00    0.37255   0.36778    0.000
 6607.00    0.35663   0.36933    0.000
 6608.00    0.34805   0.37115    0.000
 6609.00    0.36020   0.37277    0.012
 6610.00    0.36731   0.37405    0.012
 6611.00    0.36221   0.37502    0.012
 6612.00    0.34694   0.37577    0.012
 6613.00    0.31047   0.37641    0.011
 6614.00    0.28154   0.37696    0.011
 6615.00    0.26629   0.37736    0.011
 6616.00    0.26721   0.37755    0.011
 6617.00    0.29379   0.37739    0.011
 6618.00    0.31331   0.37660    0.011
 6619.00    0.32301   0.37506    0.011
 6620.00    0.33455   0.37309    0.011
 6621.00    0.34833   0.37144    0.011
 6622.00    0.36425   0.37059    0.011
 6623.00    0.38249   0.37049    0.011
 6624.00    0.37545   0.37079    0.011
 6625.00    0.34433   0.37090    0.011
 6626.00    0.32266   0.37029    0.011
 6627.00    0.30892   0.36885    0.011
 6628.00    0.32058   0.36677    0.011
 6629.00    0.35101   0.36462    0.011
 6630.00    0.36799   0.36332    0.012
 6631.00    0.37624   0.36346    0.011
 6632.00    0.37423   0.36488    0.012
 6633.00    0.36638   0.36694    0.012
 6634.00    0.35790   0.36879    0.012
 6635.00    0.34911   0.36983    0.012
 6636.00    0.34793   0.37006    0.012
 6637.00    0.35000   0.36963    0.011
 6638.00    0.35474   0.36857    0.011
 6639.00    0.36044   0.36726    0.011
 6640.00    0.37383   0.36637    0.011
 6641.00    0.38960   0.36618    0.011
 6642.00    0.37756   0.36666    0.011
 6643.00    0.35832   0.36762    0.011
 6644.00    0.34506   0.36867    0.011
 6645.00    0.33306   0.36938    0.011
 6646.00    0.33638   0.36965    0.011
 6647.00    0.34225   0.36960    0.011
 6648.00    0.33694   0.36937    0.011
 6649.00    0.33022   0.36904    0.011
 6650.00    0.34068   0.36876    0.011
 6651.00    0.35263   0.36859    0.011
 6652.00    0.34810   0.36848    0.011
 6653.00    0.34274   0.36839    0.012
 6654.00    0.35996   0.36817    0.012
 6655.00    0.37768   0.36757    0.012
 6656.00    0.40148   0.36645    0.011
 6657.00    0.42297   0.36472    0.011
 6658.00    0.39577   0.36251    0.011
 6659.00    0.36895   0.36042    0.011
 6660.00    0.34672   0.35914    0.011
 6661.00    0.32747   0.35888    0.011
 6662.00    0.33290   0.35945    0.011
 6663.00    0.33746   0.36064    0.011
 6664.00    0.33664   0.36216    0.011
 6665.00    0.33752   0.36378    0.011
 6666.00    0.34664   0.36538    0.011
 6667.00    0.35816   0.36676    0.011
 6668.00    0.37913   0.36773    0.011
 6669.00    0.39445   0.36807    0.011
 6670.00    0.39121   0.36760    0.011
 6671.00    0.37823   0.36610    0.011
 6672.00    0.33818   0.36339    0.012
 6673.00    0.30805   0.35987    0.012
 6674.00    0.30148   0.35687    0.012
 6675.00    0.30715   0.35553    0.012
 6676.00    0.33795   0.35607    0.012
 6677.00    0.34975   0.35807    0.012
 6678.00    0.32764   0.36070    0.012
 6679.00    0.30927   0.36300    0.011
 6680.00    0.29677   0.36451    0.011
 6681.00    0.29216   0.36536    0.011
 6682.00    0.29838   0.36571    0.011
 6683.00    0.31078   0.36572    0.011
 6684.00    0.33063   0.36560    0.011
 6685.00    0.33902   0.36553    0.011
 6686.00    0.33522   0.36555    0.011
 6687.00    0.33526   0.36553    0.011
 6688.00    0.33893   0.36533    0.011
 6689.00    0.34044   0.36473    0.011
 6690.00    0.34016   0.36352    0.011
 6691.00    0.34745   0.36178    0.011
 6692.00    0.36027   0.36001    0.011
 6693.00    0.36057   0.35877    0.011
 6694.00    0.35287   0.35847    0.011
 6695.00    0.33332   0.35915    0.012
 6696.00    0.30714   0.36034    0.000
 6697.00    0.30936   0.36132    0.000
 6698.00    0.32541   0.36154    0.000
 6699.00    0.35151   0.36098    0.000
 6700.00    0.38185   0.36010    0.000
 6701.00    0.38510   0.35946    0.000
 6702.00    0.37860   0.35928    0.000
 6703.00    0.37285   0.35948    0.000
 6704.00    0.36732   0.35979    0.000
 6705.00    0.35959   0.35987    0.000
 6706.00    0.35129   0.35959    0.000
 6707.00    0.35878   0.35902    0.000
 6708.00    0.36953   0.35808    0.000
 6709.00    0.40479   0.35668    0.000
 6710.00    0.44401   0.35479    0.000
 6711.00    0.47445   0.35242    0.000
 6712.00    0.50382   0.34989    0.000
 6713.00    0.51117   0.34800    0.000
 6714.00    0.51669   0.34751    0.000
 6715.00    0.49001   0.34847    0.000
 6716.00    0.46180   0.35035    0.000
 6717.00    0.43131   0.35253    0.000
 6718.00    0.40151   0.35448    0.000
 6719.00    0.41175   0.35580    0.000
 6720.00    0.42083   0.35642    0.000
 6721.00    0.40730   0.35651    0.000
 6722.00    0.39507   0.35639    0.000
 6723.00    0.39787   0.35632    0.000
 6724.00    0.40716   0.35650    0.000
 6725.00    0.46817   0.35703    0.000
 6726.00    0.51755   0.35771    0.000
 6727.00    0.49715   0.35816    0.000
 6728.00    0.47553   0.35819    0.000
 6729.00    0.44813   0.35789    0.000
 6730.00    0.42520   0.35745    0.000
 6731.00    0.41952   0.35699    0.000
 6732.00    0.41555   0.35642    0.000
 6733.00    0.41709   0.35563    0.000
 6734.00    0.40779   0.35463    0.000
 6735.00    0.36895   0.35367    0.000
 6736.00    0.34209   0.35291    0.000
 6737.00    0.34326   0.35235    0.000
 6738.00    0.34149   0.35193    0.000
 6739.00    0.33376   0.35168    0.000
 6740.00    0.32633   0.35155    0.000
 6741.00    0.31940   0.35142    0.000
 6742.00    0.31894   0.35123    0.000
 6743.00    0.32843   0.35084    0.000
 6744.00    0.33207   0.35011    0.000
 6745.00    0.32781   0.34923    0.000
 6746.00    0.32537   0.34856    0.000
 6747.00    0.32512   0.34828    0.000
 6748.00    0.32991   0.34836    0.000
 6749.00    0.34002   0.34890    0.000
 6750.00    0.34744   0.34975    0.000
 6751.00    0.35237   0.35073    0.000
 6752.00    0.35347   0.35186    0.000
 6753.00    0.35145   0.35317    0.012
 6754.00    0.34063   0.35450    0.012
 6755.00    0.32350   0.35569    0.013
 6756.00    0.30570   0.35658    0.013
 6757.00    0.28748   0.35701    0.013
 6758.00    0.30887   0.35700    0.013
 6759.00    0.35210   0.35660    0.013
 6760.00    0.39909   0.35579    0.013
 6761.00    0.44788   0.35455    0.014
 6762.00    0.42146   0.35291    0.014
 6763.00    0.36392   0.35124    0.014
 6764.00    0.36584   0.34997    0.014
 6765.00    0.38878   0.34923    0.014
 6766.00    0.41619   0.34902    0.014
 6767.00    0.44493   0.34936    0.013
 6768.00    0.42875   0.35022    0.013
 6769.00    0.40144   0.35145    0.013
 6770.00    0.39213   0.35297    0.013
 6771.00    0.38643   0.35454    0.012
 6772.00    0.41818   0.35580    0.012
 6773.00    0.45580   0.35659    0.012
 6774.00    0.44125   0.35692    0.012
 6775.00    0.42062   0.35676    0.012
 6776.00    0.38281   0.35597    0.012
 6777.00    0.34364   0.35446    0.012
 6778.00    0.35710   0.35224    0.012
 6779.00    0.37285   0.34965    0.012
 6780.00    0.34391   0.34737    0.013
 6781.00    0.31519   0.34595    0.013
 6782.00    0.31845   0.34570    0.013
 6783.00    0.32136   0.34650    0.013
 6784.00    0.31779   0.34781    0.013
 6785.00    0.31739   0.34908    0.013
 6786.00    0.35168   0.34996    0.012
 6787.00    0.38256   0.35025    0.012
 6788.00    0.38729   0.34991    0.013
 6789.00    0.39190   0.34918    0.013
 6790.00    0.39576   0.34840    0.013
 6791.00    0.39532   0.34779    0.012
 6792.00    0.37498   0.34752    0.012
 6793.00    0.35983   0.34767    0.012
 6794.00    0.36431   0.34813    0.012
 6795.00    0.36952   0.34874    0.012
 6796.00    0.37702   0.34935    0.012
 6797.00    0.38857   0.34981    0.012
 6798.00    0.41096   0.34996    0.012
 6799.00    0.42265   0.34980    0.012
 6800.00    0.40976   0.34946    0.012
 6801.00    0.41108   0.34899    0.012
 6802.00    0.44068   0.34850    0.012
 6803.00    0.45125   0.34813    0.012
 6804.00    0.42886   0.34779    0.013
 6805.00    0.39174   0.34742    0.013
 6806.00    0.33230   0.34715    0.012
 6807.00    0.31442   0.34702    0.012
 6808.00    0.35194   0.34689    0.012
 6809.00    0.38364   0.34669    0.012
 6810.00    0.40850   0.34653    0.012
 6811.00    0.41443   0.34658    0.012
 6812.00    0.40076   0.34690    0.012
 6813.00    0.39433   0.34734    0.013
 6814.00    0.39449   0.34770    0.013
 6815.00    0.38008   0.34784    0.013
 6816.00    0.35395   0.34787    0.012
 6817.00    0.34291   0.34808    0.012
 6818.00    0.34254   0.34861    0.012
 6819.00    0.35824   0.34935    0.012
 6820.00    0.38392   0.34995    0.012
 6821.00    0.38798   0.35000    0.012
 6822.00    0.38030   0.34930    0.012
 6823.00    0.37285   0.34806    0.012
 6824.00    0.36550   0.34687    0.012
 6825.00    0.36032   0.34619    0.012
 6826.00    0.35603   0.34616    0.012
 6827.00    0.37661   0.34663    0.012
 6828.00    0.40583   0.34735    0.012
 6829.00    0.40363   0.34800    0.012
 6830.00    0.39225   0.34835    0.012
 6831.00    0.39352   0.34824    0.012
 6832.00    0.39785   0.34757    0.012
 6833.00    0.40035   0.34620    0.012
 6834.00    0.40250   0.34410    0.012
 6835.00    0.41166   0.34148    0.012
 6836.00    0.42189   0.33880    0.012
 6837.00    0.41415   0.33669    0.012
 6838.00    0.40439   0.33574    0.013
 6839.00    0.33657   0.33619    0.013
 6840.00    0.26442   0.33781    0.013
 6841.00    0.26220   0.34004    0.013
 6842.00    0.26277   0.34223    0.012
 6843.00    0.30042   0.34392    0.012
 6844.00    0.33840   0.34494    0.012
 6845.00    0.37968   0.34541    0.012
 6846.00    0.41578   0.34553    0.012
 6847.00    0.36439   0.34538    0.012
 6848.00    0.31898   0.34482    0.012
 6849.00    0.33623   0.34364    0.012
 6850.00    0.35025   0.34194    0.012
 6851.00    0.34032   0.34017    0.012
 6852.00    0.33656   0.33873    0.012
 6853.00    0.36779   0.33790    0.012
 6854.00    0.39463   0.33772    0.012
 6855.00    0.40167   0.33785    0.012
 6856.00    0.40299   0.33787    0.012
 6857.00    0.38308   0.33792    0.012
 6858.00    0.36374   0.33836    0.012
 6859.00    0.34615   0.33923    0.012
 6860.00    0.34613   0.34025    0.012
 6861.00    0.39233   0.34092    0.012
 6862.00    0.42163   0.34081    0.012
 6863.00    0.41274   0.33997    0.012
 6864.00    0.39883   0.33898    0.012
 6865.00    0.37509   0.33835    0.012
 6866.00    0.36077   0.33815    0.012
 6867.00    0.36251   0.33821    0.012
 6868.00    0.36202   0.33833    0.012
 6869.00    0.35818   0.33837    0.012
 6870.00    0.35544   0.33839    0.013
 6871.00    0.35414   0.33869    0.012
 6872.00    0.35950   0.33935    0.012
 6873.00    0.37256   0.34013    0.012
 6874.00    0.38450   0.34073    0.012
 6875.00    0.39529   0.34086    0.012
 6876.00    0.40755   0.34031    0.012
 6877.00    0.42113   0.33920    0.012
 6878.00    0.40539   0.33805    0.012
 6879.00    0.36639   0.33737    0.012
 6880.00    0.33908   0.33735    0.012
 6881.00    0.31993   0.33797    0.012
 6882.00    0.32584   0.33908    0.012
 6883.00    0.34710   0.34040    0.012
 6884.00    0.35463   0.34169    0.012
 6885.00    0.35483   0.34291    0.012
 6886.00    0.35238   0.34396    0.012
 6887.00    0.34871   0.34458    0.012
 6888.00    0.35409   0.34469    0.012
 6889.00    0.36308   0.34436    0.012
 6890.00    0.35813   0.34370    0.012
 6891.00    0.34844   0.34298    0.012
 6892.00    0.34810   0.34248    0.012
 6893.00    0.35045   0.34228    0.012
 6894.00    0.33593   0.34223    0.012
 6895.00    0.31742   0.34230    0.012
 6896.00    0.31341   0.34246    0.012
 6897.00    0.31217   0.34264    0.012
 6898.00    0.33885   0.34282    0.012
 6899.00    0.36965   0.34302    0.012
 6900.00    0.37127   0.34325    0.012
 6901.00    0.36974   0.34349    0.012
 6902.00    0.34022   0.34378    0.012
 6903.00    0.30872   0.34411    0.012
 6904.00    0.30762   0.34440    0.012
 6905.00    0.30760   0.34442    0.012
 6906.00    0.28985   0.34396    0.012
 6907.00    0.27361   0.34297    0.012
 6908.00    0.31182   0.34152    0.012
 6909.00    0.34806   0.33986    0.012
 6910.00    0.35304   0.33840    0.012
 6911.00    0.35674   0.33740    0.012
 6912.00    0.34760   0.33703    0.012
 6913.00    0.33831   0.33737    0.012
 6914.00    0.32787   0.33827    0.012
 6915.00    0.31834   0.33940    0.012
 6916.00    0.31377   0.34047    0.012
 6917.00    0.31340   0.34111    0.012
 6918.00    0.33149   0.34097    0.012
 6919.00    0.34733   0.33996    0.012
 6920.00    0.35502   0.33845    0.012
 6921.00    0.35467   0.33705    0.012
 6922.00    0.32988   0.33630    0.012
 6923.00    0.31571   0.33641    0.012
 6924.00    0.32900   0.33718    0.012
 6925.00    0.33636   0.33810    0.012
 6926.00    0.33055   0.33866    0.012
 6927.00    0.32212   0.33863    0.012
 6928.00    0.30865   0.33821    0.012
 6929.00    0.30791   0.33781    0.012
 6930.00    0.32857   0.33766    0.012
 6931.00    0.35712   0.33781    0.012
 6932.00    0.39729   0.33821    0.012
 6933.00    0.39918   0.33873    0.012
 6934.00    0.35150   0.33921    0.012
 6935.00    0.31073   0.33959    0.012
 6936.00    0.27787   0.33979    0.012
 6937.00    0.27290   0.33957    0.012
 6938.00    0.29601   0.33872    0.012
 6939.00    0.32353   0.33723    0.012
 6940.00    0.35498   0.33554    0.012
 6941.00    0.36851   0.33430    0.012
 6942.00    0.36803   0.33396    0.012
 6943.00    0.34540   0.33452    0.012
 6944.00    0.30753   0.33556    0.013
 6945.00    0.30599   0.33640    0.012
 6946.00    0.32635   0.33654    0.012
 6947.00    0.34203   0.33602    0.012
 6948.00    0.35525   0.33518    0.012
 6949.00    0.38734   0.33449    0.012
 6950.00    0.42804   0.33432    0.012
 6951.00    0.40932   0.33473    0.012
 6952.00    0.36726   0.33551    0.012
 6953.00    0.34151   0.33640    0.012
 6954.00    0.32122   0.33719    0.012
 6955.00    0.32472   0.33777    0.012
 6956.00    0.33492   0.33813    0.012
 6957.00    0.31226   0.33837    0.012
 6958.00    0.28199   0.33853    0.012
 6959.00    0.30250   0.33860    0.012
 6960.00    0.33242   0.33852    0.012
 6961.00    0.32943   0.33841    0.012
 6962.00    0.32173   0.33845    0.013
 6963.00    0.32255   0.33868    0.013
 6964.00    0.32424   0.33899    0.012
 6965.00    0.32910   0.33920    0.013
 6966.00    0.33417   0.33919    0.013
 6967.00    0.33571   0.33894    0.013
 6968.00    0.33713   0.33842    0.013
 6969.00    0.32187   0.33753    0.013
 6970.00    0.30703   0.33612    0.013
 6971.00    0.30523   0.33394    0.012
 6972.00    0.30406   0.33085    0.012
 6973.00    0.31229   0.32742    0.012
 6974.00    0.31963   0.32473    0.012
 6975.00    0.31840   0.32371    0.012
 6976.00    0.31681   0.32466    0.012
 6977.00    0.31269   0.32732    0.012
 6978.00    0.30481   0.33087    0.012
 6979.00    0.27668   0.33419    0.012
 6980.00    0.26300   0.33650    0.012
 6981.00    0.31152   0.33767    0.013
 6982.00    0.34454   0.33788    0.013
 6983.00    0.32249   0.33741    0.013
 6984.00    0.30881   0.33665    0.013
 6985.00    0.32010   0.33600    0.013
 6986.00    0.32492   0.33569    0.013
 6987.00    0.31332   0.33576    0.013
 6988.00    0.30440   0.33610    0.013
 6989.00    0.30131   0.33648    0.013
 6990.00    0.28441   0.33668    0.012
 6991.00    0.24129   0.33659    0.012
 6992.00    0.22954   0.33616    0.012
 6993.00    0.26971   0.33532    0.012
 6994.00    0.30452   0.33412    0.012
 6995.00    0.33155   0.33275    0.012
 6996.00    0.35547   0.33155    0.012
 6997.00    0.37542   0.33070    0.012
 6998.00    0.37655   0.33020    0.012
 6999.00    0.35652   0.32988    0.012
 7000.00    0.34241   0.32955    0.012
 7001.00    0.33418   0.32917    0.012
 7002.00    0.35810   0.32903    0.013
 7003.00    0.41018   0.32946    0.013
 7004.00    0.41869   0.33035    0.013
 7005.00    0.39361   0.33133    0.014
 7006.00    0.38373   0.33204    0.014
 7007.00    0.38414   0.33229    0.014
 7008.00    0.39185   0.33192    0.014
 7009.00    0.40389   0.33081    0.014
 7010.00    0.38314   0.32900    0.013
 7011.00    0.34541   0.32693    0.013
 7012.00    0.31756   0.32531    0.013
 7013.00    0.29414   0.32478    0.013
 7014.00    0.29744   0.32565    0.013
 7015.00    0.31104   0.32765    0.012
 7016.00    0.30800   0.32979    0.014
 7017.00    0.29949   0.33090    0.015
 7018.00    0.31832   0.33056    0.016
 7019.00    0.34466   0.32927    0.017
 7020.00    0.39478   0.32787    0.017
 7021.00    0.45027   0.32707    0.018
 7022.00    0.43502   0.32722    0.016
 7023.00    0.40698   0.32822    0.014
 7024.00    0.36153   0.32960    0.013
 7025.00    0.31367   0.33087    0.013
 7026.00    0.34516   0.33174    0.013
 7027.00    0.38453   0.33220    0.013
 7028.00    0.39357   0.33229    0.013
 7029.00    0.40071   0.33211    0.013
 7030.00    0.37803   0.33177    0.013
 7031.00    0.35452   0.33125    0.013
 7032.00    0.33542   0.33048    0.013
 7033.00    0.31770   0.32974    0.013
 7034.00    0.33808   0.32954    0.013
 7035.00    0.35677   0.33022    0.013
 7036.00    0.35169   0.33193    0.013
 7037.00    0.34317   0.33443    0.013
 7038.00    0.30307   0.33691    0.013
 7039.00    0.27093   0.33845    0.013
 7040.00    0.29243   0.33886    0.013
 7041.00    0.31436   0.33863    0.013
 7042.00    0.33856   0.33842    0.013
 7043.00    0.35815   0.33859    0.013
 7044.00    0.35827   0.33904    0.013
 7045.00    0.35245   0.33918    0.013
 7046.00    0.32590   0.33830    0.013
 7047.00    0.30911   0.33610    0.013
 7048.00    0.32088   0.33293    0.013
 7049.00    0.33713   0.32953    0.013
 7050.00    0.36456   0.32667   -2.000
 7051.00    0.36493   0.32489   -2.000
 7052.00    0.30713   0.32419   -2.000
 7053.00    0.27099   0.32401   -2.000
 7054.00    0.27532   0.32374   -2.000
 7055.00    0.29260   0.32311   -2.000
 7056.00    0.33104   0.32229   -2.000
 7057.00    0.34209   0.32169   -2.000
 7058.00    0.31399   0.32169   -2.000
 7059.00    0.30966   0.32222   -2.000
 7060.00    0.33521   0.32275   -2.000
 7061.00    0.35496   0.32265   -2.000
 7062.00    0.36827   0.32170   -2.000
 7063.00    0.33819   0.32024   -2.000
 7064.00    0.26567   0.31896   -2.000
 7065.00    0.28603   0.31854   -2.000
 7066.00    0.38650   0.31925   -2.000
 7067.00    0.42049   0.32086   -2.000
 7068.00    0.40397   0.32272   -2.000
 7069.00    0.37837   0.32415   -2.000
 7070.00    0.34670   0.32488   -2.000
 7071.00    0.37716   0.32509   -2.000
 7072.00    0.44395   0.32508   -2.000
 7073.00    0.40852   0.32506   -2.000
 7074.00    0.32097   0.32514   -2.000
 7075.00    0.30953   0.32524   -2.000
 7076.00    0.33170   0.32502   -2.000
 7077.00    0.36243   0.32401   -2.000
 7078.00    0.39640   0.32196   -2.000
 7079.00    0.37302   0.31907   -2.000
 7080.00    0.33117   0.31586   -2.000
 7081.00    0.33875   0.31294   -2.000
 7082.00    0.35964   0.31077   -2.000
 7083.00    0.34829   0.30947   -2.000
 7084.00    0.32983   0.30874   -2.000
 7085.00    0.35407   0.30816   -2.000
 7086.00    0.38581   0.30761   -2.000
 7087.00    0.32496   0.30717   -2.000
 7088.00    0.25171   0.30694   -2.000
 7089.00    0.31217   0.30697   -2.000
 7090.00    0.38534   0.30720   -2.000
 7091.00    0.31513   0.30758   -2.000
 7092.00    0.23650   0.30816   -2.000
 7093.00    0.28733   0.30902   -2.000
 7094.00    0.34143   0.31009   -2.000
 7095.00    0.40597   0.31119   -2.000
 7096.00    0.46653   0.31210   -2.000
 7097.00    0.42816   0.31270   -2.000
 7098.00    0.39032   0.31302   -2.000
 7099.00    0.35943   0.31318   -2.000
 7100.00    0.32872   0.31331   -2.000
 7101.00    0.29957   0.31340   -2.000
 7102.00    0.27564   0.31332   -2.000
 7103.00    0.28589   0.31290   -2.000
 7104.00    0.29887   0.31205   -2.000
 7105.00    0.32579   0.31090   -2.000
 7106.00    0.34563   0.30975   -2.000
 7107.00    0.33630   0.30885   -2.000
 7108.00    0.32416   0.30835   -2.000
 7109.00    0.30246   0.30838   -2.000
 7110.00    0.31124   0.30895   -2.000
 7111.00    0.40759   0.30981   -2.000
 7112.00    0.45076   0.31057   -2.000
 7113.00    0.36343   0.31099   -2.000
 7114.00    0.31307   0.31103   -2.000
 7115.00    0.34094   0.31073   -2.000
 7116.00    0.35837   0.31022   -2.000
 7117.00    0.35657   0.30971   -2.000
 7118.00    0.36803   0.30938   -2.000
 7119.00    0.40079   0.30918   -2.000
 7120.00    0.42972   0.30902   -2.000
 7121.00    0.45325   0.30880   -2.000
 7122.00    0.45841   0.30835   -2.000
 7123.00    0.44079   0.30749   -2.000
 7124.00    0.46480   0.30628   -2.000
 7125.00    0.53434   0.30498   -2.000
 7126.00    0.53351   0.30392   -2.000
 7127.00    0.46484   0.30336   -2.000
 7128.00    0.43670   0.30359   -2.000
 7129.00    0.44303   0.30474   -2.000
 7130.00    0.45518   0.30656   -2.000
 7131.00    0.47169   0.30846   -2.000
 7132.00    0.46631   0.30993   -2.000
 7133.00    0.44654   0.31075   -2.000
 7134.00    0.38814   0.31101   -2.000
 7135.00    0.30750   0.31097   -2.000
 7136.00    0.30741   0.31079   -2.000
 7137.00    0.34774   0.31064   -2.000
 7138.00    0.35175   0.31058   -2.000
 7139.00    0.33998   0.31048   -2.000
 7140.00    0.35006   0.31002   -2.000
 7141.00    0.36827   0.30898   -2.000
 7142.00    0.31496   0.30741   -2.000
 7143.00    0.23905   0.30569   -2.000
 7144.00    0.26083   0.30431   -2.000
 7145.00    0.30838   0.30375   -2.000
 7146.00    0.30712   0.30435   -2.000
 7147.00    0.29534   0.30606   -2.000
 7148.00    0.31888   0.30825   -2.000
 7149.00    0.34845   0.31019   -2.000
 7150.00    0.35844   0.31158   -2.000
 7151.00    0.36591   0.31245   -2.000
 7152.00    0.34407   0.31285   -2.000
 7153.00    0.31958   0.31294   -2.000
 7154.00    0.34821   0.31281   -2.000
 7155.00    0.37975   0.31244   -2.000
 7156.00    0.39865   0.31165   -2.000
 7157.00    0.41760   0.31035   -2.000
 7158.00    0.46629   0.30859   -2.000
 7159.00    0.51261   0.30657   -2.000
 7160.00    0.50518   0.30468   -2.000
 7161.00    0.50058   0.30345   -2.000
 7162.00    0.53160   0.30339   -2.000
 7163.00    0.54882   0.30469   -2.000
 7164.00    0.44836   0.30694   -2.000
 7165.00    0.35430   0.30930   -2.000
 7166.00    0.30075   0.31115   -2.000
 7167.00    0.27117   0.31231   -2.000
 7168.00    0.36065   0.31293   -2.000
 7169.00    0.42061   0.31305   -2.000
 7170.00    0.36172   0.31269   -2.000
 7171.00    0.32952   0.31193   -2.000
 7172.00    0.38649   0.31096   -2.000
 7173.00    0.41350   0.30990   -2.000
 7174.00    0.35604   0.30878   -2.000
 7175.00    0.30963   0.30763   -2.000
 7176.00    0.28988   0.30650   -2.000
 7177.00    0.28687   0.30557   -2.000
 7178.00    0.31873   0.30517   -2.000
 7179.00    0.35204   0.30544   -2.000
 7180.00    0.38800   0.30594   -2.000
 7181.00    0.40516   0.30591   -2.000
 7182.00    0.39256   0.30489   -2.000
 7183.00    0.37763   0.30319   -2.000
 7184.00    0.35945   0.30157   -2.000
 7185.00    0.30308   0.30069   -2.000
 7186.00    0.20000   0.30077   -2.000
 7187.00    0.19025   0.30155   -2.000
 7188.00    0.28111   0.30255   -2.000
 7189.00    0.32437   0.30342   -2.000
 7190.00    0.32238   0.30402   -2.000
 7191.00    0.31398   0.30450   -2.000
 7192.00    0.30019   0.30499   -2.000
 7193.00    0.32122   0.30546   -2.000
 7194.00    0.36795   0.30574   -2.000
 7195.00    0.39543   0.30582   -2.000
 7196.00    0.41042   0.30585   -2.000
 7197.00    0.37809   0.30589   -2.000
 7198.00    0.31891   0.30590   -2.000
 7199.00    0.35768   0.30583   -2.000
 7200.00    0.44484   0.30549   -2.000
 7201.00    0.46074   0.30464   -2.000
 7202.00    0.44620   0.30320   -2.000
 7203.00    0.38322   0.30149   -2.000
 7204.00    0.30252   0.30028   -2.000
 7205.00    0.26372   0.30027   -2.000
 7206.00    0.23791   0.30155   -2.000
 7207.00    0.21623   0.30340   -2.000
 7208.00    0.19562   0.30485   -2.000
 7209.00    0.25834   0.30547   -2.000
 7210.00    0.33860   0.30540   -2.000
 7211.00    0.29503   0.30520   -2.000
 7212.00    0.23089   0.30537   -2.000
 7213.00    0.30330   0.30596   -2.000
 7214.00    0.39277   0.30668   -2.000
 7215.00    0.31422   0.30712   -2.000
 7216.00    0.22111   0.30700   -2.000
 7217.00    0.24277   0.30643   -2.000
 7218.00    0.27026   0.30582   -2.000
