###################################################################
## OUTPUT of StarlightChains_v04.for    [Cid@UFSC - 01/Apr/2007] ##
###################################################################

## Some input info
KUG0210-078._40_52.txt                   [arq_obs]
Base.CB07.vall.4m                        [arq_base]
Masks.EmLines.NEW.gm                     [arq_masks]
StCv04.C11.config                        [arq_config]
   66                                    [N_base]
    0                                    [N_YAV_components = # of components with extra extinction!]
    0                                    [i_FitPowerLaw (1/0 = Yes/No)]
-9.99                                    [alpha_PowerLaw]
CCM                                      [red_law_option]
 1.458241                                [q_norm = A(l_norm)/A(V)]

## (Re)Sampling Parameters
 3741.00                                 [l_ini (A)]
 7218.00                                 [l_fin (A)]
    1.00                                 [dl    (A)]     (OBS: dl_cushion =    50.00 A)

## Normalization info
 4020.00                                 [l_norm (A) - for base]
 4010.00                                 [llow_norm (A) - window for f_obs]
 4060.00                                 [lupp_norm (A) - window for f_obs]
6.994087E-18                             [fobs_norm (in input units)]

## S/N
 3691.00                                 [llow_SN (A) - window for S/N]
 7268.00                                 [lupp_SN (A) - window for S/N]
   2.557                                 [S/N in S/N window]
   3.189                                 [S/N in norm. window]
   0.007                                 [S/N_err in S/N window]
   0.008                                 [S/N_err in norm. window]
  1.0000                                 [fscale_chi2]

## etc...
    -2007735                             [idum_orig]
  2397                                   [NOl_eff]
  2385                                   [Nl_eff]
    12    NSIGMA                         [Ntot_cliped & clip_method]
   838530                                [Nglobal_steps]
   7                                     [N_chains]
  38                                     [NEX0s_base = N_base in EX0s-fits]
 0   0   1       12   2.0   1.006E+03    [Clip-Bug, RC-Crash & Burn-In warning-flags, n_censored_weights, wei_nsig_threshold & wei_limit]
    26     25.217     24.425      0.792  [idt_all, wdt_TotTime, wdt_UsrTime & wdt_SysTime (sec)]

## Synthesis Results - Best model ##

 1.57928E-05                             [chi2/Nl_eff]
    35.88588                             [adev (%)]

   121.03691                             [sum-of-x (%)]
 2.87642E-18                             [Flux_tot (units of input spectrum!)]
 3.81787E-14                             [Mini_tot (???)]
 2.10771E-14                             [Mcor_tot (???)]

 -62.93                                  [v0_min  (km/s)]
 212.27                                  [vd_min  (km/s)]
-0.8037                                  [AV_min  (mag)]
 0.0000                                  [YAV_min (mag)]

# j     x_j(%)      Mini_j(%)     Mcor_j(%)     age_j(yr)     Z_j      (L/M)_j    YAV?  Mstars   component_j        a/Fe...       SSP_chi2r SSP_adev(%)   SSP_AV   SSP_x(%)
  1      0.0000     0.0000E+00    0.0000E+00    1.000000E+06  0.00400  1.094E-02    0   1.0000   age020_m42            0.0000     1.6831E-05    39.3333   2.2985   101.3256
  2      0.0000     0.0000E+00    0.0000E+00    3.160000E+06  0.00400  4.007E-02    0   0.9999   age045_m42            0.0000     1.6310E-05    38.0402   1.5411   108.7921
  3      0.0000     0.0000E+00    0.0000E+00    5.010000E+06  0.00400  2.539E-02    0   0.9488   age055_m42            0.0000     1.6543E-05    38.7733   1.8773   105.8458
  4      0.0000     0.0000E+00    0.0000E+00    6.610000E+06  0.00400  2.620E-02    0   0.9220   age061_m42            0.0000     1.6402E-05    38.1652   1.4744   108.7602
  5      0.0000     0.0000E+00    0.0000E+00    1.000000E+07  0.00400  1.322E-02    0   0.8862   age070_m42            0.0000     1.6671E-05    39.8264   1.2652   109.0235
  6      0.0000     0.0000E+00    0.0000E+00    1.445000E+07  0.00400  7.883E-03    0   0.8571   age078_m42            0.0000     1.6750E-05    40.0278   1.5905   106.4600
  7      0.0000     0.0000E+00    0.0000E+00    2.512000E+07  0.00400  5.251E-03    0   0.8174   age090_m42            0.0000     1.6706E-05    40.0357   1.1442   109.3340
  8      0.0000     0.0000E+00    0.0000E+00    4.000000E+07  0.00400  3.649E-03    0   0.7851   age104_m42            0.0000     1.6608E-05    39.6059   0.9053   110.5271
  9      8.3560     1.6789E-01    2.3201E-01    5.500000E+07  0.00400  3.098E-03    0   0.7629   age110_m42            0.0000     1.6532E-05    38.6249   1.0236   111.4744
 10      0.0000     0.0000E+00    0.0000E+00    1.015200E+08  0.00400  2.228E-03    0   0.7207   age116_m42            0.0000     1.6532E-05    37.9209   1.0199   112.2542
 11      1.1258     6.4115E-02    7.7207E-02    2.861200E+08  0.00400  1.093E-03    0   0.6648   age125_m42            0.0000     1.6564E-05    38.1445   0.4700   114.7983
 12      6.5727     6.2017E-01    7.1503E-01    5.088000E+08  0.00400  6.597E-04    0   0.6365   age130_m42            0.0000     1.6527E-05    36.9955   0.4183   116.9052
 13      0.0131     3.8157E-03    4.0073E-03    1.434000E+09  0.00400  2.132E-04    0   0.5798   age139_m42            0.0000     1.6170E-05    35.9506  -0.5796   119.8974
 14      0.0000     0.0000E+00    0.0000E+00    4.250000E+09  0.00400  5.895E-05    0   0.5377   age158_m42            0.0000     1.5879E-05    35.8718  -1.0000   115.6495
 15      0.0000     0.0000E+00    0.0000E+00    7.500000E+09  0.00400  3.510E-05    0   0.5212   age171_m42            0.0000     1.6189E-05    38.4868  -1.0000   111.7245
 16      0.0000     0.0000E+00    0.0000E+00    1.300000E+10  0.00400  2.005E-05    0   0.5034   age193_m42            0.0000     1.6752E-05    41.4540  -1.0000   108.0291
 17      0.0033     1.3359E-02    1.2020E-02    1.800000E+10  0.00400  1.525E-05    0   0.4967   age213_m42            0.0000     1.6773E-05    42.0360  -1.0000   107.0864
 18      0.0000     0.0000E+00    0.0000E+00    1.000000E+06  0.00800  1.238E-02    0   1.0000   age020_m52            0.0000     1.6808E-05    39.2983   2.2948   101.5533
 19      0.0000     0.0000E+00    0.0000E+00    3.160000E+06  0.00800  3.074E-02    0   0.9966   age045_m52            0.0000     1.6753E-05    39.1648   2.2113   102.6358
 20      0.0000     0.0000E+00    0.0000E+00    5.010000E+06  0.00800  2.668E-02    0   0.9443   age055_m52            0.0000     1.6621E-05    38.9497   1.9645   104.8214
 21      0.0123     3.5984E-05    5.9816E-05    6.610000E+06  0.00800  2.136E-02    0   0.9177   age061_m52            0.0000     1.6448E-05    39.5575   0.7568   110.5716
 22      0.4974     2.5482E-03    4.0743E-03    1.000000E+07  0.00800  1.215E-02    0   0.8827   age070_m52            0.0000     1.6751E-05    40.5263   1.4634   108.3207
 23      0.0000     0.0000E+00    0.0000E+00    1.445000E+07  0.00800  8.717E-03    0   0.8552   age078_m52            0.0000     1.6689E-05    39.9608   1.5543   107.9461
 24      0.0000     0.0000E+00    0.0000E+00    2.512000E+07  0.00800  5.592E-03    0   0.8162   age090_m52            0.0000     1.6670E-05    40.1244   1.2091   110.5964
 25      0.0000     0.0000E+00    0.0000E+00    4.000000E+07  0.00800  3.896E-03    0   0.7841   age104_m52            0.0000     1.6564E-05    39.4477   1.1004   111.9372
 26      3.2385     9.3849E-02    1.2284E-01    1.015200E+08  0.00800  2.148E-03    0   0.7226   age116_m52            0.0000     1.6498E-05    38.3092   1.0044   112.6306
 27      0.0000     0.0000E+00    0.0000E+00    2.861200E+08  0.00800  9.925E-04    0   0.6683   age125_m52            0.0000     1.6582E-05    37.0085   0.4906   117.7705
 28      0.0000     0.0000E+00    0.0000E+00    9.047900E+08  0.00800  3.141E-04    0   0.6138   age135_m52            0.0000     1.6114E-05    34.8895  -0.3899   124.9757
 29      0.0000     0.0000E+00    0.0000E+00    1.434000E+09  0.00800  1.719E-04    0   0.5853   age139_m52            0.0000     1.5906E-05    35.0754  -0.9694   122.3789
 30      0.0000     0.0000E+00    0.0000E+00    2.500000E+09  0.00800  7.872E-05    0   0.5600   age150_m52            0.0000     1.6142E-05    37.8371  -1.0000   115.4557
 31     42.2474     6.0649E+01    5.9609E+01    4.250000E+09  0.00800  4.336E-05    0   0.5426   age158_m52            0.0000     1.6186E-05    38.1380  -1.0000   114.1152
 32      0.0318     6.2741E-02    6.0449E-02    6.250000E+09  0.00800  3.159E-05    0   0.5319   age166_m52            0.0000     1.7017E-05    41.5398  -1.0000   110.1568
 33      0.0000     0.0000E+00    0.0000E+00    1.300000E+10  0.00800  1.361E-05    0   0.5073   age193_m52            0.0000     2.0130E-05    50.8692  -1.0000    98.6484
 34      0.0000     0.0000E+00    0.0000E+00    1.800000E+10  0.00800  9.886E-06    0   0.4990   age213_m52            0.0000     2.1454E-05    52.6054  -1.0000    95.4345
 35      0.5806     2.3406E-03    4.2397E-03    1.000000E+06  0.02000  1.544E-02    0   1.0000   age020_m62            0.0000     1.6816E-05    39.2744   2.2889   101.8413
 36      9.5293     1.5767E-02    2.8155E-02    3.160000E+06  0.02000  3.762E-02    0   0.9858   age045_m62            0.0000     1.6793E-05    39.2882   2.2217   102.9399
 37      0.0000     0.0000E+00    0.0000E+00    5.010000E+06  0.02000  3.296E-02    0   0.9342   age055_m62            0.0000     1.6481E-05    38.3584   1.8225   107.4991
 38      0.0000     0.0000E+00    0.0000E+00    8.710000E+06  0.02000  1.154E-02    0   0.8861   age067_m62            0.0000     1.7562E-05    44.5755   1.0391   107.8932
 39      0.0000     0.0000E+00    0.0000E+00    1.445000E+07  0.02000  7.663E-03    0   0.8472   age078_m62            0.0000     1.6873E-05    41.6105   1.1428   109.7876
 40      0.0197     2.7002E-04    3.9614E-04    2.512000E+07  0.02000  4.532E-03    0   0.8099   age090_m62            0.0000     1.6977E-05    41.8408   1.1442   109.1615
 41      0.0000     0.0000E+00    0.0000E+00    5.500000E+07  0.02000  2.733E-03    0   0.7595   age110_m62            0.0000     1.6652E-05    39.6153   1.0894   110.9721
 42      0.2142     9.7405E-03    1.2324E-02    1.609000E+08  0.02000  1.369E-03    0   0.6985   age120_m62            0.0000     1.6664E-05    37.8552   0.8791   115.2203
 43      0.0000     0.0000E+00    0.0000E+00    2.861200E+08  0.02000  9.013E-04    0   0.6714   age125_m62            0.0000     1.6763E-05    36.7332   0.5996   119.2893
 44      0.0000     0.0000E+00    0.0000E+00    5.088000E+08  0.02000  5.028E-04    0   0.6449   age130_m62            0.0000     1.6496E-05    34.8787   0.1494   124.6397
 45      0.0000     0.0000E+00    0.0000E+00    9.047900E+08  0.02000  2.428E-04    0   0.6179   age135_m62            0.0000     1.5945E-05    34.2150  -0.4772   125.1092
 46     17.7195     8.7330E+00    9.3457E+00    1.434000E+09  0.02000  1.263E-04    0   0.5908   age139_m62            0.0000     1.5804E-05    34.0608  -0.9366   123.6933
 47      0.0000     0.0000E+00    0.0000E+00    2.500000E+09  0.02000  5.985E-05    0   0.5673   age150_m62            0.0000     1.6287E-05    37.6713  -1.0000   116.7963
 48      0.0000     0.0000E+00    0.0000E+00    4.250000E+09  0.02000  3.271E-05    0   0.5468   age158_m62            0.0000     1.7798E-05    43.0159  -1.0000   109.4571
 49      0.0000     0.0000E+00    0.0000E+00    1.000000E+10  0.02000  1.360E-05    0   0.5167   age181_m62            0.0000     2.0719E-05    49.4276  -1.0000   100.5615
 50      0.4004     3.4985E+00    3.1768E+00    1.800000E+10  0.02000  7.124E-06    0   0.5013   age213_m62            0.0000     2.3174E-05    52.9727  -1.0000    94.2335
 51      0.0000     0.0000E+00    0.0000E+00    1.000000E+06  0.05000  2.592E-02    0   0.9998   age020_m72            0.0000     1.6845E-05    39.3234   2.2824   101.8511
 52      0.0000     0.0000E+00    0.0000E+00    3.160000E+06  0.05000  4.845E-02    0   0.9577   age045_m72            0.0000     1.6664E-05    38.8886   2.0902   104.5701
 53      0.2779     5.6314E-04    9.3305E-04    5.010000E+06  0.05000  3.072E-02    0   0.9147   age055_m72            0.0000     1.6829E-05    40.7892   1.6868   106.8287
 54      0.0000     0.0000E+00    0.0000E+00    6.610000E+06  0.05000  1.455E-02    0   0.8877   age061_m72            0.0000     1.8103E-05    46.3129   1.1176   107.5144
 55      0.0000     0.0000E+00    0.0000E+00    1.000000E+07  0.05000  9.074E-03    0   0.8524   age070_m72            0.0000     1.6913E-05    40.9698   1.8626   106.4854
 56      0.0000     0.0000E+00    0.0000E+00    2.512000E+07  0.05000  4.250E-03    0   0.7902   age090_m72            0.0000     1.6833E-05    40.4802   1.5611   108.4437
 57      0.5244     1.0573E-02    1.4590E-02    4.000000E+07  0.05000  3.087E-03    0   0.7618   age104_m72            0.0000     1.6865E-05    40.5165   1.3392   109.9627
 58      0.0000     0.0000E+00    0.0000E+00    1.015200E+08  0.05000  1.700E-03    0   0.7096   age116_m72            0.0000     1.6778E-05    38.5415   1.0414   114.1051
 59      0.0000     0.0000E+00    0.0000E+00    2.861200E+08  0.05000  7.384E-04    0   0.6633   age125_m72            0.0000     1.6616E-05    35.6564   0.4257   122.1260
 60      3.9886     6.5010E-01    7.5036E-01    5.088000E+08  0.05000  3.819E-04    0   0.6372   age130_m72            0.0000     1.6068E-05    34.2598  -0.1378   126.3523
 61      0.0000     0.0000E+00    0.0000E+00    9.047900E+08  0.05000  1.676E-04    0   0.6110   age135_m72            0.0000     1.5785E-05    33.4211  -0.9060   126.2997
 62     24.8582     1.7510E+01    1.8630E+01    1.434000E+09  0.05000  8.837E-05    0   0.5874   age139_m72            0.0000     1.6347E-05    37.5849  -1.0000   118.6528
 63      0.0000     0.0000E+00    0.0000E+00    2.500000E+09  0.05000  4.233E-05    0   0.5598   age150_m72            0.0000     1.7927E-05    42.8879  -1.0000   110.5392
 64      0.0000     0.0000E+00    0.0000E+00    6.250000E+09  0.05000  1.435E-05    0   0.5249   age166_m72            0.0000     2.1649E-05    51.2500  -1.0000    97.6965
 65      0.8257     7.8918E+00    7.1990E+00    1.300000E+10  0.05000  6.513E-06    0   0.5036   age193_m72            0.0000     2.5173E-05    55.8780  -1.0000    90.8788
 66      0.0000     0.0000E+00    0.0000E+00    1.800000E+10  0.05000  4.527E-06    0   0.4945   age213_m72            0.0000     2.7470E-05    58.2742  -1.0000    86.0799


## Synthesis Results - Average & Chains ##

# j      x_j: min, <> & last-chain-values for 1 ...  7 chains
  1      0.0000      0.5013      0.1974      0.9382      0.7343      0.2962      0.6902      0.0000      0.2476
  2      0.0000      0.6938      0.0000      0.0000      0.0000      0.0356      3.2386      0.0000      0.0000
  3      0.0000      0.5987      0.0490      3.9100      0.8016      0.2479      0.7378      0.1139      0.0000
  4      0.0000      0.6638      1.3948      0.0000      3.5568      2.9664      0.0000      1.8609      3.1016
  5      0.0000      0.6666      0.0000      1.6622      3.8925      1.3560      0.8275      0.0000      0.0821
  6      0.0000      0.7317      3.0762      2.4734      1.5969      2.7328      0.7564      2.5256      1.2136
  7      0.0000      0.8211      4.3979      1.6082      0.9265      1.5633      1.4187      1.6022      1.1204
  8      0.0000      0.8174      0.0000      0.0000      0.3726      0.0000      2.2475      3.8294      1.2370
  9      8.3560      0.6899      3.7954      1.4538      0.6906      0.0000      0.3905      0.1922      0.0000
 10      0.0000      0.5659      0.0000      0.0000      2.7071      0.9074      0.3227      1.6097      0.5668
 11      1.1258      0.6735      0.7598      0.4467      0.0000      2.4548      3.0154      3.0547      0.0000
 12      6.5727      0.8454      1.6285      4.3016      1.2192      0.3007      1.0714      1.5333      1.1222
 13      0.0131      0.9271      3.3360      0.6052      0.2226      0.3042      0.4393      0.6211      3.5589
 14      0.0000      0.7882      0.0000      4.8980      0.4399      0.9037      0.7611      0.0000      1.3819
 15      0.0000      0.7546      0.0000      0.6948      0.6298      1.4074      0.0000      0.0000      0.6669
 16      0.0000      0.9849      1.4673      0.5703      0.0000      0.0000      0.3199      1.3479      1.6718
 17      0.0033      1.2595      0.5788      0.0314      0.5098      0.3761      1.2142      2.8553      0.1909
 18      0.0000      0.7809      1.2158      0.0000      0.7019      0.0000      1.8141      4.2184      1.4170
 19      0.0000      0.8453      1.8237      2.3119      4.5220      3.6213      1.3194      0.3509      4.8622
 20      0.0000      0.6594      2.1243      1.0949      2.7899      1.3851      0.0000      0.0000      2.3078
 21      0.0123      0.8869      0.9131      2.2370      0.1714      0.1565      0.0000      1.4355      2.2677
 22      0.4974      0.8169      1.3142      0.7266      0.0000      1.2953      2.0126      1.2541      0.4739
 23      0.0000      0.7442      1.3419      2.6499      0.4023      3.7553      0.0458      2.3553      0.0000
 24      0.0000      0.5747      1.1143      0.0000      0.2677      1.2257      1.1583      0.5740      0.0000
 25      0.0000      0.6263      1.6281      0.6235      0.9869      0.0000      1.8530      0.0000      4.0635
 26      3.2385      0.8927      2.1003      1.1301      0.2184      0.6762      0.3442      0.0000      0.6189
 27      0.0000      0.5119      0.0000      1.1673      0.1700      2.1251      0.2424      0.0000      0.9925
 28      0.0000      0.7292      0.0000      4.4491      0.0918      0.3879      0.3349      2.3750      0.5342
 29      0.0000      0.7584      0.0000      0.0000      1.5738      0.0000      2.5836      1.4393      0.0000
 30      0.0000      0.9901      1.0047      0.8387      1.7468      5.4585      0.0000      2.3401      1.7489
 31     42.2474      0.8097      1.1277      0.0516      0.0000      0.8493      2.2628      1.2645      0.0000
 32      0.0318      0.7723      1.9683      0.0000      0.0000      0.7905      0.5402      1.7697      0.0000
 33      0.0000      0.7862      0.2670      0.0000      0.6184      0.1828      0.8913      0.0000      1.2249
 34      0.0000      0.8386      0.0000      0.0146      0.9105      1.7000      1.1116      0.8126      1.1284
 35      0.5806      1.0143      0.8380      7.5940      0.4322      0.9594      0.5911      1.3027      2.9774
 36      9.5293      0.9274      0.8454      1.9570      0.0000      2.2326      3.3439      0.2876      1.9803
 37      0.0000      0.7866      0.0000      1.6880      0.9241      0.1480      0.1330      1.3710      0.0000
 38      0.0000      0.8877      0.0000      1.6357      0.6843      0.9206      5.2448      0.0000      3.2101
 39      0.0000      0.9423      0.0000      1.0611      0.3429      0.8546      1.4850      0.7855      0.2969
 40      0.0197      0.8391      1.9733      0.0555      6.1485      0.8134      1.6941      2.4637      0.0000
 41      0.0000      0.8122      0.4410      3.6833      4.9188      0.0000      1.2545      0.0000      0.5896
 42      0.2142      0.7217      8.1943      0.0000      4.4416      0.0000      0.6257      0.3258      1.0577
 43      0.0000      0.9077      0.0000      0.0000      1.1018      0.8200      2.4590      3.5849      0.5734
 44      0.0000      0.5182      3.3170      0.1557      0.1566      2.1466      0.0000      0.0000      0.0000
 45      0.0000      0.5357      0.0000      0.0000      0.0000      2.0899      0.0000      0.7326      0.0000
 46     17.7195      0.8866      0.7281      2.0629      0.0000      2.2344      2.6819      1.3433      0.0000
 47      0.0000      1.0651      0.0000      0.6886      0.4257      0.3078      0.8908      0.2175      3.6522
 48      0.0000      0.8029      1.7168      0.0000      0.2056      0.0000      0.0000      0.1497      2.3717
 49      0.0000      0.7527      0.0000      0.0000      1.0818      1.3371      1.5179      0.5924      0.9430
 50      0.4004      0.6648      0.6814      1.3607      0.6888      0.0000      0.3310      0.0703      0.0111
 51      0.0000      0.6615      0.0000      0.0000      0.7187      1.3762      1.6425      0.0000      0.0000
 52      0.0000      0.6460      0.0000      0.0000      0.9415      0.0000      0.5066      1.6769      1.1959
 53      0.2779      0.8426      1.8070      2.0853      0.0000      0.0000      0.7565      1.4555      2.4142
 54      0.0000     19.4983      3.7457      2.6863      1.8186      4.6678      7.3558     10.0581      4.7065
 55      0.0000      1.9095      3.2288      2.9037      1.4108      1.1210      1.8586      3.6284      0.4697
 56      0.0000      1.0364      0.0000      1.8381      0.2851      2.9288      1.6394      0.8646      4.9278
 57      0.5244      0.8533      3.1453      1.6840      2.9972      2.6259      0.2951      0.6291      0.5092
 58      0.0000      0.8474      0.8453      0.0000      0.7990      0.6622      0.7144      0.8843      0.3238
 59      0.0000      0.8839      0.0000      1.6681      2.5750      1.3684      1.1577      2.8187      1.8284
 60      3.9886      0.5132      2.2934      1.0998      2.0321      2.4024      0.0000      1.6331      1.0417
 61      0.0000      0.6220      0.5042      2.1732      2.4939      0.0000      1.4252      0.6189      3.6889
 62     24.8582      0.8204      1.9522      0.4143      2.2079      1.3517      2.6970      0.3271      0.0494
 63      0.0000      0.9114      0.0000      0.0033      0.4447      0.0000      0.0000      0.0907      0.2822
 64      0.0000      0.9456      1.6041      0.3105      0.6168      1.8860      0.0000      0.0000      0.2123
 65      0.8257      0.7748      0.8115      0.3172      0.9361      0.0000      0.0090      0.0000      0.0000
 66      0.0000      9.1895      0.0000      3.6601      4.0665      2.2627      3.9143      3.3437      1.4257

# j      m_j: min, <> & last-chain-values for 1 ...  7 chains
  1  0.0000E+00  3.2170E-03  4.9343E-03  1.2984E-02  8.3871E-03  4.4434E-03  8.3402E-03  0.0000E+00  4.5338E-03
  2  0.0000E+00  1.2155E-03  0.0000E+00  0.0000E+00  0.0000E+00  1.4596E-04  1.0684E-02  0.0000E+00  0.0000E+00
  3  0.0000E+00  1.5706E-03  5.0097E-04  2.2122E-02  3.7429E-03  1.5203E-03  3.6448E-03  6.3622E-04  0.0000E+00
  4  0.0000E+00  1.6399E-03  1.3422E-02  0.0000E+00  1.5641E-02  1.7134E-02  0.0000E+00  9.7889E-03  2.1867E-02
  5  0.0000E+00  3.1370E-03  0.0000E+00  1.6870E-02  3.2605E-02  1.4920E-02  7.3334E-03  0.0000E+00  1.1025E-03
  6  0.0000E+00  5.5849E-03  9.1464E-02  4.0717E-02  2.1696E-02  4.8769E-02  1.0872E-02  4.1047E-02  2.6435E-02
  7  0.0000E+00  8.9727E-03  1.8721E-01  3.7903E-02  1.8023E-02  3.9942E-02  2.9196E-02  3.7281E-02  3.4941E-02
  8  0.0000E+00  1.2347E-02  0.0000E+00  0.0000E+00  1.0017E-02  0.0000E+00  6.3927E-02  1.2315E-01  5.3319E-02
  9  2.3201E-01  1.1926E-02  2.5558E-01  5.4205E-02  2.1251E-02  0.0000E+00  1.2711E-02  7.0733E-03  0.0000E+00
 10  0.0000E+00  1.2852E-02  0.0000E+00  0.0000E+00  1.0942E-01  4.8175E-02  1.3798E-02  7.7831E-02  3.6734E-02
 11  7.7207E-02  2.8758E-02  1.2637E-01  4.1137E-02  0.0000E+00  2.4506E-01  2.4247E-01  2.7772E-01  0.0000E+00
 12  7.1503E-01  5.7262E-02  4.2966E-01  6.2838E-01  1.4699E-01  4.7619E-02  1.3666E-01  2.2114E-01  2.1691E-01
 13  4.0073E-03  1.7700E-01  2.4809E+00  2.4921E-01  7.5633E-02  1.3578E-01  1.5792E-01  2.5249E-01  1.9390E+00
 14  0.0000E+00  5.0472E-01  0.0000E+00  6.7642E+00  5.0136E-01  1.3530E+00  9.1776E-01  0.0000E+00  2.5253E+00
 15  0.0000E+00  7.8666E-01  0.0000E+00  1.5620E+00  1.1687E+00  3.4302E+00  0.0000E+00  0.0000E+00  1.9839E+00
 16  0.0000E+00  1.7360E+00  1.0074E+01  2.1680E+00  0.0000E+00  0.0000E+00  1.0617E+00  5.0586E+00  8.4090E+00
 17  1.2020E-02  2.8798E+00  5.1547E+00  1.5477E-01  2.0747E+00  2.0103E+00  5.2280E+00  1.3901E+01  1.2457E+00
 18  0.0000E+00  4.4282E-03  2.6854E-02  0.0000E+00  7.0848E-03  0.0000E+00  1.9372E-02  5.0933E-02  2.2931E-02
 19  0.0000E+00  1.9240E-03  1.6168E-02  1.1348E-02  1.8319E-02  1.9270E-02  5.6548E-03  1.7007E-03  3.1580E-02
 20  0.0000E+00  1.6385E-03  2.0560E-02  5.8675E-03  1.2339E-02  8.0464E-03  0.0000E+00  0.0000E+00  1.6364E-02
 21  5.9816E-05  2.6751E-03  1.0727E-02  1.4552E-02  9.2000E-04  1.1033E-03  0.0000E+00  9.2191E-03  1.9519E-02
 22  4.0743E-03  4.1666E-03  2.6109E-02  7.9919E-03  0.0000E+00  1.5446E-02  1.9330E-02  1.3619E-02  6.8973E-03
 23  0.0000E+00  5.1258E-03  3.6000E-02  3.9362E-02  4.9318E-03  6.0469E-02  5.9389E-04  3.4539E-02  0.0000E+00
 24  0.0000E+00  5.8888E-03  4.4477E-02  0.0000E+00  4.8821E-03  2.9364E-02  2.2350E-02  1.2524E-02  0.0000E+00
 25  0.0000E+00  8.8496E-03  8.9602E-02  1.8998E-02  2.4819E-02  0.0000E+00  4.9303E-02  0.0000E+00  1.6384E-01
 26  1.2284E-01  2.1082E-02  1.9321E-01  5.7561E-02  9.1807E-03  3.7336E-02  1.5309E-02  0.0000E+00  4.1712E-02
 27  0.0000E+00  2.4198E-02  0.0000E+00  1.1900E-01  1.4305E-02  2.3486E-01  2.1577E-02  0.0000E+00  1.3389E-01
 28  0.0000E+00  1.0003E-01  0.0000E+00  1.3164E+00  2.2418E-02  1.2442E-01  8.6528E-02  6.9375E-01  2.0912E-01
 29  0.0000E+00  1.8129E-01  0.0000E+00  0.0000E+00  6.6961E-01  0.0000E+00  1.1630E+00  7.3251E-01  0.0000E+00
 30  0.0000E+00  4.9449E-01  1.9545E+00  9.0336E-01  1.5528E+00  6.3734E+00  0.0000E+00  2.4884E+00  2.4924E+00
 31  5.9609E+01  7.1136E-01  3.8591E+00  9.7726E-02  0.0000E+00  1.7444E+00  3.7435E+00  2.3653E+00  0.0000E+00
 32  6.0449E-02  9.1289E-01  9.0627E+00  0.0000E+00  0.0000E+00  2.1845E+00  1.2025E+00  4.4540E+00  0.0000E+00
 33  0.0000E+00  2.0573E+00  2.7210E+00  0.0000E+00  2.8803E+00  1.1182E+00  4.3921E+00  0.0000E+00  9.1466E+00
 34  0.0000E+00  2.9717E+00  0.0000E+00  1.1149E-01  5.7427E+00  1.4084E+01  7.4176E+00  6.1308E+00  1.1410E+01
 35  4.2397E-03  4.6118E-03  1.4841E-02  7.4467E-02  3.4978E-03  1.0199E-02  5.0616E-03  1.2611E-02  3.8633E-02
 36  2.8155E-02  1.7061E-03  6.0576E-03  7.7643E-03  0.0000E+00  9.6022E-03  1.1584E-02  1.1267E-03  1.0396E-02
 37  0.0000E+00  1.5652E-03  0.0000E+00  7.2438E-03  3.2728E-03  6.8843E-04  4.9830E-04  5.8085E-03  0.0000E+00
 38  0.0000E+00  4.7853E-03  0.0000E+00  1.9016E-02  6.5653E-03  1.1602E-02  5.3240E-02  0.0000E+00  4.9380E-02
 39  0.0000E+00  7.3133E-03  0.0000E+00  1.7762E-02  4.7378E-03  1.5508E-02  2.1705E-02  1.2980E-02  6.5752E-03
 40  3.9614E-04  1.0528E-02  9.6434E-02  1.5029E-03  1.3730E-01  2.3858E-02  4.0024E-02  6.5813E-02  0.0000E+00
 41  0.0000E+00  1.5846E-02  3.3514E-02  1.5498E-01  1.7081E-01  0.0000E+00  4.6088E-02  0.0000E+00  3.2827E-02
 42  1.2324E-02  2.5851E-02  1.1433E+00  0.0000E+00  2.8318E-01  0.0000E+00  4.2208E-02  2.4851E-02  1.0812E-01
 43  0.0000E+00  4.7469E-02  0.0000E+00  0.0000E+00  1.0256E-01  1.0026E-01  2.4216E-01  3.9917E-01  8.5579E-02
 44  0.0000E+00  4.6660E-02  1.1634E+00  3.0236E-02  2.5101E-02  4.5190E-01  0.0000E+00  0.0000E+00  0.0000E+00
 45  0.0000E+00  9.5709E-02  0.0000E+00  0.0000E+00  0.0000E+00  8.7294E-01  0.0000E+00  2.7869E-01  0.0000E+00
 46  9.3457E+00  2.9116E-01  9.3133E-01  1.4611E+00  0.0000E+00  1.7155E+00  1.6585E+00  9.3923E-01  0.0000E+00
 47  0.0000E+00  7.0877E-01  0.0000E+00  9.8830E-01  5.0426E-01  4.7887E-01  1.1163E+00  3.0823E-01  6.9354E+00
 48  0.0000E+00  9.4224E-01  7.8482E+00  0.0000E+00  4.2957E-01  0.0000E+00  0.0000E+00  3.7405E-01  7.9426E+00
 49  0.0000E+00  2.0076E+00  0.0000E+00  0.0000E+00  5.1357E+00  8.3380E+00  7.6240E+00  3.3641E+00  7.1776E+00
 50  3.1768E+00  3.2843E+00  1.3112E+01  1.4497E+01  6.0568E+00  0.0000E+00  3.0788E+00  7.3906E-01  1.5623E-01
 51  0.0000E+00  1.7912E-03  0.0000E+00  0.0000E+00  3.4639E-03  8.7128E-03  8.3755E-03  0.0000E+00  0.0000E+00
 52  0.0000E+00  8.9644E-04  0.0000E+00  0.0000E+00  2.3256E-03  0.0000E+00  1.3237E-03  4.9545E-03  4.7360E-03
 53  9.3305E-04  1.7614E-03  1.4713E-02  9.4011E-03  0.0000E+00  0.0000E+00  2.9779E-03  6.4781E-03  1.4401E-02
 54  0.0000E+00  8.3514E-02  6.2492E-02  2.4814E-02  1.3864E-02  4.6742E-02  5.9329E-02  9.1726E-02  5.7527E-02
 55  0.0000E+00  1.2593E-02  8.2943E-02  4.1300E-02  1.6560E-02  1.7284E-02  2.3082E-02  5.0949E-02  8.8401E-03
 56  0.0000E+00  1.3528E-02  0.0000E+00  5.1745E-02  6.6247E-03  8.9378E-02  4.0295E-02  2.4028E-02  1.8356E-01
 57  1.4590E-02  1.4784E-02  2.1226E-01  6.2920E-02  9.2423E-02  1.0636E-01  9.6287E-03  2.3206E-02  2.5174E-02
 58  0.0000E+00  2.4831E-02  9.6489E-02  0.0000E+00  4.1676E-02  4.5371E-02  3.9422E-02  5.5175E-02  2.7076E-02
 59  0.0000E+00  5.5741E-02  0.0000E+00  2.2687E-01  2.8904E-01  2.0176E-01  1.3748E-01  3.7848E-01  3.2905E-01
 60  7.5036E-01  6.0110E-02  1.0464E+00  2.7785E-01  4.2367E-01  6.5791E-01  0.0000E+00  4.0731E-01  3.4821E-01
 61  0.0000E+00  1.5920E-01  5.0259E-01  1.1995E+00  1.1361E+00  0.0000E+00  6.8686E-01  3.3724E-01  2.6942E+00
 62  1.8630E+01  3.8284E-01  3.5485E+00  4.1694E-01  1.8339E+00  1.4747E+00  2.3700E+00  3.2495E-01  6.5830E-02
 63  0.0000E+00  8.4619E-01  0.0000E+00  6.5977E-03  7.3489E-01  0.0000E+00  0.0000E+00  1.7936E-01  7.4775E-01
 64  0.0000E+00  2.4282E+00  1.6045E+01  1.7197E+00  2.8190E+00  1.1323E+01  0.0000E+00  0.0000E+00  1.5558E+00
 65  7.1990E+00  4.2056E+00  1.7159E+01  3.7132E+00  9.0442E+00  0.0000E+00  9.2491E-02  0.0000E+00  0.0000E+00
 66  0.0000E+00  7.0471E+01  0.0000E+00  6.0533E+01  5.5506E+01  4.0568E+01  5.6525E+01  5.4595E+01  3.1200E+01

# AV, chi2 & Mass for <> & i_chain = 1 ...  7 solutions
AV      -0.8037      2.0218      1.8462      1.8887      1.9162      1.8439      1.8895      1.8754      1.9635
chi2 1.5793E-05  5.3538E-05  2.7412E-05  2.8986E-05  3.2517E-05  3.1628E-05  3.3390E-05  3.1122E-05  3.2114E-05
Mass 2.1077E-14  1.5055E-12  3.0530E-13  5.8376E-13  7.3398E-13  5.0710E-13  6.6934E-13  5.8089E-13  4.8781E-13
 -62.93                                  [v0_min (km/s) before EX0s...]
 212.27                                  [vd_min (km/s) before EX0s...]


## Synthetic spectrum (Best Model) ##l_obs f_obs f_syn wei
 3478    [Nl_obs]
 3741.00    0.99782   0.79231    0.000
 3742.00    0.82115   0.78076    0.000
 3743.00    0.49522   0.75742    0.000
 3744.00    0.45645   0.72616    0.000
 3745.00    0.58500   0.69185    0.021
 3746.00    1.14212   0.66042    0.021
 3747.00    1.91687   0.63815    0.022
 3748.00    1.62833   0.63042    0.022
 3749.00    0.87224   0.64029    0.022
 3750.00    0.45263   0.66722    0.021
 3751.00    0.16004   0.70627    0.019
 3752.00    0.40522   0.74917    0.019
 3753.00    0.82274   0.78700    0.019
 3754.00    1.08217   0.81333    0.019
 3755.00    1.29924   0.82620    0.019
 3756.00    1.13919   0.82799    0.019
 3757.00    0.89637   0.82378    0.018
 3758.00    0.58878   0.81905    0.018
 3759.00    0.26988   0.81718    0.018
 3760.00   -0.20821   0.81859    0.000
 3761.00   -0.70744   0.82123    0.000
 3762.00   -0.41317   0.82155    0.000
 3763.00   -0.04433   0.81666    0.000
 3764.00    0.50820   0.80552    0.017
 3765.00    1.07134   0.78868    0.017
 3766.00    0.92775   0.76852    0.017
 3767.00    0.76763   0.74949    0.018
 3768.00    0.63638   0.73654    0.018
 3769.00    0.50449   0.73322    0.017
 3770.00    0.35714   0.74101    0.017
 3771.00    0.22959   0.75913    0.017
 3772.00    0.36145   0.78499    0.017
 3773.00    0.46806   0.81518    0.017
 3774.00    0.35294   0.84668    0.017
 3775.00    0.21993   0.87778    0.017
 3776.00   -0.02908   0.90763    0.000
 3777.00   -0.14632   0.93539    0.000
 3778.00    0.40333   0.96010    0.017
 3779.00    0.91369   0.98065    0.018
 3780.00    1.26327   0.99559    0.019
 3781.00    1.55434   1.00291    0.019
 3782.00    1.64699   1.00101    0.019
 3783.00    1.53866   0.98994    0.019
 3784.00    0.85552   0.97120    0.018
 3785.00    0.19301   0.94736    0.018
 3786.00   -0.41909   0.92183    0.000
 3787.00   -0.62870   0.89765    0.000
 3788.00    0.01001   0.87600    0.019
 3789.00    0.50266   0.85583    0.019
 3790.00    0.72774   0.83483    0.018
 3791.00    1.01760   0.81073    0.018
 3792.00    1.41115   0.78234    0.018
 3793.00    1.41861   0.75029    0.018
 3794.00    0.88375   0.71774    0.017
 3795.00    0.41540   0.69035    0.017
 3796.00    0.02925   0.67434    0.017
 3797.00    0.10350   0.67420    0.017
 3798.00    0.67935   0.69125    0.018
 3799.00    0.89507   0.72342    0.018
 3800.00    0.76469   0.76538    0.017
 3801.00    0.40442   0.81007    0.017
 3802.00   -0.15065   0.85103    0.000
 3803.00   -0.15584   0.88447    0.000
 3804.00    0.24930   0.91009    0.017
 3805.00    0.52992   0.92990    0.017
 3806.00    0.72892   0.94621    0.017
 3807.00    0.47353   0.95996    0.017
 3808.00   -0.04260   0.97013    0.000
 3809.00    0.19914   0.97433    0.017
 3810.00    0.81966   0.97079    0.018
 3811.00    1.36825   0.95987    0.020
 3812.00    1.88574   0.94407    0.026
 3813.00    2.05048   0.92723    0.023
 3814.00    2.08440   0.91254    0.019
 3815.00    1.67599   0.90066    0.018
 3816.00    1.12855   0.89056    0.018
 3817.00    0.79721   0.88152    0.018
 3818.00    0.52257   0.87363    0.019
 3819.00    0.21681   0.86653    0.018
 3820.00   -0.09561   0.85885    0.000
 3821.00   -0.53290   0.84922    0.000
 3822.00   -0.99138   0.83705    0.000
 3823.00   -0.60622   0.82222    0.000
 3824.00   -0.11280   0.80513    0.000
 3825.00    0.49540   0.78670    0.019
 3826.00    1.11391   0.76764    0.019
 3827.00    1.13243   0.74769    0.020
 3828.00    1.11870   0.72534    0.021
 3829.00    0.40576   0.69919    0.019
 3830.00   -0.31169   0.66962    0.000
 3831.00   -0.22819   0.63879    0.000
 3832.00   -0.11490   0.61056    0.000
 3833.00    0.66004   0.58954    0.018
 3834.00    1.35828   0.57907    0.018
 3835.00    1.10291   0.58065    0.018
 3836.00    0.88074   0.59433    0.018
 3837.00    0.93918   0.61887    0.020
 3838.00    0.99185   0.65238    0.021
 3839.00    1.00819   0.69242    0.019
 3840.00    1.00784   0.73565    0.018
 3841.00    0.92509   0.77862    0.017
 3842.00    0.76984   0.81843    0.017
 3843.00    0.32434   0.85317    0.017
 3844.00   -0.07257   0.88207    0.000
 3845.00   -0.30793   0.90465    0.000
 3846.00   -0.26433   0.92094    0.000
 3847.00    0.56264   0.93250    0.000
 3848.00    1.18445   0.94152    0.000
 3849.00    1.31347   0.94885    0.000
 3850.00    1.38811   0.95421    0.000
 3851.00    1.34998   0.95714    0.000
 3852.00    1.28854   0.95696    0.000
 3853.00    1.18504   0.95345    0.000
 3854.00    0.98765   0.94730    0.000
 3855.00    0.64220   0.93908    0.000
 3856.00    0.51687   0.93027    0.000
 3857.00    0.69626   0.92419    0.000
 3858.00    0.78565   0.92374    0.000
 3859.00    0.76537   0.92954    0.000
 3860.00    0.58724   0.94017    0.000
 3861.00    0.23955   0.95305    0.000
 3862.00    0.16501   0.96520    0.000
 3863.00    0.34928   0.97428    0.000
 3864.00    0.33586   0.97917    0.000
 3865.00    0.15729   0.97962    0.000
 3866.00    0.24999   0.97568    0.000
 3867.00    0.54221   0.96747    0.000
 3868.00    0.92580   0.95567    0.000
 3869.00    1.36840   0.94200    0.000
 3870.00    1.43268   0.92953    0.000
 3871.00    1.28314   0.92097    0.000
 3872.00    1.11910   0.91668    0.000
 3873.00    0.94794   0.91478    0.000
 3874.00    0.76437   0.91239    0.000
 3875.00    0.57553   0.90746    0.000
 3876.00    0.25903   0.90026    0.000
 3877.00   -0.10398   0.89137    0.000
 3878.00    0.21881   0.88002    0.000
 3879.00    0.75301   0.86583    0.000
 3880.00    0.74317   0.84922    0.000
 3881.00    0.59368   0.82960    0.017
 3882.00    0.26074   0.80512    0.016
 3883.00   -0.11055   0.77539    0.000
 3884.00   -0.03840   0.74271    0.000
 3885.00    0.10687   0.71079    0.016
 3886.00    0.38782   0.68467    0.017
 3887.00    0.68557   0.67021    0.017
 3888.00    1.13764   0.67098    0.017
 3889.00    1.60292   0.68661    0.017
 3890.00    1.14633   0.71346    0.017
 3891.00    0.64380   0.74646    0.017
 3892.00    0.20233   0.78078    0.017
 3893.00   -0.22515   0.81319    0.000
 3894.00    0.18625   0.84201    0.017
 3895.00    0.57751   0.86618    0.017
 3896.00    0.55684   0.88581    0.017
 3897.00    0.52414   0.90230    0.016
 3898.00    0.34908   0.91687    0.016
 3899.00    0.18449   0.92903    0.016
 3900.00    0.10523   0.93782    0.016
 3901.00    0.09690   0.94348    0.015
 3902.00    0.52177   0.94670    0.016
 3903.00    0.85037   0.94912    0.016
 3904.00    0.71574   0.95382    0.015
 3905.00    0.55804   0.96302    0.015
 3906.00    0.30999   0.97666    0.015
 3907.00    0.22605   0.99312    0.015
 3908.00    0.67701   1.01009    0.015
 3909.00    1.02562   1.02492    0.016
 3910.00    1.09196   1.03503    0.016
 3911.00    1.06793   1.03930    0.017
 3912.00    0.83053   1.03818    0.017
 3913.00    0.68315   1.03235    0.017
 3914.00    0.71951   1.02278    0.017
 3915.00    0.64146   1.01064    0.017
 3916.00    0.36018   0.99684    0.017
 3917.00    0.43404   0.98229    0.018
 3918.00    1.05970   0.96835    0.018
 3919.00    1.21066   0.95617    0.018
 3920.00    0.71394   0.94578    0.018
 3921.00    0.56328   0.93579    0.018
 3922.00    0.82833   0.92360    0.018
 3923.00    0.86626   0.90619    0.018
 3924.00    0.66364   0.88140    0.018
 3925.00    0.47276   0.84810    0.017
 3926.00    0.29285   0.80645    0.017
 3927.00    0.49925   0.75826    0.017
 3928.00    1.02379   0.70649    0.017
 3929.00    1.02269   0.65493    0.017
 3930.00    0.64052   0.60828    0.017
 3931.00    0.31961   0.57185    0.017
 3932.00    0.03768   0.55069    0.017
 3933.00    0.18545   0.54788    0.017
 3934.00    0.57236   0.56364    0.016
 3935.00    0.55839   0.59537    0.016
 3936.00    0.35035   0.63843    0.017
 3937.00    0.43177   0.68693    0.017
 3938.00    0.63420   0.73488    0.017
 3939.00    0.74251   0.77787    0.017
 3940.00    0.81715   0.81378    0.017
 3941.00    0.86528   0.84273    0.017
 3942.00    0.90540   0.86691    0.017
 3943.00    1.14358   0.88876    0.018
 3944.00    1.43150   0.90857    0.018
 3945.00    1.40385   0.92556    0.018
 3946.00    1.31184   0.94007    0.017
 3947.00    1.85281   0.95299    0.018
 3948.00    2.49513   0.96404    0.019
 3949.00    1.65978   0.97218    0.018
 3950.00    0.64800   0.97727    0.018
 3951.00    0.31647   0.98037    0.018
 3952.00    0.04034   0.98140    0.018
 3953.00   -0.11483   0.97862    0.000
 3954.00   -0.26445   0.97156    0.000
 3955.00    0.45605   0.96137    0.018
 3956.00    1.17674   0.94793    0.018
 3957.00    1.32812   0.92909    0.018
 3958.00    1.44856   0.90223    0.019
 3959.00    0.98281   0.86655    0.018
 3960.00    0.58641   0.82350    0.000
 3961.00    0.97151   0.77441    0.000
 3962.00    1.30548   0.71992    0.000
 3963.00    1.23748   0.66139    0.000
 3964.00    1.13206   0.60161    0.000
 3965.00    0.80454   0.54496    0.000
 3966.00    0.45008   0.49730    0.000
 3967.00   -0.03080   0.46480    0.000
 3968.00   -0.15720   0.45226    0.000
 3969.00    1.07488   0.46151    0.000
 3970.00    1.94677   0.49089    0.000
 3971.00    1.66735   0.53626    0.000
 3972.00    1.29620   0.59266    0.000
 3973.00    0.67659   0.65470    0.000
 3974.00    0.40685   0.71727    0.000
 3975.00    0.94948   0.77687    0.000
 3976.00    1.30322   0.83143    0.000
 3977.00    1.27757   0.87910    0.000
 3978.00    1.13252   0.91830    0.000
 3979.00    0.77861   0.94826    0.000
 3980.00    0.67489   0.97026    0.000
 3981.00    0.95420   0.98703    0.017
 3982.00    1.27686   1.00089    0.018
 3983.00    1.65781   1.01336    0.018
 3984.00    1.54344   1.02529    0.018
 3985.00    0.84250   1.03750    0.017
 3986.00    0.65782   1.05001    0.017
 3987.00    1.01225   1.06148    0.017
 3988.00    1.17439   1.07161    0.017
 3989.00    1.15944   1.08090    0.017
 3990.00    0.66198   1.08863    0.017
 3991.00   -0.22725   1.09342    0.000
 3992.00   -0.35153   1.09445    0.000
 3993.00    0.07072   1.09226    0.017
 3994.00    0.38502   1.08838    0.017
 3995.00    0.63164   1.08506    0.017
 3996.00    0.70754   1.08523    0.017
 3997.00    0.68989   1.09029    0.017
 3998.00    0.88713   1.09832    0.017
 3999.00    1.18672   1.10631    0.017
 4000.00    0.88640   1.11231    0.017
 4001.00    0.33950   1.11433    0.018
 4002.00    0.58119   1.11051    0.018
 4003.00    1.09984   1.10258    0.017
 4004.00    1.01725   1.09603    0.017
 4005.00    0.75651   1.09461    0.017
 4006.00    0.58516   1.09815    0.017
 4007.00    0.43575   1.10541    0.017
 4008.00    0.62181   1.11533    0.017
 4009.00    0.87456   1.12637    0.018
 4010.00    1.00075   1.13665    0.018
 4011.00    1.10728   1.14537    0.018
 4012.00    1.16784   1.15247    0.018
 4013.00    1.22312   1.15832    0.018
 4014.00    0.74353   1.16269    0.018
 4015.00    0.22258   1.16549    0.018
 4016.00    0.34792   1.16814    0.018
 4017.00    0.50047   1.17110    0.018
 4018.00    0.86777   1.17234    0.018
 4019.00    1.22873   1.17078    0.018
 4020.00    1.22579   1.16719    0.018
 4021.00    1.20820   1.16223    0.018
 4022.00    0.93226   1.15633    0.018
 4023.00    0.73286   1.15129    0.018
 4024.00    1.35713   1.14858    0.018
 4025.00    1.95352   1.14669    0.018
 4026.00    2.33833   1.14268    0.019
 4027.00    2.48938   1.13402    0.019
 4028.00    1.29214   1.12012    0.018
 4029.00    0.41735   1.10430    0.017
 4030.00    1.02031   1.09114    0.017
 4031.00    1.47403   1.08370    0.017
 4032.00    1.36797   1.08450    0.017
 4033.00    1.22049   1.09435    0.017
 4034.00    0.94321   1.11176    0.017
 4035.00    0.80042   1.13298    0.016
 4036.00    1.01543   1.15264    0.017
 4037.00    1.04931   1.16622    0.017
 4038.00    0.66960   1.17146    0.016
 4039.00    0.47873   1.16884    0.016
 4040.00    0.66119   1.16001    0.016
 4041.00    0.75037   1.14521    0.016
 4042.00    0.67887   1.12534    0.017
 4043.00    0.72407   1.10537    0.017
 4044.00    0.94531   1.09291    0.017
 4045.00    1.00000   1.09223    0.017
 4046.00    0.83390   1.10024    0.017
 4047.00    0.95674   1.11219    0.017
 4048.00    1.41690   1.12528    0.017
 4049.00    1.43930   1.13579    0.017
 4050.00    1.01100   1.14047    0.017
 4051.00    0.48182   1.13885    0.017
 4052.00   -0.13897   1.13231    0.000
 4053.00   -0.11049   1.12337    0.000
 4054.00    0.43765   1.11455    0.017
 4055.00    0.66891   1.10670    0.017
 4056.00    0.67704   1.10090    0.017
 4057.00    1.19075   1.09851    0.017
 4058.00    2.01674   1.09809    0.018
 4059.00    2.06764   1.09608    0.018
 4060.00    1.70031   1.08991    0.018
 4061.00    1.35852   1.08083    0.017
 4062.00    1.02869   1.07396    0.017
 4063.00    0.97286   1.07235    0.017
 4064.00    1.02772   1.07386    0.017
 4065.00    0.60205   1.07724    0.017
 4066.00    0.01068   1.08363    0.017
 4067.00    0.29672   1.09127    0.017
 4068.00    0.83755   1.09533    0.018
 4069.00    0.33512   1.09380    0.017
 4070.00   -0.41789   1.08964    0.000
 4071.00    0.23599   1.08536    0.018
 4072.00    1.16246   1.07919    0.018
 4073.00    1.67947   1.06947    0.018
 4074.00    2.13476   1.05738    0.018
 4075.00    1.78140   1.04662    0.018
 4076.00    1.33858   1.04192    0.018
 4077.00    1.46626   1.04543    0.018
 4078.00    1.63571   1.05564    0.018
 4079.00    1.52911   1.06913    0.018
 4080.00    1.41194   1.08172    0.018
 4081.00    1.10912   1.09107    0.017
 4082.00    0.82542   1.09764    0.017
 4083.00    1.30101   1.10275    0.017
 4084.00    1.69228   1.10788    0.017
 4085.00    0.69376   1.11392    0.017
 4086.00   -0.17562   1.12003    0.000
 4087.00    0.28388   1.12403    0.017
 4088.00    0.68479   1.12427    0.017
 4089.00    0.65570   1.11981    0.017
 4090.00    0.62309   1.10992    0.017
 4091.00    0.57076   1.09485    0.017
 4092.00    0.37387   1.07426    0.000
 4093.00   -0.46987   1.04670    0.000
 4094.00   -0.99233   1.01310    0.000
 4095.00   -0.33477   0.97601    0.000
 4096.00    0.22344   0.93706    0.000
 4097.00    0.47612   0.89748    0.000
 4098.00    0.66836   0.85913    0.000
 4099.00    0.70262   0.82613    0.000
 4100.00    0.88398   0.80579    0.000
 4101.00    1.39570   0.80312    0.000
 4102.00    1.57463   0.81682    0.000
 4103.00    1.10600   0.84253    0.000
 4104.00    0.65273   0.87531    0.000
 4105.00    0.22552   0.90982    0.000
 4106.00    0.19710   0.94207    0.000
 4107.00    0.76145   0.96988    0.000
 4108.00    1.13681   0.99284    0.000
 4109.00    1.26523   1.01219    0.000
 4110.00    1.15675   1.02961    0.000
 4111.00    0.77559   1.04605    0.000
 4112.00    0.64365   1.06119    0.000
 4113.00    0.76471   1.07409    0.016
 4114.00    0.99769   1.08383    0.016
 4115.00    1.33090   1.08908    0.016
 4116.00    1.44643   1.08906    0.016
 4117.00    1.39022   1.08590    0.016
 4118.00    1.05215   1.08294    0.023
 4119.00    0.51848   1.08112    0.082
 4120.00    0.22319   1.08023   -1.000
 4121.00    0.07295   1.08094   -1.000
 4122.00    0.33252   1.08357   -1.000
 4123.00    0.80980   1.08656   -1.000
 4124.00    1.20657   1.08732   -1.000
 4125.00    1.56622   1.08461   -1.000
 4126.00    1.46999   1.07894    0.046
 4127.00    1.19275   1.07205    0.019
 4128.00    0.93814   1.06494    0.016
 4129.00    0.69119   1.05781    0.016
 4130.00    1.09549   1.05188    0.016
 4131.00    1.68508   1.05010    0.016
 4132.00    1.67894   1.05455    0.016
 4133.00    1.53293   1.06518    0.016
 4134.00    1.15081   1.07974    0.016
 4135.00    0.72412   1.09425    0.016
 4136.00    0.47867   1.10647    0.016
 4137.00    0.25969   1.11489    0.016
 4138.00    1.11717   1.11724    0.017
 4139.00    2.08905   1.11225    0.017
 4140.00    1.50714   1.10033    0.017
 4141.00    0.81775   1.08477    0.017
 4142.00    0.77541   1.07218    0.017
 4143.00    0.75539   1.06711    0.016
 4144.00    1.25077   1.06819    0.017
 4145.00    1.72712   1.07208    0.017
 4146.00    1.54133   1.07664    0.017
 4147.00    1.36633   1.08001    0.017
 4148.00    1.35822   1.08150    0.017
 4149.00    1.30422   1.08136    0.017
 4150.00    0.79786   1.07917    0.017
 4151.00    0.37737   1.07494    0.017
 4152.00    0.56654   1.07009    0.017
 4153.00    0.65359   1.06679    0.017
 4154.00    0.18310   1.06643    0.017
 4155.00   -0.12007   1.06959    0.000
 4156.00    0.30811   1.07660    0.017
 4157.00    0.68417   1.08632    0.016
 4158.00    0.87274   1.09669    0.016
 4159.00    0.95663   1.10632    0.016
 4160.00    0.72463   1.11515    0.016
 4161.00    0.53643   1.12226    0.016
 4162.00    0.46073   1.12586    0.016
 4163.00    0.64536   1.12563    0.016
 4164.00    1.40504   1.12175    0.017
 4165.00    1.82340   1.11439    0.017
 4166.00    1.58795   1.10504    0.016
 4167.00    1.41296   1.09497    0.016
 4168.00    1.33901   1.08307    0.016
 4169.00    1.17791   1.06787    0.016
 4170.00    0.88913   1.05049    0.016
 4171.00    0.80403   1.03479    0.017
 4172.00    0.98126   1.02444    0.016
 4173.00    1.03545   1.02000    0.016
 4174.00    0.95003   1.01963    0.016
 4175.00    1.05478   1.02152    0.016
 4176.00    1.34985   1.02560    0.016
 4177.00    1.66562   1.03272    0.016
 4178.00    1.99965   1.04191    0.016
 4179.00    1.91848   1.05000    0.016
 4180.00    1.51438   1.05541    0.016
 4181.00    0.95467   1.05960    0.015
 4182.00    0.28855   1.06380    0.015
 4183.00    0.49003   1.06779    0.015
 4184.00    1.21156   1.07008    0.015
 4185.00    1.42636   1.06996    0.015
 4186.00    1.37612   1.07035    0.015
 4187.00    1.42560   1.07413    0.015
 4188.00    1.52032   1.07982    0.015
 4189.00    1.54650   1.08477    0.015
 4190.00    1.54593   1.08889    0.015
 4191.00    1.08117   1.09226    0.015
 4192.00    0.46225   1.09212    0.015
 4193.00    0.15748   1.08576    0.015
 4194.00   -0.05972   1.07411    0.000
 4195.00    0.25658   1.06019    0.015
 4196.00    0.69527   1.04606    0.015
 4197.00    0.81114   1.03412    0.015
 4198.00    0.86769   1.02669    0.015
 4199.00    0.81027   1.02330    0.015
 4200.00    0.73675   1.02337    0.015
 4201.00    0.92869   1.02803    0.015
 4202.00    1.14771   1.03676    0.015
 4203.00    0.96037   1.04772    0.015
 4204.00    0.74654   1.06016    0.015
 4205.00    0.96156   1.07307    0.015
 4206.00    1.18872   1.08481    0.014
 4207.00    0.75306   1.09383    0.015
 4208.00    0.33794   1.09944    0.015
 4209.00    0.52627   1.10248    0.015
 4210.00    0.74218   1.10369    0.015
 4211.00    1.35948   1.10233    0.015
 4212.00    1.90728   1.09796    0.015
 4213.00    1.79771   1.09183    0.015
 4214.00    1.69488   1.08757    0.015
 4215.00    1.63834   1.08881    0.015
 4216.00    1.53017   1.09421    0.015
 4217.00    1.14758   1.09925    0.015
 4218.00    0.83520   1.10101    0.015
 4219.00    0.82269   1.09784    0.015
 4220.00    0.75162   1.08767    0.015
 4221.00    0.47424   1.06971    0.015
 4222.00    0.36728   1.04568    0.015
 4223.00    0.76502   1.01907    0.015
 4224.00    0.98980   0.99477    0.015
 4225.00    0.77810   0.97937    0.015
 4226.00    0.73266   0.97848    0.015
 4227.00    1.04851   0.99089    0.015
 4228.00    1.37632   1.00951    0.015
 4229.00    1.72671   1.02829    0.015
 4230.00    1.80250   1.04324    0.015
 4231.00    1.42622   1.05212    0.015
 4232.00    1.19700   1.05605    0.015
 4233.00    1.18007   1.05647    0.015
 4234.00    1.23386   1.05392    0.015
 4235.00    1.37745   1.05140    0.015
 4236.00    1.46248   1.05181    0.015
 4237.00    1.48199   1.05542    0.015
 4238.00    1.50358   1.06244    0.015
 4239.00    1.52720   1.07242    0.015
 4240.00    1.41114   1.08280    0.015
 4241.00    1.17351   1.09139    0.015
 4242.00    1.23915   1.09766    0.015
 4243.00    1.53731   1.10011    0.015
 4244.00    1.49356   1.09674    0.016
 4245.00    1.21941   1.08829    0.016
 4246.00    1.38017   1.07783    0.016
 4247.00    1.79772   1.06760    0.016
 4248.00    1.51846   1.05819    0.016
 4249.00    0.88044   1.05135    0.016
 4250.00    1.11944   1.04925    0.016
 4251.00    1.74974   1.05026    0.016
 4252.00    1.43465   1.05110    0.016
 4253.00    0.75708   1.05165    0.016
 4254.00    0.50302   1.05369    0.015
 4255.00    0.38699   1.05675    0.015
 4256.00    0.40575   1.05773    0.015
 4257.00    0.46132   1.05554    0.015
 4258.00    0.82108   1.05326    0.015
 4259.00    1.24901   1.05502    0.015
 4260.00    1.13635   1.06293    0.015
 4261.00    0.92701   1.07516    0.015
 4262.00    1.11067   1.08745    0.015
 4263.00    1.34810   1.09682    0.016
 4264.00    1.51088   1.10133    0.016
 4265.00    1.66635   1.09881    0.015
 4266.00    1.24921   1.08852    0.015
 4267.00    0.79704   1.07183    0.015
 4268.00    0.89116   1.05072    0.015
 4269.00    1.00012   1.02787    0.014
 4270.00    1.12909   1.00829    0.015
 4271.00    1.25263   0.99729    0.015
 4272.00    1.23253   0.99519    0.015
 4273.00    1.20251   0.99971    0.015
 4274.00    1.03595   1.01068    0.015
 4275.00    0.87548   1.02660    0.015
 4276.00    0.77016   1.04313    0.015
 4277.00    0.72818   1.05585    0.015
 4278.00    1.10803   1.06224    0.015
 4279.00    1.44697   1.06365    0.015
 4280.00    1.57415   1.06225    0.015
 4281.00    1.51333   1.05796    0.015
 4282.00    0.66769   1.05059   -2.000
 4283.00   -0.09696   1.04022   -2.000
 4284.00   -0.58206   1.02771   -2.000
 4285.00   -0.81168   1.01522   -2.000
 4286.00   -0.29868   1.00312   -2.000
 4287.00    0.05413   0.99053   -2.000
 4288.00    0.00963   0.97947   -2.000
 4289.00    0.13773   0.97413   -2.000
 4290.00    0.63482   0.97579   -2.000
 4291.00    1.05365   0.98021   -2.000
 4292.00    1.32715   0.98165   -2.000
 4293.00    1.36707   0.97846   -2.000
 4294.00    1.02814   0.97201   -2.000
 4295.00    0.80264   0.96134   -2.000
 4296.00    0.73852   0.94484   -2.000
 4297.00    0.83477   0.92361   -2.000
 4298.00    1.13174   0.90185    0.015
 4299.00    1.26354   0.88501    0.015
 4300.00    1.21317   0.87389    0.015
 4301.00    1.10183   0.86619    0.014
 4302.00    0.93118   0.86201    0.014
 4303.00    0.83687   0.86082    0.014
 4304.00    0.80805   0.86088    0.015
 4305.00    0.81925   0.86134    0.014
 4306.00    0.86067   0.86217    0.014
 4307.00    0.81571   0.86582    0.014
 4308.00    0.71339   0.87559    0.014
 4309.00    0.72065   0.89180    0.014
 4310.00    0.79164   0.91294    0.014
 4311.00    0.88106   0.93748    0.014
 4312.00    0.97982   0.96462    0.014
 4313.00    0.89617   0.99440    0.014
 4314.00    0.73249   1.02599    0.014
 4315.00    0.63027   1.05537    0.014
 4316.00    0.55119   1.07683    0.014
 4317.00    0.76636   1.08803    0.014
 4318.00    1.07561   1.08920    0.014
 4319.00    1.02827   1.08122    0.014
 4320.00    0.88563   1.06636    0.014
 4321.00    1.04374   1.04664    0.014
 4322.00    1.26767   1.02382    0.014
 4323.00    1.11938   1.00199    0.014
 4324.00    0.90634   0.98703    0.014
 4325.00    0.79969   0.98392    0.014
 4326.00    0.70711   0.99200    0.014
 4327.00    1.06609   1.00439    0.014
 4328.00    1.46728   1.01548    0.014
 4329.00    1.34586   1.02373    0.014
 4330.00    1.19455   1.02862    0.000
 4331.00    1.63731   1.02728    0.000
 4332.00    2.08878   1.01608    0.000
 4333.00    1.95168   0.99450    0.000
 4334.00    1.79270   0.96370    0.000
 4335.00    1.10828   0.92513    0.000
 4336.00    0.45869   0.88291    0.000
 4337.00    0.26246   0.84364    0.000
 4338.00    0.16282   0.81282    0.000
 4339.00    0.90718   0.79531    0.000
 4340.00    1.52171   0.79571    0.000
 4341.00    1.29763   0.81254    0.000
 4342.00    1.10959   0.83983    0.000
 4343.00    1.10334   0.87319    0.000
 4344.00    1.06702   0.90859    0.000
 4345.00    0.90795   0.94086    0.000
 4346.00    0.86382   0.96686    0.000
 4347.00    1.20856   0.98596    0.000
 4348.00    1.51290   0.99741    0.000
 4349.00    1.70199   1.00068    0.000
 4350.00    1.74075   0.99956    0.000
 4351.00    1.41300   1.00154    0.015
 4352.00    1.14643   1.00947    0.017
 4353.00    1.00854   1.02000    0.044
 4354.00    0.94435   1.03150   -1.000
 4355.00    1.01490   1.04493   -1.000
 4356.00    1.00179   1.05884   -1.000
 4357.00    0.85505   1.07073   -1.000
 4358.00    0.86056   1.08145   -1.000
 4359.00    1.07953   1.09333   -1.000
 4360.00    1.37034   1.10508    0.065
 4361.00    1.74979   1.11361    0.020
 4362.00    1.89112   1.11894    0.015
 4363.00    1.77348   1.12258    0.015
 4364.00    1.73498   1.12307    0.015
 4365.00    1.77240   1.11793    0.015
 4366.00    1.54543   1.10846    0.015
 4367.00    1.09480   1.09841    0.014
 4368.00    0.98081   1.08907    0.014
 4369.00    1.11755   1.07972    0.014
 4370.00    1.00814   1.07107    0.014
 4371.00    0.73766   1.06381    0.015
 4372.00    0.76621   1.05714    0.015
 4373.00    0.96604   1.05163    0.015
 4374.00    0.90259   1.05030    0.014
 4375.00    0.70781   1.05395    0.014
 4376.00    0.55139   1.05779    0.014
 4377.00    0.41152   1.05615    0.015
 4378.00    0.58627   1.04823    0.015
 4379.00    0.87744   1.03647    0.015
 4380.00    1.02778   1.02103    0.015
 4381.00    1.13395   1.00024    0.015
 4382.00    0.86534   0.97806    0.015
 4383.00    0.49869   0.96375    0.014
 4384.00    0.48394   0.96180    0.014
 4385.00    0.54435   0.96819    0.014
 4386.00    1.03929   0.97760    0.014
 4387.00    1.60772   0.98904    0.014
 4388.00    1.38973   1.00231    0.014
 4389.00    1.07127   1.01534    0.014
 4390.00    1.08747   1.02721    0.015
 4391.00    1.13354   1.03769    0.015
 4392.00    1.15366   1.04520    0.014
 4393.00    1.17240   1.04960    0.014
 4394.00    1.15015   1.05382    0.014
 4395.00    1.12988   1.06014    0.014
 4396.00    1.33656   1.06548    0.014
 4397.00    1.53956   1.06506    0.015
 4398.00    1.66178   1.05884    0.015
 4399.00    1.78038   1.05103    0.015
 4400.00    1.85426   1.04565    0.014
 4401.00    1.86645   1.04076    0.014
 4402.00    1.35970   1.03177    0.014
 4403.00    0.95531   1.02165    0.015
 4404.00    1.19253   1.01840    0.015
 4405.00    1.30327   1.02305    0.015
 4406.00    0.79197   1.02971    0.014
 4407.00    0.50018   1.03674    0.014
 4408.00    1.08467   1.04689    0.014
 4409.00    1.59656   1.05894    0.015
 4410.00    1.86767   1.06836    0.015
 4411.00    2.02615   1.07297    0.015
 4412.00    1.86903   1.07268    0.014
 4413.00    1.58643   1.06835    0.014
 4414.00    1.00307   1.06388    0.014
 4415.00    0.67644   1.06312    0.014
 4416.00    0.88120   1.06546    0.014
 4417.00    1.03387   1.06989    0.014
 4418.00    1.09279   1.07628    0.014
 4419.00    1.32350   1.08207    0.014
 4420.00    1.82464   1.08466    0.014
 4421.00    1.91229   1.08467    0.014
 4422.00    1.42854   1.08504    0.014
 4423.00    1.26154   1.08562    0.014
 4424.00    1.47980   1.08382    0.014
 4425.00    1.36097   1.08078    0.014
 4426.00    0.88067   1.07911    0.014
 4427.00    0.76660   1.07828    0.014
 4428.00    0.99892   1.07502    0.014
 4429.00    0.86666   1.06887    0.014
 4430.00    0.43038   1.06413    0.014
 4431.00    0.47862   1.06164    0.014
 4432.00    0.88259   1.05864    0.014
 4433.00    1.07357   1.05567    0.014
 4434.00    1.12722   1.05628    0.014
 4435.00    1.18278   1.06227    0.014
 4436.00    1.23943   1.07041    0.014
 4437.00    1.30812   1.07655    0.014
 4438.00    1.38273   1.07979    0.014
 4439.00    1.49542   1.08034    0.014
 4440.00    1.62426   1.07820    0.015
 4441.00    1.57269   1.07467    0.015
 4442.00    1.45554   1.07326    0.015
 4443.00    1.47131   1.07655    0.014
 4444.00    1.52796   1.08279    0.014
 4445.00    1.43987   1.08841    0.014
 4446.00    1.31472   1.09271    0.014
 4447.00    1.30626   1.09649    0.014
 4448.00    1.32211   1.09672    0.014
 4449.00    1.63480   1.09095    0.014
 4450.00    1.99627   1.08206    0.014
 4451.00    1.63408   1.07179    0.013
 4452.00    1.18268   1.05827    0.013
 4453.00    0.96881   1.04192    0.013
 4454.00    0.77514   1.02746    0.013
 4455.00    1.21808   1.01794    0.013
 4456.00    1.69243   1.01130    0.013
 4457.00    1.32502   1.00635    0.013
 4458.00    0.94721   1.00463    0.013
 4459.00    0.75714   1.00650    0.013
 4460.00    0.58924   1.01024    0.013
 4461.00    0.87041   1.01619    0.000
 4462.00    1.13152   1.02485    0.000
 4463.00    1.15686   1.03248    0.000
 4464.00    1.18652   1.03743    0.000
 4465.00    1.25115   1.04159    0.000
 4466.00    1.30786   1.04592    0.000
 4467.00    1.31640   1.04977    0.000
 4468.00    1.36272   1.05382    0.000
 4469.00    1.59029   1.06055    0.000
 4470.00    1.74668   1.07067    0.000
 4471.00    1.62512   1.08341    0.000
 4472.00    1.49141   1.09695    0.000
 4473.00    1.31819   1.10819    0.000
 4474.00    1.20441   1.11479    0.000
 4475.00    1.25417   1.11727    0.000
 4476.00    1.30428   1.11646    0.000
 4477.00    1.35522   1.11122    0.000
 4478.00    1.51751   1.10143    0.000
 4479.00    1.90659   1.09056    0.000
 4480.00    1.95523   1.08345    0.000
 4481.00    1.40034   1.08246    0.000
 4482.00    1.05848   1.08613    0.013
 4483.00    1.04703   1.09105    0.013
 4484.00    1.01242   1.09558    0.013
 4485.00    0.94627   1.09936    0.013
 4486.00    1.02335   1.10061    0.013
 4487.00    1.27215   1.09750    0.013
 4488.00    1.33755   1.09138    0.013
 4489.00    1.20904   1.08607    0.013
 4490.00    1.27240   1.08325    0.013
 4491.00    1.51467   1.08166    0.013
 4492.00    1.63492   1.08005    0.013
 4493.00    1.65487   1.07933    0.013
 4494.00    1.70414   1.08172    0.013
 4495.00    1.77463   1.08676    0.013
 4496.00    1.84548   1.09353    0.013
 4497.00    1.91656   1.10235    0.013
 4498.00    1.73409   1.11226    0.013
 4499.00    1.41079   1.12153    0.013
 4500.00    1.06361   1.13025    0.013
 4501.00    0.70489   1.14077    0.013
 4502.00    0.92569   1.15196    0.013
 4503.00    1.38826   1.15987    0.013
 4504.00    1.58167   1.16397    0.013
 4505.00    1.67903   1.16599    0.013
 4506.00    1.62475   1.16605    0.013
 4507.00    1.52475   1.16378    0.012
 4508.00    1.40163   1.16005    0.012
 4509.00    1.27273   1.15536    0.012
 4510.00    1.19775   1.14921    0.012
 4511.00    1.13374   1.14156    0.012
 4512.00    0.94448   1.13366    0.013
 4513.00    0.73523   1.12651    0.013
 4514.00    0.89370   1.12098    0.013
 4515.00    1.09587   1.11725    0.013
 4516.00    0.89973   1.11361    0.013
 4517.00    0.67135   1.10988    0.013
 4518.00    0.84210   1.10775    0.013
 4519.00    1.03101   1.10582    0.013
 4520.00    1.16652   1.10082    0.013
 4521.00    1.30271   1.09116    0.012
 4522.00    1.50721   1.07946    0.013
 4523.00    1.68983   1.06769    0.013
 4524.00    1.46204   1.05421    0.012
 4525.00    1.24648   1.03955    0.012
 4526.00    1.16798   1.02672    0.012
 4527.00    1.12530   1.01721    0.013
 4528.00    1.36298   1.01072    0.013
 4529.00    1.54187   1.00746    0.012
 4530.00    1.37314   1.00795    0.012
 4531.00    1.19073   1.01223    0.013
 4532.00    0.94421   1.01807    0.012
 4533.00    0.77918   1.02476    0.012
 4534.00    0.92559   1.03422    0.012
 4535.00    1.02201   1.04733    0.013
 4536.00    0.95906   1.06164    0.013
 4537.00    0.90361   1.07265    0.013
 4538.00    0.86842   1.07933    0.013
 4539.00    0.89554   1.08308    0.013
 4540.00    1.06703   1.08525    0.012
 4541.00    1.11790   1.08614    0.012
 4542.00    0.92695   1.08402    0.012
 4543.00    0.85200   1.07772    0.012
 4544.00    0.97958   1.07041    0.012
 4545.00    1.11236   1.06572    0.012
 4546.00    1.25312   1.06158    0.013
 4547.00    1.13632   1.05479    0.013
 4548.00    0.67378   1.04713    0.012
 4549.00    0.48539   1.04359    0.012
 4550.00    0.62107   1.04396    0.000
 4551.00    0.75504   1.04420    0.000
 4552.00    0.88723   1.04493    0.000
 4553.00    1.07787   1.04855    0.000
 4554.00    1.32224   1.05563    0.000
 4555.00    1.46896   1.06559    0.000
 4556.00    1.53652   1.07683    0.000
 4557.00    1.40670   1.08629    0.000
 4558.00    1.13611   1.09285    0.000
 4559.00    0.95340   1.09748    0.000
 4560.00    0.82570   1.10023    0.000
 4561.00    0.84538   1.10007    0.000
 4562.00    0.94568   1.09682    0.000
 4563.00    1.09347   1.09334    0.000
 4564.00    1.26385   1.09248    0.000
 4565.00    0.99442   1.09393    0.000
 4566.00    0.54460   1.09580    0.000
 4567.00    0.47718   1.09764    0.000
 4568.00    0.54377   1.10011    0.000
 4569.00    0.69100   1.10151    0.000
 4570.00    0.86207   1.10038    0.000
 4571.00    1.19166   1.10025    0.000
 4572.00    1.56007   1.10285    0.000
 4573.00    1.54580   1.10308    0.000
 4574.00    1.45569   1.09909    0.000
 4575.00    1.42160   1.09459    0.000
 4576.00    1.39619   1.09035    0.000
 4577.00    1.50485   1.08332    0.000
 4578.00    1.62886   1.07303    0.000
 4579.00    1.41582   1.06315    0.000
 4580.00    1.17690   1.05649    0.000
 4581.00    0.97096   1.05265    0.000
 4582.00    0.76640   1.05045    0.000
 4583.00    0.76894   1.05086    0.000
 4584.00    0.77552   1.05453    0.000
 4585.00    0.87830   1.05943    0.000
 4586.00    0.98390   1.06432    0.000
 4587.00    1.13898   1.06866    0.000
 4588.00    1.28338   1.07163    0.000
 4589.00    1.31358   1.07195    0.000
 4590.00    1.32674   1.06966    0.000
 4591.00    1.21108   1.06665    0.000
 4592.00    1.15180   1.06455    0.000
 4593.00    1.41662   1.06275    0.000
 4594.00    1.55631   1.06053    0.000
 4595.00    1.12426   1.05906    0.000
 4596.00    0.78083   1.05930    0.000
 4597.00    0.76891   1.06056    0.000
 4598.00    0.83238   1.06162    0.000
 4599.00    1.13163   1.06171    0.000
 4600.00    1.32395   1.06267    0.000
 4601.00    1.23244   1.06596    0.000
 4602.00    1.22859   1.07035    0.000
 4603.00    1.42448   1.07528    0.000
 4604.00    1.51064   1.08115    0.000
 4605.00    1.38029   1.08843    0.000
 4606.00    1.14926   1.09627    0.000
 4607.00    0.74515   1.10358    0.000
 4608.00    0.39886   1.10892    0.000
 4609.00    0.13964   1.11149    0.000
 4610.00    0.17564   1.11203    0.000
 4611.00    0.60224   1.11133    0.000
 4612.00    0.85663   1.10979    0.000
 4613.00    0.91032   1.10797    0.000
 4614.00    0.93295   1.10593    0.000
 4615.00    0.92365   1.10395    0.000
 4616.00    0.83610   1.10375    0.000
 4617.00    0.67764   1.10397    0.000
 4618.00    0.61331   1.10342    0.000
 4619.00    0.62419   1.10435    0.000
 4620.00    0.87701   1.10676    0.000
 4621.00    1.29988   1.10763    0.000
 4622.00    1.35244   1.10752    0.000
 4623.00    1.17668   1.10751    0.000
 4624.00    1.12881   1.10588    0.000
 4625.00    1.14982   1.10345    0.000
 4626.00    1.28934   1.10227    0.000
 4627.00    1.48428   1.10001    0.000
 4628.00    1.38281   1.09541    0.000
 4629.00    1.16184   1.09229    0.000
 4630.00    1.06457   1.09133    0.000
 4631.00    1.00984   1.08785    0.000
 4632.00    1.10051   1.08127    0.000
 4633.00    1.23328   1.07599    0.000
 4634.00    1.23234   1.07254    0.000
 4635.00    1.19938   1.06821    0.000
 4636.00    1.18089   1.06340    0.000
 4637.00    1.16519   1.06031    0.000
 4638.00    0.98793   1.05856    0.000
 4639.00    0.78642   1.05684    0.000
 4640.00    0.64821   1.05536    0.000
 4641.00    0.51696   1.05256    0.000
 4642.00    0.62730   1.04749    0.000
 4643.00    0.75521   1.04193    0.000
 4644.00    0.85218   1.03684    0.000
 4645.00    0.94798   1.03129    0.000
 4646.00    0.80584   1.02733    0.000
 4647.00    0.67251   1.02744    0.000
 4648.00    0.91044   1.03076    0.000
 4649.00    1.14390   1.03472    0.000
 4650.00    1.30452   1.03888    0.000
 4651.00    1.43891   1.04390    0.000
 4652.00    1.30483   1.04906    0.000
 4653.00    1.19312   1.05296    0.000
 4654.00    1.24482   1.05671    0.000
 4655.00    1.28283   1.06170    0.000
 4656.00    1.24429   1.06732    0.000
 4657.00    1.19031   1.07279    0.000
 4658.00    1.06747   1.07652    0.000
 4659.00    0.96968   1.07701    0.000
 4660.00    0.96363   1.07311    0.000
 4661.00    0.90989   1.06431    0.000
 4662.00    0.70986   1.05148    0.000
 4663.00    0.60506   1.03803    0.000
 4664.00    0.74861   1.02538    0.000
 4665.00    0.92444   1.01250    0.000
 4666.00    1.17264   1.00236    0.000
 4667.00    1.27968   0.99963    0.000
 4668.00    1.11258   1.00319    0.000
 4669.00    0.92799   1.00935    0.000
 4670.00    0.71378   1.01783    0.000
 4671.00    0.79978   1.02814    0.000
 4672.00    1.33124   1.03741    0.000
 4673.00    1.53331   1.04418    0.000
 4674.00    1.30576   1.04908    0.000
 4675.00    1.11032   1.05191    0.000
 4676.00    0.95178   1.05114    0.000
 4677.00    0.98892   1.04772    0.000
 4678.00    1.22436   1.04469    0.000
 4679.00    1.16878   1.04281    0.000
 4680.00    0.85309   1.04083    0.000
 4681.00    0.85669   1.03993    0.000
 4682.00    1.11175   1.04140    0.000
 4683.00    1.18456   1.04356    0.000
 4684.00    1.13111   1.04501    0.000
 4685.00    1.17847   1.04633    0.000
 4686.00    1.28706   1.04711    0.000
 4687.00    1.49950   1.04746    0.000
 4688.00    1.76699   1.04799    0.000
 4689.00    1.51984   1.04826    0.000
 4690.00    1.03586   1.04841    0.000
 4691.00    0.97356   1.05000    0.000
 4692.00    1.07834   1.05171    0.000
 4693.00    0.88318   1.05117    0.000
 4694.00    0.58676   1.04949    0.000
 4695.00    0.75703   1.04768    0.000
 4696.00    1.05973   1.04306    0.000
 4697.00    1.10859   1.03463    0.000
 4698.00    1.09802   1.02631    0.000
 4699.00    1.01579   1.02088    0.000
 4700.00    0.92008   1.01588    0.000
 4701.00    0.87816   1.00978    0.000
 4702.00    0.84406   1.00531    0.000
 4703.00    0.88893   1.00485    0.000
 4704.00    0.94215   1.00582    0.000
 4705.00    1.08164   1.00574    0.000
 4706.00    1.22705   1.00624    0.000
 4707.00    1.12287   1.00876    0.000
 4708.00    1.01020   1.01195    0.000
 4709.00    1.06539   1.01526    0.000
 4710.00    1.11924   1.02011    0.000
 4711.00    1.12079   1.02577    0.000
 4712.00    1.11388   1.03073    0.000
 4713.00    0.97724   1.03543    0.000
 4714.00    0.86528   1.04228    0.000
 4715.00    0.99540   1.05111    0.000
 4716.00    1.12472   1.05881    0.000
 4717.00    1.24840   1.06462    0.000
 4718.00    1.31126   1.07069    0.000
 4719.00    1.04322   1.07659    0.000
 4720.00    0.87040   1.07934    0.000
 4721.00    1.11255   1.07817    0.000
 4722.00    1.27302   1.07442    0.000
 4723.00    1.14044   1.06915    0.000
 4724.00    1.01397   1.06208    0.000
 4725.00    0.90586   1.05239    0.000
 4726.00    0.88908   1.04077    0.000
 4727.00    1.10634   1.03102    0.000
 4728.00    1.24589   1.02490    0.000
 4729.00    1.21416   1.02086    0.000
 4730.00    1.13476   1.01883    0.000
 4731.00    0.96422   1.01979    0.000
 4732.00    0.88516   1.02275    0.000
 4733.00    0.95867   1.02730    0.000
 4734.00    1.00749   1.03252    0.000
 4735.00    1.02022   1.03545    0.000
 4736.00    0.96984   1.03750    0.000
 4737.00    0.83833   1.04232    0.000
 4738.00    0.79916   1.04714    0.000
 4739.00    0.86457   1.04865    0.000
 4740.00    0.80473   1.04990    0.000
 4741.00    0.61976   1.05394    0.000
 4742.00    0.62005   1.05829    0.000
 4743.00    0.78357   1.05996    0.000
 4744.00    0.86336   1.06089    0.000
 4745.00    0.87814   1.06359    0.000
 4746.00    1.11433   1.06564    0.000
 4747.00    1.50163   1.06448    0.000
 4748.00    1.67044   1.06223    0.000
 4749.00    1.70851   1.06017    0.000
 4750.00    1.66558   1.05655    0.000
 4751.00    1.58035   1.05107    0.000
 4752.00    1.39024   1.04590    0.000
 4753.00    1.15265   1.04152    0.000
 4754.00    0.99562   1.03769    0.000
 4755.00    0.86997   1.03443    0.000
 4756.00    0.88473   1.03128    0.000
 4757.00    0.94601   1.02748    0.000
 4758.00    1.08822   1.02343    0.000
 4759.00    1.25294   1.01894    0.000
 4760.00    1.02557   1.01218    0.000
 4761.00    0.70852   1.00401    0.011
 4762.00    0.87296   0.99822    0.011
 4763.00    1.12559   0.99493    0.011
 4764.00    1.14851   0.99268    0.011
 4765.00    1.13909   0.99308    0.011
 4766.00    0.88700   0.99706    0.011
 4767.00    0.61029   1.00272    0.011
 4768.00    0.99797   1.00954    0.011
 4769.00    1.42859   1.01735    0.011
 4770.00    1.25825   1.02366    0.011
 4771.00    1.06978   1.02867    0.011
 4772.00    0.90225   1.03481    0.011
 4773.00    0.74686   1.04111    0.011
 4774.00    0.94321   1.04412    0.011
 4775.00    1.11982   1.04480    0.011
 4776.00    1.01125   1.04633    0.011
 4777.00    0.92855   1.04642    0.011
 4778.00    1.08925   1.04226    0.011
 4779.00    1.20774   1.03729    0.011
 4780.00    1.03718   1.03394    0.011
 4781.00    0.90326   1.02854    0.011
 4782.00    0.96347   1.02129    0.011
 4783.00    1.01883   1.01725    0.011
 4784.00    1.05361   1.01513    0.010
 4785.00    1.09915   1.01144    0.010
 4786.00    1.18254   1.01023    0.010
 4787.00    1.24877   1.01307    0.010
 4788.00    1.26430   1.01621    0.011
 4789.00    1.22324   1.02068    0.011
 4790.00    1.03965   1.02782    0.011
 4791.00    0.91489   1.03464    0.010
 4792.00    0.91773   1.04047    0.010
 4793.00    0.93983   1.04578    0.010
 4794.00    0.99819   1.04863    0.010
 4795.00    1.11658   1.04832    0.010
 4796.00    1.33359   1.04672    0.010
 4797.00    1.33801   1.04428    0.011
 4798.00    1.03610   1.04094    0.011
 4799.00    0.91307   1.03766    0.011
 4800.00    1.01676   1.03527    0.011
 4801.00    1.05402   1.03378    0.011
 4802.00    1.01711   1.03189    0.010
 4803.00    0.95079   1.02870    0.010
 4804.00    0.85551   1.02548    0.010
 4805.00    0.87588   1.02399    0.010
 4806.00    0.99673   1.02248    0.010
 4807.00    1.03828   1.02056    0.010
 4808.00    1.01915   1.02079    0.010
 4809.00    0.95036   1.02306    0.010
 4810.00    0.84817   1.02548    0.010
 4811.00    0.92092   1.02838    0.010
 4812.00    1.09677   1.03246    0.011
 4813.00    1.15627   1.03675    0.010
 4814.00    1.15600   1.04040    0.010
 4815.00    1.21427   1.04322    0.010
 4816.00    1.29861   1.04492    0.010
 4817.00    1.25834   1.04503    0.010
 4818.00    1.17040   1.04265    0.011
 4819.00    1.03813   1.03783    0.011
 4820.00    0.89145   1.03279    0.011
 4821.00    0.96727   1.02759    0.011
 4822.00    1.10366   1.02051    0.010
 4823.00    1.33776   1.01448    0.010
 4824.00    1.59369   1.01227    0.010
 4825.00    1.47512   1.01120    0.010
 4826.00    1.28980   1.00912    0.010
 4827.00    0.96528   1.00707    0.010
 4828.00    0.62180   1.00653    0.010
 4829.00    0.82959   1.00710    0.010
 4830.00    1.09093   1.00619    0.010
 4831.00    0.96224   1.00397    0.010
 4832.00    0.80989   1.00378    0.010
 4833.00    0.84574   1.00461    0.010
 4834.00    0.88669   1.00294    0.010
 4835.00    0.94667   0.99974    0.010
 4836.00    0.99491   0.99805    0.011
 4837.00    0.73650   0.99605    0.011
 4838.00    0.50367   0.99156    0.010
 4839.00    0.62018   0.98746    0.010
 4840.00    0.72491   0.98620    0.010
 4841.00    0.72307   0.98521    0.010
 4842.00    0.74859   0.98261    0.010
 4843.00    0.95566   0.98076    0.010
 4844.00    1.14386   0.98009    0.010
 4845.00    1.23473   0.97833    0.010
 4846.00    1.22864   0.97427    0.010
 4847.00    0.81898   0.96810    0.010
 4848.00    0.56665   0.96172    0.000
 4849.00    0.85603   0.95496    0.000
 4850.00    1.05682   0.94401    0.000
 4851.00    1.00067   0.92954    0.000
 4852.00    0.98430   0.91477    0.000
 4853.00    1.06642   0.89670    0.000
 4854.00    1.03737   0.87345    0.000
 4855.00    0.77119   0.84943    0.000
 4856.00    0.64539   0.82587    0.000
 4857.00    0.77976   0.80187    0.000
 4858.00    0.81464   0.78123    0.000
 4859.00    0.68847   0.76560    0.000
 4860.00    0.65753   0.75571    0.000
 4861.00    0.76181   0.75738    0.000
 4862.00    0.94077   0.76939    0.000
 4863.00    1.21303   0.78394    0.000
 4864.00    1.24678   0.80192    0.000
 4865.00    1.01791   0.82381    0.000
 4866.00    0.95392   0.84256    0.000
 4867.00    1.05006   0.85602    0.000
 4868.00    1.18094   0.86856    0.000
 4869.00    1.34156   0.87852    0.000
 4870.00    1.14096   0.88354    0.000
 4871.00    0.66787   0.88974    0.000
 4872.00    0.53383   0.89980    0.000
 4873.00    0.62453   0.90891    0.000
 4874.00    0.78510   0.91723    0.000
 4875.00    0.98623   0.92819    0.011
 4876.00    1.03168   0.93864    0.011
 4877.00    0.99838   0.94533    0.011
 4878.00    1.13825   0.95173    0.011
 4879.00    1.35394   0.95652    0.011
 4880.00    1.27146   0.95568    0.011
 4881.00    1.07691   0.95278    0.011
 4882.00    1.08787   0.95070    0.011
 4883.00    1.16440   0.94638    0.011
 4884.00    1.22080   0.94018    0.011
 4885.00    1.27185   0.93565    0.011
 4886.00    1.05620   0.93285    0.011
 4887.00    0.78238   0.93162    0.011
 4888.00    0.73159   0.93386    0.011
 4889.00    0.71948   0.93881    0.011
 4890.00    0.86021   0.94567    0.011
 4891.00    1.02108   0.95753    0.011
 4892.00    1.14249   0.97204    0.011
 4893.00    1.26023   0.98496    0.011
 4894.00    1.09064   0.99644    0.011
 4895.00    0.90476   1.00530    0.011
 4896.00    0.80718   1.01071    0.011
 4897.00    0.71081   1.01351    0.011
 4898.00    0.52520   1.01236    0.011
 4899.00    0.36349   1.00845    0.011
 4900.00    0.76890   1.00637    0.011
 4901.00    1.12420   1.00486    0.011
 4902.00    0.83167   1.00118    0.011
 4903.00    0.55732   0.99828    0.011
 4904.00    0.44115   0.99771    0.010
 4905.00    0.36136   0.99582    0.010
 4906.00    0.51565   0.99143    0.010
 4907.00    0.63712   0.98776    0.011
 4908.00    0.59355   0.98497    0.011
 4909.00    0.65422   0.98122    0.011
 4910.00    1.13915   0.97861    0.011
 4911.00    1.45574   0.97826    0.011
 4912.00    1.20423   0.97679    0.011
 4913.00    1.05315   0.97281    0.011
 4914.00    1.18796   0.96770    0.011
 4915.00    1.27028   0.96010    0.010
 4916.00    1.22489   0.94905    0.010
 4917.00    1.12230   0.93714    0.010
 4918.00    0.89964   0.92714    0.010
 4919.00    0.78378   0.91935    0.010
 4920.00    0.86279   0.91574    0.010
 4921.00    0.95060   0.91918    0.010
 4922.00    1.05242   0.92663    0.010
 4923.00    1.05389   0.93540    0.010
 4924.00    0.91490   0.94787    0.010
 4925.00    0.87910   0.96275    0.010
 4926.00    0.97037   0.97421    0.010
 4927.00    1.09836   0.98274    0.010
 4928.00    1.26620   0.98958    0.010
 4929.00    1.28084   0.99102    0.010
 4930.00    1.14878   0.98851    0.010
 4931.00    1.06121   0.98479    0.010
 4932.00    1.01120   0.97729    0.010
 4933.00    1.03321   0.96820    0.010
 4934.00    1.10875   0.96225    0.010
 4935.00    1.08356   0.95788    0.010
 4936.00    0.99257   0.95436    0.010
 4937.00    0.92347   0.95372    0.010
 4938.00    0.86689   0.95660    0.010
 4939.00    0.89603   0.96363    0.010
 4940.00    0.96784   0.97262    0.000
 4941.00    0.94138   0.98020    0.000
 4942.00    0.87259   0.98845    0.000
 4943.00    0.77036   0.99781    0.000
 4944.00    0.65578   1.00393    0.000
 4945.00    0.69026   1.00725    0.000
 4946.00    0.77137   1.01117    0.000
 4947.00    0.91051   1.01398    0.000
 4948.00    1.06479   1.01302    0.000
 4949.00    1.06091   1.00985    0.000
 4950.00    1.02335   1.00600    0.000
 4951.00    0.95675   0.99973    0.000
 4952.00    0.88524   0.98981    0.000
 4953.00    1.10524   0.97840    0.000
 4954.00    1.36232   0.96942    0.000
 4955.00    1.16220   0.96244    0.000
 4956.00    0.92151   0.95437    0.000
 4957.00    0.92220   0.95051    0.000
 4958.00    0.93562   0.95401    0.000
 4959.00    1.00462   0.95798    0.000
 4960.00    1.07214   0.95980    0.000
 4961.00    0.93970   0.96238    0.000
 4962.00    0.81398   0.96551    0.000
 4963.00    0.83442   0.96574    0.000
 4964.00    0.85683   0.96303    0.000
 4965.00    0.90347   0.96113    0.000
 4966.00    0.94585   0.96071    0.000
 4967.00    0.95250   0.96038    0.000
 4968.00    0.95637   0.96133    0.000
 4969.00    0.94292   0.96404    0.000
 4970.00    0.93066   0.96762    0.000
 4971.00    0.92427   0.97091    0.000
 4972.00    0.93662   0.97284    0.000
 4973.00    1.02354   0.97321    0.000
 4974.00    1.07179   0.97042    0.000
 4975.00    0.99205   0.96457    0.000
 4976.00    0.92165   0.95679    0.000
 4977.00    0.87734   0.94576    0.000
 4978.00    0.81782   0.93279    0.000
 4979.00    0.72196   0.92152    0.000
 4980.00    0.67705   0.91173    0.000
 4981.00    0.73739   0.90270    0.000
 4982.00    0.80387   0.89819    0.000
 4983.00    0.88141   0.89957    0.000
 4984.00    0.90278   0.90312    0.000
 4985.00    0.83590   0.90846    0.000
 4986.00    0.95656   0.91648    0.000
 4987.00    1.33590   0.92415    0.000
 4988.00    1.38680   0.93027    0.000
 4989.00    1.03893   0.93488    0.000
 4990.00    0.95398   0.93783    0.000
 4991.00    1.15045   0.94076    0.000
 4992.00    1.07098   0.94178    0.000
 4993.00    0.73098   0.94045    0.000
 4994.00    0.64530   0.93962    0.000
 4995.00    0.77132   0.93705    0.000
 4996.00    0.79572   0.93190    0.000
 4997.00    0.74564   0.92632    0.000
 4998.00    0.93340   0.91941    0.000
 4999.00    1.27420   0.91171    0.000
 5000.00    1.22925   0.90502    0.000
 5001.00    0.96715   0.89842    0.000
 5002.00    0.85448   0.89272    0.000
 5003.00    0.81503   0.88981    0.000
 5004.00    1.01866   0.88790    0.000
 5005.00    1.32520   0.88578    0.000
 5006.00    1.22039   0.88569    0.000
 5007.00    0.96642   0.88674    0.000
 5008.00    0.82951   0.88537    0.000
 5009.00    0.72850   0.88240    0.000
 5010.00    0.84660   0.87914    0.000
 5011.00    1.02064   0.87475    0.000
 5012.00    1.12241   0.87019    0.000
 5013.00    1.20915   0.86592    0.000
 5014.00    1.12098   0.86318    0.000
 5015.00    1.00418   0.86358    0.000
 5016.00    0.82994   0.86502    0.000
 5017.00    0.64865   0.86661    0.000
 5018.00    0.87270   0.87069    0.000
 5019.00    1.13102   0.87685    0.000
 5020.00    1.09952   0.88202    0.000
 5021.00    1.05386   0.88648    0.000
 5022.00    0.97183   0.89239    0.000
 5023.00    0.88952   0.89775    0.000
 5024.00    0.82500   0.90192    0.000
 5025.00    0.77167   0.90715    0.000
 5026.00    0.94293   0.91143    0.000
 5027.00    1.09702   0.91515    0.000
 5028.00    1.05061   0.92043    0.000
 5029.00    1.00092   0.92447    0.010
 5030.00    0.92466   0.92606    0.010
 5031.00    0.89174   0.92602    0.010
 5032.00    1.12157   0.92396    0.010
 5033.00    1.30667   0.91931    0.010
 5034.00    1.27784   0.91079    0.010
 5035.00    1.24781   0.90053    0.010
 5036.00    1.21316   0.89157    0.010
 5037.00    1.16859   0.88242    0.010
 5038.00    1.09191   0.87558    0.010
 5039.00    1.04719   0.87355    0.009
 5040.00    1.09024   0.87378    0.009
 5041.00    1.07285   0.87862    0.009
 5042.00    0.91335   0.88796    0.009
 5043.00    0.85887   0.89595    0.009
 5044.00    1.01788   0.90245    0.009
 5045.00    1.14948   0.90894    0.009
 5046.00    1.23256   0.91255    0.009
 5047.00    1.26691   0.91214    0.009
 5048.00    1.22584   0.91118    0.009
 5049.00    1.17719   0.91189    0.010
 5050.00    1.11824   0.91288    0.010
 5051.00    1.05891   0.91473    0.010
 5052.00    0.99912   0.91949    0.010
 5053.00    0.90022   0.92598    0.010
 5054.00    0.76002   0.93239    0.010
 5055.00    0.71291   0.93833    0.010
 5056.00    0.75245   0.94367    0.009
 5057.00    0.72737   0.94759    0.009
 5058.00    0.64924   0.94900    0.009
 5059.00    0.75584   0.94815    0.009
 5060.00    0.99586   0.94464    0.010
 5061.00    1.00295   0.93908    0.010
 5062.00    0.86236   0.93334    0.010
 5063.00    0.89458   0.92594    0.010
 5064.00    1.02260   0.91761    0.010
 5065.00    0.97466   0.91257    0.010
 5066.00    0.84187   0.90953    0.010
 5067.00    0.80857   0.90531    0.010
 5068.00    0.81669   0.90248    0.010
 5069.00    0.83579   0.90319    0.010
 5070.00    0.85880   0.90299    0.010
 5071.00    0.81077   0.89995    0.010
 5072.00    0.74136   0.89823    0.010
 5073.00    0.87099   0.89731    0.010
 5074.00    1.05033   0.89284    0.010
 5075.00    0.90757   0.88610    0.010
 5076.00    0.69953   0.88118    0.010
 5077.00    0.69679   0.87698    0.010
 5078.00    0.72667   0.87100    0.010
 5079.00    0.77161   0.86687    0.010
 5080.00    0.81832   0.86753    0.010
 5081.00    0.88529   0.87026    0.010
 5082.00    0.95389   0.87358    0.009
 5083.00    0.89339   0.87940    0.010
 5084.00    0.82709   0.88755    0.010
 5085.00    0.73121   0.89534    0.009
 5086.00    0.63817   0.90181    0.009
 5087.00    0.70426   0.90809    0.009
 5088.00    0.77582   0.91404    0.009
 5089.00    0.94908   0.91790    0.009
 5090.00    1.10096   0.91943    0.009
 5091.00    1.01473   0.91953    0.009
 5092.00    0.94785   0.91766    0.009
 5093.00    1.03174   0.91336    0.009
 5094.00    1.08582   0.90718    0.009
 5095.00    0.96433   0.90011    0.009
 5096.00    0.88425   0.89397    0.009
 5097.00    0.99743   0.88886    0.009
 5098.00    1.06056   0.88454    0.009
 5099.00    0.93293   0.88270    0.009
 5100.00    0.84098   0.88279    0.009
 5101.00    0.86253   0.88316    0.009
 5102.00    0.90326   0.88342    0.009
 5103.00    0.99571   0.88279    0.009
 5104.00    0.99659   0.88229    0.009
 5105.00    0.78572   0.88176    0.009
 5106.00    0.64004   0.87953    0.009
 5107.00    0.62477   0.87935    0.009
 5108.00    0.64144   0.88177    0.009
 5109.00    0.71374   0.88342    0.009
 5110.00    0.79401   0.88745    0.009
 5111.00    0.88643   0.89388    0.009
 5112.00    0.92394   0.89908    0.009
 5113.00    0.88785   0.90455    0.009
 5114.00    0.94526   0.90956    0.009
 5115.00    1.11299   0.91188    0.009
 5116.00    1.12852   0.91216    0.009
 5117.00    0.98567   0.91011    0.009
 5118.00    0.84493   0.90533    0.009
 5119.00    0.70611   0.89800    0.009
 5120.00    0.70357   0.88930    0.009
 5121.00    0.81125   0.88081    0.009
 5122.00    0.87474   0.87205    0.009
 5123.00    0.90676   0.86409    0.009
 5124.00    0.91918   0.85905    0.009
 5125.00    0.91935   0.85576    0.009
 5126.00    0.98152   0.85394    0.009
 5127.00    1.07753   0.85505    0.009
 5128.00    1.03741   0.85762    0.009
 5129.00    0.93272   0.86019    0.009
 5130.00    0.88540   0.86395    0.010
 5131.00    0.86157   0.86830    0.010
 5132.00    0.92576   0.87012    0.010
 5133.00    1.02073   0.87081    0.009
 5134.00    1.01182   0.87188    0.009
 5135.00    0.97227   0.86911    0.010
 5136.00    0.80199   0.86556    0.009
 5137.00    0.59978   0.86400    0.009
 5138.00    0.81905   0.85871    0.009
 5139.00    1.12160   0.85434    0.010
 5140.00    0.95088   0.85434    0.009
 5141.00    0.70718   0.85128    0.009
 5142.00    0.78448   0.84843    0.009
 5143.00    0.89834   0.84958    0.009
 5144.00    1.01995   0.84895    0.009
 5145.00    1.14215   0.84784    0.009
 5146.00    0.97564   0.84837    0.009
 5147.00    0.79725   0.84792    0.009
 5148.00    0.74087   0.84805    0.009
 5149.00    0.68570   0.84892    0.009
 5150.00    0.63889   0.84946    0.009
 5151.00    0.60036   0.85201    0.009
 5152.00    0.70515   0.85592    0.009
 5153.00    0.82191   0.86021    0.009
 5154.00    1.06606   0.86582    0.010
 5155.00    1.26197   0.87107    0.010
 5156.00    1.09479   0.87569    0.010
 5157.00    0.93309   0.87866    0.010
 5158.00    0.80283   0.87706    0.010
 5159.00    0.71033   0.87255    0.010
 5160.00    0.78983   0.86463    0.009
 5161.00    0.88942   0.85045    0.009
 5162.00    1.06398   0.83313    0.010
 5163.00    1.13322   0.81432    0.010
 5164.00    0.87388   0.79319    0.010
 5165.00    0.71842   0.77298    0.010
 5166.00    0.83807   0.75663    0.010
 5167.00    0.88469   0.74343    0.010
 5168.00    0.76526   0.73375    0.010
 5169.00    0.67928   0.73113    0.010
 5170.00    0.65917   0.73517    0.009
 5171.00    0.68921   0.74174    0.009
 5172.00    0.80530   0.75188    0.009
 5173.00    0.89799   0.76667    0.009
 5174.00    0.95549   0.78098    0.009
 5175.00    0.88019   0.79185    0.009
 5176.00    0.62947   0.80016    0.009
 5177.00    0.48332   0.80509    0.009
 5178.00    0.45880   0.80444    0.009
 5179.00    0.49865   0.79820    0.009
 5180.00    0.60455   0.79142    0.009
 5181.00    0.68691   0.78646    0.009
 5182.00    0.74796   0.78118    0.009
 5183.00    0.79148   0.77976    0.009
 5184.00    0.82101   0.78389    0.009
 5185.00    0.76473   0.78966    0.009
 5186.00    0.64825   0.79797    0.009
 5187.00    0.77970   0.80606    0.009
 5188.00    1.06371   0.81131    0.009
 5189.00    1.12758   0.81765    0.009
 5190.00    1.07313   0.82174    0.000
 5191.00    0.86909   0.82158    0.000
 5192.00    0.59524   0.82434    0.000
 5193.00    0.68456   0.82863    0.000
 5194.00    0.91997   0.83025    0.000
 5195.00    1.03962   0.83405    0.000
 5196.00    1.11954   0.83986    0.000
 5197.00    1.09578   0.84262    0.000
 5198.00    1.04205   0.84360    0.000
 5199.00    0.95126   0.84422    0.000
 5200.00    0.85160   0.84135    0.000
 5201.00    0.64472   0.83443    0.000
 5202.00    0.41719   0.82768    0.000
 5203.00    0.58324   0.82104    0.000
 5204.00    0.80813   0.81241    0.000
 5205.00    0.78640   0.80714    0.000
 5206.00    0.73765   0.80684    0.000
 5207.00    0.70362   0.80724    0.000
 5208.00    0.67065   0.81112    0.000
 5209.00    0.75433   0.81959    0.000
 5210.00    0.84236   0.82798    0.000
 5211.00    0.85172   0.83623    0.009
 5212.00    0.85594   0.84512    0.009
 5213.00    0.68662   0.85263    0.009
 5214.00    0.52314   0.85842    0.009
 5215.00    0.45451   0.86341    0.009
 5216.00    0.41568   0.86726    0.009
 5217.00    0.68008   0.86974    0.009
 5218.00    0.90757   0.87084    0.009
 5219.00    0.86642   0.86935    0.010
 5220.00    0.81734   0.86541    0.010
 5221.00    0.72409   0.86019    0.009
 5222.00    0.69255   0.85239    0.009
 5223.00    0.93551   0.84315    0.009
 5224.00    1.06816   0.83700    0.010
 5225.00    0.79784   0.83208    0.009
 5226.00    0.65198   0.82773    0.009
 5227.00    0.88705   0.82938    0.009
 5228.00    1.02303   0.83320    0.009
 5229.00    0.90118   0.83581    0.009
 5230.00    0.86857   0.84206    0.009
 5231.00    1.03557   0.84867    0.009
 5232.00    1.11732   0.85307    0.009
 5233.00    1.03386   0.85933    0.009
 5234.00    1.01543   0.86582    0.009
 5235.00    1.10691   0.87124    0.009
 5236.00    1.11955   0.87717    0.009
 5237.00    1.01539   0.88291    0.009
 5238.00    0.91957   0.88740    0.009
 5239.00    0.83460   0.89012    0.009
 5240.00    0.78044   0.89175    0.009
 5241.00    0.76162   0.89223    0.009
 5242.00    0.77450   0.88984    0.009
 5243.00    0.81943   0.88574    0.009
 5244.00    0.82112   0.88206    0.009
 5245.00    0.78422   0.87694    0.009
 5246.00    0.77629   0.87016    0.009
 5247.00    0.79115   0.86573    0.009
 5248.00    0.84639   0.86279    0.009
 5249.00    0.92956   0.85948    0.009
 5250.00    0.86893   0.85884    0.009
 5251.00    0.72112   0.86042    0.009
 5252.00    0.65772   0.86259    0.009
 5253.00    0.63899   0.86576    0.009
 5254.00    0.81338   0.86855    0.009
 5255.00    1.07645   0.87042    0.009
 5256.00    1.12261   0.87049    0.009
 5257.00    1.08303   0.86686    0.009
 5258.00    0.94369   0.85979    0.009
 5259.00    0.77074   0.84945    0.009
 5260.00    0.84324   0.83631    0.009
 5261.00    0.98522   0.82139    0.009
 5262.00    0.85296   0.80535    0.009
 5263.00    0.65669   0.79146    0.009
 5264.00    0.71632   0.78076    0.009
 5265.00    0.82393   0.77079    0.010
 5266.00    0.90944   0.76531    0.010
 5267.00    0.99174   0.76635    0.010
 5268.00    0.89084   0.76787    0.010
 5269.00    0.77068   0.77186    0.010
 5270.00    0.84372   0.78254    0.010
 5271.00    0.92994   0.79308    0.010
 5272.00    0.90894   0.80263    0.010
 5273.00    0.88435   0.81614    0.010
 5274.00    0.86517   0.82829    0.010
 5275.00    0.84229   0.83713    0.010
 5276.00    0.70096   0.84660    0.009
 5277.00    0.56978   0.85370    0.009
 5278.00    0.59342   0.85783    0.009
 5279.00    0.64587   0.86164    0.009
 5280.00    0.97940   0.86420    0.009
 5281.00    1.23547   0.86710    0.009
 5282.00    0.94608   0.87134    0.009
 5283.00    0.72421   0.87581    0.009
 5284.00    0.86852   0.88210    0.009
 5285.00    0.98621   0.88944    0.009
 5286.00    0.98824   0.89555    0.009
 5287.00    1.02084   0.90097    0.009
 5288.00    1.16284   0.90489    0.009
 5289.00    1.22028   0.90583    0.009
 5290.00    1.02374   0.90424    0.009
 5291.00    0.87624   0.90021    0.009
 5292.00    0.85415   0.89392    0.009
 5293.00    0.81132   0.88624    0.009
 5294.00    0.72289   0.87790    0.009
 5295.00    0.67874   0.87053    0.009
 5296.00    0.71909   0.86477    0.009
 5297.00    0.73250   0.86072    0.009
 5298.00    0.70105   0.86026    0.009
 5299.00    0.69942   0.86285    0.009
 5300.00    0.74130   0.86676    0.009
 5301.00    0.75864   0.87288    0.009
 5302.00    0.74448   0.88034    0.009
 5303.00    0.72561   0.88699    0.009
 5304.00    0.70143   0.89312    0.009
 5305.00    0.80599   0.89875    0.009
 5306.00    1.03895   0.90250    0.009
 5307.00    1.04647   0.90481    0.009
 5308.00    0.85569   0.90640    0.009
 5309.00    0.79233   0.90606    0.009
 5310.00    0.82771   0.90438    0.009
 5311.00    0.87958   0.90258    0.009
 5312.00    0.94270   0.89916    0.009
 5313.00    0.88290   0.89505    0.009
 5314.00    0.74972   0.89190    0.009
 5315.00    0.73162   0.88774    0.009
 5316.00    0.77349   0.88331    0.009
 5317.00    0.79321   0.87986    0.009
 5318.00    0.80294   0.87518    0.009
 5319.00    0.83073   0.86953    0.009
 5320.00    0.86554   0.86316    0.009
 5321.00    0.82749   0.85514    0.009
 5322.00    0.76534   0.84663    0.009
 5323.00    0.82447   0.83736    0.009
 5324.00    0.91722   0.82781    0.009
 5325.00    0.79418   0.82116    0.009
 5326.00    0.62193   0.81685    0.009
 5327.00    0.71565   0.81417    0.009
 5328.00    0.85792   0.81643    0.009
 5329.00    0.82585   0.82224    0.009
 5330.00    0.76932   0.82865    0.009
 5331.00    0.94951   0.83683    0.009
 5332.00    1.15358   0.84516    0.009
 5333.00    0.97347   0.85134    0.009
 5334.00    0.76871   0.85593    0.009
 5335.00    0.92143   0.85848    0.009
 5336.00    1.08394   0.85839    0.009
 5337.00    0.89774   0.85763    0.009
 5338.00    0.71869   0.85679    0.009
 5339.00    0.74418   0.85465    0.009
 5340.00    0.77397   0.85378    0.009
 5341.00    0.86555   0.85466    0.009
 5342.00    0.94254   0.85449    0.009
 5343.00    0.88305   0.85562    0.009
 5344.00    0.83388   0.85802    0.009
 5345.00    0.85509   0.85926    0.008
 5346.00    0.87151   0.86198    0.008
 5347.00    0.86262   0.86590    0.008
 5348.00    0.87392   0.86957    0.008
 5349.00    0.97092   0.87492    0.008
 5350.00    1.04551   0.88158    0.008
 5351.00    1.04153   0.88808    0.008
 5352.00    1.04403   0.89438    0.008
 5353.00    1.06564   0.90064    0.008
 5354.00    1.04015   0.90566    0.008
 5355.00    0.89635   0.90824    0.008
 5356.00    0.81327   0.90927    0.008
 5357.00    0.86160   0.90845    0.008
 5358.00    0.87991   0.90476    0.008
 5359.00    0.84181   0.89970    0.008
 5360.00    0.80788   0.89351    0.008
 5361.00    0.78081   0.88549    0.008
 5362.00    0.75690   0.87766    0.008
 5363.00    0.73753   0.86990    0.008
 5364.00    0.79409   0.86138    0.008
 5365.00    0.94667   0.85443    0.008
 5366.00    0.97674   0.84853    0.008
 5367.00    0.87020   0.84314    0.008
 5368.00    0.81312   0.84065   -2.000
 5369.00    0.80468   0.84055   -2.000
 5370.00    0.82565   0.84192   -2.000
 5371.00    0.87213   0.84634   -2.000
 5372.00    1.04811   0.85281   -2.000
 5373.00    1.32303   0.85885   -2.000
 5374.00    1.30229   0.86539   -2.000
 5375.00    1.08304   0.87161   -2.000
 5376.00    0.92803   0.87502   -2.000
 5377.00    0.81080   0.87723   -2.000
 5378.00    0.85896   0.87870   -2.000
 5379.00    0.99195   0.87781   -2.000
 5380.00    0.87859   0.87656   -2.000
 5381.00    0.65578   0.87597   -2.000
 5382.00    0.76487   0.87404   -2.000
 5383.00    1.00065   0.87214    0.009
 5384.00    1.02262   0.87106    0.009
 5385.00    0.97523   0.86837    0.009
 5386.00    0.93079   0.86499    0.009
 5387.00    0.88716   0.86174    0.009
 5388.00    0.87230   0.85699    0.009
 5389.00    0.86386   0.85168    0.009
 5390.00    0.91354   0.84653    0.008
 5391.00    0.97355   0.84120    0.008
 5392.00    0.96904   0.83635    0.008
 5393.00    0.95579   0.83175    0.008
 5394.00    0.91899   0.82850    0.008
 5395.00    0.87991   0.82642    0.008
 5396.00    0.94636   0.82385    0.008
 5397.00    1.01916   0.82279    0.008
 5398.00    0.97943   0.82245    0.008
 5399.00    0.93657   0.82000    0.008
 5400.00    0.86218   0.81760    0.008
 5401.00    0.78942   0.81561    0.008
 5402.00    0.75867   0.81172    0.008
 5403.00    0.72876   0.80793    0.008
 5404.00    0.71036   0.80601    0.008
 5405.00    0.69989   0.80466    0.008
 5406.00    0.76075   0.80488    0.008
 5407.00    0.81351   0.80787    0.008
 5408.00    0.81277   0.81218    0.008
 5409.00    0.80623   0.81778    0.008
 5410.00    0.76983   0.82509    0.008
 5411.00    0.74040   0.83233    0.008
 5412.00    0.73989   0.83919    0.008
 5413.00    0.74987   0.84603    0.008
 5414.00    0.79588   0.85133    0.008
 5415.00    0.85757   0.85538    0.008
 5416.00    0.96464   0.85840    0.008
 5417.00    1.01768   0.85935    0.008
 5418.00    0.93728   0.85970    0.008
 5419.00    0.88896   0.85927    0.008
 5420.00    0.90894   0.85708    0.008
 5421.00    0.83991   0.85561    0.008
 5422.00    0.60626   0.85385    0.008
 5423.00    0.52080   0.85046    0.008
 5424.00    0.67476   0.84835    0.008
 5425.00    0.75910   0.84555    0.008
 5426.00    0.74475   0.84112    0.008
 5427.00    0.72108   0.83814    0.008
 5428.00    0.68577   0.83419    0.008
 5429.00    0.69329   0.83004    0.008
 5430.00    0.74789   0.82859    0.008
 5431.00    0.76220   0.82691    0.008
 5432.00    0.73744   0.82691    0.008
 5433.00    0.82714   0.83042    0.008
 5434.00    1.01467   0.83452    0.008
 5435.00    0.99143   0.83998    0.008
 5436.00    0.80950   0.84695    0.008
 5437.00    0.83288   0.85345    0.008
 5438.00    0.99210   0.85873    0.008
 5439.00    1.05393   0.86226    0.008
 5440.00    1.05933   0.86326    0.008
 5441.00    0.97170   0.86180    0.008
 5442.00    0.83711   0.85841    0.008
 5443.00    0.77827   0.85328    0.008
 5444.00    0.75252   0.84812    0.008
 5445.00    0.75007   0.84341    0.008
 5446.00    0.75636   0.83908    0.008
 5447.00    0.78044   0.83695    0.008
 5448.00    0.81018   0.83540    0.008
 5449.00    0.85982   0.83369    0.008
 5450.00    0.91476   0.83344    0.008
 5451.00    0.89645   0.83256    0.008
 5452.00    0.86221   0.83105    0.008
 5453.00    0.81313   0.83060    0.008
 5454.00    0.76147   0.82973    0.008
 5455.00    0.87639   0.82954    0.008
 5456.00    1.01315   0.83064    0.008
 5457.00    0.96260   0.83094    0.008
 5458.00    0.89476   0.83176    0.008
 5459.00    0.86702   0.83298    0.008
 5460.00    0.84154   0.83326    0.008
 5461.00    0.88829   0.83367    0.008
 5462.00    0.93705   0.83372    0.008
 5463.00    1.02636   0.83405    0.008
 5464.00    1.10866   0.83479    0.008
 5465.00    1.02663   0.83453    0.008
 5466.00    0.94875   0.83447    0.008
 5467.00    0.92413   0.83412    0.008
 5468.00    0.89618   0.83221    0.008
 5469.00    0.83941   0.82931    0.008
 5470.00    0.79033   0.82564    0.008
 5471.00    0.79051   0.82155    0.008
 5472.00    0.79982   0.81643    0.008
 5473.00    0.85494   0.81166    0.008
 5474.00    0.89479   0.80876    0.008
 5475.00    0.87264   0.80563    0.008
 5476.00    0.85246   0.80402    0.008
 5477.00    0.83888   0.80539    0.008
 5478.00    0.81100   0.80685   -2.000
 5479.00    0.74251   0.80920   -2.000
 5480.00    0.74938   0.81318   -2.000
 5481.00    0.93917   0.81725   -2.000
 5482.00    0.97377   0.82098   -2.000
 5483.00    0.68325   0.82406   -2.000
 5484.00    0.65099   0.82691   -2.000
 5485.00    1.08904   0.82945   -2.000
 5486.00    1.77749   0.83066   -2.000
 5487.00    2.86451   0.83154   -2.000
 5488.00    3.25344   0.83268   -2.000
 5489.00    2.66716   0.83265   -2.000
 5490.00    1.97433   0.83259   -2.000
 5491.00    1.15050   0.83314   -2.000
 5492.00    0.59562   0.83261   -2.000
 5493.00    0.33221   0.83194   -2.000
 5494.00    0.31974   0.83171   -2.000
 5495.00    0.54715   0.83070   -2.000
 5496.00    0.69848   0.82909   -2.000
 5497.00    0.78569   0.82778   -2.000
 5498.00    0.85300   0.82656   -2.000
 5499.00    0.90554   0.82432   -2.000
 5500.00    0.87137   0.82182   -2.000
 5501.00    0.78066   0.82045   -2.000
 5502.00    0.74198   0.81863    0.008
 5503.00    0.73296   0.81612    0.008
 5504.00    0.72889   0.81496    0.008
 5505.00    0.72727   0.81366    0.007
 5506.00    0.70560   0.81217    0.007
 5507.00    0.67531   0.81185    0.007
 5508.00    0.68018   0.81064    0.007
 5509.00    0.69800   0.80991    0.007
 5510.00    0.78255   0.81075    0.007
 5511.00    0.88791   0.81108    0.007
 5512.00    0.97460   0.81262    0.008
 5513.00    1.05644   0.81561    0.008
 5514.00    0.97540   0.81878    0.008
 5515.00    0.85978   0.82286    0.008
 5516.00    0.81075   0.82702    0.008
 5517.00    0.77291   0.83086    0.008
 5518.00    0.70835   0.83383    0.008
 5519.00    0.64041   0.83504    0.008
 5520.00    0.60310   0.83540    0.008
 5521.00    0.56848   0.83418    0.008
 5522.00    0.62594   0.83116    0.008
 5523.00    0.68820   0.82789    0.008
 5524.00    0.78007   0.82417    0.008
 5525.00    0.86877   0.82049    0.008
 5526.00    0.67619   0.81783    0.008
 5527.00    0.49917   0.81586    0.008
 5528.00    0.65716   0.81517    0.008
 5529.00    0.80931   0.81562    0.008
 5530.00    0.89025   0.81646    0.008
 5531.00    0.94976   0.81798    0.008
 5532.00    0.83070   0.82018    0.008
 5533.00    0.72890   0.82230    0.008
 5534.00    0.73448   0.82389    0.008
 5535.00    0.73359   0.82620    0.008
 5536.00    0.70101   0.82857    0.008
 5537.00    0.69830   0.82985    0.007
 5538.00    0.81412   0.83189    0.007
 5539.00    0.88378   0.83372    0.007
 5540.00    0.80113   0.83434    0.007
 5541.00    0.74246   0.83533    0.008
 5542.00    0.75065   0.83617    0.007
 5543.00    0.76981   0.83681    0.007
 5544.00    0.81515   0.83789    0.007
 5545.00    0.81781   0.83864    0.007
 5546.00    0.73246   0.83970    0.007
 5547.00    0.66741   0.84113    0.007
 5548.00    0.63879   0.84146    0.007
 5549.00    0.65084   0.84149    0.007
 5550.00    0.72669   0.84145    0.007
 5551.00    0.77075   0.84021    0.007
 5552.00    0.77105   0.83860    0.007
 5553.00    0.79955   0.83690    0.007
 5554.00    0.86224   0.83480    0.007
 5555.00    0.86033   0.83293    0.007
 5556.00    0.78939   0.83072    0.007
 5557.00    0.77856   0.82837    0.007
 5558.00    0.82436   0.82662    0.007
 5559.00    0.78272   0.82407    0.007
 5560.00    0.66843   0.82118    0.007
 5561.00    0.65379   0.81890    0.007
 5562.00    0.71204   0.81620    0.007
 5563.00    0.75025   0.81360    0.007
 5564.00    0.77557   0.81149    0.007
 5565.00    0.78065   0.80973    0.007
 5566.00    0.77436   0.80836    0.007
 5567.00    0.81339   0.80754    0.007
 5568.00    0.87458   0.80740    0.007
 5569.00    0.92520   0.80731    0.007
 5570.00    0.97136   0.80829    0.008
 5571.00    0.92355   0.80949    0.008
 5572.00    0.84174   0.81019    0.008
 5573.00    0.77543   0.81264    0.007
 5574.00    0.71387   0.81459    0.007
 5575.00    0.72699   0.81498    0.008
 5576.00    0.75913   0.81682    0.008
 5577.00    0.69101   0.81773    0.008
 5578.00    0.60213   0.81627    0.007
 5579.00    0.70749   0.81504    0.007
 5580.00    0.84453   0.81216    0.007
 5581.00    0.78383   0.80728    0.007
 5582.00    0.69897   0.80253    0.007
 5583.00    0.71585   0.79645    0.007
 5584.00    0.74127   0.78996    0.007
 5585.00    0.65508   0.78460    0.007
 5586.00    0.56349   0.77973    0.007
 5587.00    0.55287   0.77661    0.007
 5588.00    0.54552   0.77477    0.007
 5589.00    0.65989   0.77440    0.007
 5590.00    0.76572   0.77632    0.007
 5591.00    0.70209   0.77825    0.007
 5592.00    0.65033   0.78055    0.007
 5593.00    0.73635   0.78333    0.007
 5594.00    0.81678   0.78501    0.007
 5595.00    0.85224   0.78628    0.007
 5596.00    0.88029   0.78667    0.007
 5597.00    0.86365   0.78639    0.007
 5598.00    0.84588   0.78760    0.007
 5599.00    0.82273   0.78882    0.007
 5600.00    0.78750   0.78991    0.007
 5601.00    0.70528   0.79336    0.007
 5602.00    0.62442   0.79804    0.007
 5603.00    0.54794   0.80326    0.007
 5604.00    0.50436   0.80883    0.007
 5605.00    0.55088   0.81392    0.007
 5606.00    0.60573   0.81855    0.007
 5607.00    0.68011   0.82171    0.007
 5608.00    0.72192   0.82261    0.007
 5609.00    0.69764   0.82116    0.007
 5610.00    0.70339   0.81859    0.007
 5611.00    0.76217   0.81495    0.007
 5612.00    0.77316   0.80988    0.007
 5613.00    0.71028   0.80502    0.007
 5614.00    0.65545   0.80047    0.007
 5615.00    0.61153   0.79711    0.007
 5616.00    0.58711   0.79518    0.007
 5617.00    0.58600   0.79303    0.007
 5618.00    0.59945   0.79201    0.007
 5619.00    0.62826   0.79277    0.007
 5620.00    0.63332   0.79331    0.007
 5621.00    0.61632   0.79332    0.007
 5622.00    0.61907   0.79387    0.007
 5623.00    0.63799   0.79495    0.007
 5624.00    0.61771   0.79652    0.007
 5625.00    0.56915   0.79878    0.007
 5626.00    0.56613   0.80082    0.007
 5627.00    0.59191   0.80312    0.007
 5628.00    0.67497   0.80608    0.007
 5629.00    0.78971   0.80809    0.007
 5630.00    0.84544   0.80879    0.007
 5631.00    0.87277   0.80875    0.007
 5632.00    0.82058   0.80773    0.007
 5633.00    0.73534   0.80586    0.007
 5634.00    0.67158   0.80340    0.007
 5635.00    0.61544   0.80047    0.007
 5636.00    0.62886   0.79798    0.007
 5637.00    0.66314   0.79606    0.007
 5638.00    0.72839   0.79448    0.007
 5639.00    0.80136   0.79375    0.007
 5640.00    0.81886   0.79356    0.007
 5641.00    0.82516   0.79445    0.007
 5642.00    0.80449   0.79589    0.007
 5643.00    0.77955   0.79685    0.007
 5644.00    0.82260   0.79855    0.007
 5645.00    0.87365   0.80047    0.007
 5646.00    0.79610   0.80164    0.007
 5647.00    0.70828   0.80256    0.007
 5648.00    0.68850   0.80261    0.007
 5649.00    0.67175   0.80182    0.007
 5650.00    0.66264   0.80087    0.007
 5651.00    0.65682   0.79840    0.007
 5652.00    0.80664   0.79434    0.007
 5653.00    0.94505   0.79071    0.007
 5654.00    0.87292   0.78699    0.007
 5655.00    0.80210   0.78267    0.007
 5656.00    0.74562   0.77862    0.007
 5657.00    0.68113   0.77532    0.007
 5658.00    0.55439   0.77413    0.007
 5659.00    0.45384   0.77421    0.007
 5660.00    0.50699   0.77401    0.007
 5661.00    0.55617   0.77521    0.007
 5662.00    0.58687   0.77833    0.007
 5663.00    0.60364   0.78128    0.007
 5664.00    0.56750   0.78360    0.007
 5665.00    0.56912   0.78639    0.007
 5666.00    0.69055   0.78962    0.007
 5667.00    0.77278   0.79285    0.007
 5668.00    0.74953   0.79588    0.007
 5669.00    0.72004   0.79859    0.007
 5670.00    0.67619   0.80168    0.007
 5671.00    0.66875   0.80479    0.007
 5672.00    0.73399   0.80706    0.007
 5673.00    0.77395   0.80863    0.007
 5674.00    0.76994   0.80960    0.007
 5675.00    0.74439   0.80975    0.007
 5676.00    0.68605   0.80852    0.007
 5677.00    0.64114   0.80630    0.007
 5678.00    0.61418   0.80379    0.007
 5679.00    0.59579   0.80091    0.007
 5680.00    0.58749   0.79757    0.007
 5681.00    0.60344   0.79406    0.007
 5682.00    0.64459   0.79135    0.007
 5683.00    0.68575   0.78960    0.007
 5684.00    0.72694   0.78819    0.007
 5685.00    0.71171   0.78761    0.007
 5686.00    0.65092   0.78848    0.007
 5687.00    0.63711   0.79014    0.007
 5688.00    0.65667   0.79206    0.007
 5689.00    0.64510   0.79443    0.007
 5690.00    0.61411   0.79664    0.007
 5691.00    0.66515   0.79869    0.007
 5692.00    0.76089   0.79992    0.007
 5693.00    0.77078   0.80009    0.007
 5694.00    0.74001   0.79957    0.007
 5695.00    0.73072   0.79761    0.007
 5696.00    0.73021   0.79506    0.007
 5697.00    0.69691   0.79198    0.007
 5698.00    0.65217   0.78850    0.007
 5699.00    0.68763   0.78509    0.007
 5700.00    0.74667   0.78087    0.007
 5701.00    0.73800   0.77729    0.007
 5702.00    0.71283   0.77399    0.007
 5703.00    0.72523   0.76990    0.007
 5704.00    0.74503   0.76674    0.007
 5705.00    0.71875   0.76379    0.007
 5706.00    0.68539   0.76128    0.007
 5707.00    0.63387   0.76049    0.007
 5708.00    0.58030   0.76001    0.007
 5709.00    0.71657   0.76127    0.007
 5710.00    0.86722   0.76462    0.007
 5711.00    0.89078   0.76825    0.007
 5712.00    0.90917   0.77363    0.007
 5713.00    0.79520   0.77968    0.007
 5714.00    0.68426   0.78505    0.007
 5715.00    0.74147   0.79113    0.007
 5716.00    0.79447   0.79662    0.007
 5717.00    0.77523   0.80089    0.007
 5718.00    0.75375   0.80489    0.007
 5719.00    0.70853   0.80789    0.007
 5720.00    0.66352   0.80974    0.007
 5721.00    0.62008   0.81096    0.007
 5722.00    0.58628   0.81144    0.007
 5723.00    0.60749   0.81110    0.007
 5724.00    0.63010   0.81019    0.007
 5725.00    0.65909   0.80889    0.007
 5726.00    0.68124   0.80750    0.007
 5727.00    0.67787   0.80661    0.007
 5728.00    0.67800   0.80563    0.007
 5729.00    0.68898   0.80485    0.007
 5730.00    0.71154   0.80476    0.007
 5731.00    0.76468   0.80509    0.007
 5732.00    0.80307   0.80572    0.007
 5733.00    0.80800   0.80591    0.007
 5734.00    0.80175   0.80620    0.007
 5735.00    0.77352   0.80680    0.007
 5736.00    0.75336   0.80690    0.007
 5737.00    0.74702   0.80679    0.007
 5738.00    0.75432   0.80662    0.007
 5739.00    0.78205   0.80626    0.007
 5740.00    0.78931   0.80593    0.000
 5741.00    0.76956   0.80545    0.000
 5742.00    0.74209   0.80473    0.000
 5743.00    0.70566   0.80427    0.000
 5744.00    0.70647   0.80340    0.000
 5745.00    0.74541   0.80199    0.000
 5746.00    0.76775   0.80056    0.000
 5747.00    0.77508   0.79891    0.000
 5748.00    0.78803   0.79726    0.000
 5749.00    0.80545   0.79548    0.000
 5750.00    0.78784   0.79360    0.000
 5751.00    0.74570   0.79219    0.000
 5752.00    0.71511   0.79163    0.000
 5753.00    0.69163   0.79131    0.000
 5754.00    0.71102   0.79102    0.000
 5755.00    0.75341   0.79101    0.000
 5756.00    0.80519   0.79082    0.000
 5757.00    0.86135   0.79092    0.000
 5758.00    0.89693   0.79124    0.000
 5759.00    0.92426   0.79107    0.000
 5760.00    0.86445   0.79113    0.000
 5761.00    0.77481   0.79189    0.000
 5762.00    0.77111   0.79292    0.000
 5763.00    0.79218   0.79453    0.000
 5764.00    0.75119   0.79629    0.000
 5765.00    0.69542   0.79781    0.000
 5766.00    0.63151   0.79951    0.000
 5767.00    0.56603   0.80069    0.000
 5768.00    0.60621   0.80094    0.000
 5769.00    0.66212   0.80051    0.000
 5770.00    0.79124   0.79976    0.000
 5771.00    0.92834   0.79830    0.000
 5772.00    0.88328   0.79640    0.000
 5773.00    0.82516   0.79416    0.000
 5774.00    0.75585   0.79107    0.000
 5775.00    0.68612   0.78776    0.000
 5776.00    0.86021   0.78406    0.000
 5777.00    1.02818   0.77964    0.000
 5778.00    0.94031   0.77518    0.000
 5779.00    0.85296   0.77083    0.000
 5780.00    0.77413   0.76710    0.000
 5781.00    0.70494   0.76448    0.000
 5782.00    0.73350   0.76242    0.000
 5783.00    0.75590   0.76180    0.000
 5784.00    0.73371   0.76271    0.000
 5785.00    0.71791   0.76456    0.000
 5786.00    0.73760   0.76765    0.000
 5787.00    0.75848   0.77048    0.000
 5788.00    0.78460   0.77370    0.000
 5789.00    0.81110   0.77760    0.000
 5790.00    0.83897   0.78061    0.000
 5791.00    0.86220   0.78372   -2.000
 5792.00    0.87120   0.78641   -2.000
 5793.00    0.86292   0.78854   -2.000
 5794.00    0.80976   0.79086   -2.000
 5795.00    0.75579   0.79255   -2.000
 5796.00    0.70002   0.79427   -2.000
 5797.00    0.69449   0.79586   -2.000
 5798.00    0.78614   0.79688   -2.000
 5799.00    0.86938   0.79773   -2.000
 5800.00    0.93844   0.79795   -2.000
 5801.00    0.98320   0.79800   -2.000
 5802.00    0.99204   0.79792   -2.000
 5803.00    0.99001   0.79718   -2.000
 5804.00    0.97384   0.79663   -2.000
 5805.00    0.94259   0.79608   -2.000
 5806.00    0.89410   0.79534   -2.000
 5807.00    0.79245   0.79507   -2.000
 5808.00    0.63715   0.79479   -2.000
 5809.00    0.55923   0.79454   -2.000
 5810.00    0.55024   0.79438   -2.000
 5811.00    0.64910   0.79403    0.000
 5812.00    0.83260   0.79388    0.000
 5813.00    0.88497   0.79376    0.000
 5814.00    0.84684   0.79393    0.000
 5815.00    0.78173   0.79462    0.000
 5816.00    0.70030   0.79548    0.000
 5817.00    0.67810   0.79670    0.000
 5818.00    0.68719   0.79794    0.000
 5819.00    0.67013   0.79927    0.000
 5820.00    0.64110   0.80074    0.000
 5821.00    0.65269   0.80181    0.000
 5822.00    0.68032   0.80269    0.000
 5823.00    0.74806   0.80331    0.000
 5824.00    0.82927   0.80368    0.000
 5825.00    0.83131   0.80386    0.000
 5826.00    0.81099   0.80389    0.000
 5827.00    0.82597   0.80376    0.000
 5828.00    0.84918   0.80337    0.000
 5829.00    0.84821   0.80287    0.000
 5830.00    0.84274   0.80222    0.000
 5831.00    0.74399   0.80152    0.000
 5832.00    0.63179   0.80076    0.000
 5833.00    0.65669   0.80020    0.000
 5834.00    0.69594   0.79982    0.000
 5835.00    0.68111   0.79952    0.000
 5836.00    0.66262   0.79944    0.000
 5837.00    0.60535   0.79946    0.000
 5838.00    0.54681   0.79965    0.000
 5839.00    0.58931   0.79971    0.000
 5840.00    0.63293   0.79927    0.000
 5841.00    0.70987   0.79847    0.000
 5842.00    0.78285   0.79728    0.000
 5843.00    0.79591   0.79550    0.000
 5844.00    0.80421   0.79310    0.000
 5845.00    0.76638   0.79018    0.000
 5846.00    0.72263   0.78696    0.000
 5847.00    0.63735   0.78348    0.000
 5848.00    0.56832   0.77980    0.000
 5849.00    0.58704   0.77584    0.000
 5850.00    0.61547   0.77170    0.000
 5851.00    0.68594   0.76796    0.000
 5852.00    0.73332   0.76459    0.000
 5853.00    0.69827   0.76163    0.000
 5854.00    0.67253   0.75884    0.000
 5855.00    0.67470   0.75677    0.000
 5856.00    0.64928   0.75594    0.000
 5857.00    0.55347   0.75599    0.000
 5858.00    0.49642   0.75696    0.000
 5859.00    0.52444   0.75785    0.000
 5860.00    0.56780   0.75945    0.000
 5861.00    0.64037   0.76180    0.000
 5862.00    0.69271   0.76409    0.000
 5863.00    0.71145   0.76641    0.000
 5864.00    0.73249   0.76820    0.000
 5865.00    0.75689   0.77010    0.000
 5866.00    0.73934   0.77199    0.000
 5867.00    0.66806   0.77359    0.000
 5868.00    0.64950   0.77473    0.000
 5869.00    0.69046   0.77530    0.000
 5870.00    0.72541   0.77562    0.000
 5871.00    0.75438   0.77549    0.000
 5872.00    0.77842   0.77482    0.000
 5873.00    0.79811   0.77357    0.000
 5874.00    0.80269   0.77186    0.000
 5875.00    0.79556   0.76978    0.000
 5876.00    0.74388   0.76730    0.000
 5877.00    0.66190   0.76438    0.000
 5878.00    0.63787   0.76105    0.000
 5879.00    0.64837   0.75720    0.000
 5880.00    0.70184   0.75239    0.000
 5881.00    0.77765   0.74605    0.000
 5882.00    0.82698   0.73830    0.000
 5883.00    0.86438   0.72953    0.000
 5884.00    0.84473   0.71934    0.000
 5885.00    0.80297   0.70822    0.000
 5886.00    0.74056   0.69578    0.000
 5887.00    0.67133   0.68315    0.000
 5888.00    0.65218   0.67319    0.000
 5889.00    0.64688   0.66519    0.000
 5890.00    0.65450   0.65951    0.000
 5891.00    0.66506   0.65654    0.000
 5892.00    0.70760   0.65496    0.000
 5893.00    0.75597   0.65700    0.000
 5894.00    0.76766   0.66288    0.000
 5895.00    0.77423   0.67020    0.000
 5896.00    0.79447   0.67928    0.000
 5897.00    0.81609   0.68888    0.000
 5898.00    0.77317   0.69865    0.000
 5899.00    0.72614   0.70942    0.000
 5900.00    0.71714   0.71952    0.000
 5901.00    0.70924   0.72817    0.007
 5902.00    0.69957   0.73544    0.006
 5903.00    0.69021   0.74122    0.006
 5904.00    0.68932   0.74576    0.006
 5905.00    0.68643   0.74912    0.007
 5906.00    0.65484   0.75115    0.007
 5907.00    0.62917   0.75222    0.007
 5908.00    0.65858   0.75260    0.007
 5909.00    0.68025   0.75253    0.007
 5910.00    0.64928   0.75188    0.007
 5911.00    0.62499   0.75075    0.006
 5912.00    0.63581   0.74994    0.006
 5913.00    0.66098   0.74914    0.006
 5914.00    0.74689   0.74893    0.007
 5915.00    0.81646   0.74903    0.007
 5916.00    0.82894   0.74924    0.006
 5917.00    0.84013   0.75028    0.006
 5918.00    0.84756   0.75127    0.006
 5919.00    0.83362   0.75234    0.006
 5920.00    0.76607   0.75346    0.006
 5921.00    0.74802   0.75415    0.006
 5922.00    0.83690   0.75465    0.006
 5923.00    0.87899   0.75498    0.006
 5924.00    0.83339   0.75474    0.006
 5925.00    0.79214   0.75435    0.006
 5926.00    0.75804   0.75365    0.006
 5927.00    0.74416   0.75269    0.006
 5928.00    0.75930   0.75240    0.006
 5929.00    0.75817   0.75204    0.006
 5930.00    0.73647   0.75185    0.006
 5931.00    0.75031   0.75175    0.006
 5932.00    0.80369   0.75165    0.006
 5933.00    0.82547   0.75226    0.006
 5934.00    0.81623   0.75283    0.006
 5935.00    0.77510   0.75337    0.006
 5936.00    0.70638   0.75382    0.006
 5937.00    0.65650   0.75397    0.006
 5938.00    0.62099   0.75404    0.006
 5939.00    0.60128   0.75407    0.006
 5940.00    0.59216   0.75387    0.006
 5941.00    0.60145   0.75359    0.006
 5942.00    0.62154   0.75332    0.006
 5943.00    0.62295   0.75276    0.007
 5944.00    0.61480   0.75205    0.006
 5945.00    0.63338   0.75098    0.006
 5946.00    0.66381   0.74993    0.006
 5947.00    0.64553   0.74919    0.006
 5948.00    0.60870   0.74834    0.006
 5949.00    0.59172   0.74731    0.006
 5950.00    0.58116   0.74631    0.006
 5951.00    0.60022   0.74594    0.006
 5952.00    0.62731   0.74601    0.006
 5953.00    0.66525   0.74624    0.006
 5954.00    0.70559   0.74669    0.006
 5955.00    0.71999   0.74747    0.006
 5956.00    0.72981   0.74881    0.006
 5957.00    0.79954   0.75039    0.006
 5958.00    0.87736   0.75197    0.006
 5959.00    0.88803   0.75364    0.006
 5960.00    0.89224   0.75515    0.006
 5961.00    0.86634   0.75663    0.006
 5962.00    0.83865   0.75781    0.006
 5963.00    0.80120   0.75875    0.006
 5964.00    0.76376   0.75971    0.006
 5965.00    0.76470   0.76034    0.006
 5966.00    0.76538   0.76084    0.006
 5967.00    0.75934   0.76104    0.006
 5968.00    0.74991   0.76088    0.006
 5969.00    0.69477   0.76048    0.006
 5970.00    0.64407   0.75964    0.006
 5971.00    0.63320   0.75841    0.006
 5972.00    0.63131   0.75677    0.006
 5973.00    0.68855   0.75477    0.006
 5974.00    0.73764   0.75271    0.006
 5975.00    0.74491   0.75067    0.006
 5976.00    0.75608   0.74871    0.006
 5977.00    0.78340   0.74714    0.006
 5978.00    0.80328   0.74567    0.006
 5979.00    0.79771   0.74430    0.006
 5980.00    0.79410   0.74307    0.006
 5981.00    0.79618   0.74184    0.006
 5982.00    0.78943   0.74133    0.006
 5983.00    0.76095   0.74123    0.006
 5984.00    0.73153   0.74121    0.006
 5985.00    0.70010   0.74179    0.006
 5986.00    0.69305   0.74254    0.006
 5987.00    0.73099   0.74373    0.006
 5988.00    0.75849   0.74492    0.006
 5989.00    0.76918   0.74599    0.006
 5990.00    0.76177   0.74731    0.006
 5991.00    0.72877   0.74820    0.006
 5992.00    0.69946   0.74865    0.006
 5993.00    0.67474   0.74861    0.006
 5994.00    0.67079   0.74794    0.006
 5995.00    0.68961   0.74718    0.006
 5996.00    0.72480   0.74634    0.006
 5997.00    0.77581   0.74524    0.006
 5998.00    0.79283   0.74406    0.006
 5999.00    0.78082   0.74247    0.006
 6000.00    0.76706   0.74074    0.006
 6001.00    0.75199   0.73965    0.006
 6002.00    0.70706   0.73847    0.006
 6003.00    0.64241   0.73727    0.006
 6004.00    0.61302   0.73607    0.006
 6005.00    0.60401   0.73457    0.006
 6006.00    0.63755   0.73406    0.006
 6007.00    0.69251   0.73392    0.006
 6008.00    0.71634   0.73361    0.006
 6009.00    0.72660   0.73334    0.006
 6010.00    0.70897   0.73273    0.006
 6011.00    0.68090   0.73254    0.006
 6012.00    0.68368   0.73250    0.006
 6013.00    0.69625   0.73197    0.006
 6014.00    0.71568   0.73140    0.006
 6015.00    0.73692   0.73093    0.006
 6016.00    0.73502   0.73028    0.006
 6017.00    0.72809   0.72980    0.006
 6018.00    0.74385   0.72969    0.006
 6019.00    0.76350   0.72990    0.006
 6020.00    0.77982   0.73077    0.006
 6021.00    0.79571   0.73169    0.006
 6022.00    0.76039   0.73332    0.006
 6023.00    0.72037   0.73540    0.006
 6024.00    0.74034   0.73738    0.006
 6025.00    0.76365   0.74005    0.006
 6026.00    0.82767   0.74255    0.006
 6027.00    0.89167   0.74507    0.006
 6028.00    0.86479   0.74734    0.006
 6029.00    0.83659   0.74936    0.006
 6030.00    0.77761   0.75129    0.006
 6031.00    0.72049   0.75268    0.006
 6032.00    0.68699   0.75374    0.006
 6033.00    0.65435   0.75450    0.006
 6034.00    0.62921   0.75493    0.006
 6035.00    0.60936   0.75522    0.006
 6036.00    0.62333   0.75520    0.006
 6037.00    0.64237   0.75507    0.006
 6038.00    0.68673   0.75510    0.006
 6039.00    0.72380   0.75496    0.006
 6040.00    0.73137   0.75529    0.006
 6041.00    0.74441   0.75567    0.006
 6042.00    0.77577   0.75607    0.006
 6043.00    0.80424   0.75658    0.006
 6044.00    0.82455   0.75695    0.006
 6045.00    0.81930   0.75730    0.006
 6046.00    0.75215   0.75727    0.006
 6047.00    0.69324   0.75709    0.006
 6048.00    0.65158   0.75650    0.006
 6049.00    0.62560   0.75552    0.006
 6050.00    0.62811   0.75418    0.006
 6051.00    0.63278   0.75275    0.006
 6052.00    0.64088   0.75137    0.006
 6053.00    0.64627   0.74977    0.006
 6054.00    0.64790   0.74854    0.006
 6055.00    0.64332   0.74733    0.006
 6056.00    0.63112   0.74647    0.006
 6057.00    0.62198   0.74560    0.006
 6058.00    0.61616   0.74478    0.006
 6059.00    0.60496   0.74415    0.006
 6060.00    0.58864   0.74339    0.006
 6061.00    0.60350   0.74308    0.006
 6062.00    0.64458   0.74255    0.006
 6063.00    0.67112   0.74292    0.006
 6064.00    0.68687   0.74416    0.006
 6065.00    0.64993   0.74547    0.006
 6066.00    0.57871   0.74724    0.006
 6067.00    0.56494   0.74897    0.006
 6068.00    0.58387   0.75084    0.006
 6069.00    0.63126   0.75253    0.006
 6070.00    0.69276   0.75361    0.006
 6071.00    0.70812   0.75409    0.006
 6072.00    0.70371   0.75377    0.006
 6073.00    0.67567   0.75251    0.006
 6074.00    0.63895   0.75067    0.006
 6075.00    0.61855   0.74815    0.006
 6076.00    0.60323   0.74541    0.006
 6077.00    0.59949   0.74301    0.006
 6078.00    0.59875   0.74037    0.006
 6079.00    0.63346   0.73785    0.006
 6080.00    0.67568   0.73586    0.006
 6081.00    0.67537   0.73437    0.006
 6082.00    0.66794   0.73309    0.006
 6083.00    0.63076   0.73226    0.006
 6084.00    0.58983   0.73180    0.006
 6085.00    0.58163   0.73166    0.006
 6086.00    0.57630   0.73148    0.006
 6087.00    0.60789   0.73119    0.006
 6088.00    0.64140   0.73143    0.006
 6089.00    0.67214   0.73174    0.006
 6090.00    0.70279   0.73215    0.006
 6091.00    0.73100   0.73268    0.006
 6092.00    0.75869   0.73323    0.006
 6093.00    0.77534   0.73346    0.006
 6094.00    0.78783   0.73324    0.006
 6095.00    0.74988   0.73287    0.006
 6096.00    0.70996   0.73225    0.006
 6097.00    0.65373   0.73114    0.006
 6098.00    0.60778   0.72955    0.006
 6099.00    0.62552   0.72733    0.006
 6100.00    0.64523   0.72531    0.006
 6101.00    0.67448   0.72488    0.006
 6102.00    0.69585   0.72473    0.006
 6103.00    0.68605   0.72503    0.006
 6104.00    0.67017   0.72577    0.006
 6105.00    0.63427   0.72679    0.006
 6106.00    0.61527   0.72876    0.006
 6107.00    0.64329   0.73066    0.006
 6108.00    0.68404   0.73242    0.006
 6109.00    0.75510   0.73391    0.006
 6110.00    0.79898   0.73492    0.006
 6111.00    0.78696   0.73542    0.006
 6112.00    0.74428   0.73524    0.006
 6113.00    0.64671   0.73429    0.006
 6114.00    0.59103   0.73301    0.006
 6115.00    0.60094   0.73138    0.006
 6116.00    0.63832   0.72907    0.006
 6117.00    0.71347   0.72652    0.006
 6118.00    0.75106   0.72400    0.006
 6119.00    0.74320   0.72137    0.006
 6120.00    0.71423   0.71983    0.006
 6121.00    0.66273   0.71924    0.006
 6122.00    0.63214   0.71871    0.006
 6123.00    0.62123   0.71882    0.006
 6124.00    0.64277   0.71909    0.006
 6125.00    0.69123   0.71980    0.006
 6126.00    0.76384   0.72052    0.006
 6127.00    0.85410   0.72091    0.006
 6128.00    0.86959   0.72109    0.006
 6129.00    0.83714   0.72008    0.006
 6130.00    0.76903   0.71850    0.006
 6131.00    0.68092   0.71604    0.006
 6132.00    0.64454   0.71289    0.006
 6133.00    0.63340   0.70964    0.006
 6134.00    0.63244   0.70624    0.006
 6135.00    0.63578   0.70446    0.006
 6136.00    0.63693   0.70377    0.006
 6137.00    0.63728   0.70378    0.006
 6138.00    0.66740   0.70438    0.006
 6139.00    0.70661   0.70567    0.006
 6140.00    0.69023   0.70846    0.006
 6141.00    0.65974   0.71149    0.006
 6142.00    0.66930   0.71437    0.006
 6143.00    0.68711   0.71693    0.006
 6144.00    0.68779   0.71858    0.006
 6145.00    0.68568   0.71945    0.006
 6146.00    0.64863   0.71979    0.006
 6147.00    0.60733   0.71977    0.006
 6148.00    0.58072   0.71950    0.006
 6149.00    0.55534   0.71855    0.006
 6150.00    0.60114   0.71725    0.006
 6151.00    0.65035   0.71525    0.006
 6152.00    0.67628   0.71264    0.006
 6153.00    0.70172   0.70990    0.006
 6154.00    0.71882   0.70638    0.006
 6155.00    0.73534   0.70225    0.006
 6156.00    0.74019   0.69739    0.006
 6157.00    0.74527   0.69211    0.006
 6158.00    0.75308   0.68633    0.006
 6159.00    0.76182   0.68078    0.006
 6160.00    0.77811   0.67657    0.006
 6161.00    0.79132   0.67343    0.006
 6162.00    0.78597   0.67142    0.006
 6163.00    0.78236   0.67007    0.006
 6164.00    0.78705   0.66991    0.006
 6165.00    0.78316   0.67061    0.006
 6166.00    0.74607   0.67156    0.006
 6167.00    0.71146   0.67354    0.006
 6168.00    0.68488   0.67636    0.006
 6169.00    0.65960   0.67938    0.006
 6170.00    0.63789   0.68195    0.006
 6171.00    0.61602   0.68471    0.006
 6172.00    0.59378   0.68761    0.006
 6173.00    0.58454   0.69033    0.006
 6174.00    0.60165   0.69299    0.006
 6175.00    0.60554   0.69577    0.006
 6176.00    0.58614   0.69827    0.006
 6177.00    0.58976   0.69988    0.006
 6178.00    0.62889   0.70131    0.006
 6179.00    0.65281   0.70229    0.006
 6180.00    0.65613   0.70257    0.006
 6181.00    0.67029   0.70205    0.006
 6182.00    0.69738   0.70107    0.006
 6183.00    0.72547   0.69933    0.006
 6184.00    0.75460   0.69706    0.006
 6185.00    0.76306   0.69464    0.006
 6186.00    0.75236   0.69207    0.006
 6187.00    0.72684   0.68984    0.006
 6188.00    0.68920   0.68755    0.006
 6189.00    0.67322   0.68628    0.006
 6190.00    0.67283   0.68619    0.006
 6191.00    0.68664   0.68653    0.006
 6192.00    0.70942   0.68761    0.006
 6193.00    0.81790   0.68903    0.006
 6194.00    0.97371   0.69076    0.006
 6195.00    1.28284   0.69246    0.006
 6196.00    1.66561   0.69400   -2.000
 6197.00    2.14921   0.69577   -2.000
 6198.00    2.67461   0.69745   -2.000
 6199.00    2.68385   0.69892   -2.000
 6200.00    2.51013   0.70020   -2.000
 6201.00    1.75645   0.70126   -2.000
 6202.00    0.82921   0.70205   -2.000
 6203.00    0.14109   0.70254   -2.000
 6204.00   -0.48763   0.70256   -2.000
 6205.00   -0.39735   0.70212   -2.000
 6206.00   -0.16230   0.70099   -2.000
 6207.00    0.08729   0.69906   -2.000
 6208.00    0.33917   0.69631    0.006
 6209.00    0.41561   0.69316    0.006
 6210.00    0.47148   0.68946    0.006
 6211.00    0.50123   0.68571    0.006
 6212.00    0.52890   0.68230    0.006
 6213.00    0.51426   0.67920    0.006
 6214.00    0.49775   0.67679    0.006
 6215.00    0.53599   0.67489    0.006
 6216.00    0.57410   0.67352    0.006
 6217.00    0.57781   0.67275    0.006
 6218.00    0.58221   0.67264    0.006
 6219.00    0.59923   0.67296    0.006
 6220.00    0.61750   0.67349    0.006
 6221.00    0.64948   0.67378    0.006
 6222.00    0.67791   0.67404    0.006
 6223.00    0.67888   0.67388    0.006
 6224.00    0.68272   0.67331    0.006
 6225.00    0.70332   0.67258    0.006
 6226.00    0.73192   0.67146    0.006
 6227.00    0.79765   0.67026    0.006
 6228.00    0.85256   0.66905    0.006
 6229.00    0.86647   0.66869    0.006
 6230.00    0.87866   0.66848    0.006
 6231.00    0.88541   0.66874    0.006
 6232.00    0.88347   0.66920    0.006
 6233.00    0.85822   0.66941    0.006
 6234.00    0.83250   0.66955    0.006
 6235.00    0.80566   0.66915    0.006
 6236.00    0.78839   0.66893    0.006
 6237.00    0.79020   0.66797    0.006
 6238.00    0.78386   0.66679    0.006
 6239.00    0.76337   0.66559    0.006
 6240.00    0.74676   0.66381    0.006
 6241.00    0.73604   0.66254    0.006
 6242.00    0.73595   0.66157    0.006
 6243.00    0.75004   0.66101    0.006
 6244.00    0.74393   0.66086    0.006
 6245.00    0.71407   0.66100    0.006
 6246.00    0.66998   0.66113    0.006
 6247.00    0.61114   0.66066    0.006
 6248.00    0.56719   0.66008    0.006
 6249.00    0.53688   0.65899    0.006
 6250.00    0.51683   0.65766    0.006
 6251.00    0.50506   0.65616    0.006
 6252.00    0.50803   0.65481    0.006
 6253.00    0.52147   0.65345    0.006
 6254.00    0.55660   0.65242    0.006
 6255.00    0.60524   0.65229    0.006
 6256.00    0.69134   0.65260    0.006
 6257.00    0.79781   0.65428    0.006
 6258.00    0.92579   0.65638    0.006
 6259.00    1.06393   0.65911    0.006
 6260.00    1.18214   0.66202    0.007
 6261.00    1.29222   0.66486    0.007
 6262.00    1.19838   0.66761    0.007
 6263.00    1.03358   0.67009    0.007
 6264.00    0.79400   0.67260    0.007
 6265.00    0.53248   0.67436    0.007
 6266.00    0.44996   0.67578    0.007
 6267.00    0.41093   0.67702    0.006
 6268.00    0.47232   0.67794    0.006
 6269.00    0.55342   0.67857    0.006
 6270.00    0.57696   0.67915    0.006
 6271.00    0.59169   0.67961    0.006
 6272.00    0.58195   0.67975    0.006
 6273.00    0.56945   0.67965    0.006
 6274.00    0.55624   0.67942    0.006
 6275.00    0.54297   0.67898    0.006
 6276.00    0.53703   0.67865    0.006
 6277.00    0.53139   0.67827    0.006
 6278.00    0.57554   0.67814    0.006
 6279.00    0.61973   0.67846    0.006
 6280.00    0.65092   0.67894    0.000
 6281.00    0.67900   0.67993    0.000
 6282.00    0.65386   0.68096    0.000
 6283.00    0.63219   0.68224    0.000
 6284.00    0.64706   0.68349    0.000
 6285.00    0.66057   0.68447    0.000
 6286.00    0.66401   0.68530    0.000
 6287.00    0.67162   0.68543    0.000
 6288.00    0.70290   0.68515    0.000
 6289.00    0.71666   0.68433    0.000
 6290.00    0.65101   0.68302    0.000
 6291.00    0.59465   0.68141    0.000
 6292.00    0.57274   0.67945    0.000
 6293.00    0.55725   0.67729    0.000
 6294.00    0.56171   0.67513    0.000
 6295.00    0.56122   0.67315    0.000
 6296.00    0.54772   0.67147    0.000
 6297.00    0.54663   0.67017    0.000
 6298.00    0.57364   0.66933    0.000
 6299.00    0.58299   0.66912    0.000
 6300.00    0.55767   0.66941    0.000
 6301.00    0.52131   0.67028    0.000
 6302.00    0.46608   0.67160    0.000
 6303.00    0.42655   0.67312    0.000
 6304.00    0.41053   0.67474    0.000
 6305.00    0.39954   0.67600    0.000
 6306.00    0.39514   0.67688    0.000
 6307.00    0.44196   0.67734    0.000
 6308.00    0.54814   0.67729    0.000
 6309.00    0.62468   0.67655    0.000
 6310.00    0.67090   0.67521    0.000
 6311.00    0.66012   0.67370    0.000
 6312.00    0.59793   0.67185    0.000
 6313.00    0.52828   0.67000    0.000
 6314.00    0.45270   0.66856    0.000
 6315.00    0.43962   0.66743    0.000
 6316.00    0.47022   0.66708    0.000
 6317.00    0.52724   0.66740    0.000
 6318.00    0.60045   0.66830    0.000
 6319.00    0.61615   0.66975    0.000
 6320.00    0.60106   0.67162    0.000
 6321.00    0.55811   0.67401    0.006
 6322.00    0.50222   0.67607    0.006
 6323.00    0.52253   0.67825    0.006
 6324.00    0.57336   0.68023    0.006
 6325.00    0.61026   0.68157    0.006
 6326.00    0.64241   0.68263    0.006
 6327.00    0.64932   0.68291    0.006
 6328.00    0.64899   0.68293    0.006
 6329.00    0.63460   0.68229    0.006
 6330.00    0.61687   0.68110    0.006
 6331.00    0.57052   0.67963    0.006
 6332.00    0.51869   0.67792    0.006
 6333.00    0.54215   0.67650    0.006
 6334.00    0.57676   0.67501    0.006
 6335.00    0.57164   0.67406    0.006
 6336.00    0.56222   0.67331    0.006
 6337.00    0.55172   0.67286    0.006
 6338.00    0.54115   0.67269    0.006
 6339.00    0.57266   0.67248    0.006
 6340.00    0.60570   0.67272    0.006
 6341.00    0.63688   0.67305    0.006
 6342.00    0.66675   0.67364    0.006
 6343.00    0.65088   0.67425    0.006
 6344.00    0.63400   0.67492    0.006
 6345.00    0.60116   0.67562    0.005
 6346.00    0.57020   0.67618    0.005
 6347.00    0.55821   0.67655    0.005
 6348.00    0.54506   0.67660    0.006
 6349.00    0.52364   0.67625    0.006
 6350.00    0.50248   0.67539    0.006
 6351.00    0.48275   0.67406    0.006
 6352.00    0.47404   0.67218    0.006
 6353.00    0.51400   0.66984    0.006
 6354.00    0.55246   0.66716    0.006
 6355.00    0.58550   0.66440    0.006
 6356.00    0.60543   0.66169    0.006
 6357.00    0.58547   0.65928    0.006
 6358.00    0.57639   0.65741    0.006
 6359.00    0.59554   0.65618    0.006
 6360.00    0.61347   0.65587    0.006
 6361.00    0.62866   0.65633    0.006
 6362.00    0.63781   0.65753    0.006
 6363.00    0.63528   0.65945    0.006
 6364.00    0.62448   0.66187    0.006
 6365.00    0.59973   0.66463    0.006
 6366.00    0.58841   0.66749    0.006
 6367.00    0.59691   0.67045    0.006
 6368.00    0.61255   0.67327    0.006
 6369.00    0.63748   0.67578    0.006
 6370.00    0.62996   0.67791    0.006
 6371.00    0.58535   0.67954    0.006
 6372.00    0.56257   0.68076    0.006
 6373.00    0.56180   0.68136    0.006
 6374.00    0.58804   0.68159    0.006
 6375.00    0.63829   0.68148    0.006
 6376.00    0.64316   0.68108    0.006
 6377.00    0.61249   0.68069    0.006
 6378.00    0.56981   0.68013    0.006
 6379.00    0.51884   0.67958    0.006
 6380.00    0.51919   0.67914    0.006
 6381.00    0.55052   0.67881    0.006
 6382.00    0.57636   0.67858    0.006
 6383.00    0.59930   0.67831    0.006
 6384.00    0.57712   0.67806    0.006
 6385.00    0.53431   0.67762    0.006
 6386.00    0.54257   0.67698    0.006
 6387.00    0.57095   0.67610    0.006
 6388.00    0.61681   0.67475    0.006
 6389.00    0.66855   0.67345    0.006
 6390.00    0.69284   0.67224    0.006
 6391.00    0.70940   0.67108    0.006
 6392.00    0.68782   0.67012    0.006
 6393.00    0.65738   0.66926    0.006
 6394.00    0.61755   0.66861    0.006
 6395.00    0.57596   0.66792    0.006
 6396.00    0.49916   0.66802    0.006
 6397.00    0.41731   0.66828    0.006
 6398.00    0.43011   0.66881    0.006
 6399.00    0.45277   0.66967    0.006
 6400.00    0.50910   0.67035    0.006
 6401.00    0.56768   0.67114    0.006
 6402.00    0.57804   0.67152    0.006
 6403.00    0.58684   0.67173    0.006
 6404.00    0.54840   0.67179    0.006
 6405.00    0.51223   0.67175    0.006
 6406.00    0.54661   0.67128    0.006
 6407.00    0.58526   0.67071    0.006
 6408.00    0.68782   0.67019    0.006
 6409.00    0.77518   0.66953    0.006
 6410.00    0.71575   0.66894    0.006
 6411.00    0.65958   0.66851    0.006
 6412.00    0.62611   0.66809    0.006
 6413.00    0.59551   0.66786    0.006
 6414.00    0.58034   0.66768    0.006
 6415.00    0.55876   0.66739    0.006
 6416.00    0.50948   0.66734    0.006
 6417.00    0.47090   0.66756    0.006
 6418.00    0.47042   0.66818    0.006
 6419.00    0.47643   0.66883    0.006
 6420.00    0.50184   0.66974    0.006
 6421.00    0.52823   0.67073    0.006
 6422.00    0.55716   0.67178    0.006
 6423.00    0.57789   0.67268    0.005
 6424.00    0.58069   0.67324    0.005
 6425.00    0.58537   0.67337    0.006
 6426.00    0.59361   0.67311    0.006
 6427.00    0.60475   0.67290    0.006
 6428.00    0.62072   0.67237    0.006
 6429.00    0.63273   0.67184    0.006
 6430.00    0.63898   0.67130    0.006
 6431.00    0.62682   0.67085    0.006
 6432.00    0.59111   0.67069    0.006
 6433.00    0.56191   0.67051    0.006
 6434.00    0.54005   0.67053    0.006
 6435.00    0.55318   0.67111    0.006
 6436.00    0.60109   0.67203    0.006
 6437.00    0.64183   0.67299    0.006
 6438.00    0.67627   0.67408    0.006
 6439.00    0.66799   0.67510    0.006
 6440.00    0.62672   0.67595    0.006
 6441.00    0.58817   0.67648    0.006
 6442.00    0.55148   0.67649    0.005
 6443.00    0.52006   0.67589    0.005
 6444.00    0.49178   0.67454    0.005
 6445.00    0.48197   0.67268    0.005
 6446.00    0.48176   0.67099    0.006
 6447.00    0.49956   0.66910    0.006
 6448.00    0.52547   0.66737    0.006
 6449.00    0.55539   0.66583    0.006
 6450.00    0.58685   0.66471    0.006
 6451.00    0.59205   0.66403    0.006
 6452.00    0.58861   0.66402    0.006
 6453.00    0.57216   0.66442    0.006
 6454.00    0.55213   0.66494    0.006
 6455.00    0.56954   0.66555    0.006
 6456.00    0.59543   0.66600    0.006
 6457.00    0.60730   0.66615    0.006
 6458.00    0.61663   0.66620    0.006
 6459.00    0.59037   0.66647    0.006
 6460.00    0.55917   0.66648    0.006
 6461.00    0.56478   0.66674    0.006
 6462.00    0.57406   0.66692    0.006
 6463.00    0.55509   0.66747    0.006
 6464.00    0.53434   0.66788    0.006
 6465.00    0.55732   0.66847    0.005
 6466.00    0.58155   0.66890    0.005
 6467.00    0.60433   0.66923    0.005
 6468.00    0.62549   0.66967    0.005
 6469.00    0.60161   0.66968    0.005
 6470.00    0.58241   0.66971    0.006
 6471.00    0.62930   0.66942    0.006
 6472.00    0.67286   0.66914    0.006
 6473.00    0.68573   0.66852    0.006
 6474.00    0.68853   0.66782    0.006
 6475.00    0.62318   0.66693    0.006
 6476.00    0.56949   0.66584    0.006
 6477.00    0.57698   0.66461    0.006
 6478.00    0.59412   0.66336    0.006
 6479.00    0.65201   0.66221    0.006
 6480.00    0.69375   0.66100    0.006
 6481.00    0.67915   0.65979    0.006
 6482.00    0.67294   0.65853    0.006
 6483.00    0.69132   0.65719    0.006
 6484.00    0.71059   0.65548    0.006
 6485.00    0.73211   0.65327    0.006
 6486.00    0.74541   0.65045    0.006
 6487.00    0.74102   0.64688    0.005
 6488.00    0.72254   0.64260    0.005
 6489.00    0.67771   0.63762    0.005
 6490.00    0.62102   0.63252    0.005
 6491.00    0.54494   0.62766    0.005
 6492.00    0.52280   0.62320    0.005
 6493.00    0.57793   0.62000    0.005
 6494.00    0.62750   0.61778    0.005
 6495.00    0.67005   0.61736    0.005
 6496.00    0.69153   0.61833    0.006
 6497.00    0.68962   0.62081    0.006
 6498.00    0.71183   0.62444    0.006
 6499.00    0.75768   0.62884    0.006
 6500.00    0.78575   0.63369    0.006
 6501.00    0.79844   0.63851    0.006
 6502.00    0.78982   0.64322    0.006
 6503.00    0.76498   0.64721    0.006
 6504.00    0.74405   0.65063    0.006
 6505.00    0.72573   0.65322    0.006
 6506.00    0.71128   0.65509    0.006
 6507.00    0.69909   0.65623    0.006
 6508.00    0.68952   0.65673    0.006
 6509.00    0.68130   0.65667    0.006
 6510.00    0.69650   0.65619    0.006
 6511.00    0.72206   0.65538    0.006
 6512.00    0.70976   0.65446    0.006
 6513.00    0.68306   0.65353    0.005
 6514.00    0.67387   0.65265    0.005
 6515.00    0.67033   0.65211    0.006
 6516.00    0.65803   0.65175    0.006
 6517.00    0.64336   0.65176    0.005
 6518.00    0.59125   0.65193    0.005
 6519.00    0.53085   0.65236    0.005
 6520.00    0.53323   0.65286    0.005
 6521.00    0.54668   0.65335    0.005
 6522.00    0.56697   0.65375    0.006
 6523.00    0.58817   0.65410    0.006
 6524.00    0.60596   0.65427    0.006
 6525.00    0.62343   0.65426    0.006
 6526.00    0.61857   0.65413    0.006
 6527.00    0.61238   0.65392    0.006
 6528.00    0.59622   0.65369    0.000
 6529.00    0.57996   0.65351    0.000
 6530.00    0.58664   0.65344    0.000
 6531.00    0.59101   0.65341    0.000
 6532.00    0.53740   0.65345    0.000
 6533.00    0.48694   0.65347    0.000
 6534.00    0.47857   0.65349    0.000
 6535.00    0.47848   0.65334    0.000
 6536.00    0.55217   0.65291    0.000
 6537.00    0.62258   0.65213    0.000
 6538.00    0.67155   0.65096    0.000
 6539.00    0.70369   0.64932    0.000
 6540.00    0.64975   0.64739    0.000
 6541.00    0.59996   0.64504    0.000
 6542.00    0.56726   0.64255    0.000
 6543.00    0.55247   0.63982    0.000
 6544.00    0.59892   0.63700    0.000
 6545.00    0.63554   0.63413    0.000
 6546.00    0.64384   0.63111    0.000
 6547.00    0.63043   0.62795    0.000
 6548.00    0.56363   0.62446    0.000
 6549.00    0.52529   0.62057    0.000
 6550.00    0.54729   0.61610    0.000
 6551.00    0.54970   0.61090    0.000
 6552.00    0.51600   0.60483    0.000
 6553.00    0.48796   0.59777    0.000
 6554.00    0.46902   0.58980    0.000
 6555.00    0.49594   0.58070    0.000
 6556.00    0.58761   0.57118    0.000
 6557.00    0.69003   0.56188    0.000
 6558.00    0.80580   0.55322    0.000
 6559.00    0.91270   0.54623    0.000
 6560.00    1.00990   0.54109    0.000
 6561.00    1.03903   0.53843    0.000
 6562.00    1.00240   0.53837    0.000
 6563.00    0.91965   0.54102    0.000
 6564.00    0.79761   0.54602    0.000
 6565.00    0.70328   0.55272    0.000
 6566.00    0.62974   0.56062    0.000
 6567.00    0.63035   0.56888    0.000
 6568.00    0.67983   0.57705    0.000
 6569.00    0.69914   0.58475    0.000
 6570.00    0.70105   0.59181    0.000
 6571.00    0.66864   0.59808    0.000
 6572.00    0.61899   0.60338    0.000
 6573.00    0.59651   0.60802    0.000
 6574.00    0.58585   0.61197    0.000
 6575.00    0.58893   0.61551    0.000
 6576.00    0.59714   0.61868    0.000
 6577.00    0.64206   0.62148    0.000
 6578.00    0.69860   0.62398    0.000
 6579.00    0.72262   0.62602    0.000
 6580.00    0.73804   0.62783    0.000
 6581.00    0.70001   0.62921    0.000
 6582.00    0.65043   0.63030    0.000
 6583.00    0.61186   0.63098    0.000
 6584.00    0.57519   0.63125    0.000
 6585.00    0.56198   0.63104    0.000
 6586.00    0.55182   0.63037    0.000
 6587.00    0.58667   0.62949    0.000
 6588.00    0.62563   0.62843    0.000
 6589.00    0.61284   0.62727    0.000
 6590.00    0.59720   0.62615    0.000
 6591.00    0.57990   0.62519    0.000
 6592.00    0.56247   0.62464    0.000
 6593.00    0.53476   0.62450    0.000
 6594.00    0.50946   0.62488    0.000
 6595.00    0.53921   0.62559    0.000
 6596.00    0.56962   0.62661    0.000
 6597.00    0.60818   0.62772    0.000
 6598.00    0.64098   0.62878    0.000
 6599.00    0.62432   0.62971    0.000
 6600.00    0.61014   0.63033    0.000
 6601.00    0.61163   0.63066    0.000
 6602.00    0.61322   0.63059    0.000
 6603.00    0.61526   0.63045    0.000
 6604.00    0.60523   0.63016    0.000
 6605.00    0.54650   0.62990    0.000
 6606.00    0.50459   0.62975    0.000
 6607.00    0.51900   0.62986    0.000
 6608.00    0.53639   0.63036    0.000
 6609.00    0.56218   0.63107    0.006
 6610.00    0.57303   0.63208    0.006
 6611.00    0.54777   0.63319    0.006
 6612.00    0.54148   0.63445    0.006
 6613.00    0.57475   0.63561    0.006
 6614.00    0.61399   0.63664    0.006
 6615.00    0.66406   0.63740    0.006
 6616.00    0.68325   0.63782    0.006
 6617.00    0.65346   0.63792    0.006
 6618.00    0.62292   0.63760    0.006
 6619.00    0.59133   0.63709    0.006
 6620.00    0.56327   0.63617    0.006
 6621.00    0.53953   0.63511    0.006
 6622.00    0.52111   0.63383    0.006
 6623.00    0.50843   0.63250    0.005
 6624.00    0.51308   0.63109    0.005
 6625.00    0.53423   0.62968    0.005
 6626.00    0.56260   0.62829    0.005
 6627.00    0.59705   0.62694    0.006
 6628.00    0.63095   0.62581    0.006
 6629.00    0.66445   0.62475    0.006
 6630.00    0.66159   0.62393    0.006
 6631.00    0.63511   0.62328    0.006
 6632.00    0.62252   0.62291    0.006
 6633.00    0.61782   0.62275    0.006
 6634.00    0.63524   0.62284    0.006
 6635.00    0.66361   0.62308    0.006
 6636.00    0.66250   0.62333    0.006
 6637.00    0.64877   0.62366    0.006
 6638.00    0.60761   0.62396    0.006
 6639.00    0.55639   0.62421    0.006
 6640.00    0.52663   0.62435    0.006
 6641.00    0.50355   0.62444    0.006
 6642.00    0.50989   0.62452    0.005
 6643.00    0.52384   0.62458    0.005
 6644.00    0.52478   0.62467    0.005
 6645.00    0.52298   0.62475    0.005
 6646.00    0.50735   0.62486    0.005
 6647.00    0.48941   0.62493    0.005
 6648.00    0.48688   0.62499    0.005
 6649.00    0.48627   0.62496    0.005
 6650.00    0.45881   0.62483    0.005
 6651.00    0.42901   0.62457    0.005
 6652.00    0.45128   0.62413    0.005
 6653.00    0.47622   0.62358    0.005
 6654.00    0.56095   0.62278    0.005
 6655.00    0.64553   0.62188    0.006
 6656.00    0.64367   0.62072    0.006
 6657.00    0.64119   0.61957    0.006
 6658.00    0.62571   0.61831    0.006
 6659.00    0.60734   0.61711    0.006
 6660.00    0.55414   0.61604    0.006
 6661.00    0.51068   0.61517    0.005
 6662.00    0.54763   0.61465    0.006
 6663.00    0.58118   0.61440    0.006
 6664.00    0.59373   0.61454    0.006
 6665.00    0.59438   0.61490    0.006
 6666.00    0.53718   0.61552    0.006
 6667.00    0.48972   0.61616    0.006
 6668.00    0.48069   0.61672    0.005
 6669.00    0.48905   0.61706    0.005
 6670.00    0.55446   0.61711    0.005
 6671.00    0.60525   0.61682    0.005
 6672.00    0.61547   0.61620    0.005
 6673.00    0.60878   0.61535    0.005
 6674.00    0.56195   0.61432    0.005
 6675.00    0.53141   0.61331    0.005
 6676.00    0.53431   0.61242    0.005
 6677.00    0.54053   0.61183    0.006
 6678.00    0.55267   0.61157    0.006
 6679.00    0.56242   0.61168    0.006
 6680.00    0.56842   0.61212    0.006
 6681.00    0.56411   0.61282    0.006
 6682.00    0.54568   0.61368    0.006
 6683.00    0.51399   0.61456    0.006
 6684.00    0.46630   0.61539    0.006
 6685.00    0.42886   0.61603    0.006
 6686.00    0.40234   0.61648    0.006
 6687.00    0.40261   0.61664    0.005
 6688.00    0.42803   0.61659    0.005
 6689.00    0.47129   0.61628    0.005
 6690.00    0.52934   0.61577    0.005
 6691.00    0.55013   0.61515    0.005
 6692.00    0.54378   0.61441    0.005
 6693.00    0.51150   0.61371    0.005
 6694.00    0.46263   0.61297    0.005
 6695.00    0.47151   0.61239    0.005
 6696.00    0.51272   0.61186    0.000
 6697.00    0.49790   0.61154    0.000
 6698.00    0.45579   0.61126    0.000
 6699.00    0.45001   0.61110    0.000
 6700.00    0.45952   0.61097    0.000
 6701.00    0.50897   0.61083    0.000
 6702.00    0.57280   0.61068    0.000
 6703.00    0.56236   0.61042    0.000
 6704.00    0.52931   0.61007    0.000
 6705.00    0.51778   0.60953    0.000
 6706.00    0.51170   0.60883    0.000
 6707.00    0.53746   0.60790    0.000
 6708.00    0.56977   0.60674    0.000
 6709.00    0.58576   0.60539    0.000
 6710.00    0.59910   0.60389    0.000
 6711.00    0.64775   0.60233    0.000
 6712.00    0.70068   0.60077    0.000
 6713.00    0.70013   0.59935    0.000
 6714.00    0.69514   0.59821    0.000
 6715.00    0.61436   0.59738    0.000
 6716.00    0.52998   0.59700    0.000
 6717.00    0.52534   0.59697    0.000
 6718.00    0.52237   0.59738    0.000
 6719.00    0.54984   0.59808    0.000
 6720.00    0.57577   0.59902    0.000
 6721.00    0.57158   0.60009    0.000
 6722.00    0.56435   0.60119    0.000
 6723.00    0.52220   0.60228    0.000
 6724.00    0.48501   0.60323    0.000
 6725.00    0.48736   0.60412    0.000
 6726.00    0.49688   0.60481    0.000
 6727.00    0.54944   0.60539    0.000
 6728.00    0.59000   0.60576    0.000
 6729.00    0.57372   0.60599    0.000
 6730.00    0.55890   0.60601    0.000
 6731.00    0.54970   0.60587    0.000
 6732.00    0.54276   0.60554    0.000
 6733.00    0.54308   0.60506    0.000
 6734.00    0.53552   0.60444    0.000
 6735.00    0.50647   0.60370    0.000
 6736.00    0.48759   0.60290    0.000
 6737.00    0.49249   0.60204    0.000
 6738.00    0.49997   0.60118    0.000
 6739.00    0.51267   0.60031    0.000
 6740.00    0.53040   0.59948    0.000
 6741.00    0.55701   0.59867    0.000
 6742.00    0.58657   0.59793    0.000
 6743.00    0.62070   0.59722    0.000
 6744.00    0.61887   0.59659    0.000
 6745.00    0.56841   0.59606    0.000
 6746.00    0.50729   0.59564    0.000
 6747.00    0.43346   0.59541    0.000
 6748.00    0.42255   0.59536    0.000
 6749.00    0.47769   0.59557    0.000
 6750.00    0.52090   0.59600    0.000
 6751.00    0.55307   0.59671    0.000
 6752.00    0.61635   0.59761    0.000
 6753.00    0.70502   0.59867    0.006
 6754.00    0.74348   0.59982    0.006
 6755.00    0.74587   0.60094    0.006
 6756.00    0.71106   0.60200    0.006
 6757.00    0.65279   0.60284    0.006
 6758.00    0.57127   0.60347    0.006
 6759.00    0.47694   0.60378    0.006
 6760.00    0.44501   0.60380    0.006
 6761.00    0.44297   0.60354    0.006
 6762.00    0.49413   0.60305    0.007
 6763.00    0.56730   0.60243    0.007
 6764.00    0.68643   0.60175    0.007
 6765.00    0.82180   0.60115    0.007
 6766.00    0.83398   0.60069    0.007
 6767.00    0.80939   0.60048    0.007
 6768.00    0.78333   0.60052    0.006
 6769.00    0.75691   0.60086    0.006
 6770.00    0.76964   0.60142    0.006
 6771.00    0.79022   0.60214    0.006
 6772.00    0.75062   0.60293    0.006
 6773.00    0.70157   0.60363    0.006
 6774.00    0.66312   0.60417    0.006
 6775.00    0.62591   0.60440    0.006
 6776.00    0.51179   0.60430    0.006
 6777.00    0.39160   0.60381    0.006
 6778.00    0.38415   0.60298    0.006
 6779.00    0.38161   0.60187    0.006
 6780.00    0.46661   0.60057    0.006
 6781.00    0.55003   0.59925    0.006
 6782.00    0.51685   0.59796    0.006
 6783.00    0.48743   0.59687    0.006
 6784.00    0.52582   0.59600    0.006
 6785.00    0.57285   0.59541    0.006
 6786.00    0.71450   0.59507    0.006
 6787.00    0.83565   0.59495    0.006
 6788.00    0.79918   0.59501    0.006
 6789.00    0.76906   0.59516    0.006
 6790.00    0.77596   0.59540    0.006
 6791.00    0.76592   0.59564    0.006
 6792.00    0.67755   0.59594    0.006
 6793.00    0.60232   0.59621    0.006
 6794.00    0.57677   0.59654    0.006
 6795.00    0.54950   0.59684    0.006
 6796.00    0.51681   0.59717    0.006
 6797.00    0.49868   0.59748    0.006
 6798.00    0.51957   0.59776    0.006
 6799.00    0.55155   0.59799    0.006
 6800.00    0.60903   0.59813    0.006
 6801.00    0.64043   0.59820    0.006
 6802.00    0.61999   0.59815    0.006
 6803.00    0.59704   0.59804    0.006
 6804.00    0.56974   0.59783    0.006
 6805.00    0.54610   0.59759    0.006
 6806.00    0.52801   0.59730    0.006
 6807.00    0.52726   0.59701    0.006
 6808.00    0.54964   0.59672    0.006
 6809.00    0.58843   0.59647    0.006
 6810.00    0.64648   0.59627    0.006
 6811.00    0.67184   0.59615    0.006
 6812.00    0.66337   0.59610    0.006
 6813.00    0.64915   0.59614    0.006
 6814.00    0.62967   0.59627    0.006
 6815.00    0.61448   0.59648    0.006
 6816.00    0.60275   0.59677    0.006
 6817.00    0.56751   0.59711    0.006
 6818.00    0.51564   0.59747    0.006
 6819.00    0.47507   0.59783    0.006
 6820.00    0.44152   0.59813    0.006
 6821.00    0.41346   0.59838    0.006
 6822.00    0.38837   0.59853    0.006
 6823.00    0.41720   0.59858    0.006
 6824.00    0.47146   0.59853    0.006
 6825.00    0.50286   0.59840    0.006
 6826.00    0.52495   0.59821    0.006
 6827.00    0.49372   0.59794    0.006
 6828.00    0.44397   0.59762    0.006
 6829.00    0.47491   0.59722    0.006
 6830.00    0.52946   0.59671    0.006
 6831.00    0.51674   0.59608    0.006
 6832.00    0.48772   0.59526    0.006
 6833.00    0.49471   0.59429    0.006
 6834.00    0.50874   0.59314    0.006
 6835.00    0.52538   0.59189    0.006
 6836.00    0.54243   0.59059    0.006
 6837.00    0.55116   0.58937    0.006
 6838.00    0.55895   0.58832    0.006
 6839.00    0.52722   0.58753    0.006
 6840.00    0.49253   0.58709    0.006
 6841.00    0.45394   0.58700    0.006
 6842.00    0.41520   0.58724    0.006
 6843.00    0.44989   0.58772    0.006
 6844.00    0.48785   0.58835    0.006
 6845.00    0.63577   0.58898    0.006
 6846.00    0.76916   0.58952    0.006
 6847.00    0.65690   0.58984    0.006
 6848.00    0.55429   0.58989    0.006
 6849.00    0.55249   0.58965    0.006
 6850.00    0.54284   0.58913    0.006
 6851.00    0.47486   0.58839    0.006
 6852.00    0.42621   0.58751    0.006
 6853.00    0.48713   0.58658    0.006
 6854.00    0.55299   0.58568    0.006
 6855.00    0.64121   0.58490    0.006
 6856.00    0.70961   0.58430    0.006
 6857.00    0.70467   0.58389    0.006
 6858.00    0.69538   0.58369    0.006
 6859.00    0.67257   0.58365    0.006
 6860.00    0.64566   0.58375    0.006
 6861.00    0.60792   0.58391    0.006
 6862.00    0.56988   0.58412    0.006
 6863.00    0.53114   0.58429    0.006
 6864.00    0.50497   0.58443    0.006
 6865.00    0.50342   0.58451    0.006
 6866.00    0.49834   0.58456    0.006
 6867.00    0.48726   0.58460    0.006
 6868.00    0.50009   0.58464    0.006
 6869.00    0.54867   0.58474    0.006
 6870.00    0.56411   0.58489    0.006
 6871.00    0.53603   0.58513    0.006
 6872.00    0.53691   0.58540    0.006
 6873.00    0.57131   0.58573    0.006
 6874.00    0.57691   0.58605    0.006
 6875.00    0.55311   0.58635    0.006
 6876.00    0.52256   0.58659    0.006
 6877.00    0.48591   0.58678    0.006
 6878.00    0.47823   0.58694    0.006
 6879.00    0.49351   0.58708    0.006
 6880.00    0.52656   0.58727    0.006
 6881.00    0.57202   0.58752    0.006
 6882.00    0.55007   0.58790    0.006
 6883.00    0.48685   0.58840    0.006
 6884.00    0.50691   0.58904    0.006
 6885.00    0.57147   0.58977    0.006
 6886.00    0.59029   0.59056    0.006
 6887.00    0.58789   0.59135    0.006
 6888.00    0.60591   0.59209    0.006
 6889.00    0.63208   0.59274    0.006
 6890.00    0.62409   0.59325    0.006
 6891.00    0.60446   0.59363    0.006
 6892.00    0.56026   0.59389    0.006
 6893.00    0.50901   0.59405    0.006
 6894.00    0.48969   0.59416    0.006
 6895.00    0.47793   0.59424    0.006
 6896.00    0.47716   0.59434    0.006
 6897.00    0.47849   0.59447    0.006
 6898.00    0.50425   0.59466    0.006
 6899.00    0.53362   0.59489    0.006
 6900.00    0.58272   0.59516    0.006
 6901.00    0.63395   0.59542    0.006
 6902.00    0.62280   0.59566    0.006
 6903.00    0.60726   0.59583    0.006
 6904.00    0.54479   0.59587    0.006
 6905.00    0.48064   0.59577    0.006
 6906.00    0.46295   0.59549    0.006
 6907.00    0.44703   0.59503    0.006
 6908.00    0.48722   0.59441    0.006
 6909.00    0.52427   0.59367    0.006
 6910.00    0.51170   0.59285    0.006
 6911.00    0.50123   0.59202    0.006
 6912.00    0.51184   0.59124    0.006
 6913.00    0.51744   0.59057    0.006
 6914.00    0.48703   0.59003    0.006
 6915.00    0.47279   0.58963    0.006
 6916.00    0.54773   0.58934    0.006
 6917.00    0.61184   0.58916    0.006
 6918.00    0.62818   0.58903    0.006
 6919.00    0.61976   0.58891    0.006
 6920.00    0.52157   0.58879    0.006
 6921.00    0.44044   0.58865    0.006
 6922.00    0.41116   0.58851    0.006
 6923.00    0.40302   0.58838    0.006
 6924.00    0.44951   0.58830    0.006
 6925.00    0.48412   0.58826    0.006
 6926.00    0.49230   0.58830    0.006
 6927.00    0.51028   0.58840    0.006
 6928.00    0.54717   0.58857    0.006
 6929.00    0.57491   0.58877    0.006
 6930.00    0.58729   0.58902    0.006
 6931.00    0.58344   0.58927    0.006
 6932.00    0.55567   0.58952    0.006
 6933.00    0.53555   0.58973    0.006
 6934.00    0.52535   0.58990    0.006
 6935.00    0.53568   0.58998    0.006
 6936.00    0.56945   0.58999    0.006
 6937.00    0.57747   0.58986    0.006
 6938.00    0.55957   0.58963    0.006
 6939.00    0.56570   0.58929    0.006
 6940.00    0.59315   0.58886    0.006
 6941.00    0.59525   0.58838    0.006
 6942.00    0.57752   0.58788    0.006
 6943.00    0.53236   0.58743    0.006
 6944.00    0.46835   0.58704    0.006
 6945.00    0.45466   0.58673    0.006
 6946.00    0.47129   0.58653    0.006
 6947.00    0.53573   0.58642    0.006
 6948.00    0.62532   0.58641    0.006
 6949.00    0.59986   0.58650    0.006
 6950.00    0.52189   0.58669    0.006
 6951.00    0.49526   0.58697    0.006
 6952.00    0.48880   0.58736    0.006
 6953.00    0.50005   0.58784    0.006
 6954.00    0.51722   0.58841    0.006
 6955.00    0.54790   0.58904    0.006
 6956.00    0.58237   0.58972    0.006
 6957.00    0.50818   0.59041    0.006
 6958.00    0.40886   0.59107    0.006
 6959.00    0.48534   0.59168    0.006
 6960.00    0.59446   0.59221    0.006
 6961.00    0.67356   0.59264    0.006
 6962.00    0.74837   0.59295    0.006
 6963.00    0.67132   0.59312    0.006
 6964.00    0.57855   0.59314    0.006
 6965.00    0.48807   0.59298    0.006
 6966.00    0.39773   0.59260    0.006
 6967.00    0.41808   0.59200    0.006
 6968.00    0.44197   0.59113    0.006
 6969.00    0.40104   0.59001    0.006
 6970.00    0.36371   0.58865    0.006
 6971.00    0.43675   0.58711    0.006
 6972.00    0.50313   0.58546    0.006
 6973.00    0.47040   0.58383    0.006
 6974.00    0.44368   0.58236    0.006
 6975.00    0.47477   0.58118    0.006
 6976.00    0.51172   0.58040    0.006
 6977.00    0.58947   0.58011    0.006
 6978.00    0.64267   0.58033    0.006
 6979.00    0.56406   0.58100    0.006
 6980.00    0.50329   0.58206    0.006
 6981.00    0.51935   0.58336    0.006
 6982.00    0.52702   0.58477    0.006
 6983.00    0.50494   0.58615    0.006
 6984.00    0.51422   0.58740    0.006
 6985.00    0.61700   0.58845    0.006
 6986.00    0.68726   0.58926    0.006
 6987.00    0.67493   0.58983    0.006
 6988.00    0.62679   0.59016    0.006
 6989.00    0.50037   0.59030    0.006
 6990.00    0.41919   0.59025    0.006
 6991.00    0.42381   0.59004    0.006
 6992.00    0.43515   0.58967    0.006
 6993.00    0.45759   0.58917    0.006
 6994.00    0.42505   0.58854    0.006
 6995.00    0.31274   0.58781    0.006
 6996.00    0.26731   0.58699    0.006
 6997.00    0.30727   0.58615    0.006
 6998.00    0.36741   0.58531    0.006
 6999.00    0.45025   0.58453    0.006
 7000.00    0.48584   0.58382    0.006
 7001.00    0.47457   0.58324    0.006
 7002.00    0.51288   0.58278    0.006
 7003.00    0.59458   0.58244    0.006
 7004.00    0.61244   0.58221    0.006
 7005.00    0.58109   0.58204    0.006
 7006.00    0.55721   0.58189    0.006
 7007.00    0.53840   0.58171    0.006
 7008.00    0.55114   0.58148    0.006
 7009.00    0.58260   0.58116    0.006
 7010.00    0.53917   0.58078    0.006
 7011.00    0.45695   0.58034    0.006
 7012.00    0.44268   0.57991    0.006
 7013.00    0.45891   0.57951    0.007
 7014.00    0.48374   0.57921    0.007
 7015.00    0.51188   0.57903    0.007
 7016.00    0.49370   0.57899    0.006
 7017.00    0.46032   0.57908    0.006
 7018.00    0.47747   0.57928    0.007
 7019.00    0.50853   0.57956    0.007
 7020.00    0.53794   0.57988    0.007
 7021.00    0.56697   0.58026    0.007
 7022.00    0.55361   0.58066    0.006
 7023.00    0.53259   0.58110    0.006
 7024.00    0.49090   0.58158    0.006
 7025.00    0.44635   0.58210    0.006
 7026.00    0.50431   0.58263    0.006
 7027.00    0.57245   0.58319    0.006
 7028.00    0.60250   0.58372    0.006
 7029.00    0.63016   0.58422    0.007
 7030.00    0.55981   0.58469    0.007
 7031.00    0.48678   0.58513    0.007
 7032.00    0.43818   0.58558    0.007
 7033.00    0.39305   0.58608    0.007
 7034.00    0.44339   0.58667    0.007
 7035.00    0.48693   0.58741    0.007
 7036.00    0.43516   0.58830    0.007
 7037.00    0.39350   0.58935    0.007
 7038.00    0.44519   0.59053    0.007
 7039.00    0.49189   0.59175    0.007
 7040.00    0.50501   0.59294    0.006
 7041.00    0.52774   0.59398    0.006
 7042.00    0.60063   0.59476    0.006
 7043.00    0.65126   0.59518    0.006
 7044.00    0.60819   0.59513    0.006
 7045.00    0.56780   0.59457    0.006
 7046.00    0.53675   0.59344    0.006
 7047.00    0.50754   0.59178    0.006
 7048.00    0.48369   0.58962    0.007
 7049.00    0.47720   0.58704    0.007
 7050.00    0.51405   0.58416   -2.000
 7051.00    0.56270   0.58111   -2.000
 7052.00    0.63675   0.57804   -2.000
 7053.00    0.66344   0.57507   -2.000
 7054.00    0.60169   0.57230   -2.000
 7055.00    0.57257   0.56981   -2.000
 7056.00    0.59671   0.56765   -2.000
 7057.00    0.58139   0.56582   -2.000
 7058.00    0.50963   0.56430   -2.000
 7059.00    0.49835   0.56307   -2.000
 7060.00    0.56315   0.56209   -2.000
 7061.00    0.59797   0.56134   -2.000
 7062.00    0.59952   0.56077   -2.000
 7063.00    0.53115   0.56040   -2.000
 7064.00    0.39440   0.56020   -2.000
 7065.00    0.36080   0.56020   -2.000
 7066.00    0.41617   0.56040   -2.000
 7067.00    0.51674   0.56079   -2.000
 7068.00    0.65166   0.56136   -2.000
 7069.00    0.67566   0.56205   -2.000
 7070.00    0.62558   0.56283   -2.000
 7071.00    0.62259   0.56359   -2.000
 7072.00    0.64715   0.56426   -2.000
 7073.00    0.67321   0.56473   -2.000
 7074.00    0.70004   0.56493   -2.000
 7075.00    0.62576   0.56478   -2.000
 7076.00    0.50684   0.56420   -2.000
 7077.00    0.52165   0.56318   -2.000
 7078.00    0.58716   0.56170   -2.000
 7079.00    0.54239   0.55979   -2.000
 7080.00    0.46212   0.55750   -2.000
 7081.00    0.50885   0.55493   -2.000
 7082.00    0.58980   0.55217   -2.000
 7083.00    0.62267   0.54935   -2.000
 7084.00    0.64492   0.54658   -2.000
 7085.00    0.60369   0.54400   -2.000
 7086.00    0.55130   0.54167   -2.000
 7087.00    0.63445   0.53970   -2.000
 7088.00    0.73574   0.53811   -2.000
 7089.00    0.67692   0.53695   -2.000
 7090.00    0.60287   0.53618   -2.000
 7091.00    0.58790   0.53583   -2.000
 7092.00    0.57640   0.53580   -2.000
 7093.00    0.55448   0.53611   -2.000
 7094.00    0.53206   0.53663   -2.000
 7095.00    0.47528   0.53737   -2.000
 7096.00    0.42333   0.53820   -2.000
 7097.00    0.49142   0.53910   -2.000
 7098.00    0.55174   0.53998   -2.000
 7099.00    0.50881   0.54080   -2.000
 7100.00    0.47771   0.54152   -2.000
 7101.00    0.55146   0.54207   -2.000
 7102.00    0.60979   0.54250   -2.000
 7103.00    0.56738   0.54274   -2.000
 7104.00    0.53184   0.54286   -2.000
 7105.00    0.53127   0.54283   -2.000
 7106.00    0.52518   0.54275   -2.000
 7107.00    0.49640   0.54261   -2.000
 7108.00    0.47524   0.54249   -2.000
 7109.00    0.48008   0.54239   -2.000
 7110.00    0.49538   0.54237   -2.000
 7111.00    0.54076   0.54241   -2.000
 7112.00    0.54396   0.54250   -2.000
 7113.00    0.44367   0.54262   -2.000
 7114.00    0.39644   0.54272   -2.000
 7115.00    0.46150   0.54276   -2.000
 7116.00    0.50564   0.54268   -2.000
 7117.00    0.51134   0.54245   -2.000
 7118.00    0.49250   0.54203   -2.000
 7119.00    0.43422   0.54142   -2.000
 7120.00    0.44576   0.54062   -2.000
 7121.00    0.55573   0.53965   -2.000
 7122.00    0.67277   0.53857   -2.000
 7123.00    0.79857   0.53739   -2.000
 7124.00    0.89701   0.53624   -2.000
 7125.00    0.96551   0.53513   -2.000
 7126.00    0.96592   0.53418   -2.000
 7127.00    0.90066   0.53342   -2.000
 7128.00    0.70947   0.53291   -2.000
 7129.00    0.41118   0.53269   -2.000
 7130.00    0.33088   0.53274   -2.000
 7131.00    0.41382   0.53306   -2.000
 7132.00    0.45061   0.53357   -2.000
 7133.00    0.45702   0.53424   -2.000
 7134.00    0.51414   0.53495   -2.000
 7135.00    0.60048   0.53566   -2.000
 7136.00    0.55658   0.53629   -2.000
 7137.00    0.44734   0.53677   -2.000
 7138.00    0.51612   0.53708   -2.000
 7139.00    0.66222   0.53720   -2.000
 7140.00    0.54424   0.53716   -2.000
 7141.00    0.32790   0.53697   -2.000
 7142.00    0.35348   0.53669   -2.000
 7143.00    0.45549   0.53640   -2.000
 7144.00    0.51260   0.53615   -2.000
 7145.00    0.55787   0.53603   -2.000
 7146.00    0.49639   0.53608   -2.000
 7147.00    0.41190   0.53634   -2.000
 7148.00    0.46592   0.53681   -2.000
 7149.00    0.54362   0.53747   -2.000
 7150.00    0.56291   0.53825   -2.000
 7151.00    0.57464   0.53909   -2.000
 7152.00    0.51794   0.53988   -2.000
 7153.00    0.45503   0.54056   -2.000
 7154.00    0.48058   0.54105   -2.000
 7155.00    0.51097   0.54128   -2.000
 7156.00    0.58520   0.54126   -2.000
 7157.00    0.66056   0.54099   -2.000
 7158.00    0.75592   0.54054   -2.000
 7159.00    0.84549   0.53996   -2.000
 7160.00    0.80394   0.53938   -2.000
 7161.00    0.76285   0.53886   -2.000
 7162.00    0.72756   0.53852   -2.000
 7163.00    0.66818   0.53840   -2.000
 7164.00    0.40328   0.53854   -2.000
 7165.00    0.20052   0.53894   -2.000
 7166.00    0.39162   0.53954   -2.000
 7167.00    0.57245   0.54027   -2.000
 7168.00    0.70227   0.54104   -2.000
 7169.00    0.79167   0.54177   -2.000
 7170.00    0.71832   0.54233   -2.000
 7171.00    0.62194   0.54269   -2.000
 7172.00    0.44859   0.54279   -2.000
 7173.00    0.31906   0.54263   -2.000
 7174.00    0.31315   0.54222   -2.000
 7175.00    0.35933   0.54161   -2.000
 7176.00    0.53114   0.54084   -2.000
 7177.00    0.62895   0.53997   -2.000
 7178.00    0.57268   0.53906   -2.000
 7179.00    0.61242   0.53812   -2.000
 7180.00    0.82600   0.53721   -2.000
 7181.00    0.87137   0.53633   -2.000
 7182.00    0.65048   0.53550   -2.000
 7183.00    0.50547   0.53474   -2.000
 7184.00    0.46587   0.53406   -2.000
 7185.00    0.50292   0.53349   -2.000
 7186.00    0.63371   0.53303   -2.000
 7187.00    0.73554   0.53274   -2.000
 7188.00    0.80614   0.53258   -2.000
 7189.00    0.78245   0.53262   -2.000
 7190.00    0.66910   0.53278   -2.000
 7191.00    0.61999   0.53308   -2.000
 7192.00    0.62475   0.53347   -2.000
 7193.00    0.54219   0.53389   -2.000
 7194.00    0.39519   0.53434   -2.000
 7195.00    0.38676   0.53471   -2.000
 7196.00    0.46818   0.53503   -2.000
 7197.00    0.51670   0.53521   -2.000
 7198.00    0.54657   0.53530   -2.000
 7199.00    0.69322   0.53522   -2.000
 7200.00    0.89754   0.53507   -2.000
 7201.00    0.93357   0.53477   -2.000
 7202.00    0.89775   0.53446   -2.000
 7203.00    0.61258   0.53412   -2.000
 7204.00    0.23618   0.53384   -2.000
 7205.00    0.20753   0.53366   -2.000
 7206.00    0.28662   0.53361   -2.000
 7207.00    0.30420   0.53377   -2.000
 7208.00    0.30592   0.53407   -2.000
 7209.00    0.46270   0.53458   -2.000
 7210.00    0.65210   0.53521   -2.000
 7211.00    0.71148   0.53595   -2.000
 7212.00    0.74925   0.53676   -2.000
 7213.00    0.59493   0.53758   -2.000
 7214.00    0.41660   0.53840   -2.000
 7215.00    0.35852   0.53919   -2.000
 7216.00    0.31085   0.53995   -2.000
 7217.00    0.38529   0.54069   -2.000
 7218.00    0.46594   0.54141   -2.000
