###################################################################
## OUTPUT of StarlightChains_v04.for    [Cid@UFSC - 01/Apr/2007] ##
###################################################################

## Some input info
KUG0210-078._48_50.txt                   [arq_obs]
Base.CB07.vall.4m                        [arq_base]
Masks.EmLines.NEW.gm                     [arq_masks]
StCv04.C11.config                        [arq_config]
   66                                    [N_base]
    0                                    [N_YAV_components = # of components with extra extinction!]
    0                                    [i_FitPowerLaw (1/0 = Yes/No)]
-9.99                                    [alpha_PowerLaw]
CCM                                      [red_law_option]
 1.458241                                [q_norm = A(l_norm)/A(V)]

## (Re)Sampling Parameters
 3741.00                                 [l_ini (A)]
 7218.00                                 [l_fin (A)]
    1.00                                 [dl    (A)]     (OBS: dl_cushion =    50.00 A)

## Normalization info
 4020.00                                 [l_norm (A) - for base]
 4010.00                                 [llow_norm (A) - window for f_obs]
 4060.00                                 [lupp_norm (A) - window for f_obs]
1.015671E-17                             [fobs_norm (in input units)]

## S/N
 3691.00                                 [llow_SN (A) - window for S/N]
 7268.00                                 [lupp_SN (A) - window for S/N]
   2.148                                 [S/N in S/N window]
   3.189                                 [S/N in norm. window]
   0.010                                 [S/N_err in S/N window]
   0.014                                 [S/N_err in norm. window]
  1.0000                                 [fscale_chi2]

## etc...
    -2007937                             [idum_orig]
  2406                                   [NOl_eff]
  2142                                   [Nl_eff]
   264    NSIGMA                         [Ntot_cliped & clip_method]
 10034080                                [Nglobal_steps]
   7                                     [N_chains]
  10                                     [NEX0s_base = N_base in EX0s-fits]
 0   0   1      264   2.0   7.348E+03    [Clip-Bug, RC-Crash & Burn-In warning-flags, n_censored_weights, wei_nsig_threshold & wei_limit]
    79     78.342     77.825      0.517  [idt_all, wdt_TotTime, wdt_UsrTime & wdt_SysTime (sec)]

## Synthesis Results - Best model ##

 1.18528E-04                             [chi2/Nl_eff]
    28.31619                             [adev (%)]

    70.00000                             [sum-of-x (%)]
 2.19902E-18                             [Flux_tot (units of input spectrum!)]
 2.19828E-13                             [Mini_tot (???)]
 1.08728E-13                             [Mcor_tot (???)]

 145.95                                  [v0_min  (km/s)]
   3.97                                  [vd_min  (km/s)]
-0.8737                                  [AV_min  (mag)]
 0.0000                                  [YAV_min (mag)]

# j     x_j(%)      Mini_j(%)     Mcor_j(%)     age_j(yr)     Z_j      (L/M)_j    YAV?  Mstars   component_j        a/Fe...       SSP_chi2r SSP_adev(%)   SSP_AV   SSP_x(%)
  1      0.0000     0.0000E+00    0.0000E+00    1.000000E+06  0.00400  1.094E-02    0   1.0000   age020_m42            0.0000     1.1770E-04    28.9298   3.3614    43.1390
  2      0.0000     0.0000E+00    0.0000E+00    3.160000E+06  0.00400  4.007E-02    0   0.9999   age045_m42            0.0000     1.2645E-04    31.1542   2.9069    40.7900
  3      0.0000     0.0000E+00    0.0000E+00    5.010000E+06  0.00400  2.539E-02    0   0.9488   age055_m42            0.0000     1.2642E-04    30.9722   3.2213    39.6906
  4      0.0000     0.0000E+00    0.0000E+00    6.610000E+06  0.00400  2.620E-02    0   0.9220   age061_m42            0.0000     1.2990E-04    32.1292   2.9380    38.7466
  5      0.0000     0.0000E+00    0.0000E+00    1.000000E+07  0.00400  1.322E-02    0   0.8862   age070_m42            0.0000     1.2961E-04    33.1480   2.6269    39.7464
  6      0.0000     0.0000E+00    0.0000E+00    1.445000E+07  0.00400  7.883E-03    0   0.8571   age078_m42            0.0000     1.2885E-04    32.7210   2.9312    39.1068
  7      0.0000     0.0000E+00    0.0000E+00    2.512000E+07  0.00400  5.251E-03    0   0.8174   age090_m42            0.0000     1.3030E-04    33.5543   2.5145    39.5513
  8      0.0000     0.0000E+00    0.0000E+00    4.000000E+07  0.00400  3.649E-03    0   0.7851   age104_m42            0.0000     1.3086E-04    33.6095   2.3067    39.5723
  9      0.0000     0.0000E+00    0.0000E+00    5.500000E+07  0.00400  3.098E-03    0   0.7629   age110_m42            0.0000     1.3257E-04    33.7270   2.5300    38.5294
 10      0.0000     0.0000E+00    0.0000E+00    1.015200E+08  0.00400  2.228E-03    0   0.7207   age116_m42            0.0000     1.3383E-04    33.7911   2.5913    37.9551
 11      0.0000     0.0000E+00    0.0000E+00    2.861200E+08  0.00400  1.093E-03    0   0.6648   age125_m42            0.0000     1.3463E-04    34.9085   2.0326    38.6682
 12      0.0000     0.0000E+00    0.0000E+00    5.088000E+08  0.00400  6.597E-04    0   0.6365   age130_m42            0.0000     1.3596E-04    34.8884   2.0902    38.0598
 13      0.0000     0.0000E+00    0.0000E+00    1.434000E+09  0.00400  2.132E-04    0   0.5798   age139_m42            0.0000     1.3286E-04    33.6715   1.0417    40.5141
 14      0.0000     0.0000E+00    0.0000E+00    4.250000E+09  0.00400  5.895E-05    0   0.5377   age158_m42            0.0000     1.2740E-04    31.5227   0.4714    41.8174
 15      0.0000     0.0000E+00    0.0000E+00    7.500000E+09  0.00400  3.510E-05    0   0.5212   age171_m42            0.0000     1.2641E-04    31.0789   0.2621    42.0665
 16      0.0000     0.0000E+00    0.0000E+00    1.300000E+10  0.00400  2.005E-05    0   0.5034   age193_m42            0.0000     1.2499E-04    30.5910   0.0583    42.6820
 17      0.0000     0.0000E+00    0.0000E+00    1.800000E+10  0.00400  1.525E-05    0   0.4967   age213_m42            0.0000     1.2507E-04    30.2721  -0.0007    42.7566
 18      0.0000     0.0000E+00    0.0000E+00    1.000000E+06  0.00800  1.238E-02    0   1.0000   age020_m52            0.0000     1.1779E-04    28.9170   3.3577    43.2196
 19      0.0000     0.0000E+00    0.0000E+00    3.160000E+06  0.00800  3.074E-02    0   0.9966   age045_m52            0.0000     1.1975E-04    29.2635   3.3422    42.4686
 20      0.0000     0.0000E+00    0.0000E+00    5.010000E+06  0.00800  2.668E-02    0   0.9443   age055_m52            0.0000     1.2555E-04    30.7717   3.2786    39.8335
 21      0.0000     0.0000E+00    0.0000E+00    6.610000E+06  0.00800  2.136E-02    0   0.9177   age061_m52            0.0000     1.2629E-04    32.0700   2.0377    41.9871
 22      0.0000     0.0000E+00    0.0000E+00    1.000000E+07  0.00800  1.215E-02    0   0.8827   age070_m52            0.0000     1.2900E-04    33.3194   2.7753    40.0117
 23      0.0000     0.0000E+00    0.0000E+00    1.445000E+07  0.00800  8.717E-03    0   0.8552   age078_m52            0.0000     1.2928E-04    32.8807   2.9069    39.4248
 24      0.0000     0.0000E+00    0.0000E+00    2.512000E+07  0.00800  5.592E-03    0   0.8162   age090_m52            0.0000     1.3085E-04    33.8555   2.5913    39.7029
 25      0.0000     0.0000E+00    0.0000E+00    4.000000E+07  0.00800  3.896E-03    0   0.7841   age104_m52            0.0000     1.3186E-04    34.0588   2.5433    39.3906
 26      0.0000     0.0000E+00    0.0000E+00    1.015200E+08  0.00800  2.148E-03    0   0.7226   age116_m52            0.0000     1.3292E-04    33.8840   2.5278    38.7242
 27      0.0000     0.0000E+00    0.0000E+00    2.861200E+08  0.00800  9.925E-04    0   0.6683   age125_m52            0.0000     1.3574E-04    34.6721   2.1368    38.7223
 28      0.0000     0.0000E+00    0.0000E+00    9.047900E+08  0.00800  3.141E-04    0   0.6138   age135_m52            0.0000     1.3456E-04    34.0418   1.3415    40.5404
 29      0.0000     0.0000E+00    0.0000E+00    1.434000E+09  0.00800  1.719E-04    0   0.5853   age139_m52            0.0000     1.3010E-04    32.7477   0.6193    42.6330
 30      0.0000     0.0000E+00    0.0000E+00    2.500000E+09  0.00800  7.872E-05    0   0.5600   age150_m52            0.0000     1.2773E-04    31.2041   0.3037    42.8254
 31      0.0000     0.0000E+00    0.0000E+00    4.250000E+09  0.00800  4.336E-05    0   0.5426   age158_m52            0.0000     1.2671E-04    30.9215   0.2646    42.8869
 32      0.0000     0.0000E+00    0.0000E+00    6.250000E+09  0.00800  3.159E-05    0   0.5319   age166_m52            0.0000     1.2578E-04    29.9483  -0.0005    43.8921
 33      0.0000     0.0000E+00    0.0000E+00    1.300000E+10  0.00800  1.361E-05    0   0.5073   age193_m52            0.0000     1.2449E-04    29.5357  -0.4752    44.4670
 34      0.0000     0.0000E+00    0.0000E+00    1.800000E+10  0.00800  9.886E-06    0   0.4990   age213_m52            0.0000     1.2410E-04    29.0839  -0.5991    44.8042
 35      0.0000     0.0000E+00    0.0000E+00    1.000000E+06  0.02000  1.544E-02    0   1.0000   age020_m62            0.0000     1.1719E-04    28.7648   3.3304    43.7768
 36      0.0000     0.0000E+00    0.0000E+00    3.160000E+06  0.02000  3.762E-02    0   0.9858   age045_m62            0.0000     1.2214E-04    29.6664   3.4176    41.1131
 37      0.0000     0.0000E+00    0.0000E+00    5.010000E+06  0.02000  3.296E-02    0   0.9342   age055_m62            0.0000     1.2831E-04    31.3279   3.2414    39.1436
 38      0.0000     0.0000E+00    0.0000E+00    8.710000E+06  0.02000  1.154E-02    0   0.8861   age067_m62            0.0000     1.2614E-04    35.0297   2.0797    43.0651
 39      0.0000     0.0000E+00    0.0000E+00    1.445000E+07  0.02000  7.663E-03    0   0.8472   age078_m62            0.0000     1.2860E-04    34.1136   2.3903    41.1307
 40      0.0000     0.0000E+00    0.0000E+00    2.512000E+07  0.02000  4.532E-03    0   0.8099   age090_m62            0.0000     1.2912E-04    34.4266   2.3857    40.8744
 41      0.0000     0.0000E+00    0.0000E+00    5.500000E+07  0.02000  2.733E-03    0   0.7595   age110_m62            0.0000     1.3084E-04    33.6977   2.4899    39.8067
 42      0.0000     0.0000E+00    0.0000E+00    1.609000E+08  0.02000  1.369E-03    0   0.6985   age120_m62            0.0000     1.3460E-04    34.2910   2.4524    38.8945
 43      0.0000     0.0000E+00    0.0000E+00    2.861200E+08  0.02000  9.013E-04    0   0.6714   age125_m62            0.0000     1.3654E-04    34.7712   2.2793    38.8371
 44      0.0000     0.0000E+00    0.0000E+00    5.088000E+08  0.02000  5.028E-04    0   0.6449   age130_m62            0.0000     1.3713E-04    34.5030   1.9586    39.1017
 45      0.0000     0.0000E+00    0.0000E+00    9.047900E+08  0.02000  2.428E-04    0   0.6179   age135_m62            0.0000     1.3303E-04    32.9681   1.2565    41.1723
 46      0.0000     0.0000E+00    0.0000E+00    1.434000E+09  0.02000  1.263E-04    0   0.5908   age139_m62            0.0000     1.2930E-04    31.8153   0.7139    42.7271
 47      0.0000     0.0000E+00    0.0000E+00    2.500000E+09  0.02000  5.985E-05    0   0.5673   age150_m62            0.0000     1.2652E-04    30.4569   0.2641    44.0817
 48      0.0000     0.0000E+00    0.0000E+00    4.250000E+09  0.02000  3.271E-05    0   0.5468   age158_m62            0.0000     1.2441E-04    29.4159  -0.1038    45.3502
 49      0.0000     0.0000E+00    0.0000E+00    1.000000E+10  0.02000  1.360E-05    0   0.5167   age181_m62            0.0000     1.2304E-04    28.4641  -0.5188    46.8636
 50      0.0000     0.0000E+00    0.0000E+00    1.800000E+10  0.02000  7.124E-06    0   0.5013   age213_m62            0.0000     1.2268E-04    27.7891  -0.7740    47.6712
 51     38.3284     2.1132E-02    4.2716E-02    1.000000E+06  0.05000  2.592E-02    0   0.9998   age020_m72            0.0000     1.1504E-04    28.4211   3.2585    45.1976
 52      0.0000     0.0000E+00    0.0000E+00    3.160000E+06  0.05000  4.845E-02    0   0.9577   age045_m72            0.0000     1.2503E-04    30.2694   3.3925    39.9982
 53      0.0000     0.0000E+00    0.0000E+00    5.010000E+06  0.05000  3.072E-02    0   0.9147   age055_m72            0.0000     1.2697E-04    32.9308   2.9284    40.5855
 54      0.0000     0.0000E+00    0.0000E+00    6.610000E+06  0.05000  1.455E-02    0   0.8877   age061_m72            0.0000     1.2702E-04    37.5040   2.0687    43.3940
 55      0.0000     0.0000E+00    0.0000E+00    1.000000E+07  0.05000  9.074E-03    0   0.8524   age070_m72            0.0000     1.2826E-04    33.7301   3.1079    39.9367
 56      0.0000     0.0000E+00    0.0000E+00    2.512000E+07  0.05000  4.250E-03    0   0.7902   age090_m72            0.0000     1.3029E-04    34.1698   2.8959    39.4911
 57      0.0000     0.0000E+00    0.0000E+00    4.000000E+07  0.05000  3.087E-03    0   0.7618   age104_m72            0.0000     1.3133E-04    34.7580   2.6940    39.6625
 58      0.0000     0.0000E+00    0.0000E+00    1.015200E+08  0.05000  1.700E-03    0   0.7096   age116_m72            0.0000     1.3410E-04    34.5459   2.5625    39.1076
 59      0.0000     0.0000E+00    0.0000E+00    2.861200E+08  0.05000  7.384E-04    0   0.6633   age125_m72            0.0000     1.3679E-04    34.6607   2.1751    39.0560
 60      0.0000     0.0000E+00    0.0000E+00    5.088000E+08  0.05000  3.819E-04    0   0.6372   age130_m72            0.0000     1.3400E-04    33.2970   1.6334    40.9873
 61      0.0000     0.0000E+00    0.0000E+00    9.047900E+08  0.05000  1.676E-04    0   0.6110   age135_m72            0.0000     1.2912E-04    31.0844   0.8125    43.1213
 62      0.0000     0.0000E+00    0.0000E+00    1.434000E+09  0.05000  8.837E-05    0   0.5874   age139_m72            0.0000     1.2673E-04    30.5378   0.2754    44.4958
 63      0.0000     0.0000E+00    0.0000E+00    2.500000E+09  0.05000  4.233E-05    0   0.5598   age150_m72            0.0000     1.2376E-04    29.0242  -0.1325    46.3490
 64      0.0000     0.0000E+00    0.0000E+00    6.250000E+09  0.05000  1.435E-05    0   0.5249   age166_m72            0.0000     1.2210E-04    28.0766  -0.6556    47.6105
 65      0.0000     0.0000E+00    0.0000E+00    1.300000E+10  0.05000  6.513E-06    0   0.5036   age193_m72            0.0000     1.2161E-04    27.3053  -0.9988    49.8137
 66     31.6716     9.9979E+01    9.9957E+01    1.800000E+10  0.05000  4.527E-06    0   0.4945   age213_m72            0.0000     1.2178E-04    29.2090  -1.0000    48.5006


## Synthesis Results - Average & Chains ##

# j      x_j: min, <> & last-chain-values for 1 ...  7 chains
  1      0.0000      2.4664      2.8039      2.6546      2.3423      2.3681      2.7254      2.1602      2.8557
  2      0.0000      0.2014      0.0640      0.0918      0.0036      0.0000      0.2351      0.0000      0.1413
  3      0.0000      0.2188      0.0451      0.1099      0.1656      0.0000      0.0452      0.6679      0.3520
  4      0.0000      0.2007      0.0000      0.2868      0.0000      0.0000      0.5922      0.4865      0.0000
  5      0.0000      0.2300      0.1431      0.3802      0.0251      0.0613      0.1570      0.0000      0.0000
  6      0.0000      0.1816      0.0303      0.0000      0.0942      0.0140      0.0000      0.9039      0.1295
  7      0.0000      0.2319      0.0996      0.0747      0.0413      0.0204      0.7275      0.2339      0.0737
  8      0.0000      0.1545      0.0000      0.1688      0.1078      0.1054      0.3473      0.0000      0.1469
  9      0.0000      0.1486      0.0838      0.1222      0.0000      0.0000      0.0767      0.0462      0.0000
 10      0.0000      0.2432      0.2480      0.1841      0.0573      0.0301      0.0393      0.0000      0.0145
 11      0.0000      0.2020      0.3225      0.1280      0.0000      0.0154      0.0000      0.2252      0.1330
 12      0.0000      0.2167      0.4074      0.3141      0.0338      0.0046      0.1834      0.4718      0.1477
 13      0.0000      0.1968      0.1846      0.0892      0.0061      0.0464      0.1115      0.0087      0.0917
 14      0.0000      0.1200      0.0309      0.0269      0.0000      0.0169      0.0000      0.1229      0.0188
 15      0.0000      0.1723      0.0826      0.1017      0.0394      0.0093      0.2036      0.0603      0.0834
 16      0.0000     18.6092     20.9702     18.4560     13.4748     18.3117     18.1090     18.5386     18.9143
 17      0.0000     10.0579      5.1054     10.5276     12.7504     11.7226     10.4611      8.8690     10.4682
 18      0.0000      0.1933      0.1408      0.1901      0.0000      0.0000      0.1001      1.0105      0.0000
 19      0.0000      0.1539      0.0359      0.0525      0.0036      0.0634      0.2387      0.3286      0.1478
 20      0.0000      0.2103      0.0569      0.0000      0.0224      0.0077      0.0000      0.0000      0.1445
 21      0.0000      0.1334      0.1051      0.0000      0.0099      0.0551      0.1920      0.0000      0.0120
 22      0.0000      0.2048      0.0525      0.1658      0.0000      0.0080      0.0000      0.3471      0.0584
 23      0.0000      0.1810      0.1539      0.1349      0.1474      0.0553      0.1159      0.1233      0.2413
 24      0.0000      0.1702      0.1008      0.3086      0.0735      0.0000      0.0000      0.0876      0.0000
 25      0.0000      0.1702      0.1743      0.0882      0.3174      0.0000      0.0952      0.2424      0.1084
 26      0.0000      0.1800      0.0879      0.0000      0.0820      0.0000      0.0506      0.0000      0.1532
 27      0.0000      0.1815      0.0324      0.0000      0.0296      0.0000      0.4018      0.6275      0.0000
 28      0.0000      0.1907      0.1703      0.0000      0.0000      0.0130      0.0000      0.0000      0.0480
 29      0.0000      0.2344      0.1750      0.0000      0.0546      0.0019      0.0000      0.2890      0.0000
 30      0.0000      0.1706      0.1352      0.0000      0.0000      0.0000      0.1401      0.0000      0.4977
 31      0.0000      0.1211      0.0027      0.0000      0.0000      0.0000      0.2025      0.1621      0.0912
 32      0.0000      0.1686      0.0280      0.2113      0.1097      0.0060      0.0248      0.4923      0.1176
 33      0.0000      0.2153      0.0000      0.0499      0.0000      0.0302      0.0000      0.0376      0.2071
 34      0.0000      1.1799      1.3975      1.3111      1.5699      0.2385      1.7870      0.9357      1.5382
 35      0.0000      0.1734      0.0000      0.0354      0.0035      0.0752      0.2063      0.0147      0.2347
 36      0.0000      0.1689      0.0834      0.3093      0.0000      0.0000      0.0000      0.6594      0.0000
 37      0.0000      0.1798      0.0728      0.0000      0.0000      0.0584      0.2805      0.0000      0.2427
 38      0.0000      0.2035      0.1090      0.0779      0.0336      0.0451      0.1716      1.0047      0.3020
 39      0.0000      0.1710      0.1045      0.4495      0.1602      0.0275      0.2012      0.0000      0.0000
 40      0.0000      0.2736      0.0723      0.1887      0.1221      0.0000      0.0556      0.5683      0.2792
 41      0.0000      0.1625      0.0000      0.0000      0.0431      0.0000      0.0426      0.3565      0.0000
 42      0.0000      0.1771      0.0070      0.1189      0.0162      0.0099      0.3265      1.4841      0.0316
 43      0.0000      0.2602      0.2084      0.0515      0.0023      0.0000      0.3356      0.1459      0.2932
 44      0.0000      0.1784      0.0157      0.2041      0.0487      0.0417      0.0557      0.0000      0.5254
 45      0.0000      0.2424      0.1386      0.0000      0.0693      0.0045      0.0947      0.4754      0.0932
 46      0.0000      0.2265      0.1874      0.2403      0.0000      0.0566      0.3289      0.3594      0.0835
 47      0.0000      0.2013      0.0879      0.0941      0.0000      0.0376      0.0250      0.3792      0.2694
 48      0.0000      0.1810      0.1287      0.1026      0.0783      0.1254      0.0000      0.0000      0.5309
 49      0.0000      0.2271      0.0036      0.2635      0.0479      0.0343      0.0000      0.0000      0.1010
 50      0.0000      0.2515      0.0000      0.1645      0.0001      0.0000      0.2292      1.0106      0.2425
 51     38.3284     59.0989     66.9371     61.9098     69.9103     69.1586     61.3409     51.1702     61.9591
 52      0.0000      0.3417      0.3140      0.1336      0.0391      0.0496      0.1757      0.7470      0.0108
 53      0.0000      0.1928      0.2189      0.1331      0.0521      0.0000      0.2777      0.0078      0.1516
 54      0.0000      0.2162      0.0482      0.1397      0.0313      0.0160      0.0000      0.4440      0.0000
 55      0.0000      0.1835      0.0624      0.0910      0.0769      0.0000      0.2575      0.9453      0.3534
 56      0.0000      0.1907      0.2645      0.1496      0.0703      0.0000      0.0000      0.7460      0.0000
 57      0.0000      0.2025      0.0000      0.6203      0.0655      0.0000      0.1886      0.0000      0.0892
 58      0.0000      0.1915      0.0824      0.0000      0.0543      0.1210      0.0000      0.8691      0.0000
 59      0.0000      0.1991      0.0000      0.2997      0.0099      0.0467      0.1685      0.2972      0.0000
 60      0.0000      0.2099      0.1166      0.0921      0.3121      0.0303      0.1758      0.0000      0.1414
 61      0.0000      0.1473      0.2995      0.2537      0.0566      0.0264      0.1658      0.6842      0.0653
 62      0.0000      0.2212      0.0964      0.0008      0.0030      0.0835      0.4745      0.4793      0.1590
 63      0.0000      0.2716      0.1093      0.2528      0.0552      0.0410      0.1163      0.0000      0.2207
 64      0.0000      0.1694      0.0839      0.0807      0.0274      0.0681      0.0216      0.4229      0.0000
 65      0.0000      0.2012      0.0164      0.3598      0.1140      0.0284      0.0980      0.0000      0.1511
 66     31.6716      0.3189      0.1354      0.2378      0.2581      0.0000      0.0558      2.4057      0.0249

# j      m_j: min, <> & last-chain-values for 1 ...  7 chains
  1  0.0000E+00  2.3165E-02  3.2094E-02  2.5000E-02  2.4285E-02  2.4927E-02  2.6636E-02  1.6685E-02  2.7034E-02
  2  0.0000E+00  5.1634E-04  2.0001E-04  2.3593E-04  1.0324E-05  0.0000E+00  6.2725E-04  0.0000E+00  3.6511E-04
  3  0.0000E+00  8.4016E-04  2.1090E-04  4.2310E-04  7.0204E-04  0.0000E+00  1.8070E-04  2.1090E-03  1.3624E-03
  4  0.0000E+00  7.2579E-04  0.0000E+00  1.0397E-03  0.0000E+00  0.0000E+00  2.2282E-03  1.4467E-03  0.0000E+00
  5  0.0000E+00  1.5845E-03  1.2013E-03  2.6261E-03  1.9108E-04  4.7293E-04  1.1252E-03  0.0000E+00  0.0000E+00
  6  0.0000E+00  2.0292E-03  4.1275E-04  0.0000E+00  1.1623E-03  1.7588E-04  0.0000E+00  8.3043E-03  1.4582E-03
  7  0.0000E+00  3.7088E-03  1.9422E-03  1.1984E-03  7.2988E-04  3.6546E-04  1.2109E-02  3.0759E-03  1.1879E-03
  8  0.0000E+00  3.4146E-03  0.0000E+00  3.7408E-03  2.6299E-03  2.6119E-03  7.9888E-03  0.0000E+00  3.2734E-03
  9  0.0000E+00  3.7610E-03  2.5829E-03  3.0993E-03  0.0000E+00  0.0000E+00  2.0205E-03  9.6166E-04  0.0000E+00
 10  0.0000E+00  8.0836E-03  1.0045E-02  6.1346E-03  2.1042E-03  1.1196E-03  1.3594E-03  0.0000E+00  4.8680E-04
 11  0.0000E+00  1.2625E-02  2.4565E-02  8.0229E-03  0.0000E+00  1.0754E-03  0.0000E+00  1.1575E-02  8.3791E-03
 12  0.0000E+00  2.1484E-02  4.9224E-02  3.1220E-02  3.6997E-03  5.1284E-04  1.8918E-02  3.8466E-02  1.4758E-02
 13  0.0000E+00  5.5002E-02  6.2876E-02  2.5004E-02  1.8816E-03  1.4534E-02  3.2416E-02  2.0104E-03  2.5823E-02
 14  0.0000E+00  1.1243E-01  3.5271E-02  2.5324E-02  0.0000E+00  1.7758E-02  0.0000E+00  9.4685E-02  1.7715E-02
 15  0.0000E+00  2.6282E-01  1.5351E-01  1.5557E-01  6.6396E-02  1.5883E-02  3.2324E-01  7.5655E-02  1.2823E-01
 16  0.0000E+00  4.8007E+01  6.5928E+01  4.7742E+01  3.8373E+01  5.2945E+01  4.8614E+01  3.9330E+01  4.9183E+01
 17  0.0000E+00  3.3660E+01  2.0822E+01  3.5328E+01  4.7104E+01  4.3969E+01  3.6431E+01  2.4409E+01  3.5312E+01
 18  0.0000E+00  1.6046E-03  1.4246E-03  1.5820E-03  0.0000E+00  0.0000E+00  8.6445E-04  6.8972E-03  0.0000E+00
 19  0.0000E+00  5.1271E-04  1.4558E-04  1.7540E-04  1.3267E-05  2.3674E-04  8.2754E-04  9.0012E-04  4.9638E-04
 20  0.0000E+00  7.6491E-04  2.5202E-04  0.0000E+00  8.9923E-05  3.1226E-05  0.0000E+00  0.0000E+00  5.2982E-04
 21  0.0000E+00  5.8876E-04  5.6519E-04  0.0000E+00  4.8083E-05  2.7243E-04  8.8212E-04  0.0000E+00  5.3494E-05
 22  0.0000E+00  1.5289E-03  4.7745E-04  1.2413E-03  0.0000E+00  6.6539E-05  0.0000E+00  2.1306E-03  4.3948E-04
 23  0.0000E+00  1.8249E-03  1.8902E-03  1.3639E-03  1.6399E-03  6.2514E-04  1.2156E-03  1.0219E-03  2.4520E-03
 24  0.0000E+00  2.5525E-03  1.8420E-03  4.6402E-03  1.2173E-03  0.0000E+00  0.0000E+00  1.0807E-03  0.0000E+00
 25  0.0000E+00  3.5195E-03  4.3919E-03  1.8296E-03  7.2454E-03  0.0000E+00  2.0484E-03  4.1227E-03  2.2599E-03
 26  0.0000E+00  6.2232E-03  3.7014E-03  0.0000E+00  3.1277E-03  0.0000E+00  1.8207E-03  0.0000E+00  5.3360E-03
 27  0.0000E+00  1.2560E-02  2.7311E-03  0.0000E+00  2.2604E-03  0.0000E+00  2.8931E-02  3.5701E-02  0.0000E+00
 28  0.0000E+00  3.8293E-02  4.1682E-02  0.0000E+00  0.0000E+00  2.9203E-03  0.0000E+00  0.0000E+00  9.7162E-03
 29  0.0000E+00  8.2012E-02  7.4609E-02  0.0000E+00  2.1103E-02  7.2818E-04  0.0000E+00  8.3148E-02  0.0000E+00
 30  0.0000E+00  1.2470E-01  1.2045E-01  0.0000E+00  0.0000E+00  0.0000E+00  1.0655E-01  0.0000E+00  3.6667E-01
 31  0.0000E+00  1.5576E-01  4.2849E-03  0.0000E+00  0.0000E+00  0.0000E+00  2.7094E-01  1.7145E-01  1.1817E-01
 32  0.0000E+00  2.9170E-01  5.8986E-02  3.6654E-01  2.0951E-01  1.1575E-02  4.4602E-02  7.0037E-01  2.0503E-01
 33  0.0000E+00  8.2475E-01  0.0000E+00  1.9173E-01  0.0000E+00  1.2984E-01  0.0000E+00  1.1844E-01  7.9965E-01
 34  0.0000E+00  6.1195E+00  8.8329E+00  6.8182E+00  8.9882E+00  1.3864E+00  9.6444E+00  3.9910E+00  8.0412E+00
 35  0.0000E+00  1.1537E-03  0.0000E+00  2.3637E-04  2.5781E-05  5.6070E-04  1.4286E-03  8.0476E-05  1.5740E-03
 36  0.0000E+00  4.5486E-04  2.7356E-04  8.3504E-04  0.0000E+00  0.0000E+00  0.0000E+00  1.4600E-03  0.0000E+00
 37  0.0000E+00  5.2352E-04  2.5847E-04  0.0000E+00  2.4893E-08  1.9062E-04  8.5012E-04  0.0000E+00  7.1237E-04
 38  0.0000E+00  1.6055E-03  1.0477E-03  6.1648E-04  2.9270E-04  3.9857E-04  1.4085E-03  6.5184E-03  2.4014E-03
 39  0.0000E+00  1.9427E-03  1.4469E-03  5.1203E-03  2.0083E-03  3.5008E-04  2.3786E-03  0.0000E+00  0.0000E+00
 40  0.0000E+00  5.0241E-03  1.6168E-03  3.4735E-03  2.4759E-03  0.0000E+00  1.0615E-03  8.5812E-03  5.1674E-03
 41  0.0000E+00  4.6392E-03  0.0000E+00  0.0000E+00  1.3588E-03  0.0000E+00  1.2665E-03  8.3716E-03  0.0000E+00
 42  0.0000E+00  9.2850E-03  4.4612E-04  6.2499E-03  9.3658E-04  5.7921E-04  1.7812E-02  6.3985E-02  1.6682E-03
 43  0.0000E+00  1.9918E-02  1.9440E-02  3.9562E-03  1.9790E-04  0.0000E+00  2.6726E-02  9.1832E-03  2.2618E-02
 44  0.0000E+00  2.3510E-02  2.5156E-03  2.6972E-02  7.0898E-03  6.1538E-03  7.6423E-03  0.0000E+00  6.9791E-02
 45  0.0000E+00  6.3390E-02  4.4160E-02  0.0000E+00  2.0015E-02  1.3321E-03  2.5760E-02  1.0224E-01  2.4562E-02
 46  0.0000E+00  1.0887E-01  1.0975E-01  1.1580E-01  0.0000E+00  3.0496E-02  1.6451E-01  1.4207E-01  4.0463E-02
 47  0.0000E+00  1.9606E-01  1.0433E-01  9.1931E-02  0.0000E+00  4.1059E-02  2.5290E-02  3.0371E-01  2.6449E-01
 48  0.0000E+00  3.1088E-01  2.6945E-01  1.7667E-01  1.4849E-01  2.4145E-01  0.0000E+00  0.0000E+00  9.1915E-01
 49  0.0000E+00  8.8660E-01  1.7020E-02  1.0316E+00  2.0653E-01  1.5000E-01  0.0000E+00  0.0000E+00  3.9737E-01
 50  0.0000E+00  1.8184E+00  0.0000E+00  1.1926E+00  1.1563E-03  0.0000E+00  1.7248E+00  6.0093E+00  1.7671E+00
 51  4.2716E-02  2.3423E-01  3.2331E-01  2.4604E-01  3.0586E-01  3.0720E-01  2.5299E-01  1.6678E-01  2.4752E-01
 52  0.0000E+00  6.9402E-04  7.7721E-04  2.7205E-04  8.7570E-05  1.1294E-04  3.7126E-04  1.2477E-03  2.2088E-05
 53  0.0000E+00  5.8992E-04  8.1617E-04  4.0839E-04  1.7584E-04  0.0000E+00  8.8420E-04  1.9726E-05  4.6736E-04
 54  0.0000E+00  1.3552E-03  3.6833E-04  8.7796E-04  2.1638E-04  1.1219E-04  0.0000E+00  2.2887E-03  0.0000E+00
 55  0.0000E+00  1.7708E-03  7.3390E-04  8.8047E-04  8.1978E-04  0.0000E+00  2.5860E-03  7.5037E-03  3.4378E-03
 56  0.0000E+00  3.6437E-03  6.1589E-03  2.8663E-03  1.4835E-03  0.0000E+00  0.0000E+00  1.1720E-02  0.0000E+00
 57  0.0000E+00  5.1338E-03  0.0000E+00  1.5771E-02  1.8337E-03  0.0000E+00  4.9770E-03  0.0000E+00  2.2798E-03
 58  0.0000E+00  8.2145E-03  4.3094E-03  0.0000E+00  2.5730E-03  5.8165E-03  0.0000E+00  3.0655E-02  0.0000E+00
 59  0.0000E+00  1.8380E-02  0.0000E+00  2.7741E-02  1.0092E-03  4.8268E-03  1.6186E-02  2.2561E-02  0.0000E+00
 60  0.0000E+00  3.5980E-02  2.4365E-02  1.5826E-02  5.9060E-02  5.8260E-03  3.1359E-02  0.0000E+00  2.4437E-02
 61  0.0000E+00  5.5161E-02  1.3672E-01  9.5273E-02  2.3386E-02  1.1077E-02  6.4647E-02  2.1075E-01  2.4658E-02
 62  0.0000E+00  1.5111E-01  8.0258E-02  5.8183E-04  2.2245E-03  6.3932E-02  3.3727E-01  2.6918E-01  1.0943E-01
 63  0.0000E+00  3.6907E-01  1.8101E-01  3.4439E-01  8.2851E-02  6.2455E-02  1.6439E-01  0.0000E+00  3.0231E-01
 64  0.0000E+00  6.3683E-01  3.8435E-01  3.0419E-01  1.1354E-01  2.8675E-01  8.4589E-02  1.3071E+00  0.0000E+00
 65  0.0000E+00  1.5988E+00  1.5862E-01  2.8661E+00  1.0002E+00  2.5281E-01  8.0985E-01  0.0000E+00  1.2101E+00
 66  9.9957E+01  3.5792E+00  1.8520E+00  2.6766E+00  3.1984E+00  0.0000E+00  6.5229E-01  2.2205E+01  2.8167E-01

# AV, chi2 & Mass for <> & i_chain = 1 ...  7 solutions
AV      -0.8737     -0.9861     -1.0000     -1.0000     -1.0000     -1.0000     -1.0000     -1.0000     -1.0000
chi2 1.1853E-04  1.9160E-04  1.8922E-04  1.8984E-04  1.8794E-04  1.8866E-04  1.9013E-04  1.9150E-04  1.9035E-04
Mass 1.0873E-13  2.6291E-14  2.1173E-14  2.5733E-14  2.3375E-14  2.3023E-14  2.4796E-14  3.1377E-14  2.5600E-14
 145.95                                  [v0_min (km/s) before EX0s...]
   3.97                                  [vd_min (km/s) before EX0s...]


## Synthetic spectrum (Best Model) ##l_obs f_obs f_syn wei
 3478    [Nl_obs]
 3741.00    3.34581   0.60715    0.000
 3742.00    2.19215   0.63202    0.000
 3743.00   -0.09116   0.63686    0.000
 3744.00   -0.37867   0.62006    0.000
 3745.00    0.49667   0.59498    0.045
 3746.00    0.45437   0.57412    0.044
 3747.00   -0.05392   0.55718    0.000
 3748.00    0.27609   0.54390    0.045
 3749.00    0.97471   0.53014    0.050
 3750.00    1.72261   0.50367    0.049
 3751.00    2.48910   0.47822    0.047
 3752.00    2.32494   0.48548    0.044
 3753.00    1.86250   0.52703    0.041
 3754.00    1.10552   0.57086    0.040
 3755.00    0.26961   0.59778    0.038
 3756.00    0.25847   0.61270    0.038
 3757.00    0.42836   0.62424    0.037
 3758.00    0.43443   0.61557    0.037
 3759.00    0.41191   0.57821    0.037
 3760.00    0.75827   0.55138    0.053
 3761.00    1.15363   0.54688    0.103
 3762.00    1.18484   0.56310    0.059
 3763.00    1.18183   0.59257    0.039
 3764.00    0.12604   0.59990    0.036
 3765.00   -0.99048   0.59062    0.000
 3766.00   -0.80406   0.59047    0.000
 3767.00   -0.59074   0.59348    0.000
 3768.00   -0.86361   0.58083    0.000
 3769.00   -1.12901   0.56580    0.000
 3770.00   -1.21282   0.56767    0.000
 3771.00   -1.25066   0.56611    0.000
 3772.00   -0.68610   0.55084    0.000
 3773.00   -0.08910   0.55450    0.000
 3774.00    0.79282   0.58533    0.037
 3775.00    1.63208   0.60759    0.038
 3776.00    2.19467   0.61403    0.042
 3777.00    2.56239   0.62508    0.044
 3778.00    1.94377   0.63974    0.040
 3779.00    1.41402   0.64824    0.037
 3780.00    1.24803   0.65376    0.037
 3781.00    1.48001   0.66533    0.038
 3782.00    3.06178   0.67738    0.040
 3783.00    3.82591   0.67933    0.042
 3784.00    2.25158   0.67757    0.039
 3785.00    0.96554   0.68080    0.037
 3786.00    0.38387   0.68084    0.037
 3787.00    0.12352   0.66038    0.037
 3788.00    0.54043   0.62577    0.037
 3789.00    0.92983   0.60311    0.037
 3790.00    1.26886   0.59424    0.036
 3791.00    1.32761   0.58895    0.035
 3792.00    0.93772   0.58622    0.035
 3793.00    0.55066   0.58889    0.035
 3794.00    0.16757   0.59100    0.034
 3795.00    0.05897   0.57969    0.034
 3796.00    0.28966   0.55602    0.034
 3797.00    0.57550   0.53251    0.045
 3798.00    0.92145   0.50752    0.136
 3799.00    1.41045   0.47251   -1.000
 3800.00    2.03692   0.45072   -1.000
 3801.00    1.82347   0.47451   -1.000
 3802.00    0.89830   0.52732   -1.000
 3803.00    0.30398   0.57329   -1.000
 3804.00   -0.04344   0.60215    0.000
 3805.00    0.33750   0.62172   -1.000
 3806.00    1.19593   0.63149   -1.000
 3807.00    1.87620   0.62683   -1.000
 3808.00    2.45424   0.61061   -1.000
 3809.00    1.66924   0.60029   -1.000
 3810.00    0.20296   0.61033   -1.000
 3811.00    0.04122   0.62709   -1.000
 3812.00    0.44361   0.63435   -1.000
 3813.00    0.53409   0.63028   -1.000
 3814.00    0.50891   0.61562   -1.000
 3815.00    0.86498   0.59419   -1.000
 3816.00    1.34090   0.57714   -1.000
 3817.00    1.18297   0.56636   -1.000
 3818.00    0.85876   0.56247   -1.000
 3819.00    0.71635   0.56608   -1.000
 3820.00    0.61289   0.55701   -1.000
 3821.00    0.48083   0.52634   -1.000
 3822.00    0.34392   0.51021   -1.000
 3823.00    0.25313   0.52825   -1.000
 3824.00    0.16826   0.55313   -1.000
 3825.00    1.09038   0.55908   -1.000
 3826.00    2.10289   0.54661   -1.000
 3827.00    2.03372   0.53382   -1.000
 3828.00    1.90641   0.53084   -1.000
 3829.00    1.19013   0.53345   -1.000
 3830.00    0.47624   0.53559   -1.000
 3831.00    0.95891   0.53589   -1.000
 3832.00    1.43662   0.53250   -1.000
 3833.00    1.80402   0.51866   -1.000
 3834.00    2.09619   0.49132   -1.000
 3835.00    1.45300   0.45793   -1.000
 3836.00    0.82108   0.42581   -1.000
 3837.00    0.28444   0.41166   -1.000
 3838.00   -0.11248   0.42882    0.000
 3839.00    0.36952   0.45779   -1.000
 3840.00    1.03132   0.47795   -1.000
 3841.00    2.58025   0.49284   -1.000
 3842.00    3.63827   0.50646   -1.000
 3843.00    2.73117   0.52508   -1.000
 3844.00    1.74700   0.55135   -1.000
 3845.00    0.50662   0.57068   -1.000
 3846.00   -0.24258   0.57724    0.000
 3847.00    0.38754   0.57668    0.000
 3848.00    0.82924   0.57648    0.000
 3849.00    0.81837   0.57905    0.000
 3850.00    0.93802   0.57625    0.000
 3851.00    1.32836   0.56371    0.000
 3852.00    1.40665   0.55517    0.000
 3853.00    0.92211   0.56349    0.000
 3854.00    0.69491   0.57456    0.000
 3855.00    0.87355   0.57151    0.000
 3856.00    1.27484   0.56231    0.000
 3857.00    1.98436   0.55337    0.000
 3858.00    1.70236   0.54369    0.000
 3859.00    0.21219   0.53807    0.000
 3860.00   -0.56218   0.53192    0.000
 3861.00   -0.56767   0.52304    0.000
 3862.00   -0.18907   0.52251    0.000
 3863.00    0.55345   0.53768    0.000
 3864.00    0.74930   0.55971    0.000
 3865.00    0.48848   0.57121    0.000
 3866.00    0.44398   0.56699    0.000
 3867.00    0.55858   0.55925    0.000
 3868.00    0.57340   0.55671    0.000
 3869.00    0.52377   0.55562    0.000
 3870.00    0.45183   0.55381    0.000
 3871.00    0.36729   0.55114    0.000
 3872.00    0.65623   0.54269    0.000
 3873.00    1.12888   0.53191    0.000
 3874.00    0.97735   0.52853    0.000
 3875.00    0.56040   0.54119    0.000
 3876.00    0.38655   0.56362    0.000
 3877.00    0.30126   0.57454    0.000
 3878.00    0.07966   0.56639    0.000
 3879.00   -0.18396   0.54858    0.000
 3880.00   -0.09651   0.53391    0.000
 3881.00    0.08106   0.53516   -1.000
 3882.00    0.20336   0.54284   -1.000
 3883.00    0.31410   0.53599   -1.000
 3884.00    0.32733   0.52707   -1.000
 3885.00    0.32448   0.53773   -1.000
 3886.00    0.46767   0.54768   -1.000
 3887.00    0.62896   0.52080   -1.000
 3888.00    0.49117   0.47406   -1.000
 3889.00    0.32780   0.44423   -1.000
 3890.00   -0.08023   0.42527    0.000
 3891.00   -0.50046   0.42624    0.000
 3892.00   -0.17314   0.46967    0.000
 3893.00    0.17080   0.53106   -1.000
 3894.00    0.79697   0.57355   -1.000
 3895.00    1.37097   0.58958   -1.000
 3896.00    0.87760   0.58669   -1.000
 3897.00    0.44765   0.57837   -1.000
 3898.00    0.76777   0.58360   -1.000
 3899.00    1.03246   0.59624   -1.000
 3900.00    0.84569   0.59197   -1.000
 3901.00    0.61882   0.57903   -1.000
 3902.00    0.14700   0.58217   -1.000
 3903.00   -0.21569   0.59917    0.000
 3904.00   -0.05318   0.60046    0.000
 3905.00    0.15724   0.58935   -1.000
 3906.00    0.55534   0.58654   -1.000
 3907.00    0.82437   0.57927   -1.000
 3908.00    0.67276   0.57371   -1.000
 3909.00    0.61959   0.59048   -1.000
 3910.00    0.83793   0.61630   -1.000
 3911.00    1.14367   0.63099   -1.000
 3912.00    1.65579   0.63298   -1.000
 3913.00    1.75083   0.63331   -1.000
 3914.00    0.99467   0.63766   -1.000
 3915.00    0.48037   0.63967   -1.000
 3916.00    0.39565   0.63767   -1.000
 3917.00    0.49463   0.63307   -1.000
 3918.00    0.87904   0.62141   -1.000
 3919.00    1.05698   0.60972   -1.000
 3920.00    0.95323   0.59833   -1.000
 3921.00    0.54354   0.57602   -1.000
 3922.00   -0.23364   0.55038    0.000
 3923.00   -0.27389   0.53702    0.000
 3924.00    0.46633   0.53580   -1.000
 3925.00    1.03623   0.53915   -1.000
 3926.00    1.44703   0.54891   -1.000
 3927.00    1.45776   0.55449   -1.000
 3928.00    1.13899   0.54632   -1.000
 3929.00    1.09831   0.53165   -1.000
 3930.00    1.25924   0.51614   -1.000
 3931.00    1.09236   0.50352   -1.000
 3932.00    0.71687   0.49371   -1.000
 3933.00    0.45463   0.48474   -1.000
 3934.00    0.25542   0.47870   -1.000
 3935.00    0.51412   0.47383   -1.000
 3936.00    0.99447   0.46697   -1.000
 3937.00    0.66593   0.46796   -1.000
 3938.00   -0.00081   0.48347    0.000
 3939.00    0.00758   0.50351   -1.000
 3940.00    0.25746   0.52187   -1.000
 3941.00    0.52593   0.53890   -1.000
 3942.00    0.80001   0.54923   -1.000
 3943.00    0.89855   0.54877   -1.000
 3944.00    0.95299   0.54349   -1.000
 3945.00    1.32045   0.53384   -1.000
 3946.00    1.75175   0.52802   -1.000
 3947.00    1.73111   0.54714   -1.000
 3948.00    1.63811   0.57852   -1.000
 3949.00    1.42005   0.58640   -1.000
 3950.00    1.18706   0.57963   -1.000
 3951.00    1.04238   0.59041   -1.000
 3952.00    0.90490   0.61404   -1.000
 3953.00    1.04903   0.62314   -1.000
 3954.00    1.20611   0.60969   -1.000
 3955.00    1.32464   0.60471   -1.000
 3956.00    1.43114   0.61909   -1.000
 3957.00    0.93467   0.61980   -1.000
 3958.00    0.48895   0.59909   -1.000
 3959.00    1.00450   0.58693   -1.000
 3960.00    1.43417   0.59101    0.000
 3961.00    0.89602   0.59018    0.000
 3962.00    0.38178   0.56066    0.000
 3963.00    0.05537   0.51048    0.000
 3964.00   -0.08653   0.48334    0.000
 3965.00    0.86644   0.48725    0.000
 3966.00    1.48763   0.48538    0.000
 3967.00    0.55098   0.46711    0.000
 3968.00   -0.02489   0.44123    0.000
 3969.00    0.78181   0.41040    0.000
 3970.00    1.39404   0.37548    0.000
 3971.00    1.38470   0.34101    0.000
 3972.00    0.98976   0.33142    0.000
 3973.00   -0.44952   0.36509    0.000
 3974.00   -2.00403   0.41798    0.000
 3975.00   -3.82608   0.46187    0.000
 3976.00   -4.10399   0.49856    0.000
 3977.00   -1.28041   0.53157    0.000
 3978.00    1.01530   0.55399    0.000
 3979.00    2.38766   0.57184    0.000
 3980.00    2.77955   0.59346    0.000
 3981.00    1.67038   0.61505   -1.000
 3982.00    0.94062   0.62945   -1.000
 3983.00    0.72113   0.62764   -1.000
 3984.00    0.83611   0.61715   -1.000
 3985.00    1.34719   0.61393   -1.000
 3986.00    1.44730   0.62061   -1.000
 3987.00    1.11826   0.63355   -1.000
 3988.00    0.79394   0.64297   -1.000
 3989.00    0.47394   0.65175   -1.000
 3990.00    0.68939   0.66404   -1.000
 3991.00    1.33956   0.65748   -1.000
 3992.00    1.56585   0.64252   -1.000
 3993.00    1.48931   0.64732   -1.000
 3994.00    1.22578   0.66135   -1.000
 3995.00    0.84502   0.66809   -1.000
 3996.00    0.65456   0.66125   -1.000
 3997.00    0.56839   0.64979   -1.000
 3998.00    0.65953   0.63900   -1.000
 3999.00    0.83513   0.62812   -1.000
 4000.00    1.10809   0.62954   -1.000
 4001.00    1.42107   0.65729   -1.000
 4002.00    1.32357   0.68524   -1.000
 4003.00    1.08190   0.69031   -1.000
 4004.00    0.93527   0.69207   -1.000
 4005.00    0.81679   0.68991   -1.000
 4006.00    0.90909   0.65920   -1.000
 4007.00    1.05316   0.61424   -1.000
 4008.00    0.92967   0.60412   -1.000
 4009.00    0.75298   0.63396   -1.000
 4010.00    0.84095   0.66124   -1.000
 4011.00    0.97005   0.66957   -1.000
 4012.00    1.28067   0.67191   -1.000
 4013.00    1.61215   0.67426   -1.000
 4014.00    1.81787   0.67774   -1.000
 4015.00    2.01386   0.68356   -1.000
 4016.00    1.63739   0.68857   -1.000
 4017.00    1.23682   0.69695   -1.000
 4018.00    0.60844   0.69787   -1.000
 4019.00    0.00330   0.68294   -1.000
 4020.00    0.50781   0.68067   -1.000
 4021.00    0.98604   0.69707   -1.000
 4022.00    1.00112   0.69930   -1.000
 4023.00    1.00797   0.68576   -1.000
 4024.00    0.92637   0.67606   -1.000
 4025.00    0.89704   0.66562   -1.000
 4026.00    1.26458   0.63893   -1.000
 4027.00    1.53227   0.61213   -1.000
 4028.00    1.22406   0.61426   -1.000
 4029.00    0.98430   0.65063   -1.000
 4030.00    1.05826   0.68942   -1.000
 4031.00    1.11660   0.68461   -1.000
 4032.00    1.11634   0.63341   -1.000
 4033.00    1.09960   0.58906   -1.000
 4034.00    1.03114   0.57510   -1.000
 4035.00    0.88419   0.56817   -1.000
 4036.00    0.52843   0.57426   -1.000
 4037.00    0.30965   0.60530   -1.000
 4038.00    0.40366   0.65402   -1.000
 4039.00    0.52928   0.69725   -1.000
 4040.00    0.71737   0.71201   -1.000
 4041.00    0.78008   0.70059   -1.000
 4042.00    0.62676   0.67942   -1.000
 4043.00    0.65055   0.66917   -1.000
 4044.00    0.94149   0.67608   -1.000
 4045.00    1.04156   0.66192   -1.000
 4046.00    0.88861   0.60450   -1.000
 4047.00    0.87723   0.54139   -1.000
 4048.00    1.03115   0.52848   -1.000
 4049.00    1.22348   0.57625   -1.000
 4050.00    1.45536   0.63465   -1.000
 4051.00    1.56466   0.66796   -1.000
 4052.00    1.56266   0.68676   -1.000
 4053.00    1.36117   0.69344   -1.000
 4054.00    1.00000   0.68449   -1.000
 4055.00    0.68454   0.66965   -1.000
 4056.00    0.40127   0.65029   -1.000
 4057.00    0.57103   0.63259   -1.000
 4058.00    1.02064   0.62734   -1.000
 4059.00    1.08884   0.61692   -1.000
 4060.00    0.95124   0.60508   -1.000
 4061.00    1.13311   0.61881   -1.000
 4062.00    1.46472   0.64532   -1.000
 4063.00    1.50435   0.64843   -1.000
 4064.00    1.42601   0.60936   -1.000
 4065.00    1.07033   0.55551   -1.000
 4066.00    0.61903   0.54628   -1.000
 4067.00    0.80696   0.58790   -1.000
 4068.00    1.18050   0.61439   -1.000
 4069.00    1.08943   0.60474   -1.000
 4070.00    0.88675   0.60313   -1.000
 4071.00    0.94452   0.61938   -1.000
 4072.00    1.05275   0.61109   -1.000
 4073.00    1.69928   0.57355   -1.000
 4074.00    2.42692   0.56499   -1.000
 4075.00    1.88103   0.60960   -1.000
 4076.00    1.19427   0.64601   -1.000
 4077.00    1.10765   0.63150   -1.000
 4078.00    1.06496   0.59122   -1.000
 4079.00    0.68272   0.56573   -1.000
 4080.00    0.28747   0.57600   -1.000
 4081.00    0.88329   0.61258   -1.000
 4082.00    1.46648   0.65479   -1.000
 4083.00    1.36667   0.68469   -1.000
 4084.00    1.25505   0.68279   -1.000
 4085.00    0.94872   0.65782   -1.000
 4086.00    0.67624   0.64135   -1.000
 4087.00    0.75216   0.64045   -1.000
 4088.00    0.84272   0.65387   -1.000
 4089.00    1.04068   0.67776   -1.000
 4090.00    1.13106   0.68876   -1.000
 4091.00    0.61795   0.68414   -1.000
 4092.00    0.21670   0.68132    0.000
 4093.00    0.31608   0.67721    0.000
 4094.00    0.35757   0.66620    0.000
 4095.00    0.18649   0.66644    0.000
 4096.00    0.05035   0.66690    0.000
 4097.00    0.02167   0.63406    0.000
 4098.00    0.06100   0.58754    0.000
 4099.00    0.27808   0.56149    0.000
 4100.00    0.52691   0.55998    0.000
 4101.00    0.84704   0.55539    0.000
 4102.00    1.18172   0.51614    0.000
 4103.00    1.54468   0.46366    0.000
 4104.00    1.56949   0.45612    0.000
 4105.00    1.02054   0.49723    0.000
 4106.00    0.68702   0.54530    0.000
 4107.00    0.67375   0.58952    0.000
 4108.00    0.82226   0.62863    0.000
 4109.00    1.18215   0.64462    0.000
 4110.00    1.14468   0.64008    0.000
 4111.00    0.64984   0.62764    0.000
 4112.00    0.43055   0.61312    0.000
 4113.00    0.49095   0.60450   -1.000
 4114.00    0.70980   0.60885   -1.000
 4115.00    1.07050   0.62670   -1.000
 4116.00    0.98824   0.63991   -1.000
 4117.00    0.55648   0.63428   -1.000
 4118.00    0.39304   0.62889   -1.000
 4119.00    0.41580   0.63304   -1.000
 4120.00    0.41312   0.61999    0.073
 4121.00    0.39495   0.60006    0.028
 4122.00    0.57510   0.60297    0.034
 4123.00    0.86061   0.60969    0.143
 4124.00    1.19555   0.60897   -1.000
 4125.00    1.55328   0.61319   -1.000
 4126.00    1.70190   0.63080   -1.000
 4127.00    1.76749   0.64853   -1.000
 4128.00    1.60224   0.64473   -1.000
 4129.00    1.35887   0.62776   -1.000
 4130.00    0.90777   0.61500    0.059
 4131.00    0.39756   0.60969    0.026
 4132.00    0.48045   0.60166    0.023
 4133.00    0.70258   0.58253    0.023
 4134.00    0.85269   0.55899    0.024
 4135.00    0.98921   0.55390    0.024
 4136.00    1.09579   0.56725    0.024
 4137.00    1.19800   0.59638    0.024
 4138.00    0.57653   0.62591    0.024
 4139.00   -0.12185   0.63214    0.000
 4140.00    0.26733   0.63079    0.024
 4141.00    0.73174   0.63352    0.024
 4142.00    0.49270   0.63359    0.024
 4143.00    0.22940   0.61965    0.024
 4144.00    0.07891   0.57466    0.024
 4145.00   -0.05715   0.51858    0.000
 4146.00    0.27598   0.50779    0.024
 4147.00    0.60711   0.54911    0.024
 4148.00    0.90741   0.58981    0.024
 4149.00    1.20341   0.60378    0.024
 4150.00    1.45702   0.60177    0.024
 4151.00    1.61021   0.58848    0.024
 4152.00    1.05050   0.57419    0.024
 4153.00    0.55059   0.57095    0.023
 4154.00    0.37709   0.57079    0.023
 4155.00    0.24507   0.56962    0.023
 4156.00    0.29437   0.56757    0.023
 4157.00    0.43903   0.56665    0.023
 4158.00    0.92668   0.56372    0.022
 4159.00    1.23431   0.56678    0.022
 4160.00    0.99868   0.58759    0.021
 4161.00    0.63752   0.61106    0.021
 4162.00   -0.04602   0.61885    0.000
 4163.00   -0.38586   0.61817    0.000
 4164.00    0.03351   0.62710    0.022
 4165.00    0.41168   0.63302    0.022
 4166.00    0.71091   0.61941    0.022
 4167.00    0.85726   0.60301    0.022
 4168.00    0.74810   0.59174    0.022
 4169.00    0.68552   0.57739    0.022
 4170.00    0.69116   0.57710    0.021
 4171.00    0.74403   0.59637    0.022
 4172.00    0.85772   0.60958    0.022
 4173.00    0.81490   0.59614    0.022
 4174.00    0.59445   0.56017    0.022
 4175.00    0.42719   0.53861    0.022
 4176.00    0.31317   0.54716    0.022
 4177.00    0.45705   0.56178    0.022
 4178.00    0.82857   0.56709    0.022
 4179.00    0.93091   0.56359    0.022
 4180.00    0.82388   0.56357    0.022
 4181.00    0.63754   0.57508    0.022
 4182.00    0.39695   0.58121    0.022
 4183.00    0.33284   0.57328    0.022
 4184.00    0.37451   0.56758    0.022
 4185.00    0.45704   0.57854    0.022
 4186.00    0.56094   0.60048    0.022
 4187.00    0.40756   0.61660    0.022
 4188.00    0.13748   0.59688    0.022
 4189.00    0.30110   0.55588    0.022
 4190.00    0.63394   0.55272    0.022
 4191.00    0.88558   0.58159    0.023
 4192.00    1.11025   0.59484    0.023
 4193.00    0.84806   0.58779    0.023
 4194.00    0.45017   0.59415    0.023
 4195.00    0.53938   0.61590    0.023
 4196.00    0.74034   0.61409    0.023
 4197.00    0.92911   0.58236    0.023
 4198.00    1.11563   0.55022    0.023
 4199.00    0.74425   0.53305    0.023
 4200.00    0.29398   0.51991    0.023
 4201.00    0.14458   0.51142    0.042
 4202.00    0.02586   0.51739    0.726
 4203.00    0.44121   0.52188   -1.000
 4204.00    0.89134   0.52583   -1.000
 4205.00    0.95806   0.54858   -1.000
 4206.00    1.01267   0.57478   -1.000
 4207.00    0.84952   0.59119   -1.000
 4208.00    0.68316   0.60656   -1.000
 4209.00    0.42203   0.61920   -1.000
 4210.00    0.19750   0.62602   -1.000
 4211.00    0.50580   0.61755   -1.000
 4212.00    0.78456   0.59977   -1.000
 4213.00    0.78413   0.59755   -1.000
 4214.00    0.79156   0.60495   -1.000
 4215.00    0.85311   0.59850   -1.000
 4216.00    0.90930   0.57197    0.270
 4217.00    0.93700   0.53908    0.037
 4218.00    0.95460   0.54458    0.022
 4219.00    0.92904   0.59907    0.022
 4220.00    0.91813   0.64637    0.021
 4221.00    0.95884   0.66061    0.021
 4222.00    0.94772   0.66288    0.021
 4223.00    0.78312   0.65880    0.021
 4224.00    0.61210   0.63298    0.021
 4225.00    0.42488   0.59162    0.021
 4226.00    0.40841   0.54756    0.021
 4227.00    0.76297   0.49529    0.021
 4228.00    1.01362   0.44084    0.021
 4229.00    1.06834   0.42569    0.021
 4230.00    1.02464   0.47626    0.020
 4231.00    0.81890   0.54811    0.020
 4232.00    0.63445   0.59979    0.020
 4233.00    0.48072   0.62980    0.020
 4234.00    0.41628   0.62375    0.020
 4235.00    0.46523   0.59293    0.019
 4236.00    0.62918   0.58148    0.019
 4237.00    0.92179   0.57913    0.019
 4238.00    1.00427   0.56725    0.019
 4239.00    0.87939   0.57162    0.019
 4240.00    0.64395   0.58699    0.019
 4241.00    0.31231   0.59248    0.019
 4242.00    0.24469   0.60089    0.019
 4243.00    0.37947   0.62105    0.019
 4244.00    0.46775   0.63361    0.020
 4245.00    0.52468   0.64281    0.020
 4246.00    0.50929   0.67110    0.020
 4247.00    0.45119   0.68990    0.021
 4248.00    0.56857   0.67009    0.021
 4249.00    0.77629   0.63119    0.021
 4250.00    0.68946   0.60209    0.021
 4251.00    0.47120   0.58021    0.021
 4252.00    0.27873   0.55167    0.021
 4253.00    0.09615   0.54678    0.021
 4254.00    0.32175   0.57509    0.021
 4255.00    0.68038   0.57996    0.021
 4256.00    0.75381   0.54887    0.021
 4257.00    0.74939   0.53976    0.021
 4258.00    0.58286   0.58179    0.021
 4259.00    0.38000   0.62833    0.021
 4260.00    0.61788   0.62243    0.021
 4261.00    0.93459   0.57794    0.020
 4262.00    0.98077   0.53801    0.021
 4263.00    0.98993   0.53515    0.022
 4264.00    0.43220   0.58095    0.022
 4265.00   -0.18092   0.63667    0.000
 4266.00    0.15887   0.66373    0.021
 4267.00    0.55693   0.67168    0.021
 4268.00    0.77163   0.67082    0.021
 4269.00    0.98083   0.64838    0.021
 4270.00    1.08026   0.61813    0.022
 4271.00    1.17568   0.59487    0.022
 4272.00    1.16474   0.55776    0.022
 4273.00    1.15450   0.50308    0.022
 4274.00    1.15390   0.47726    0.022
 4275.00    1.10020   0.49559    0.022
 4276.00    0.56413   0.50685    0.022
 4277.00    0.14196   0.51143    0.021
 4278.00    0.47848   0.55027    0.022
 4279.00    0.82707   0.60507    0.022
 4280.00    1.23819   0.64221    0.022
 4281.00    1.49446   0.64088    0.022
 4282.00    1.10430   0.60619   -2.000
 4283.00    0.93542   0.58609   -2.000
 4284.00    1.53042   0.58963   -2.000
 4285.00    1.85908   0.59862   -2.000
 4286.00    1.41354   0.60454   -2.000
 4287.00    1.06350   0.59283   -2.000
 4288.00    0.95032   0.58180   -2.000
 4289.00    0.85520   0.58715   -2.000
 4290.00    0.79871   0.57747   -2.000
 4291.00    0.73682   0.53396   -2.000
 4292.00    0.66492   0.49969   -2.000
 4293.00    0.76870   0.51280   -2.000
 4294.00    1.15741   0.55684   -2.000
 4295.00    1.15438   0.58869   -2.000
 4296.00    0.59404   0.58178   -2.000
 4297.00    0.43262   0.57351   -2.000
 4298.00    0.77048   0.57991    0.022
 4299.00    0.87202   0.57123    0.021
 4300.00    0.71288   0.53964    0.021
 4301.00    0.48699   0.49453    0.020
 4302.00    0.19616   0.46960    0.020
 4303.00    0.13564   0.48225    0.020
 4304.00    0.27271   0.49678    0.020
 4305.00    0.38039   0.49969    0.020
 4306.00    0.46585   0.50732    0.021
 4307.00    0.54198   0.50591    0.020
 4308.00    0.61191   0.48785    0.020
 4309.00    0.71352   0.46171    0.020
 4310.00    0.83355   0.43970    0.020
 4311.00    0.73820   0.44284    0.020
 4312.00    0.53370   0.47056    0.020
 4313.00    0.60332   0.50425    0.019
 4314.00    0.79323   0.53422    0.019
 4315.00    0.74921   0.55750    0.019
 4316.00    0.61707   0.57239    0.020
 4317.00    0.55225   0.60578    0.020
 4318.00    0.50895   0.67148    0.020
 4319.00    0.72224   0.71596    0.020
 4320.00    1.00410   0.71280    0.020
 4321.00    0.96242   0.69403    0.020
 4322.00    0.84994   0.67639    0.020
 4323.00    0.85695   0.65942    0.020
 4324.00    0.88476   0.64621    0.020
 4325.00    1.05192   0.61025    0.020
 4326.00    1.23752   0.54467    0.020
 4327.00    1.28465   0.48250    0.020
 4328.00    1.31884   0.46996    0.021
 4329.00    1.07620   0.53250    0.020
 4330.00    0.81772   0.62420    0.000
 4331.00    0.79069   0.67511    0.000
 4332.00    0.76830   0.66974    0.000
 4333.00    0.66101   0.65368    0.000
 4334.00    0.55754   0.65892    0.000
 4335.00    0.54589   0.67027    0.000
 4336.00    0.56113   0.68192    0.000
 4337.00    0.92655   0.69539    0.000
 4338.00    1.23087   0.67556    0.000
 4339.00    1.00130   0.59867    0.000
 4340.00    0.79229   0.51932    0.000
 4341.00    0.71604   0.47348    0.000
 4342.00    0.68838   0.44498    0.000
 4343.00    0.90589   0.46086    0.000
 4344.00    1.09086   0.53039    0.000
 4345.00    1.14302   0.58445    0.000
 4346.00    1.14241   0.60034    0.000
 4347.00    0.96324   0.62266    0.000
 4348.00    0.76130   0.64168    0.000
 4349.00    0.49438   0.64160    0.000
 4350.00    0.35078   0.65872    0.000
 4351.00    0.50779   0.69368   -1.000
 4352.00    0.66574   0.68213   -1.000
 4353.00    0.82565   0.60610   -1.000
 4354.00    0.99662   0.54742   -1.000
 4355.00    1.18780   0.56113   -1.000
 4356.00    1.12497   0.60072    0.105
 4357.00    0.65628   0.62242    0.029
 4358.00    0.43365   0.64293    0.026
 4359.00    0.55602   0.66516    0.073
 4360.00    0.67402   0.65673   -1.000
 4361.00    0.78662   0.62577   -1.000
 4362.00    0.81353   0.62294   -1.000
 4363.00    0.74726   0.65458   -1.000
 4364.00    0.74498   0.67697   -1.000
 4365.00    0.80407   0.67624   -1.000
 4366.00    0.79854   0.68689    0.076
 4367.00    0.73833   0.70885    0.027
 4368.00    0.92448   0.69942    0.021
 4369.00    1.29413   0.65651    0.021
 4370.00    1.32966   0.62577    0.021
 4371.00    1.14656   0.62892    0.021
 4372.00    0.92952   0.63943    0.021
 4373.00    0.69304   0.64396    0.021
 4374.00    0.85951   0.64443    0.021
 4375.00    1.22698   0.62623    0.021
 4376.00    0.94378   0.58729    0.021
 4377.00    0.37979   0.55723    0.020
 4378.00    0.24525   0.56875    0.020
 4379.00    0.26960   0.61691    0.021
 4380.00    0.30011   0.65374    0.021
 4381.00    0.33255   0.65160    0.021
 4382.00    0.49041   0.62847    0.020
 4383.00    0.68109   0.60224    0.020
 4384.00    0.66999   0.55162    0.020
 4385.00    0.61580   0.47147    0.021
 4386.00    0.80395   0.42467    0.020
 4387.00    1.03308   0.46018    0.020
 4388.00    1.16095   0.53777    0.020
 4389.00    1.27588   0.58122    0.020
 4390.00    1.12728   0.58146    0.020
 4391.00    0.95516   0.57293    0.020
 4392.00    0.97540   0.56847    0.020
 4393.00    1.00588   0.57655    0.020
 4394.00    1.00334   0.59765    0.020
 4395.00    0.99948   0.61093    0.020
 4396.00    0.94167   0.60289    0.020
 4397.00    0.88579   0.59451    0.020
 4398.00    0.87236   0.62006    0.020
 4399.00    0.84599   0.66449    0.020
 4400.00    0.65977   0.67879    0.020
 4401.00    0.50896   0.65366    0.019
 4402.00    0.65593   0.61256    0.019
 4403.00    0.79735   0.59825    0.019
 4404.00    0.90391   0.62223    0.019
 4405.00    0.93493   0.61276    0.019
 4406.00    0.59437   0.53897    0.019
 4407.00    0.41486   0.48678    0.020
 4408.00    0.87821   0.50856    0.020
 4409.00    1.22140   0.54425    0.020
 4410.00    1.16615   0.55389    0.020
 4411.00    1.15025   0.57762    0.019
 4412.00    1.24465   0.62812    0.019
 4413.00    1.29338   0.66554    0.019
 4414.00    1.23266   0.68092    0.019
 4415.00    1.15641   0.67450    0.019
 4416.00    1.04804   0.62263    0.019
 4417.00    0.98645   0.55820    0.019
 4418.00    1.00910   0.55156    0.020
 4419.00    1.05593   0.59214    0.020
 4420.00    1.14084   0.63593    0.020
 4421.00    1.10824   0.67043    0.019
 4422.00    0.91328   0.68322    0.019
 4423.00    0.86708   0.66122    0.019
 4424.00    1.00183   0.61863    0.019
 4425.00    1.12604   0.59790    0.019
 4426.00    1.23894   0.61193    0.019
 4427.00    1.25091   0.62452    0.019
 4428.00    1.16742   0.62114    0.019
 4429.00    1.06519   0.62056    0.019
 4430.00    0.94735   0.63437    0.019
 4431.00    0.90968   0.63876    0.019
 4432.00    0.93088   0.61569    0.020
 4433.00    0.87137   0.60973    0.020
 4434.00    0.75982   0.63242    0.019
 4435.00    0.85199   0.63089    0.019
 4436.00    1.05906   0.59112    0.019
 4437.00    0.95771   0.55216    0.020
 4438.00    0.70496   0.55662    0.020
 4439.00    0.65994   0.60409    0.020
 4440.00    0.70308   0.65699    0.020
 4441.00    0.94291   0.68806    0.020
 4442.00    1.25421   0.67861    0.020
 4443.00    1.14462   0.63350    0.020
 4444.00    0.90560   0.58987    0.020
 4445.00    0.88879   0.57828    0.020
 4446.00    0.92886   0.60518    0.020
 4447.00    0.85040   0.65450    0.020
 4448.00    0.74724   0.68335    0.020
 4449.00    0.71657   0.67532    0.020
 4450.00    0.69781   0.67152    0.019
 4451.00    1.06054   0.67735    0.020
 4452.00    1.47030   0.66594    0.020
 4453.00    1.27337   0.65699    0.020
 4454.00    1.02483   0.65756    0.020
 4455.00    0.97131   0.64093    0.019
 4456.00    0.92741   0.60119    0.019
 4457.00    0.96924   0.56314    0.019
 4458.00    1.01206   0.55938    0.019
 4459.00    1.03197   0.57729    0.019
 4460.00    1.06664   0.58106    0.019
 4461.00    1.40020   0.57141    0.000
 4462.00    1.69381   0.56435    0.000
 4463.00    1.51773   0.55160    0.000
 4464.00    1.33465   0.54779    0.000
 4465.00    1.09489   0.58613    0.000
 4466.00    0.86390   0.62972    0.000
 4467.00    0.68632   0.63390    0.000
 4468.00    0.58174   0.62244    0.000
 4469.00    0.82741   0.62201    0.000
 4470.00    1.03890   0.62158    0.000
 4471.00    1.11689   0.60791    0.000
 4472.00    1.14680   0.59589    0.000
 4473.00    1.02036   0.59604    0.000
 4474.00    0.87498   0.61498    0.000
 4475.00    0.67750   0.65251    0.000
 4476.00    0.62936   0.67630    0.000
 4477.00    0.93315   0.67265    0.000
 4478.00    1.06693   0.67548    0.000
 4479.00    0.85441   0.70062    0.000
 4480.00    0.70420   0.71520    0.000
 4481.00    0.66444   0.68904    0.000
 4482.00    0.73731   0.63611    0.019
 4483.00    0.98485   0.59504    0.019
 4484.00    1.14796   0.58753    0.019
 4485.00    1.19605   0.61899    0.020
 4486.00    1.08504   0.66545    0.020
 4487.00    0.78324   0.69889    0.020
 4488.00    0.73176   0.71429    0.019
 4489.00    0.94492   0.70545    0.019
 4490.00    1.09948   0.67063    0.020
 4491.00    1.19939   0.62852    0.020
 4492.00    1.23900   0.60968    0.020
 4493.00    1.22902   0.62864    0.020
 4494.00    1.20994   0.66049    0.020
 4495.00    1.18427   0.66374    0.020
 4496.00    0.94080   0.62641    0.019
 4497.00    0.55899   0.59117    0.019
 4498.00    0.42702   0.59085    0.019
 4499.00    0.43383   0.61741    0.019
 4500.00    0.77293   0.65351    0.019
 4501.00    1.27257   0.68068    0.020
 4502.00    1.38418   0.68394    0.020
 4503.00    1.33391   0.66243    0.019
 4504.00    1.31995   0.65755    0.020
 4505.00    1.31894   0.69663    0.020
 4506.00    1.40377   0.73661    0.020
 4507.00    1.51448   0.74189    0.020
 4508.00    1.25112   0.72264    0.020
 4509.00    0.89407   0.70099    0.019
 4510.00    0.75226   0.69266    0.019
 4511.00    0.65420   0.69836    0.019
 4512.00    1.04022   0.70776    0.019
 4513.00    1.50346   0.70712    0.019
 4514.00    1.11759   0.68832    0.019
 4515.00    0.63082   0.66207    0.019
 4516.00    0.62985   0.64252    0.019
 4517.00    0.66819   0.64237    0.019
 4518.00    0.83634   0.65817    0.019
 4519.00    1.01040   0.66096    0.019
 4520.00    1.04128   0.65040    0.019
 4521.00    1.06904   0.65976    0.019
 4522.00    1.02663   0.68780    0.019
 4523.00    0.98937   0.70977    0.019
 4524.00    1.04874   0.69986    0.019
 4525.00    1.10094   0.66943    0.019
 4526.00    1.07291   0.65350    0.019
 4527.00    1.03793   0.64031    0.018
 4528.00    0.94853   0.61153    0.019
 4529.00    0.87553   0.57850    0.019
 4530.00    0.89948   0.55496    0.019
 4531.00    0.91488   0.55074    0.019
 4532.00    0.89028   0.56409    0.019
 4533.00    0.86951   0.58208    0.019
 4534.00    0.86341   0.60536    0.019
 4535.00    0.89197   0.61352    0.019
 4536.00    1.03109   0.59167    0.019
 4537.00    1.14019   0.56668    0.019
 4538.00    1.16817   0.58329    0.019
 4539.00    1.14245   0.64475    0.019
 4540.00    0.99226   0.68497    0.019
 4541.00    0.86426   0.67183    0.018
 4542.00    0.78074   0.63151    0.018
 4543.00    0.80564   0.60003    0.019
 4544.00    1.01981   0.60686    0.019
 4545.00    1.05738   0.63836    0.019
 4546.00    0.82507   0.64638    0.019
 4547.00    0.70658   0.62952    0.019
 4548.00    0.74088   0.62622    0.018
 4549.00    0.76138   0.63868    0.018
 4550.00    0.76554   0.64048    0.000
 4551.00    0.85305   0.62453    0.000
 4552.00    1.02743   0.62108    0.000
 4553.00    0.98094   0.63789    0.000
 4554.00    0.73138   0.63903    0.000
 4555.00    0.74691   0.62375    0.000
 4556.00    0.97729   0.61103    0.000
 4557.00    1.06949   0.60789    0.000
 4558.00    1.06315   0.62612    0.000
 4559.00    1.08419   0.66265    0.000
 4560.00    1.12239   0.69138    0.000
 4561.00    1.05590   0.69942    0.000
 4562.00    0.93215   0.69207    0.000
 4563.00    0.84508   0.68787    0.000
 4564.00    0.77546   0.69006    0.000
 4565.00    0.77836   0.67346    0.000
 4566.00    0.81100   0.63858    0.000
 4567.00    0.87291   0.61635    0.000
 4568.00    0.94507   0.62810    0.000
 4569.00    0.88182   0.66730    0.000
 4570.00    0.77853   0.69598    0.000
 4571.00    0.92971   0.69667    0.000
 4572.00    1.14323   0.67955    0.000
 4573.00    1.09828   0.64670    0.000
 4574.00    1.00211   0.63252    0.000
 4575.00    1.09510   0.66368    0.000
 4576.00    1.21736   0.68965    0.000
 4577.00    0.97217   0.68320    0.000
 4578.00    0.68493   0.67611    0.000
 4579.00    0.77579   0.67602    0.000
 4580.00    0.89569   0.66540    0.000
 4581.00    0.95777   0.63723    0.000
 4582.00    1.01745   0.60700    0.000
 4583.00    0.96287   0.60148    0.000
 4584.00    0.91034   0.62483    0.000
 4585.00    0.98817   0.64583    0.000
 4586.00    1.05973   0.64370    0.000
 4587.00    1.02178   0.62880    0.000
 4588.00    0.96929   0.61752    0.000
 4589.00    0.76123   0.62888    0.000
 4590.00    0.59994   0.66165    0.000
 4591.00    0.79214   0.68838    0.000
 4592.00    0.96532   0.68727    0.000
 4593.00    1.02915   0.66121    0.000
 4594.00    1.06400   0.63551    0.000
 4595.00    0.96639   0.62728    0.000
 4596.00    0.87348   0.62443    0.000
 4597.00    0.79815   0.61605    0.000
 4598.00    0.75851   0.61311    0.000
 4599.00    0.83048   0.61710    0.000
 4600.00    0.92579   0.62522    0.000
 4601.00    1.08306   0.63639    0.000
 4602.00    1.20331   0.63227    0.000
 4603.00    1.23920   0.62152    0.000
 4604.00    1.16902   0.62645    0.000
 4605.00    0.88960   0.63310    0.000
 4606.00    0.72335   0.63001    0.000
 4607.00    0.75169   0.62018    0.000
 4608.00    0.85467   0.61913    0.000
 4609.00    1.07004   0.64229    0.000
 4610.00    1.14428   0.68368    0.000
 4611.00    1.03178   0.71512    0.000
 4612.00    0.97999   0.71240    0.000
 4613.00    0.99894   0.68849    0.000
 4614.00    0.97036   0.66942    0.000
 4615.00    0.89295   0.65847    0.000
 4616.00    0.83458   0.66233    0.000
 4617.00    0.79348   0.68113    0.000
 4618.00    0.81409   0.69043    0.000
 4619.00    0.88399   0.69472    0.000
 4620.00    0.92821   0.69592    0.000
 4621.00    0.95440   0.68012    0.000
 4622.00    1.04953   0.67266    0.000
 4623.00    1.18717   0.68745    0.000
 4624.00    1.14440   0.69173    0.000
 4625.00    1.00449   0.68459    0.000
 4626.00    0.93812   0.68428    0.000
 4627.00    0.90615   0.67889    0.000
 4628.00    0.82263   0.66768    0.000
 4629.00    0.71832   0.66955    0.000
 4630.00    0.80283   0.67678    0.000
 4631.00    0.95230   0.66926    0.000
 4632.00    1.01212   0.66224    0.000
 4633.00    1.04598   0.67468    0.000
 4634.00    0.99239   0.68124    0.000
 4635.00    0.91787   0.66299    0.000
 4636.00    0.88282   0.64536    0.000
 4637.00    0.85539   0.64463    0.000
 4638.00    0.78533   0.64690    0.000
 4639.00    0.70887   0.63602    0.000
 4640.00    0.86820   0.61901    0.000
 4641.00    1.05349   0.60581    0.000
 4642.00    1.02821   0.59800    0.000
 4643.00    0.98762   0.61087    0.000
 4644.00    0.92191   0.63537    0.000
 4645.00    0.85524   0.64012    0.000
 4646.00    0.88900   0.62659    0.000
 4647.00    0.91933   0.60505    0.000
 4648.00    0.80352   0.56862    0.000
 4649.00    0.69975   0.53867    0.000
 4650.00    0.79267   0.54288    0.000
 4651.00    0.86458   0.56897    0.000
 4652.00    0.72141   0.59424    0.000
 4653.00    0.61679   0.61401    0.000
 4654.00    0.79385   0.63273    0.000
 4655.00    0.94678   0.64278    0.000
 4656.00    0.96474   0.62734    0.000
 4657.00    0.96464   0.60347    0.000
 4658.00    0.88395   0.59676    0.000
 4659.00    0.79938   0.61134    0.000
 4660.00    0.70057   0.64588    0.000
 4661.00    0.64323   0.68390    0.000
 4662.00    0.71309   0.70213    0.000
 4663.00    0.74212   0.69105    0.000
 4664.00    0.66468   0.66038    0.000
 4665.00    0.63670   0.62936    0.000
 4666.00    0.71959   0.61527    0.000
 4667.00    0.79303   0.61047    0.000
 4668.00    0.84810   0.58491    0.000
 4669.00    0.83402   0.54000    0.000
 4670.00    0.70281   0.51953    0.000
 4671.00    0.70848   0.54601    0.000
 4672.00    0.91723   0.59373    0.000
 4673.00    1.00887   0.62970    0.000
 4674.00    0.94776   0.63845    0.000
 4675.00    0.89796   0.62625    0.000
 4676.00    0.86117   0.61332    0.000
 4677.00    0.87381   0.61566    0.000
 4678.00    0.93655   0.63524    0.000
 4679.00    0.99378   0.64737    0.000
 4680.00    1.04608   0.63468    0.000
 4681.00    1.05706   0.61290    0.000
 4682.00    1.03550   0.59695    0.000
 4683.00    1.02655   0.58683    0.000
 4684.00    1.02634   0.58712    0.000
 4685.00    1.00704   0.60319    0.000
 4686.00    0.97614   0.61378    0.000
 4687.00    0.95565   0.60410    0.000
 4688.00    0.94069   0.59465    0.000
 4689.00    0.95939   0.59477    0.000
 4690.00    0.99357   0.59763    0.000
 4691.00    1.00287   0.60600    0.000
 4692.00    1.00232   0.61260    0.000
 4693.00    0.95682   0.60762    0.000
 4694.00    0.89614   0.60353    0.000
 4695.00    0.86419   0.60781    0.000
 4696.00    0.84038   0.61685    0.000
 4697.00    0.82963   0.63267    0.000
 4698.00    0.82194   0.64740    0.000
 4699.00    0.71801   0.64130    0.000
 4700.00    0.59598   0.60992    0.000
 4701.00    0.66391   0.58239    0.000
 4702.00    0.75947   0.58142    0.000
 4703.00    0.82060   0.58823    0.000
 4704.00    0.87809   0.58306    0.000
 4705.00    0.98682   0.57470    0.000
 4706.00    1.09906   0.58318    0.000
 4707.00    1.00948   0.60170    0.000
 4708.00    0.91303   0.60648    0.000
 4709.00    0.89979   0.59426    0.000
 4710.00    0.88854   0.58255    0.000
 4711.00    0.93762   0.57922    0.000
 4712.00    0.98386   0.58937    0.000
 4713.00    0.98640   0.61468    0.000
 4714.00    0.99437   0.62715    0.000
 4715.00    1.05569   0.61205    0.000
 4716.00    1.10644   0.58627    0.000
 4717.00    1.08238   0.57932    0.000
 4718.00    1.03978   0.60417    0.000
 4719.00    0.89619   0.63544    0.000
 4720.00    0.78243   0.65220    0.000
 4721.00    0.79862   0.66522    0.000
 4722.00    0.83138   0.67693    0.000
 4723.00    0.92356   0.67609    0.000
 4724.00    0.94688   0.66109    0.000
 4725.00    0.76293   0.64929    0.000
 4726.00    0.60971   0.65816    0.000
 4727.00    0.53522   0.67509    0.000
 4728.00    0.54518   0.66997    0.000
 4729.00    0.74129   0.62960    0.000
 4730.00    0.94304   0.58135    0.000
 4731.00    1.15558   0.56057    0.000
 4732.00    1.26619   0.56618    0.000
 4733.00    1.20675   0.58111    0.000
 4734.00    1.10460   0.59973    0.000
 4735.00    0.94000   0.61434    0.000
 4736.00    0.85393   0.62089    0.000
 4737.00    0.86882   0.62645    0.000
 4738.00    0.89960   0.61900    0.000
 4739.00    0.94837   0.60594    0.000
 4740.00    0.97148   0.62175    0.000
 4741.00    0.96893   0.64836    0.000
 4742.00    0.88301   0.64822    0.000
 4743.00    0.72361   0.63280    0.000
 4744.00    0.68514   0.62911    0.000
 4745.00    0.74055   0.63910    0.000
 4746.00    0.75061   0.64407    0.000
 4747.00    0.72970   0.63830    0.000
 4748.00    0.71372   0.64284    0.000
 4749.00    0.70069   0.65772    0.000
 4750.00    0.70949   0.66130    0.000
 4751.00    0.72970   0.65706    0.000
 4752.00    0.73892   0.65762    0.000
 4753.00    0.74317   0.65576    0.000
 4754.00    0.66112   0.64287    0.000
 4755.00    0.54546   0.62791    0.000
 4756.00    0.64839   0.61781    0.000
 4757.00    0.82374   0.61497    0.000
 4758.00    0.76775   0.61770    0.000
 4759.00    0.64743   0.62141    0.000
 4760.00    0.68638   0.62446    0.000
 4761.00    0.76175   0.63032    0.016
 4762.00    0.79511   0.63818    0.016
 4763.00    0.82077   0.63187    0.016
 4764.00    0.83296   0.60968    0.016
 4765.00    0.84326   0.59450    0.016
 4766.00    0.73719   0.58822    0.016
 4767.00    0.61932   0.57424    0.016
 4768.00    0.64164   0.55851    0.016
 4769.00    0.67303   0.56282    0.016
 4770.00    0.71914   0.58617    0.016
 4771.00    0.76584   0.61413    0.016
 4772.00    0.88321   0.63303    0.016
 4773.00    0.99215   0.62748    0.016
 4774.00    0.85671   0.60978    0.016
 4775.00    0.73605   0.60932    0.016
 4776.00    0.82898   0.63113    0.016
 4777.00    0.90889   0.64965    0.016
 4778.00    0.86625   0.64854    0.015
 4779.00    0.81335   0.64755    0.015
 4780.00    0.69019   0.65323    0.015
 4781.00    0.62179   0.65009    0.015
 4782.00    0.84351   0.64124    0.015
 4783.00    1.00782   0.63478    0.015
 4784.00    0.92768   0.62169    0.015
 4785.00    0.86091   0.60000    0.016
 4786.00    0.84113   0.59307    0.016
 4787.00    0.81270   0.60347    0.016
 4788.00    0.75868   0.60155    0.016
 4789.00    0.65397   0.59459    0.016
 4790.00    0.42160   0.60162    0.016
 4791.00    0.35374   0.60486    0.016
 4792.00    0.64262   0.60048    0.016
 4793.00    0.84319   0.60425    0.016
 4794.00    0.87751   0.61638    0.016
 4795.00    0.93580   0.63623    0.016
 4796.00    1.03346   0.66302    0.016
 4797.00    1.03932   0.68072    0.016
 4798.00    0.91291   0.67576    0.016
 4799.00    0.87310   0.65647    0.016
 4800.00    0.94306   0.63414    0.016
 4801.00    0.95684   0.61316    0.016
 4802.00    0.90787   0.60404    0.016
 4803.00    0.91239   0.61812    0.016
 4804.00    0.96958   0.64668    0.016
 4805.00    1.00941   0.66520    0.016
 4806.00    1.03416   0.65898    0.016
 4807.00    1.00757   0.63650    0.016
 4808.00    0.94169   0.62005    0.017
 4809.00    0.85956   0.61019    0.016
 4810.00    0.76649   0.60044    0.015
 4811.00    0.80810   0.60310    0.016
 4812.00    0.92906   0.61912    0.016
 4813.00    0.97391   0.63095    0.016
 4814.00    0.97964   0.63134    0.016
 4815.00    1.00894   0.62705    0.017
 4816.00    1.04874   0.62521    0.017
 4817.00    0.93638   0.62789    0.016
 4818.00    0.76582   0.63577    0.016
 4819.00    0.90018   0.64730    0.016
 4820.00    1.13369   0.65685    0.017
 4821.00    0.96831   0.66402    0.017
 4822.00    0.69433   0.66654    0.016
 4823.00    0.82383   0.66101    0.016
 4824.00    1.04347   0.64423    0.016
 4825.00    0.95439   0.61237    0.016
 4826.00    0.81028   0.58978    0.016
 4827.00    0.94797   0.60194    0.017
 4828.00    1.12406   0.62745    0.017
 4829.00    0.94095   0.63471    0.016
 4830.00    0.72295   0.62343    0.016
 4831.00    0.72218   0.61470    0.016
 4832.00    0.73459   0.61872    0.016
 4833.00    0.62689   0.61517    0.016
 4834.00    0.51709   0.59620    0.016
 4835.00    0.60311   0.59245    0.016
 4836.00    0.68250   0.61338    0.017
 4837.00    0.58897   0.63151    0.017
 4838.00    0.51888   0.63313    0.016
 4839.00    0.76877   0.63091    0.016
 4840.00    0.98922   0.62670    0.016
 4841.00    0.94352   0.61101    0.016
 4842.00    0.89488   0.59470    0.016
 4843.00    0.82679   0.59550    0.016
 4844.00    0.78760   0.60336    0.016
 4845.00    0.89749   0.59856    0.016
 4846.00    0.94632   0.59675    0.016
 4847.00    0.74093   0.61632    0.016
 4848.00    0.62105   0.63779    0.000
 4849.00    0.79562   0.63659    0.000
 4850.00    0.88506   0.61332    0.000
 4851.00    0.72764   0.59486    0.000
 4852.00    0.68450   0.60284    0.000
 4853.00    0.92423   0.61743    0.000
 4854.00    1.04982   0.61927    0.000
 4855.00    0.93190   0.61629    0.000
 4856.00    0.93569   0.60064    0.000
 4857.00    1.16501   0.56636    0.000
 4858.00    1.27410   0.54681    0.000
 4859.00    1.18852   0.55972    0.000
 4860.00    1.07075   0.56876    0.000
 4861.00    0.90725   0.54352    0.000
 4862.00    0.74205   0.49175    0.000
 4863.00    0.57473   0.44270    0.000
 4864.00    0.53198   0.43763    0.000
 4865.00    0.62640   0.48055    0.000
 4866.00    0.66564   0.52234    0.000
 4867.00    0.65129   0.54507    0.000
 4868.00    0.73789   0.56341    0.000
 4869.00    0.91096   0.57510    0.000
 4870.00    1.07176   0.57693    0.000
 4871.00    1.22330   0.57958    0.000
 4872.00    1.04135   0.56961    0.000
 4873.00    0.63834   0.53170    0.000
 4874.00    0.51758   0.50456    0.000
 4875.00    0.56065   0.52395    0.016
 4876.00    0.64037   0.55890    0.016
 4877.00    0.73862   0.57214    0.016
 4878.00    0.93644   0.57662    0.016
 4879.00    1.17786   0.58768    0.016
 4880.00    1.01892   0.59907    0.016
 4881.00    0.70951   0.61709    0.016
 4882.00    0.62006   0.62824    0.016
 4883.00    0.60077   0.60794    0.016
 4884.00    0.68350   0.58469    0.016
 4885.00    0.79343   0.59019    0.016
 4886.00    0.78337   0.59745    0.016
 4887.00    0.74714   0.57760    0.016
 4888.00    0.60456   0.55039    0.016
 4889.00    0.44355   0.54558    0.016
 4890.00    0.60120   0.55931    0.016
 4891.00    0.80081   0.56650    0.016
 4892.00    0.85804   0.54811    0.016
 4893.00    0.90203   0.51516    0.016
 4894.00    0.88912   0.51798    0.016
 4895.00    0.87299   0.56793    0.016
 4896.00    0.82158   0.62098    0.016
 4897.00    0.76982   0.65296    0.016
 4898.00    0.76872   0.66436    0.016
 4899.00    0.76880   0.66212    0.016
 4900.00    0.79687   0.65594    0.016
 4901.00    0.81200   0.64056    0.016
 4902.00    0.65965   0.61812    0.016
 4903.00    0.52842   0.61162    0.016
 4904.00    0.58083   0.61523    0.016
 4905.00    0.63768   0.60557    0.016
 4906.00    0.72307   0.59622    0.016
 4907.00    0.78644   0.61166    0.016
 4908.00    0.73909   0.63985    0.016
 4909.00    0.65916   0.64811    0.016
 4910.00    0.44670   0.62868    0.016
 4911.00    0.29580   0.59802    0.016
 4912.00    0.35264   0.57267    0.016
 4913.00    0.40244   0.56674    0.016
 4914.00    0.43213   0.58102    0.016
 4915.00    0.45815   0.59934    0.016
 4916.00    0.47524   0.61325    0.015
 4917.00    0.54467   0.62818    0.015
 4918.00    0.72400   0.63855    0.015
 4919.00    0.82808   0.62637    0.015
 4920.00    0.79484   0.58251    0.016
 4921.00    0.74796   0.52214    0.016
 4922.00    0.67932   0.47851    0.016
 4923.00    0.66770   0.47845    0.016
 4924.00    0.73585   0.51874    0.015
 4925.00    0.74830   0.56028    0.015
 4926.00    0.69214   0.57014    0.015
 4927.00    0.70676   0.56457    0.015
 4928.00    0.79823   0.57873    0.015
 4929.00    0.80193   0.60587    0.015
 4930.00    0.72158   0.62513    0.015
 4931.00    0.69845   0.64138    0.015
 4932.00    0.72363   0.65205    0.015
 4933.00    0.68841   0.65214    0.015
 4934.00    0.60830   0.64204    0.015
 4935.00    0.64426   0.61255    0.015
 4936.00    0.75602   0.58364    0.015
 4937.00    0.83295   0.58897    0.015
 4938.00    0.88996   0.60585    0.015
 4939.00    0.88845   0.59155    0.015
 4940.00    0.85780   0.55023    0.000
 4941.00    0.76393   0.52281    0.000
 4942.00    0.64282   0.53982    0.000
 4943.00    0.73377   0.58419    0.000
 4944.00    0.90299   0.61551    0.000
 4945.00    0.81892   0.63017    0.000
 4946.00    0.65559   0.64039    0.000
 4947.00    0.53313   0.63645    0.000
 4948.00    0.42131   0.62211    0.000
 4949.00    0.43281   0.62197    0.000
 4950.00    0.47056   0.63467    0.000
 4951.00    0.65211   0.64214    0.000
 4952.00    0.85789   0.64497    0.000
 4953.00    0.85273   0.65138    0.000
 4954.00    0.82074   0.65226    0.000
 4955.00    0.87125   0.63895    0.000
 4956.00    0.92908   0.62292    0.000
 4957.00    0.92781   0.61189    0.000
 4958.00    0.92343   0.58679    0.000
 4959.00    0.85889   0.53016    0.000
 4960.00    0.79217   0.48942    0.000
 4961.00    0.64440   0.51914    0.000
 4962.00    0.50431   0.58182    0.000
 4963.00    0.53154   0.61421    0.000
 4964.00    0.56545   0.61463    0.000
 4965.00    0.68136   0.61353    0.000
 4966.00    0.77274   0.61072    0.000
 4967.00    0.65875   0.58818    0.000
 4968.00    0.58501   0.56110    0.000
 4969.00    0.76255   0.55388    0.000
 4970.00    0.88679   0.55952    0.000
 4971.00    0.74969   0.56803    0.000
 4972.00    0.64102   0.57746    0.000
 4973.00    0.64557   0.58747    0.000
 4974.00    0.65279   0.60041    0.000
 4975.00    0.66882   0.61139    0.000
 4976.00    0.68695   0.61805    0.000
 4977.00    0.71091   0.61937    0.000
 4978.00    0.71605   0.61307    0.000
 4979.00    0.67618   0.60172    0.000
 4980.00    0.66392   0.58291    0.000
 4981.00    0.70868   0.56409    0.000
 4982.00    0.72329   0.55880    0.000
 4983.00    0.68371   0.55186    0.000
 4984.00    0.65940   0.52215    0.000
 4985.00    0.65906   0.49054    0.000
 4986.00    0.72910   0.48962    0.000
 4987.00    0.89620   0.51094    0.000
 4988.00    0.95215   0.53430    0.000
 4989.00    0.87312   0.56064    0.000
 4990.00    0.77157   0.58196    0.000
 4991.00    0.64591   0.58545    0.000
 4992.00    0.70736   0.57617    0.000
 4993.00    0.94546   0.56574    0.000
 4994.00    0.84949   0.56861    0.000
 4995.00    0.47542   0.57743    0.000
 4996.00    0.39268   0.57400    0.000
 4997.00    0.52342   0.57238    0.000
 4998.00    0.69052   0.58086    0.000
 4999.00    0.88101   0.58477    0.000
 5000.00    0.82642   0.57966    0.000
 5001.00    0.63384   0.56223    0.000
 5002.00    0.65397   0.53740    0.000
 5003.00    0.77831   0.52408    0.000
 5004.00    0.73558   0.52481    0.000
 5005.00    0.62211   0.52986    0.000
 5006.00    0.58818   0.52993    0.000
 5007.00    0.58310   0.51473    0.000
 5008.00    0.67889   0.49036    0.000
 5009.00    0.80562   0.48725    0.000
 5010.00    0.67697   0.51862    0.000
 5011.00    0.48310   0.55253    0.000
 5012.00    0.47697   0.56139    0.000
 5013.00    0.50984   0.55105    0.000
 5014.00    0.76939   0.52748    0.000
 5015.00    1.06604   0.49812    0.000
 5016.00    0.85344   0.47732    0.000
 5017.00    0.57834   0.47675    0.000
 5018.00    0.62124   0.49611    0.000
 5019.00    0.69103   0.51261    0.000
 5020.00    0.53876   0.51426    0.000
 5021.00    0.37563   0.51697    0.000
 5022.00    0.46381   0.52650    0.000
 5023.00    0.55476   0.52806    0.000
 5024.00    0.57811   0.51636    0.000
 5025.00    0.60969   0.51222    0.000
 5026.00    0.80651   0.52886    0.000
 5027.00    0.97430   0.54718    0.000
 5028.00    0.80294   0.55104    0.000
 5029.00    0.65401   0.53838    0.015
 5030.00    0.68611   0.52419    0.015
 5031.00    0.70429   0.53343    0.015
 5032.00    0.63814   0.55551    0.015
 5033.00    0.56124   0.56931    0.015
 5034.00    0.43297   0.58165    0.015
 5035.00    0.37867   0.59822    0.015
 5036.00    0.61254   0.60375    0.015
 5037.00    0.73151   0.58011    0.015
 5038.00    0.47781   0.54110    0.015
 5039.00    0.28336   0.52701    0.015
 5040.00    0.25153   0.53563    0.015
 5041.00    0.29825   0.52663    0.015
 5042.00    0.52970   0.49006    0.015
 5043.00    0.66183   0.45211    0.015
 5044.00    0.59208   0.45323    0.015
 5045.00    0.49039   0.49982    0.015
 5046.00    0.33218   0.54932    0.015
 5047.00    0.35791   0.58095    0.015
 5048.00    0.66840   0.60269    0.015
 5049.00    0.74181   0.60439    0.015
 5050.00    0.49292   0.57436    0.014
 5051.00    0.40468   0.53444    0.014
 5052.00    0.50872   0.51579    0.014
 5053.00    0.60314   0.51785    0.014
 5054.00    0.68741   0.52375    0.014
 5055.00    0.68194   0.53405    0.014
 5056.00    0.59294   0.55373    0.014
 5057.00    0.57728   0.57303    0.014
 5058.00    0.62181   0.58033    0.014
 5059.00    0.62111   0.57993    0.014
 5060.00    0.58775   0.58310    0.014
 5061.00    0.69189   0.58746    0.014
 5062.00    0.88320   0.59040    0.015
 5063.00    0.87440   0.59889    0.015
 5064.00    0.75466   0.60780    0.014
 5065.00    0.73940   0.60041    0.015
 5066.00    0.77451   0.56745    0.015
 5067.00    0.83295   0.52834    0.015
 5068.00    0.90112   0.51925    0.015
 5069.00    0.78034   0.53261    0.015
 5070.00    0.59228   0.53458    0.015
 5071.00    0.54056   0.53175    0.014
 5072.00    0.52984   0.54471    0.014
 5073.00    0.57622   0.55601    0.014
 5074.00    0.63685   0.54458    0.014
 5075.00    0.64608   0.53388    0.014
 5076.00    0.64490   0.54483    0.015
 5077.00    0.71148   0.55379    0.015
 5078.00    0.78883   0.54749    0.014
 5079.00    0.70937   0.54657    0.014
 5080.00    0.61135   0.54804    0.014
 5081.00    0.63470   0.52110    0.014
 5082.00    0.66781   0.47968    0.014
 5083.00    0.62023   0.47003    0.014
 5084.00    0.56902   0.49018    0.014
 5085.00    0.63506   0.50485    0.014
 5086.00    0.69935   0.51047    0.014
 5087.00    0.60680   0.52377    0.014
 5088.00    0.51790   0.54016    0.014
 5089.00    0.49689   0.54680    0.014
 5090.00    0.48866   0.54703    0.014
 5091.00    0.62269   0.55076    0.014
 5092.00    0.72872   0.55668    0.014
 5093.00    0.61661   0.55892    0.014
 5094.00    0.53147   0.56345    0.014
 5095.00    0.60522   0.57596    0.015
 5096.00    0.65421   0.58360    0.015
 5097.00    0.58765   0.57388    0.014
 5098.00    0.57415   0.55483    0.014
 5099.00    0.76289   0.53701    0.014
 5100.00    0.84904   0.51648    0.014
 5101.00    0.60881   0.49396    0.014
 5102.00    0.48416   0.49241    0.015
 5103.00    0.67114   0.51979    0.014
 5104.00    0.79369   0.54703    0.014
 5105.00    0.76724   0.55154    0.015
 5106.00    0.69805   0.54095    0.015
 5107.00    0.54336   0.53221    0.015
 5108.00    0.46065   0.52838    0.015
 5109.00    0.50339   0.51959    0.015
 5110.00    0.61938   0.50827    0.015
 5111.00    0.84712   0.50461    0.015
 5112.00    0.98677   0.50289    0.016
 5113.00    1.00839   0.50587    0.016
 5114.00    0.99118   0.52171    0.016
 5115.00    0.92815   0.53589    0.016
 5116.00    0.76751   0.54312    0.016
 5117.00    0.50531   0.55129    0.015
 5118.00    0.36805   0.55831    0.015
 5119.00    0.34544   0.56686    0.015
 5120.00    0.41886   0.57707    0.015
 5121.00    0.56997   0.57767    0.015
 5122.00    0.68382   0.56567    0.015
 5123.00    0.77113   0.54829    0.015
 5124.00    0.80356   0.53096    0.015
 5125.00    0.80172   0.50906    0.015
 5126.00    0.83697   0.48567    0.015
 5127.00    0.89248   0.47991    0.015
 5128.00    0.84377   0.49064    0.015
 5129.00    0.74562   0.49672    0.015
 5130.00    0.68536   0.49371    0.015
 5131.00    0.64062   0.49090    0.015
 5132.00    0.63761   0.49456    0.015
 5133.00    0.64920   0.50856    0.015
 5134.00    0.64587   0.52652    0.015
 5135.00    0.63814   0.53473    0.014
 5136.00    0.54929   0.53609    0.014
 5137.00    0.44062   0.54495    0.015
 5138.00    0.49519   0.55203    0.014
 5139.00    0.58201   0.53923    0.014
 5140.00    0.62888   0.51597    0.014
 5141.00    0.66958   0.49767    0.014
 5142.00    0.59803   0.49827    0.014
 5143.00    0.51369   0.51659    0.014
 5144.00    0.57572   0.51691    0.014
 5145.00    0.64891   0.49874    0.014
 5146.00    0.69028   0.50000    0.014
 5147.00    0.73034   0.51172    0.014
 5148.00    0.69415   0.50606    0.014
 5149.00    0.66221   0.49253    0.014
 5150.00    0.83587   0.48940    0.014
 5151.00    0.99445   0.49873    0.014
 5152.00    0.89160   0.50677    0.014
 5153.00    0.78687   0.50157    0.014
 5154.00    0.66217   0.49145    0.014
 5155.00    0.56912   0.48657    0.014
 5156.00    0.71438   0.48766    0.014
 5157.00    0.84536   0.49767    0.014
 5158.00    0.89454   0.51718    0.014
 5159.00    0.91521   0.53882    0.014
 5160.00    0.80597   0.55375    0.014
 5161.00    0.73845   0.55532    0.014
 5162.00    0.82659   0.55185    0.014
 5163.00    0.87477   0.55194    0.014
 5164.00    0.79830   0.54254    0.014
 5165.00    0.74627   0.52359    0.014
 5166.00    0.75897   0.50817    0.014
 5167.00    0.73450   0.48359    0.014
 5168.00    0.62554   0.43547    0.014
 5169.00    0.56813   0.37983    0.014
 5170.00    0.61226   0.35056    0.014
 5171.00    0.60735   0.36851    0.014
 5172.00    0.51826   0.41114    0.014
 5173.00    0.52745   0.42327    0.014
 5174.00    0.68433   0.38237    0.015
 5175.00    0.77492   0.34062    0.015
 5176.00    0.77795   0.36005    0.014
 5177.00    0.71153   0.42559    0.014
 5178.00    0.56431   0.47571    0.014
 5179.00    0.58687   0.49248    0.014
 5180.00    0.78359   0.49928    0.014
 5181.00    0.88381   0.50291    0.015
 5182.00    0.89670   0.49503    0.015
 5183.00    0.84348   0.47404    0.015
 5184.00    0.73754   0.43570    0.015
 5185.00    0.71063   0.37927    0.015
 5186.00    0.73916   0.33989    0.014
 5187.00    0.64022   0.36363    0.014
 5188.00    0.46285   0.43491    0.015
 5189.00    0.49422   0.49461    0.015
 5190.00    0.63780   0.51663    0.000
 5191.00    0.65908   0.52192    0.000
 5192.00    0.62327   0.53189    0.000
 5193.00    0.62253   0.52391    0.000
 5194.00    0.63589   0.48199    0.000
 5195.00    0.70210   0.45189    0.000
 5196.00    0.78644   0.46361    0.000
 5197.00    0.83297   0.48304    0.000
 5198.00    0.86858   0.49036    0.000
 5199.00    0.78071   0.50318    0.000
 5200.00    0.66334   0.52205    0.000
 5201.00    0.68867   0.53551    0.000
 5202.00    0.74147   0.54213    0.000
 5203.00    0.82568   0.54052    0.000
 5204.00    0.91459   0.53157    0.000
 5205.00    0.73418   0.52050    0.000
 5206.00    0.52427   0.50030    0.000
 5207.00    0.64204   0.46249    0.000
 5208.00    0.78347   0.43003    0.000
 5209.00    0.77101   0.42410    0.000
 5210.00    0.75282   0.42409    0.000
 5211.00    0.80112   0.41953    0.015
 5212.00    0.84460   0.43303    0.015
 5213.00    0.70090   0.46783    0.014
 5214.00    0.57357   0.50752    0.014
 5215.00    0.71151   0.53833    0.014
 5216.00    0.82148   0.54835    0.014
 5217.00    0.64662   0.53412    0.014
 5218.00    0.48904   0.51040    0.014
 5219.00    0.45723   0.50243    0.014
 5220.00    0.44688   0.51799    0.014
 5221.00    0.55614   0.54182    0.014
 5222.00    0.63276   0.55669    0.014
 5223.00    0.56422   0.56191    0.014
 5224.00    0.53941   0.56203    0.014
 5225.00    0.67433   0.55033    0.014
 5226.00    0.79038   0.52256    0.014
 5227.00    0.84865   0.48601    0.014
 5228.00    0.88228   0.44991    0.014
 5229.00    0.85177   0.42725    0.014
 5230.00    0.82831   0.44285    0.014
 5231.00    0.82063   0.49395    0.014
 5232.00    0.86235   0.53665    0.014
 5233.00    0.99982   0.55148    0.014
 5234.00    1.04469   0.54539    0.014
 5235.00    0.93302   0.52134    0.014
 5236.00    0.79299   0.50203    0.014
 5237.00    0.61097   0.50791    0.014
 5238.00    0.56571   0.53123    0.014
 5239.00    0.69852   0.55834    0.014
 5240.00    0.73609   0.57458    0.014
 5241.00    0.66444   0.57328    0.014
 5242.00    0.57949   0.56489    0.014
 5243.00    0.48109   0.56188    0.014
 5244.00    0.56092   0.56288    0.014
 5245.00    0.79977   0.56204    0.014
 5246.00    0.85463   0.56703    0.014
 5247.00    0.76484   0.57819    0.014
 5248.00    0.65829   0.56798    0.014
 5249.00    0.54015   0.52824    0.014
 5250.00    0.58279   0.50076    0.014
 5251.00    0.72290   0.50659    0.014
 5252.00    0.77523   0.50972    0.015
 5253.00    0.78110   0.49852    0.015
 5254.00    0.76728   0.50301    0.014
 5255.00    0.74441   0.52297    0.014
 5256.00    0.62736   0.53035    0.014
 5257.00    0.47309   0.51831    0.014
 5258.00    0.56742   0.51584    0.015
 5259.00    0.74548   0.54414    0.015
 5260.00    0.70476   0.57836    0.015
 5261.00    0.60211   0.59115    0.015
 5262.00    0.60600   0.58170    0.015
 5263.00    0.63475   0.55720    0.016
 5264.00    0.69388   0.52329    0.016
 5265.00    0.75870   0.48578    0.015
 5266.00    0.85063   0.45408    0.015
 5267.00    0.94649   0.43201    0.015
 5268.00    0.88952   0.42005    0.015
 5269.00    0.81649   0.43149    0.016
 5270.00    0.68612   0.45533    0.016
 5271.00    0.55185   0.43981    0.016
 5272.00    0.47695   0.39377    0.015
 5273.00    0.40405   0.39567    0.015
 5274.00    0.42435   0.45404    0.015
 5275.00    0.44979   0.50214    0.015
 5276.00    0.63664   0.51398    0.015
 5277.00    0.81631   0.50823    0.015
 5278.00    0.88649   0.50481    0.015
 5279.00    0.95095   0.52537    0.015
 5280.00    0.95948   0.56222    0.015
 5281.00    0.95195   0.58091    0.015
 5282.00    0.83137   0.57056    0.015
 5283.00    0.74024   0.54557    0.015
 5284.00    0.80878   0.52272    0.015
 5285.00    0.83594   0.50734    0.014
 5286.00    0.68325   0.50124    0.014
 5287.00    0.59501   0.51869    0.014
 5288.00    0.73735   0.56046    0.014
 5289.00    0.83063   0.59352    0.014
 5290.00    0.77659   0.59595    0.014
 5291.00    0.74840   0.58541    0.014
 5292.00    0.78629   0.58635    0.014
 5293.00    0.81901   0.59676    0.014
 5294.00    0.84033   0.59894    0.014
 5295.00    0.80277   0.58806    0.014
 5296.00    0.65287   0.57690    0.014
 5297.00    0.60589   0.57173    0.014
 5298.00    0.73028   0.55583    0.014
 5299.00    0.82650   0.51687    0.014
 5300.00    0.88162   0.47846    0.014
 5301.00    0.83606   0.47861    0.014
 5302.00    0.66127   0.51160    0.014
 5303.00    0.64382   0.53173    0.014
 5304.00    0.80429   0.52984    0.014
 5305.00    0.84224   0.53790    0.014
 5306.00    0.75801   0.56555    0.014
 5307.00    0.67770   0.59328    0.014
 5308.00    0.60085   0.60290    0.014
 5309.00    0.55875   0.59309    0.014
 5310.00    0.54358   0.58120    0.014
 5311.00    0.60001   0.58488    0.014
 5312.00    0.70523   0.59770    0.014
 5313.00    0.66967   0.60258    0.014
 5314.00    0.55004   0.59678    0.014
 5315.00    0.51771   0.58688    0.014
 5316.00    0.53086   0.57932    0.014
 5317.00    0.49347   0.57637    0.014
 5318.00    0.43325   0.57232    0.014
 5319.00    0.48035   0.56570    0.014
 5320.00    0.56915   0.56424    0.014
 5321.00    0.68008   0.56648    0.014
 5322.00    0.79832   0.56514    0.014
 5323.00    0.83965   0.56305    0.014
 5324.00    0.85965   0.56116    0.014
 5325.00    0.87497   0.55088    0.014
 5326.00    0.88922   0.52923    0.015
 5327.00    0.86416   0.51509    0.014
 5328.00    0.83193   0.51913    0.014
 5329.00    0.71803   0.50498    0.015
 5330.00    0.59267   0.45094    0.015
 5331.00    0.63838   0.41165    0.015
 5332.00    0.70136   0.44154    0.014
 5333.00    0.63181   0.50506    0.014
 5334.00    0.55376   0.54042    0.015
 5335.00    0.64452   0.54324    0.014
 5336.00    0.73982   0.54764    0.014
 5337.00    0.64011   0.56713    0.014
 5338.00    0.54400   0.58102    0.014
 5339.00    0.55055   0.57858    0.014
 5340.00    0.55629   0.57134    0.014
 5341.00    0.55037   0.55901    0.014
 5342.00    0.54937   0.52854    0.014
 5343.00    0.59441   0.49803    0.014
 5344.00    0.65523   0.50452    0.014
 5345.00    0.82366   0.53856    0.014
 5346.00    0.95131   0.56040    0.014
 5347.00    0.86362   0.55866    0.014
 5348.00    0.78844   0.54544    0.014
 5349.00    0.76637   0.53925    0.014
 5350.00    0.77708   0.53914    0.014
 5351.00    0.90271   0.52852    0.014
 5352.00    0.98507   0.52212    0.014
 5353.00    0.93986   0.54032    0.014
 5354.00    0.89847   0.56756    0.014
 5355.00    0.86664   0.58110    0.014
 5356.00    0.84614   0.58609    0.014
 5357.00    0.85018   0.59797    0.014
 5358.00    0.82526   0.61010    0.014
 5359.00    0.74592   0.61234    0.013
 5360.00    0.69663   0.61067    0.013
 5361.00    0.69663   0.60858    0.013
 5362.00    0.77507   0.60470    0.013
 5363.00    0.96631   0.59530    0.014
 5364.00    1.05548   0.57974    0.014
 5365.00    1.01552   0.56856    0.014
 5366.00    0.88724   0.56482    0.014
 5367.00    0.66050   0.55705    0.014
 5368.00    0.65695   0.54758   -2.000
 5369.00    0.87289   0.54597   -2.000
 5370.00    0.95320   0.54627   -2.000
 5371.00    0.91591   0.53844   -2.000
 5372.00    0.94340   0.51207   -2.000
 5373.00    1.02038   0.47491   -2.000
 5374.00    1.03788   0.46340   -2.000
 5375.00    1.01545   0.49809   -2.000
 5376.00    1.03890   0.54994   -2.000
 5377.00    1.08934   0.58090   -2.000
 5378.00    1.02564   0.58638   -2.000
 5379.00    0.90340   0.57636   -2.000
 5380.00    0.84296   0.56916   -2.000
 5381.00    0.80997   0.57603   -2.000
 5382.00    0.75420   0.58205   -2.000
 5383.00    0.68974   0.57599    0.014
 5384.00    0.82127   0.56578    0.015
 5385.00    1.01637   0.55629    0.015
 5386.00    1.00847   0.55167    0.015
 5387.00    0.94545   0.55984    0.015
 5388.00    0.77471   0.57126    0.014
 5389.00    0.57997   0.57218    0.014
 5390.00    0.68759   0.56560    0.014
 5391.00    0.84891   0.55443    0.014
 5392.00    0.79058   0.53817    0.014
 5393.00    0.70246   0.52488    0.014
 5394.00    0.57914   0.52113    0.014
 5395.00    0.45243   0.52276    0.014
 5396.00    0.54584   0.52386    0.014
 5397.00    0.65249   0.52334    0.014
 5398.00    0.73998   0.51436    0.014
 5399.00    0.82576   0.48891    0.014
 5400.00    0.70968   0.47470    0.014
 5401.00    0.60024   0.49991    0.014
 5402.00    0.66192   0.53119    0.014
 5403.00    0.72162   0.53876    0.014
 5404.00    0.75457   0.54125    0.014
 5405.00    0.78807   0.54369    0.014
 5406.00    0.82651   0.52308    0.014
 5407.00    0.85160   0.48062    0.013
 5408.00    0.78849   0.44946    0.014
 5409.00    0.73179   0.45589    0.014
 5410.00    0.70806   0.48729    0.013
 5411.00    0.67343   0.50201    0.013
 5412.00    0.59351   0.48712    0.013
 5413.00    0.53213   0.47842    0.013
 5414.00    0.53445   0.50217    0.013
 5415.00    0.54554   0.53487    0.013
 5416.00    0.58203   0.54908    0.013
 5417.00    0.61903   0.54835    0.013
 5418.00    0.65729   0.55275    0.013
 5419.00    0.69043   0.56905    0.013
 5420.00    0.71267   0.58074    0.013
 5421.00    0.73873   0.57562    0.014
 5422.00    0.77185   0.55967    0.014
 5423.00    0.75421   0.54687    0.014
 5424.00    0.65458   0.54938    0.014
 5425.00    0.61899   0.55580    0.013
 5426.00    0.67417   0.54415    0.014
 5427.00    0.69554   0.53063    0.014
 5428.00    0.67473   0.54445    0.013
 5429.00    0.71576   0.57160    0.013
 5430.00    0.82476   0.57761    0.014
 5431.00    0.80998   0.54377    0.014
 5432.00    0.67518   0.49762    0.014
 5433.00    0.68346   0.49464    0.014
 5434.00    0.81406   0.52236    0.014
 5435.00    0.80554   0.52445    0.014
 5436.00    0.69226   0.50276    0.014
 5437.00    0.57921   0.48768    0.014
 5438.00    0.46631   0.49000    0.014
 5439.00    0.49733   0.50752    0.014
 5440.00    0.61173   0.53424    0.014
 5441.00    0.61259   0.56357    0.014
 5442.00    0.55613   0.58397    0.014
 5443.00    0.55426   0.59158    0.014
 5444.00    0.57625   0.59184    0.014
 5445.00    0.61966   0.59036    0.014
 5446.00    0.67110   0.58509    0.014
 5447.00    0.60790   0.56477    0.014
 5448.00    0.50822   0.52558    0.013
 5449.00    0.58718   0.48489    0.014
 5450.00    0.71363   0.47817    0.014
 5451.00    0.79727   0.51182    0.014
 5452.00    0.87158   0.54647    0.014
 5453.00    0.74947   0.55826    0.014
 5454.00    0.59342   0.55436    0.013
 5455.00    0.61445   0.54468    0.014
 5456.00    0.65869   0.52821    0.014
 5457.00    0.76914   0.50000    0.014
 5458.00    0.88570   0.47547    0.014
 5459.00    0.83233   0.48525    0.014
 5460.00    0.76941   0.52454    0.014
 5461.00    0.55253   0.55531    0.013
 5462.00    0.33620   0.55907    0.013
 5463.00    0.53478   0.54518    0.013
 5464.00    0.72810   0.52896    0.013
 5465.00    0.79814   0.51343    0.013
 5466.00    0.85455   0.50641    0.013
 5467.00    0.73581   0.52057    0.013
 5468.00    0.64394   0.53755    0.013
 5469.00    0.78462   0.54002    0.013
 5470.00    0.90040   0.54110    0.014
 5471.00    0.85655   0.54404    0.013
 5472.00    0.81630   0.53645    0.013
 5473.00    0.79409   0.52488    0.013
 5474.00    0.77463   0.52420    0.013
 5475.00    0.76629   0.52394    0.013
 5476.00    0.72831   0.51372    0.013
 5477.00    0.59055   0.50733    0.013
 5478.00    0.48675   0.49804   -2.000
 5479.00    0.47941   0.47429   -2.000
 5480.00    0.52257   0.47095   -2.000
 5481.00    0.68833   0.50463   -2.000
 5482.00    0.75197   0.53022   -2.000
 5483.00    0.60170   0.51711   -2.000
 5484.00    0.68224   0.49260   -2.000
 5485.00    1.18311   0.49327   -2.000
 5486.00    1.86685   0.51567   -2.000
 5487.00    2.84169   0.54099   -2.000
 5488.00    3.22276   0.55410   -2.000
 5489.00    2.77435   0.54212   -2.000
 5490.00    2.06812   0.51846   -2.000
 5491.00    1.04493   0.51261   -2.000
 5492.00    0.40093   0.52221   -2.000
 5493.00    0.16784   0.52879   -2.000
 5494.00    0.12027   0.53556   -2.000
 5495.00    0.25003   0.53787   -2.000
 5496.00    0.44187   0.52941   -2.000
 5497.00    0.68604   0.52717   -2.000
 5498.00    0.79352   0.53380   -2.000
 5499.00    0.79953   0.52850   -2.000
 5500.00    0.73743   0.51698   -2.000
 5501.00    0.63093   0.52674   -2.000
 5502.00    0.62347   0.54636    0.014
 5503.00    0.67253   0.54224    0.014
 5504.00    0.73359   0.52079    0.014
 5505.00    0.80060   0.51097    0.014
 5506.00    0.86847   0.51583    0.014
 5507.00    0.93671   0.51907    0.013
 5508.00    0.94700   0.50954    0.013
 5509.00    0.93594   0.49620    0.013
 5510.00    0.78365   0.50379    0.013
 5511.00    0.58730   0.52549    0.013
 5512.00    0.59925   0.53275    0.013
 5513.00    0.66541   0.52418    0.013
 5514.00    0.75476   0.50654    0.013
 5515.00    0.84903   0.48745    0.013
 5516.00    0.81893   0.48266    0.013
 5517.00    0.76794   0.49037    0.013
 5518.00    0.65263   0.50056    0.013
 5519.00    0.52918   0.51149    0.013
 5520.00    0.59896   0.52700    0.013
 5521.00    0.68577   0.54662    0.013
 5522.00    0.60096   0.55546    0.013
 5523.00    0.50718   0.55052    0.013
 5524.00    0.61641   0.54510    0.013
 5525.00    0.72725   0.54448    0.013
 5526.00    0.67273   0.54478    0.013
 5527.00    0.62354   0.54230    0.013
 5528.00    0.68906   0.53490    0.013
 5529.00    0.74593   0.52075    0.013
 5530.00    0.69732   0.49931    0.013
 5531.00    0.67252   0.48640    0.013
 5532.00    0.84621   0.50160    0.013
 5533.00    0.96932   0.52824    0.013
 5534.00    0.77780   0.53824    0.013
 5535.00    0.63557   0.53391    0.013
 5536.00    0.73430   0.52906    0.013
 5537.00    0.83799   0.52405    0.013
 5538.00    0.96135   0.51945    0.013
 5539.00    1.01658   0.52224    0.013
 5540.00    0.84693   0.52539    0.014
 5541.00    0.72644   0.52637    0.014
 5542.00    0.74304   0.53553    0.014
 5543.00    0.74660   0.54888    0.014
 5544.00    0.71902   0.55329    0.013
 5545.00    0.71705   0.54424    0.013
 5546.00    0.76788   0.53301    0.013
 5547.00    0.79066   0.53233    0.013
 5548.00    0.76315   0.53375    0.013
 5549.00    0.76479   0.53124    0.013
 5550.00    0.81219   0.53865    0.013
 5551.00    0.82050   0.55493    0.013
 5552.00    0.77499   0.56307    0.013
 5553.00    0.74290   0.56245    0.013
 5554.00    0.72710   0.55943    0.013
 5555.00    0.72905   0.55171    0.013
 5556.00    0.74999   0.53987    0.013
 5557.00    0.70546   0.53190    0.013
 5558.00    0.59924   0.53393    0.013
 5559.00    0.58050   0.53837    0.013
 5560.00    0.63446   0.53637    0.013
 5561.00    0.62806   0.53426    0.013
 5562.00    0.57750   0.53718    0.013
 5563.00    0.57820   0.53733    0.012
 5564.00    0.61182   0.53072    0.012
 5565.00    0.66492   0.52167    0.012
 5566.00    0.72898   0.51954    0.012
 5567.00    0.70019   0.52361    0.012
 5568.00    0.62601   0.51923    0.012
 5569.00    0.72250   0.51006    0.012
 5570.00    0.89111   0.51017    0.013
 5571.00    0.92838   0.51273    0.013
 5572.00    0.91814   0.51100    0.013
 5573.00    0.81084   0.51691    0.013
 5574.00    0.67384   0.52503    0.012
 5575.00    0.62859   0.51452    0.012
 5576.00    0.60671   0.50700    0.013
 5577.00    0.63057   0.52211    0.013
 5578.00    0.66392   0.53228    0.013
 5579.00    0.78454   0.53014    0.013
 5580.00    0.91941   0.53271    0.013
 5581.00    0.79807   0.53392    0.013
 5582.00    0.64544   0.53270    0.013
 5583.00    0.71257   0.53618    0.013
 5584.00    0.79815   0.53421    0.013
 5585.00    0.76781   0.52715    0.013
 5586.00    0.73186   0.52465    0.014
 5587.00    0.70185   0.51832    0.013
 5588.00    0.67254   0.50157    0.013
 5589.00    0.67908   0.47818    0.013
 5590.00    0.68599   0.45837    0.013
 5591.00    0.70016   0.45367    0.013
 5592.00    0.71382   0.46260    0.013
 5593.00    0.72157   0.47823    0.013
 5594.00    0.73894   0.48969    0.013
 5595.00    0.83363   0.49203    0.013
 5596.00    0.89740   0.49096    0.013
 5597.00    0.77442   0.49512    0.013
 5598.00    0.66699   0.51325    0.013
 5599.00    0.63369   0.53482    0.013
 5600.00    0.59970   0.52940    0.013
 5601.00    0.56304   0.50582    0.013
 5602.00    0.55227   0.49448    0.013
 5603.00    0.62524   0.49102    0.012
 5604.00    0.67127   0.48224    0.012
 5605.00    0.64349   0.47658    0.012
 5606.00    0.62622   0.48630    0.012
 5607.00    0.63361   0.51193    0.012
 5608.00    0.63789   0.53674    0.012
 5609.00    0.63586   0.55001    0.012
 5610.00    0.65976   0.55221    0.012
 5611.00    0.72943   0.54776    0.012
 5612.00    0.74772   0.54315    0.012
 5613.00    0.68662   0.54261    0.012
 5614.00    0.68257   0.54781    0.012
 5615.00    0.75595   0.55338    0.012
 5616.00    0.79431   0.54417    0.012
 5617.00    0.79082   0.50746    0.012
 5618.00    0.77665   0.46598    0.012
 5619.00    0.75121   0.46473    0.012
 5620.00    0.74499   0.49431    0.012
 5621.00    0.75662   0.50976    0.012
 5622.00    0.72427   0.50660    0.012
 5623.00    0.65589   0.50682    0.012
 5624.00    0.68151   0.51790    0.012
 5625.00    0.77491   0.52417    0.012
 5626.00    0.83126   0.50860    0.013
 5627.00    0.86416   0.48004    0.013
 5628.00    0.80760   0.47052    0.013
 5629.00    0.70156   0.48782    0.012
 5630.00    0.67539   0.50593    0.012
 5631.00    0.68767   0.51616    0.012
 5632.00    0.73169   0.52854    0.012
 5633.00    0.78891   0.53864    0.012
 5634.00    0.80916   0.53994    0.012
 5635.00    0.81627   0.53551    0.013
 5636.00    0.81618   0.52891    0.012
 5637.00    0.81393   0.52062    0.012
 5638.00    0.74156   0.51215    0.012
 5639.00    0.65172   0.50363    0.012
 5640.00    0.68050   0.49841    0.012
 5641.00    0.73324   0.50233    0.012
 5642.00    0.70392   0.51004    0.012
 5643.00    0.66161   0.50800    0.012
 5644.00    0.62635   0.49817    0.012
 5645.00    0.59192   0.49697    0.012
 5646.00    0.68224   0.50339    0.012
 5647.00    0.78251   0.50796    0.012
 5648.00    0.75669   0.51194    0.012
 5649.00    0.72525   0.51609    0.011
 5650.00    0.69859   0.51946    0.011
 5651.00    0.67298   0.51814    0.011
 5652.00    0.69584   0.51275    0.011
 5653.00    0.71607   0.51351    0.011
 5654.00    0.68769   0.52407    0.011
 5655.00    0.66520   0.53324    0.011
 5656.00    0.70782   0.52942    0.012
 5657.00    0.74265   0.51437    0.012
 5658.00    0.71703   0.50748    0.012
 5659.00    0.69526   0.51308    0.011
 5660.00    0.69613   0.50060    0.012
 5661.00    0.67238   0.46948    0.012
 5662.00    0.53408   0.46586    0.011
 5663.00    0.45333   0.49068    0.011
 5664.00    0.59131   0.49905    0.012
 5665.00    0.70832   0.48941    0.012
 5666.00    0.75881   0.49239    0.012
 5667.00    0.80541   0.51075    0.012
 5668.00    0.84154   0.52402    0.012
 5669.00    0.88160   0.52178    0.012
 5670.00    0.93072   0.50969    0.012
 5671.00    0.92097   0.50290    0.012
 5672.00    0.79366   0.50527    0.012
 5673.00    0.71364   0.50887    0.012
 5674.00    0.71587   0.51376    0.012
 5675.00    0.70052   0.52710    0.012
 5676.00    0.65841   0.54135    0.012
 5677.00    0.61533   0.54202    0.012
 5678.00    0.57095   0.53537    0.012
 5679.00    0.50942   0.53750    0.012
 5680.00    0.42767   0.54225    0.012
 5681.00    0.46265   0.53677    0.012
 5682.00    0.61887   0.52846    0.012
 5683.00    0.72558   0.52577    0.012
 5684.00    0.78695   0.51960    0.012
 5685.00    0.74757   0.50515    0.012
 5686.00    0.62684   0.50044    0.012
 5687.00    0.57708   0.51202    0.012
 5688.00    0.57775   0.51951    0.011
 5689.00    0.60926   0.50987    0.011
 5690.00    0.66000   0.49540    0.011
 5691.00    0.69477   0.49328    0.011
 5692.00    0.72086   0.50479    0.011
 5693.00    0.77824   0.51996    0.011
 5694.00    0.85044   0.53123    0.011
 5695.00    0.84595   0.53991    0.011
 5696.00    0.81016   0.54183    0.011
 5697.00    0.75108   0.53532    0.011
 5698.00    0.68387   0.53014    0.011
 5699.00    0.64801   0.53025    0.011
 5700.00    0.62137   0.52557    0.012
 5701.00    0.58541   0.51217    0.011
 5702.00    0.54718   0.50424    0.011
 5703.00    0.55534   0.49989    0.011
 5704.00    0.57263   0.48937    0.011
 5705.00    0.53154   0.48492    0.011
 5706.00    0.48148   0.49542    0.011
 5707.00    0.43848   0.50843    0.012
 5708.00    0.39627   0.50713    0.012
 5709.00    0.43126   0.49179    0.012
 5710.00    0.47210   0.47681    0.012
 5711.00    0.55794   0.46576    0.012
 5712.00    0.64560   0.46089    0.012
 5713.00    0.57151   0.46749    0.012
 5714.00    0.49982   0.47219    0.012
 5715.00    0.57856   0.47671    0.012
 5716.00    0.65359   0.49646    0.012
 5717.00    0.66462   0.51532    0.012
 5718.00    0.67632   0.52237    0.012
 5719.00    0.69502   0.52652    0.012
 5720.00    0.70707   0.52704    0.011
 5721.00    0.66936   0.52647    0.012
 5722.00    0.64849   0.53077    0.012
 5723.00    0.72371   0.53497    0.011
 5724.00    0.77249   0.53947    0.011
 5725.00    0.70125   0.54661    0.011
 5726.00    0.64030   0.55057    0.011
 5727.00    0.61762   0.54867    0.011
 5728.00    0.62115   0.54305    0.011
 5729.00    0.70623   0.52895    0.011
 5730.00    0.75857   0.51395    0.011
 5731.00    0.72440   0.51838    0.011
 5732.00    0.67319   0.53406    0.011
 5733.00    0.58334   0.53233    0.011
 5734.00    0.53741   0.51538    0.011
 5735.00    0.57781   0.51249    0.011
 5736.00    0.65738   0.52777    0.011
 5737.00    0.80405   0.53955    0.011
 5738.00    0.87818   0.54062    0.011
 5739.00    0.84349   0.53512    0.011
 5740.00    0.76767   0.52887    0.000
 5741.00    0.63762   0.52715    0.000
 5742.00    0.59002   0.52812    0.000
 5743.00    0.63817   0.52911    0.000
 5744.00    0.68310   0.52863    0.000
 5745.00    0.72474   0.52421    0.000
 5746.00    0.73430   0.52140    0.000
 5747.00    0.71489   0.52907    0.000
 5748.00    0.74974   0.54206    0.000
 5749.00    0.82779   0.54373    0.000
 5750.00    0.85178   0.52747    0.000
 5751.00    0.83792   0.51037    0.000
 5752.00    0.86571   0.51571    0.000
 5753.00    0.91909   0.53356    0.000
 5754.00    0.91640   0.53652    0.000
 5755.00    0.88363   0.51881    0.000
 5756.00    0.80328   0.49590    0.000
 5757.00    0.70075   0.48824    0.000
 5758.00    0.69329   0.50506    0.000
 5759.00    0.72398   0.53030    0.000
 5760.00    0.78665   0.54398    0.000
 5761.00    0.86026   0.54383    0.000
 5762.00    0.85365   0.53232    0.000
 5763.00    0.82392   0.51384    0.000
 5764.00    0.77743   0.49558    0.000
 5765.00    0.72696   0.48503    0.000
 5766.00    0.68518   0.49255    0.000
 5767.00    0.64505   0.51803    0.000
 5768.00    0.64163   0.53869    0.000
 5769.00    0.64366   0.54389    0.000
 5770.00    0.70093   0.54410    0.000
 5771.00    0.76421   0.54317    0.000
 5772.00    0.77312   0.53881    0.000
 5773.00    0.77814   0.53411    0.000
 5774.00    0.68664   0.52917    0.000
 5775.00    0.59158   0.52396    0.000
 5776.00    0.62732   0.52283    0.000
 5777.00    0.66299   0.52192    0.000
 5778.00    0.67679   0.52230    0.000
 5779.00    0.68876   0.52872    0.000
 5780.00    0.67124   0.53354    0.000
 5781.00    0.65211   0.53166    0.000
 5782.00    0.61658   0.52099    0.000
 5783.00    0.58355   0.49513    0.000
 5784.00    0.56860   0.46764    0.000
 5785.00    0.55717   0.46246    0.000
 5786.00    0.56522   0.47268    0.000
 5787.00    0.55931   0.47180    0.000
 5788.00    0.49142   0.46208    0.000
 5789.00    0.44605   0.47125    0.000
 5790.00    0.48274   0.49653    0.000
 5791.00    0.55816   0.51352   -2.000
 5792.00    0.75184   0.51858   -2.000
 5793.00    0.88357   0.51095   -2.000
 5794.00    0.85443   0.50177   -2.000
 5795.00    0.84794   0.50922   -2.000
 5796.00    0.89200   0.52319   -2.000
 5797.00    0.92835   0.53318   -2.000
 5798.00    0.94979   0.53956   -2.000
 5799.00    0.93872   0.53284   -2.000
 5800.00    0.87283   0.51395   -2.000
 5801.00    0.84548   0.50535   -2.000
 5802.00    0.87512   0.52169   -2.000
 5803.00    0.88269   0.54066   -2.000
 5804.00    0.86158   0.54764   -2.000
 5805.00    0.84703   0.54862   -2.000
 5806.00    0.83998   0.54174   -2.000
 5807.00    0.80835   0.52475   -2.000
 5808.00    0.75190   0.51527   -2.000
 5809.00    0.70864   0.51749   -2.000
 5810.00    0.67712   0.52243   -2.000
 5811.00    0.66610   0.52551    0.000
 5812.00    0.67115   0.52768    0.000
 5813.00    0.66050   0.53094    0.000
 5814.00    0.63900   0.53216    0.000
 5815.00    0.62944   0.53074    0.000
 5816.00    0.62709   0.52992    0.000
 5817.00    0.65592   0.52584    0.000
 5818.00    0.70122   0.51296    0.000
 5819.00    0.68676   0.50336    0.000
 5820.00    0.64492   0.51030    0.000
 5821.00    0.62840   0.52920    0.000
 5822.00    0.62185   0.54267    0.000
 5823.00    0.64757   0.54616    0.000
 5824.00    0.68412   0.54393    0.000
 5825.00    0.70283   0.53796    0.000
 5826.00    0.71650   0.53320    0.000
 5827.00    0.66648   0.53354    0.000
 5828.00    0.60164   0.53787    0.000
 5829.00    0.55255   0.53960    0.000
 5830.00    0.50639   0.53809    0.000
 5831.00    0.55068   0.53750    0.000
 5832.00    0.60802   0.54083    0.000
 5833.00    0.71773   0.54239    0.000
 5834.00    0.83291   0.53884    0.000
 5835.00    0.84123   0.53669    0.000
 5836.00    0.84232   0.53453    0.000
 5837.00    0.80159   0.52643    0.000
 5838.00    0.75948   0.52202    0.000
 5839.00    0.70269   0.52891    0.000
 5840.00    0.64787   0.53167    0.000
 5841.00    0.65570   0.52394    0.000
 5842.00    0.66165   0.52348    0.000
 5843.00    0.63917   0.53430    0.000
 5844.00    0.61323   0.54371    0.000
 5845.00    0.55363   0.54715    0.000
 5846.00    0.50329   0.54679    0.000
 5847.00    0.51796   0.54184    0.000
 5848.00    0.53524   0.53286    0.000
 5849.00    0.56662   0.52310    0.000
 5850.00    0.59271   0.51438    0.000
 5851.00    0.59590   0.51277    0.000
 5852.00    0.59414   0.51710    0.000
 5853.00    0.57469   0.52052    0.000
 5854.00    0.57267   0.51702    0.000
 5855.00    0.62288   0.50448    0.000
 5856.00    0.65492   0.49192    0.000
 5857.00    0.64062   0.49402    0.000
 5858.00    0.63765   0.50307    0.000
 5859.00    0.65952   0.49695    0.000
 5860.00    0.68745   0.47666    0.000
 5861.00    0.72693   0.46795    0.000
 5862.00    0.75296   0.48074    0.000
 5863.00    0.75667   0.49819    0.000
 5864.00    0.73885   0.50801    0.000
 5865.00    0.68966   0.50486    0.000
 5866.00    0.65148   0.50038    0.000
 5867.00    0.62742   0.50519    0.000
 5868.00    0.63367   0.50847    0.000
 5869.00    0.67413   0.50015    0.000
 5870.00    0.68817   0.49450    0.000
 5871.00    0.67591   0.50475    0.000
 5872.00    0.65692   0.51867    0.000
 5873.00    0.63201   0.52488    0.000
 5874.00    0.62089   0.52262    0.000
 5875.00    0.62043   0.51516    0.000
 5876.00    0.63064   0.50811    0.000
 5877.00    0.64810   0.50648    0.000
 5878.00    0.64558   0.50752    0.000
 5879.00    0.63114   0.50443    0.000
 5880.00    0.61870   0.50094    0.000
 5881.00    0.60728   0.49990    0.000
 5882.00    0.60944   0.49217    0.000
 5883.00    0.61771   0.48208    0.000
 5884.00    0.62623   0.48309    0.000
 5885.00    0.63484   0.49340    0.000
 5886.00    0.60105   0.49404    0.000
 5887.00    0.55327   0.48652    0.000
 5888.00    0.52314   0.48589    0.000
 5889.00    0.49788   0.48662    0.000
 5890.00    0.52490   0.46863    0.000
 5891.00    0.56381   0.41565    0.000
 5892.00    0.62859   0.33600    0.000
 5893.00    0.69808   0.28827    0.000
 5894.00    0.66638   0.31785    0.000
 5895.00    0.62055   0.37873    0.000
 5896.00    0.56401   0.41223    0.000
 5897.00    0.50640   0.40614    0.000
 5898.00    0.51076   0.36057    0.000
 5899.00    0.51906   0.32534    0.000
 5900.00    0.55937   0.35912    0.000
 5901.00    0.60051   0.41996    0.011
 5902.00    0.60661   0.45204    0.011
 5903.00    0.61238   0.46845    0.011
 5904.00    0.60881   0.48327    0.011
 5905.00    0.60628   0.48958    0.011
 5906.00    0.61842   0.49184    0.011
 5907.00    0.63188   0.49315    0.011
 5908.00    0.65761   0.48914    0.011
 5909.00    0.67649   0.48571    0.010
 5910.00    0.64876   0.49037    0.011
 5911.00    0.62140   0.49740    0.011
 5912.00    0.59595   0.49999    0.010
 5913.00    0.57044   0.50034    0.010
 5914.00    0.54466   0.50399    0.010
 5915.00    0.52287   0.50487    0.010
 5916.00    0.51501   0.49422    0.010
 5917.00    0.51600   0.47818    0.010
 5918.00    0.54302   0.47119    0.010
 5919.00    0.55722   0.47378    0.010
 5920.00    0.53925   0.48334    0.010
 5921.00    0.52534   0.49317    0.010
 5922.00    0.52019   0.49833    0.010
 5923.00    0.53344   0.50233    0.010
 5924.00    0.58120   0.50036    0.010
 5925.00    0.61862   0.49367    0.010
 5926.00    0.63910   0.49333    0.010
 5927.00    0.67153   0.49866    0.010
 5928.00    0.72108   0.50330    0.010
 5929.00    0.72728   0.50712    0.010
 5930.00    0.67872   0.50554    0.010
 5931.00    0.63836   0.49765    0.011
 5932.00    0.60713   0.48719    0.010
 5933.00    0.57350   0.48142    0.010
 5934.00    0.53751   0.49127    0.010
 5935.00    0.52773   0.50570    0.010
 5936.00    0.54066   0.50467    0.010
 5937.00    0.57398   0.48997    0.011
 5938.00    0.62285   0.48181    0.011
 5939.00    0.60273   0.49064    0.011
 5940.00    0.53638   0.50046    0.010
 5941.00    0.53425   0.50473    0.010
 5942.00    0.56982   0.50883    0.010
 5943.00    0.59528   0.50343    0.010
 5944.00    0.61557   0.48882    0.010
 5945.00    0.59815   0.48332    0.010
 5946.00    0.56400   0.49023    0.010
 5947.00    0.54070   0.50043    0.010
 5948.00    0.52154   0.50967    0.010
 5949.00    0.49741   0.51450    0.010
 5950.00    0.47168   0.50986    0.010
 5951.00    0.47827   0.49556    0.010
 5952.00    0.49361   0.48453    0.010
 5953.00    0.56365   0.48999    0.010
 5954.00    0.64584   0.49972    0.010
 5955.00    0.66822   0.49309    0.010
 5956.00    0.68001   0.48167    0.010
 5957.00    0.64644   0.48739    0.010
 5958.00    0.60674   0.49681    0.010
 5959.00    0.57763   0.49110    0.010
 5960.00    0.54953   0.48089    0.010
 5961.00    0.57996   0.48154    0.010
 5962.00    0.61389   0.49120    0.010
 5963.00    0.61001   0.50253    0.010
 5964.00    0.60521   0.51098    0.011
 5965.00    0.60747   0.51340    0.011
 5966.00    0.60868   0.51107    0.011
 5967.00    0.58347   0.50812    0.011
 5968.00    0.56068   0.50126    0.010
 5969.00    0.57037   0.49555    0.011
 5970.00    0.58534   0.50166    0.011
 5971.00    0.64752   0.50985    0.010
 5972.00    0.70791   0.51323    0.010
 5973.00    0.75658   0.51626    0.010
 5974.00    0.78354   0.51890    0.010
 5975.00    0.69918   0.51783    0.010
 5976.00    0.63535   0.51574    0.010
 5977.00    0.65649   0.51133    0.010
 5978.00    0.67058   0.50035    0.010
 5979.00    0.66052   0.48686    0.010
 5980.00    0.65380   0.48028    0.010
 5981.00    0.65674   0.48226    0.010
 5982.00    0.65478   0.49024    0.009
 5983.00    0.64074   0.50169    0.010
 5984.00    0.61153   0.50692    0.010
 5985.00    0.55011   0.50070    0.010
 5986.00    0.48660   0.48410    0.010
 5987.00    0.41926   0.46673    0.010
 5988.00    0.38098   0.46867    0.010
 5989.00    0.38957   0.48490    0.010
 5990.00    0.41743   0.49328    0.010
 5991.00    0.47256   0.49610    0.010
 5992.00    0.52272   0.50182    0.010
 5993.00    0.56668   0.50442    0.010
 5994.00    0.59059   0.49774    0.010
 5995.00    0.59251   0.49339    0.010
 5996.00    0.59951   0.50274    0.010
 5997.00    0.61145   0.51298    0.010
 5998.00    0.64067   0.51251    0.010
 5999.00    0.68463   0.50250    0.011
 6000.00    0.69777   0.48884    0.011
 6001.00    0.68774   0.48181    0.010
 6002.00    0.66573   0.48574    0.010
 6003.00    0.63581   0.49454    0.010
 6004.00    0.62602   0.49914    0.010
 6005.00    0.62788   0.49234    0.011
 6006.00    0.62860   0.48431    0.010
 6007.00    0.62874   0.48968    0.010
 6008.00    0.64222   0.49484    0.010
 6009.00    0.66152   0.48737    0.010
 6010.00    0.65642   0.47283    0.010
 6011.00    0.64218   0.46159    0.010
 6012.00    0.64808   0.47166    0.010
 6013.00    0.66037   0.49539    0.010
 6014.00    0.69852   0.50439    0.010
 6015.00    0.74352   0.49280    0.010
 6016.00    0.72258   0.47737    0.010
 6017.00    0.68733   0.47634    0.010
 6018.00    0.65100   0.48413    0.010
 6019.00    0.61447   0.48254    0.010
 6020.00    0.59063   0.47775    0.010
 6021.00    0.56844   0.48100    0.010
 6022.00    0.53085   0.48122    0.010
 6023.00    0.49185   0.47447    0.010
 6024.00    0.51981   0.47269    0.010
 6025.00    0.55150   0.47773    0.010
 6026.00    0.58403   0.48285    0.010
 6027.00    0.61591   0.48586    0.010
 6028.00    0.58173   0.49299    0.010
 6029.00    0.54929   0.49800    0.010
 6030.00    0.55736   0.49643    0.010
 6031.00    0.56760   0.50054    0.010
 6032.00    0.60547   0.50801    0.010
 6033.00    0.63685   0.50854    0.010
 6034.00    0.61236   0.50535    0.010
 6035.00    0.59222   0.50768    0.010
 6036.00    0.59982   0.51261    0.010
 6037.00    0.60246   0.51365    0.010
 6038.00    0.58029   0.51226    0.010
 6039.00    0.56098   0.51215    0.010
 6040.00    0.55325   0.51284    0.010
 6041.00    0.56179   0.51252    0.010
 6042.00    0.62494   0.50881    0.010
 6043.00    0.66010   0.50371    0.010
 6044.00    0.61598   0.50251    0.010
 6045.00    0.56723   0.50348    0.010
 6046.00    0.50727   0.50926    0.010
 6047.00    0.46356   0.51642    0.010
 6048.00    0.45386   0.51899    0.010
 6049.00    0.45908   0.52062    0.010
 6050.00    0.49141   0.52114    0.009
 6051.00    0.52625   0.51786    0.009
 6052.00    0.56511   0.51349    0.010
 6053.00    0.59605   0.51730    0.010
 6054.00    0.61595   0.52065    0.010
 6055.00    0.63978   0.51590    0.010
 6056.00    0.66846   0.50722    0.010
 6057.00    0.67283   0.50273    0.010
 6058.00    0.65093   0.49968    0.010
 6059.00    0.63151   0.49400    0.010
 6060.00    0.61446   0.49137    0.010
 6061.00    0.61603   0.49590    0.010
 6062.00    0.63324   0.50491    0.010
 6063.00    0.64536   0.51153    0.010
 6064.00    0.65371   0.51155    0.010
 6065.00    0.63494   0.50510    0.010
 6066.00    0.59852   0.49513    0.010
 6067.00    0.58335   0.48315    0.010
 6068.00    0.58029   0.47076    0.010
 6069.00    0.60799   0.47638    0.010
 6070.00    0.65093   0.50184    0.010
 6071.00    0.65952   0.52000    0.010
 6072.00    0.65337   0.52292    0.010
 6073.00    0.61152   0.52119    0.010
 6074.00    0.55654   0.52115    0.010
 6075.00    0.57007   0.52315    0.010
 6076.00    0.60493   0.52424    0.010
 6077.00    0.60550   0.52402    0.010
 6078.00    0.59719   0.52155    0.009
 6079.00    0.59242   0.51571    0.009
 6080.00    0.58840   0.50836    0.010
 6081.00    0.62653   0.49719    0.010
 6082.00    0.67171   0.49004    0.009
 6083.00    0.65783   0.49373    0.010
 6084.00    0.63651   0.49106    0.010
 6085.00    0.60755   0.48103    0.010
 6086.00    0.57793   0.48339    0.010
 6087.00    0.57844   0.49235    0.010
 6088.00    0.58050   0.49169    0.009
 6089.00    0.56676   0.48915    0.010
 6090.00    0.55227   0.49382    0.010
 6091.00    0.50390   0.49964    0.010
 6092.00    0.45894   0.49548    0.010
 6093.00    0.48665   0.48218    0.010
 6094.00    0.51392   0.47717    0.010
 6095.00    0.53589   0.48139    0.010
 6096.00    0.55886   0.48396    0.010
 6097.00    0.59003   0.49085    0.010
 6098.00    0.60786   0.50312    0.010
 6099.00    0.54299   0.50451    0.010
 6100.00    0.48116   0.49734    0.010
 6101.00    0.43408   0.49572    0.010
 6102.00    0.40874   0.50274    0.010
 6103.00    0.46946   0.50881    0.010
 6104.00    0.53191   0.49708    0.010
 6105.00    0.60006   0.46175    0.010
 6106.00    0.64832   0.43883    0.010
 6107.00    0.64119   0.45996    0.010
 6108.00    0.63917   0.49067    0.009
 6109.00    0.64928   0.50084    0.010
 6110.00    0.65606   0.49612    0.010
 6111.00    0.65597   0.49129    0.009
 6112.00    0.65008   0.49894    0.009
 6113.00    0.63380   0.50560    0.009
 6114.00    0.61856   0.49712    0.009
 6115.00    0.60491   0.49176    0.010
 6116.00    0.58692   0.50172    0.010
 6117.00    0.56297   0.51330    0.010
 6118.00    0.55196   0.51202    0.010
 6119.00    0.55660   0.49961    0.010
 6120.00    0.55851   0.49402    0.010
 6121.00    0.55751   0.49899    0.010
 6122.00    0.53072   0.49424    0.010
 6123.00    0.47967   0.47801    0.010
 6124.00    0.44731   0.45927    0.010
 6125.00    0.43046   0.44325    0.010
 6126.00    0.43885   0.45419    0.010
 6127.00    0.46568   0.48549    0.010
 6128.00    0.48229   0.49789    0.010
 6129.00    0.49236   0.49130    0.010
 6130.00    0.50792   0.48367    0.010
 6131.00    0.52654   0.47823    0.009
 6132.00    0.59399   0.48005    0.009
 6133.00    0.68526   0.49153    0.010
 6134.00    0.69386   0.50268    0.010
 6135.00    0.66759   0.50659    0.010
 6136.00    0.59239   0.50620    0.010
 6137.00    0.49953   0.49607    0.010
 6138.00    0.46720   0.47167    0.010
 6139.00    0.45334   0.43553    0.010
 6140.00    0.46615   0.40695    0.010
 6141.00    0.48574   0.42081    0.009
 6142.00    0.51861   0.46811    0.009
 6143.00    0.55423   0.49767    0.009
 6144.00    0.55481   0.48968    0.009
 6145.00    0.54969   0.47573    0.009
 6146.00    0.52497   0.48586    0.009
 6147.00    0.49786   0.50515    0.010
 6148.00    0.50901   0.51086    0.010
 6149.00    0.52336   0.50699    0.010
 6150.00    0.53501   0.50073    0.010
 6151.00    0.54653   0.49262    0.009
 6152.00    0.55481   0.48146    0.010
 6153.00    0.56274   0.47381    0.010
 6154.00    0.55397   0.47610    0.010
 6155.00    0.54492   0.48604    0.010
 6156.00    0.53016   0.49270    0.010
 6157.00    0.51611   0.48510    0.010
 6158.00    0.51023   0.47477    0.010
 6159.00    0.50423   0.47599    0.010
 6160.00    0.49722   0.47898    0.010
 6161.00    0.48957   0.47727    0.010
 6162.00    0.47817   0.47344    0.010
 6163.00    0.47071   0.45537    0.010
 6164.00    0.48200   0.41555    0.010
 6165.00    0.49375   0.38346    0.010
 6166.00    0.50725   0.38670    0.009
 6167.00    0.51729   0.41556    0.009
 6168.00    0.51614   0.44178    0.009
 6169.00    0.51869   0.45297    0.009
 6170.00    0.53134   0.46096    0.009
 6171.00    0.54918   0.45837    0.009
 6172.00    0.57915   0.43175    0.009
 6173.00    0.61224   0.41393    0.009
 6174.00    0.65164   0.43324    0.009
 6175.00    0.64674   0.45993    0.009
 6176.00    0.56375   0.46455    0.009
 6177.00    0.49186   0.46294    0.009
 6178.00    0.43712   0.46596    0.010
 6179.00    0.40735   0.46387    0.010
 6180.00    0.41143   0.45982    0.010
 6181.00    0.43471   0.46618    0.010
 6182.00    0.48091   0.47358    0.010
 6183.00    0.53045   0.47056    0.010
 6184.00    0.58351   0.47119    0.010
 6185.00    0.60493   0.47874    0.010
 6186.00    0.59701   0.48015    0.010
 6187.00    0.57962   0.47845    0.010
 6188.00    0.55449   0.47596    0.010
 6189.00    0.56039   0.46472    0.010
 6190.00    0.58864   0.45216    0.010
 6191.00    0.61401   0.44774    0.010
 6192.00    0.63758   0.44905    0.010
 6193.00    0.76237   0.44290    0.010
 6194.00    0.94307   0.42023    0.010
 6195.00    1.22661   0.41270    0.010
 6196.00    1.55954   0.43801   -2.000
 6197.00    1.49462   0.46199   -2.000
 6198.00    1.26478   0.46939   -2.000
 6199.00    0.75694   0.47352   -2.000
 6200.00    0.15057   0.47846   -2.000
 6201.00   -0.16281   0.47346   -2.000
 6202.00   -0.38850   0.45368   -2.000
 6203.00   -0.11076   0.43869   -2.000
 6204.00    0.29205   0.44760   -2.000
 6205.00    0.51314   0.46736   -2.000
 6206.00    0.69765   0.47759   -2.000
 6207.00    0.64628   0.47639   -2.000
 6208.00    0.55771   0.47298    0.010
 6209.00    0.47998   0.47360    0.010
 6210.00    0.40353   0.47492    0.010
 6211.00    0.43385   0.47450    0.010
 6212.00    0.47265   0.47370    0.010
 6213.00    0.51127   0.46930    0.010
 6214.00    0.54989   0.46321    0.010
 6215.00    0.56833   0.45647    0.010
 6216.00    0.58560   0.43951    0.010
 6217.00    0.55740   0.41995    0.010
 6218.00    0.53081   0.41304    0.009
 6219.00    0.53365   0.41805    0.010
 6220.00    0.53529   0.43211    0.010
 6221.00    0.52364   0.44237    0.009
 6222.00    0.51130   0.43566    0.009
 6223.00    0.49357   0.42456    0.009
 6224.00    0.47790   0.42562    0.009
 6225.00    0.47425   0.43719    0.009
 6226.00    0.47410   0.44529    0.009
 6227.00    0.49028   0.44236    0.009
 6228.00    0.50781   0.44157    0.009
 6229.00    0.53047   0.44798    0.009
 6230.00    0.54867   0.45178    0.009
 6231.00    0.55280   0.45061    0.009
 6232.00    0.55121   0.43851    0.009
 6233.00    0.53430   0.41238    0.009
 6234.00    0.52440   0.39653    0.009
 6235.00    0.53065   0.40629    0.009
 6236.00    0.55104   0.42419    0.009
 6237.00    0.59963   0.44506    0.010
 6238.00    0.62407   0.46379    0.010
 6239.00    0.60658   0.46829    0.010
 6240.00    0.57628   0.46098    0.010
 6241.00    0.52651   0.44975    0.010
 6242.00    0.48257   0.43593    0.010
 6243.00    0.44642   0.42322    0.010
 6244.00    0.42343   0.42548    0.010
 6245.00    0.41590   0.42854    0.010
 6246.00    0.41856   0.41563    0.010
 6247.00    0.43180   0.41133    0.009
 6248.00    0.44825   0.41969    0.009
 6249.00    0.46763   0.42369    0.009
 6250.00    0.50200   0.43461    0.009
 6251.00    0.54845   0.45255    0.009
 6252.00    0.58499   0.45828    0.009
 6253.00    0.61450   0.45351    0.009
 6254.00    0.61294   0.44301    0.009
 6255.00    0.59203   0.42445    0.009
 6256.00    0.60933   0.41260    0.009
 6257.00    0.64741   0.41498    0.009
 6258.00    0.68957   0.42009    0.010
 6259.00    0.73367   0.41560    0.010
 6260.00    0.67157   0.40266    0.011
 6261.00    0.56619   0.39126    0.012
 6262.00    0.46909   0.39559    0.012
 6263.00    0.37487   0.41706    0.012
 6264.00    0.36760   0.43317    0.012
 6265.00    0.38583   0.44465    0.012
 6266.00    0.45962   0.45899    0.011
 6267.00    0.54691   0.45882    0.010
 6268.00    0.56243   0.44228    0.010
 6269.00    0.56387   0.43596    0.010
 6270.00    0.55824   0.44580    0.010
 6271.00    0.55152   0.45044    0.010
 6272.00    0.57526   0.44486    0.010
 6273.00    0.60245   0.44210    0.010
 6274.00    0.56853   0.44533    0.010
 6275.00    0.53001   0.45172    0.010
 6276.00    0.50301   0.45665    0.009
 6277.00    0.47648   0.45467    0.009
 6278.00    0.48598   0.45151    0.009
 6279.00    0.49454   0.45313    0.009
 6280.00    0.45437   0.45504    0.000
 6281.00    0.41649   0.45578    0.000
 6282.00    0.41760   0.45221    0.000
 6283.00    0.42213   0.44030    0.000
 6284.00    0.46259   0.43353    0.000
 6285.00    0.50014   0.43901    0.000
 6286.00    0.51587   0.44986    0.000
 6287.00    0.52756   0.45878    0.000
 6288.00    0.51623   0.45783    0.000
 6289.00    0.50954   0.45656    0.000
 6290.00    0.52385   0.46322    0.000
 6291.00    0.54296   0.47132    0.000
 6292.00    0.57990   0.47611    0.000
 6293.00    0.60061   0.47133    0.000
 6294.00    0.57091   0.46021    0.000
 6295.00    0.54302   0.45243    0.000
 6296.00    0.51992   0.44934    0.000
 6297.00    0.50583   0.45416    0.000
 6298.00    0.51212   0.45767    0.000
 6299.00    0.51993   0.44640    0.000
 6300.00    0.53074   0.43220    0.000
 6301.00    0.53327   0.43205    0.000
 6302.00    0.52162   0.44305    0.000
 6303.00    0.50679   0.44826    0.000
 6304.00    0.48718   0.43885    0.000
 6305.00    0.47991   0.42915    0.000
 6306.00    0.48886   0.43438    0.000
 6307.00    0.48314   0.44537    0.000
 6308.00    0.46040   0.44783    0.000
 6309.00    0.43597   0.44855    0.000
 6310.00    0.40980   0.45982    0.000
 6311.00    0.40389   0.47247    0.000
 6312.00    0.41626   0.47346    0.000
 6313.00    0.43021   0.46318    0.000
 6314.00    0.44543   0.45039    0.000
 6315.00    0.43999   0.44508    0.000
 6316.00    0.42010   0.44898    0.000
 6317.00    0.42839   0.44757    0.000
 6318.00    0.45395   0.43691    0.000
 6319.00    0.47702   0.43556    0.000
 6320.00    0.49876   0.43705    0.000
 6321.00    0.50655   0.42507    0.009
 6322.00    0.50785   0.42086    0.009
 6323.00    0.53417   0.43563    0.009
 6324.00    0.57049   0.44846    0.010
 6325.00    0.56724   0.44965    0.010
 6326.00    0.55046   0.45056    0.010
 6327.00    0.54260   0.45852    0.009
 6328.00    0.53730   0.46402    0.009
 6329.00    0.55915   0.46413    0.009
 6330.00    0.58745   0.46088    0.009
 6331.00    0.57615   0.46206    0.009
 6332.00    0.55728   0.46785    0.009
 6333.00    0.49580   0.46413    0.009
 6334.00    0.42801   0.45930    0.009
 6335.00    0.42989   0.46431    0.009
 6336.00    0.43933   0.47107    0.009
 6337.00    0.48250   0.46567    0.009
 6338.00    0.52807   0.44272    0.009
 6339.00    0.52003   0.42392    0.009
 6340.00    0.51003   0.42890    0.009
 6341.00    0.47287   0.44340    0.009
 6342.00    0.43608   0.44932    0.009
 6343.00    0.41640   0.45504    0.009
 6344.00    0.39947   0.46285    0.009
 6345.00    0.42641   0.46003    0.009
 6346.00    0.45505   0.44589    0.009
 6347.00    0.50086   0.43334    0.009
 6348.00    0.54056   0.43714    0.009
 6349.00    0.53605   0.45009    0.009
 6350.00    0.52367   0.45721    0.009
 6351.00    0.46769   0.46092    0.009
 6352.00    0.42559   0.46431    0.009
 6353.00    0.44490   0.46431    0.009
 6354.00    0.46162   0.46451    0.009
 6355.00    0.46894   0.46660    0.010
 6356.00    0.47383   0.46354    0.010
 6357.00    0.47130   0.45088    0.010
 6358.00    0.48073   0.43926    0.009
 6359.00    0.52117   0.44132    0.009
 6360.00    0.55241   0.44510    0.009
 6361.00    0.56313   0.43358    0.009
 6362.00    0.56140   0.41894    0.009
 6363.00    0.53566   0.41612    0.009
 6364.00    0.50021   0.41533    0.009
 6365.00    0.44842   0.40987    0.009
 6366.00    0.42002   0.41000    0.009
 6367.00    0.42612   0.41940    0.009
 6368.00    0.44549   0.43083    0.009
 6369.00    0.48209   0.43967    0.009
 6370.00    0.51477   0.44844    0.009
 6371.00    0.54296   0.45939    0.009
 6372.00    0.54603   0.46421    0.009
 6373.00    0.52377   0.45979    0.009
 6374.00    0.48653   0.45826    0.009
 6375.00    0.43596   0.46611    0.009
 6376.00    0.40555   0.47458    0.009
 6377.00    0.39093   0.47440    0.009
 6378.00    0.37873   0.46962    0.009
 6379.00    0.36822   0.47013    0.009
 6380.00    0.35640   0.47122    0.009
 6381.00    0.34381   0.46385    0.009
 6382.00    0.32728   0.45529    0.009
 6383.00    0.30867   0.45379    0.009
 6384.00    0.32279   0.45510    0.009
 6385.00    0.35188   0.45938    0.009
 6386.00    0.37855   0.46327    0.009
 6387.00    0.40427   0.45988    0.009
 6388.00    0.42334   0.45733    0.009
 6389.00    0.44019   0.46297    0.009
 6390.00    0.45841   0.46884    0.009
 6391.00    0.47702   0.46860    0.009
 6392.00    0.45953   0.46828    0.009
 6393.00    0.43365   0.47127    0.009
 6394.00    0.42648   0.47001    0.009
 6395.00    0.42278   0.45545    0.009
 6396.00    0.44643   0.43236    0.009
 6397.00    0.47402   0.42592    0.010
 6398.00    0.47921   0.44383    0.010
 6399.00    0.48208   0.46381    0.010
 6400.00    0.48135   0.47306    0.010
 6401.00    0.48038   0.47081    0.009
 6402.00    0.46130   0.44998    0.009
 6403.00    0.44164   0.42270    0.010
 6404.00    0.47494   0.42675    0.010
 6405.00    0.50809   0.45588    0.009
 6406.00    0.53638   0.47339    0.010
 6407.00    0.55988   0.47619    0.010
 6408.00    0.51148   0.47382    0.010
 6409.00    0.46883   0.46824    0.009
 6410.00    0.48170   0.45633    0.009
 6411.00    0.49097   0.44470    0.009
 6412.00    0.47508   0.45117    0.009
 6413.00    0.46212   0.46202    0.009
 6414.00    0.46495   0.45455    0.009
 6415.00    0.46631   0.44593    0.009
 6416.00    0.46133   0.44974    0.009
 6417.00    0.44875   0.45390    0.009
 6418.00    0.40916   0.45705    0.009
 6419.00    0.37701   0.46415    0.009
 6420.00    0.36714   0.46754    0.009
 6421.00    0.36662   0.46289    0.009
 6422.00    0.38989   0.45181    0.009
 6423.00    0.42124   0.43656    0.009
 6424.00    0.47029   0.42823    0.009
 6425.00    0.50973   0.43970    0.009
 6426.00    0.53089   0.46276    0.009
 6427.00    0.53154   0.47249    0.010
 6428.00    0.49815   0.46784    0.010
 6429.00    0.46878   0.46772    0.010
 6430.00    0.44526   0.47512    0.010
 6431.00    0.43778   0.47945    0.010
 6432.00    0.45082   0.47098    0.010
 6433.00    0.46552   0.44899    0.010
 6434.00    0.48207   0.43011    0.009
 6435.00    0.48048   0.43493    0.009
 6436.00    0.46086   0.45298    0.009
 6437.00    0.44303   0.46536    0.009
 6438.00    0.42676   0.46998    0.009
 6439.00    0.41584   0.47074    0.009
 6440.00    0.40906   0.46653    0.009
 6441.00    0.39783   0.44988    0.009
 6442.00    0.38358   0.43314    0.009
 6443.00    0.36525   0.44092    0.009
 6444.00    0.34449   0.46435    0.009
 6445.00    0.37299   0.47832    0.009
 6446.00    0.42706   0.47957    0.009
 6447.00    0.44899   0.47724    0.009
 6448.00    0.45647   0.47825    0.009
 6449.00    0.46392   0.48314    0.009
 6450.00    0.47136   0.48454    0.009
 6451.00    0.47569   0.46999    0.009
 6452.00    0.47899   0.43388    0.009
 6453.00    0.48625   0.40363    0.009
 6454.00    0.49459   0.41101    0.009
 6455.00    0.52223   0.43982    0.010
 6456.00    0.55424   0.46221    0.010
 6457.00    0.54042   0.46929    0.010
 6458.00    0.51828   0.45961    0.010
 6459.00    0.48581   0.44983    0.010
 6460.00    0.45190   0.45568    0.010
 6461.00    0.45851   0.47043    0.010
 6462.00    0.46918   0.48117    0.009
 6463.00    0.50691   0.48475    0.009
 6464.00    0.54636   0.47484    0.009
 6465.00    0.53593   0.44771    0.009
 6466.00    0.52399   0.42779    0.009
 6467.00    0.48750   0.43722    0.009
 6468.00    0.45219   0.45650    0.009
 6469.00    0.44979   0.46758    0.009
 6470.00    0.44911   0.47393    0.009
 6471.00    0.47283   0.47653    0.009
 6472.00    0.49398   0.47219    0.009
 6473.00    0.49122   0.46401    0.009
 6474.00    0.48972   0.45651    0.009
 6475.00    0.49677   0.45593    0.009
 6476.00    0.50132   0.46559    0.009
 6477.00    0.49283   0.46937    0.009
 6478.00    0.48434   0.46235    0.009
 6479.00    0.47586   0.46069    0.009
 6480.00    0.47350   0.46738    0.009
 6481.00    0.49250   0.46957    0.009
 6482.00    0.51310   0.46719    0.010
 6483.00    0.53842   0.46557    0.009
 6484.00    0.56334   0.45534    0.009
 6485.00    0.58728   0.43777    0.009
 6486.00    0.58991   0.43110    0.009
 6487.00    0.54664   0.44046    0.009
 6488.00    0.50773   0.45262    0.009
 6489.00    0.47698   0.45903    0.009
 6490.00    0.45804   0.46230    0.009
 6491.00    0.45842   0.46552    0.009
 6492.00    0.45496   0.46313    0.009
 6493.00    0.44600   0.45461    0.009
 6494.00    0.44756   0.44745    0.009
 6495.00    0.46239   0.44338    0.009
 6496.00    0.48362   0.42795    0.009
 6497.00    0.51198   0.39486    0.009
 6498.00    0.51898   0.37055    0.009
 6499.00    0.50504   0.37291    0.009
 6500.00    0.50393   0.38806    0.009
 6501.00    0.51389   0.40225    0.009
 6502.00    0.51498   0.40917    0.009
 6503.00    0.50930   0.41801    0.009
 6504.00    0.49578   0.43223    0.009
 6505.00    0.47699   0.44195    0.010
 6506.00    0.46160   0.44718    0.010
 6507.00    0.44819   0.45168    0.009
 6508.00    0.45303   0.45631    0.010
 6509.00    0.46720   0.46103    0.010
 6510.00    0.49365   0.46053    0.010
 6511.00    0.52554   0.45290    0.010
 6512.00    0.54839   0.44737    0.009
 6513.00    0.56780   0.45130    0.009
 6514.00    0.56401   0.45829    0.009
 6515.00    0.55273   0.46024    0.009
 6516.00    0.55209   0.46039    0.009
 6517.00    0.55432   0.46038    0.009
 6518.00    0.51675   0.45580    0.009
 6519.00    0.47035   0.44973    0.009
 6520.00    0.49364   0.44634    0.009
 6521.00    0.52922   0.44122    0.009
 6522.00    0.53947   0.43830    0.009
 6523.00    0.54631   0.44657    0.009
 6524.00    0.48311   0.45776    0.009
 6525.00    0.41322   0.46209    0.009
 6526.00    0.40876   0.46106    0.009
 6527.00    0.40817   0.46226    0.009
 6528.00    0.46303   0.46507    0.000
 6529.00    0.51889   0.45931    0.000
 6530.00    0.51860   0.44858    0.000
 6531.00    0.51812   0.44664    0.000
 6532.00    0.51323   0.45371    0.000
 6533.00    0.50706   0.46017    0.000
 6534.00    0.48378   0.45917    0.000
 6535.00    0.46397   0.45005    0.000
 6536.00    0.47507   0.44281    0.000
 6537.00    0.49269   0.44662    0.000
 6538.00    0.55305   0.45837    0.000
 6539.00    0.60478   0.46479    0.000
 6540.00    0.61244   0.46116    0.000
 6541.00    0.61393   0.45748    0.000
 6542.00    0.58997   0.46316    0.000
 6543.00    0.56606   0.47064    0.000
 6544.00    0.54235   0.46953    0.000
 6545.00    0.52496   0.46174    0.000
 6546.00    0.52573   0.45454    0.000
 6547.00    0.53269   0.45052    0.000
 6548.00    0.55484   0.44394    0.000
 6549.00    0.58762   0.43163    0.000
 6550.00    0.64295   0.42766    0.000
 6551.00    0.67003   0.43763    0.000
 6552.00    0.64504   0.44907    0.000
 6553.00    0.62188   0.45151    0.000
 6554.00    0.60168   0.44533    0.000
 6555.00    0.62210   0.43966    0.000
 6556.00    0.69990   0.43647    0.000
 6557.00    0.80647   0.42945    0.000
 6558.00    0.94879   0.42013    0.000
 6559.00    1.06740   0.41718    0.000
 6560.00    1.16003   0.42289    0.000
 6561.00    1.13418   0.42878    0.000
 6562.00    0.99387   0.42917    0.000
 6563.00    0.81563   0.42499    0.000
 6564.00    0.60508   0.40579    0.000
 6565.00    0.45763   0.35470    0.000
 6566.00    0.35751   0.30651    0.000
 6567.00    0.34839   0.32292    0.000
 6568.00    0.39924   0.38010    0.000
 6569.00    0.44728   0.42072    0.000
 6570.00    0.49371   0.43913    0.000
 6571.00    0.48967   0.44307    0.000
 6572.00    0.46026   0.43399    0.000
 6573.00    0.43568   0.42670    0.000
 6574.00    0.41320   0.42906    0.000
 6575.00    0.42080   0.42871    0.000
 6576.00    0.43962   0.42051    0.000
 6577.00    0.52266   0.41249    0.000
 6578.00    0.62605   0.41131    0.000
 6579.00    0.73183   0.42213    0.000
 6580.00    0.83824   0.43882    0.000
 6581.00    0.84519   0.44968    0.000
 6582.00    0.83065   0.45059    0.000
 6583.00    0.71063   0.44232    0.000
 6584.00    0.57251   0.43189    0.000
 6585.00    0.50313   0.43082    0.000
 6586.00    0.44269   0.43811    0.000
 6587.00    0.42484   0.44435    0.000
 6588.00    0.41089   0.44534    0.000
 6589.00    0.41141   0.44202    0.000
 6590.00    0.41272   0.44353    0.000
 6591.00    0.43714   0.45100    0.000
 6592.00    0.46198   0.45476    0.000
 6593.00    0.48048   0.45489    0.000
 6594.00    0.49853   0.44915    0.000
 6595.00    0.50640   0.42985    0.000
 6596.00    0.51539   0.40499    0.000
 6597.00    0.53854   0.39977    0.000
 6598.00    0.55080   0.41719    0.000
 6599.00    0.46969   0.43342    0.000
 6600.00    0.40100   0.43689    0.000
 6601.00    0.41132   0.43252    0.000
 6602.00    0.42550   0.43023    0.000
 6603.00    0.45896   0.43723    0.000
 6604.00    0.48162   0.44795    0.000
 6605.00    0.46076   0.45226    0.000
 6606.00    0.45324   0.44979    0.000
 6607.00    0.49043   0.44423    0.000
 6608.00    0.51107   0.43733    0.000
 6609.00    0.48495   0.43225    0.010
 6610.00    0.45929   0.42881    0.010
 6611.00    0.43471   0.42227    0.010
 6612.00    0.42381   0.41353    0.010
 6613.00    0.44142   0.41625    0.010
 6614.00    0.47050   0.43320    0.010
 6615.00    0.52037   0.44621    0.010
 6616.00    0.52941   0.44450    0.010
 6617.00    0.47367   0.43926    0.009
 6618.00    0.43126   0.44376    0.009
 6619.00    0.40742   0.45009    0.009
 6620.00    0.37950   0.44828    0.009
 6621.00    0.34660   0.44437    0.009
 6622.00    0.32973   0.44532    0.009
 6623.00    0.33016   0.44945    0.009
 6624.00    0.34151   0.45240    0.009
 6625.00    0.36328   0.45085    0.009
 6626.00    0.38800   0.44282    0.009
 6627.00    0.41521   0.42892    0.010
 6628.00    0.41911   0.41907    0.010
 6629.00    0.40576   0.42412    0.010
 6630.00    0.38439   0.43410    0.010
 6631.00    0.35781   0.43718    0.010
 6632.00    0.39401   0.43538    0.010
 6633.00    0.46590   0.43227    0.010
 6634.00    0.48375   0.42926    0.010
 6635.00    0.47485   0.42400    0.010
 6636.00    0.48178   0.41434    0.010
 6637.00    0.49549   0.40758    0.010
 6638.00    0.47976   0.41281    0.010
 6639.00    0.45323   0.42520    0.010
 6640.00    0.44238   0.43476    0.010
 6641.00    0.43638   0.43751    0.010
 6642.00    0.42524   0.43309    0.009
 6643.00    0.41277   0.42840    0.009
 6644.00    0.44386   0.43189    0.009
 6645.00    0.48416   0.43501    0.009
 6646.00    0.50657   0.42630    0.009
 6647.00    0.52601   0.41810    0.009
 6648.00    0.48258   0.42323    0.009
 6649.00    0.43126   0.43098    0.010
 6650.00    0.41235   0.43073    0.010
 6651.00    0.39625   0.42813    0.010
 6652.00    0.39181   0.43044    0.010
 6653.00    0.38796   0.43322    0.010
 6654.00    0.41008   0.43095    0.010
 6655.00    0.43191   0.42732    0.010
 6656.00    0.40046   0.42612    0.010
 6657.00    0.36879   0.42692    0.010
 6658.00    0.33244   0.42929    0.010
 6659.00    0.30026   0.42923    0.010
 6660.00    0.31826   0.42711    0.010
 6661.00    0.33438   0.42802    0.010
 6662.00    0.33506   0.42904    0.010
 6663.00    0.33648   0.42593    0.010
 6664.00    0.34254   0.42191    0.010
 6665.00    0.34526   0.41720    0.009
 6666.00    0.33175   0.40788    0.009
 6667.00    0.33360   0.40298    0.009
 6668.00    0.39610   0.40857    0.009
 6669.00    0.45126   0.41370    0.009
 6670.00    0.48230   0.41345    0.009
 6671.00    0.49452   0.41359    0.010
 6672.00    0.45449   0.41932    0.010
 6673.00    0.43118   0.42782    0.010
 6674.00    0.44764   0.43265    0.010
 6675.00    0.45210   0.43253    0.010
 6676.00    0.43195   0.43111    0.010
 6677.00    0.42052   0.43128    0.010
 6678.00    0.42468   0.43266    0.010
 6679.00    0.41229   0.42978    0.010
 6680.00    0.37406   0.41471    0.010
 6681.00    0.33750   0.39489    0.010
 6682.00    0.30324   0.39366    0.010
 6683.00    0.28995   0.40924    0.010
 6684.00    0.30201   0.41812    0.010
 6685.00    0.33647   0.41837    0.010
 6686.00    0.39478   0.42015    0.010
 6687.00    0.42705   0.42426    0.010
 6688.00    0.43487   0.42681    0.010
 6689.00    0.43618   0.42685    0.009
 6690.00    0.43210   0.42507    0.009
 6691.00    0.44009   0.42243    0.009
 6692.00    0.45688   0.42237    0.010
 6693.00    0.44046   0.42506    0.010
 6694.00    0.40280   0.42676    0.010
 6695.00    0.37618   0.42659    0.010
 6696.00    0.35575   0.42587    0.000
 6697.00    0.36163   0.42496    0.000
 6698.00    0.38032   0.41977    0.000
 6699.00    0.36848   0.40929    0.000
 6700.00    0.34379   0.40283    0.000
 6701.00    0.38063   0.40457    0.000
 6702.00    0.43964   0.41155    0.000
 6703.00    0.43843   0.42119    0.000
 6704.00    0.41889   0.42718    0.000
 6705.00    0.42906   0.42590    0.000
 6706.00    0.44675   0.41949    0.000
 6707.00    0.47213   0.41228    0.000
 6708.00    0.49908   0.41105    0.000
 6709.00    0.51123   0.41639    0.000
 6710.00    0.52097   0.42104    0.000
 6711.00    0.50356   0.42228    0.000
 6712.00    0.48286   0.42156    0.000
 6713.00    0.58958   0.41757    0.000
 6714.00    0.70687   0.41452    0.000
 6715.00    0.71650   0.41501    0.000
 6716.00    0.72102   0.41338    0.000
 6717.00    0.58999   0.40800    0.000
 6718.00    0.45853   0.40081    0.000
 6719.00    0.41054   0.39265    0.000
 6720.00    0.36528   0.38532    0.000
 6721.00    0.37342   0.38576    0.000
 6722.00    0.38375   0.39795    0.000
 6723.00    0.41910   0.41023    0.000
 6724.00    0.45544   0.41271    0.000
 6725.00    0.49964   0.41030    0.000
 6726.00    0.52298   0.41270    0.000
 6727.00    0.42123   0.41827    0.000
 6728.00    0.34437   0.41737    0.000
 6729.00    0.38554   0.41053    0.000
 6730.00    0.43160   0.40776    0.000
 6731.00    0.49654   0.41104    0.000
 6732.00    0.54410   0.41481    0.000
 6733.00    0.53568   0.41825    0.000
 6734.00    0.53392   0.42063    0.000
 6735.00    0.55033   0.41968    0.000
 6736.00    0.53787   0.41547    0.000
 6737.00    0.45794   0.41248    0.000
 6738.00    0.39881   0.41405    0.000
 6739.00    0.38171   0.41791    0.000
 6740.00    0.37693   0.41685    0.000
 6741.00    0.39382   0.40926    0.000
 6742.00    0.39766   0.40315    0.000
 6743.00    0.38139   0.40454    0.000
 6744.00    0.40190   0.40953    0.000
 6745.00    0.47214   0.40918    0.000
 6746.00    0.51111   0.40397    0.000
 6747.00    0.51286   0.40380    0.000
 6748.00    0.51770   0.40821    0.000
 6749.00    0.52578   0.40865    0.000
 6750.00    0.53765   0.40529    0.000
 6751.00    0.55303   0.40278    0.000
 6752.00    0.54305   0.40170    0.000
 6753.00    0.51237   0.40031    0.012
 6754.00    0.50646   0.40189    0.012
 6755.00    0.51834   0.40344    0.013
 6756.00    0.46297   0.40039    0.013
 6757.00    0.36518   0.40074    0.013
 6758.00    0.39954   0.40542    0.013
 6759.00    0.50672   0.41000    0.012
 6760.00    0.55254   0.41586    0.012
 6761.00    0.56895   0.42140    0.013
 6762.00    0.49498   0.42394    0.013
 6763.00    0.38363   0.42473    0.013
 6764.00    0.39927   0.42321    0.013
 6765.00    0.45982   0.41919    0.013
 6766.00    0.48013   0.41780    0.013
 6767.00    0.48843   0.41962    0.013
 6768.00    0.47715   0.41938    0.013
 6769.00    0.46103   0.41328    0.012
 6770.00    0.45718   0.40434    0.012
 6771.00    0.45580   0.40120    0.013
 6772.00    0.56617   0.40565    0.012
 6773.00    0.69411   0.40796    0.012
 6774.00    0.56674   0.40434    0.012
 6775.00    0.40959   0.40368    0.012
 6776.00    0.46135   0.41046    0.012
 6777.00    0.52959   0.41899    0.012
 6778.00    0.50326   0.42407    0.012
 6779.00    0.47281   0.42568    0.012
 6780.00    0.45340   0.42442    0.012
 6781.00    0.43339   0.42376    0.012
 6782.00    0.38018   0.42640    0.012
 6783.00    0.33303   0.42812    0.012
 6784.00    0.39549   0.42512    0.012
 6785.00    0.44929   0.41659    0.012
 6786.00    0.40850   0.40393    0.012
 6787.00    0.38094   0.39259    0.012
 6788.00    0.45509   0.38874    0.012
 6789.00    0.51328   0.39253    0.012
 6790.00    0.47845   0.40110    0.012
 6791.00    0.46052   0.41032    0.012
 6792.00    0.52082   0.41317    0.013
 6793.00    0.57506   0.41148    0.013
 6794.00    0.60643   0.41260    0.013
 6795.00    0.61478   0.41375    0.013
 6796.00    0.55041   0.40944    0.013
 6797.00    0.52721   0.40437    0.013
 6798.00    0.61428   0.40366    0.013
 6799.00    0.67951   0.40446    0.013
 6800.00    0.69456   0.40686    0.013
 6801.00    0.66805   0.41005    0.013
 6802.00    0.55890   0.41102    0.013
 6803.00    0.47179   0.41170    0.012
 6804.00    0.42285   0.41400    0.013
 6805.00    0.43903   0.41637    0.013
 6806.00    0.55399   0.41515    0.012
 6807.00    0.56247   0.41165    0.012
 6808.00    0.42905   0.41164    0.012
 6809.00    0.40556   0.41250    0.012
 6810.00    0.51109   0.41021    0.012
 6811.00    0.53405   0.40974    0.012
 6812.00    0.47156   0.41052    0.013
 6813.00    0.46023   0.40864    0.013
 6814.00    0.49562   0.40853    0.013
 6815.00    0.47009   0.41148    0.013
 6816.00    0.39554   0.41225    0.013
 6817.00    0.40454   0.40807    0.013
 6818.00    0.47270   0.40272    0.013
 6819.00    0.52545   0.40494    0.013
 6820.00    0.56863   0.41368    0.013
 6821.00    0.55860   0.41851    0.013
 6822.00    0.51969   0.41537    0.013
 6823.00    0.51677   0.40910    0.013
 6824.00    0.53083   0.40743    0.013
 6825.00    0.47500   0.41253    0.013
 6826.00    0.39076   0.41913    0.013
 6827.00    0.38279   0.42216    0.012
 6828.00    0.40130   0.42202    0.012
 6829.00    0.46993   0.42081    0.013
 6830.00    0.55324   0.41688    0.013
 6831.00    0.52432   0.40937    0.013
 6832.00    0.46823   0.40467    0.013
 6833.00    0.45805   0.40789    0.013
 6834.00    0.45686   0.41462    0.013
 6835.00    0.47094   0.41720    0.013
 6836.00    0.48736   0.41510    0.013
 6837.00    0.49039   0.41514    0.013
 6838.00    0.49192   0.41922    0.014
 6839.00    0.58587   0.42072    0.014
 6840.00    0.68674   0.41704    0.014
 6841.00    0.49291   0.41179    0.014
 6842.00    0.28738   0.40514    0.014
 6843.00    0.33356   0.39650    0.014
 6844.00    0.38039   0.38860    0.013
 6845.00    0.38448   0.38514    0.013
 6846.00    0.39202   0.38969    0.012
 6847.00    0.45762   0.40048    0.013
 6848.00    0.50504   0.41028    0.013
 6849.00    0.36224   0.41404    0.012
 6850.00    0.24843   0.41444    0.012
 6851.00    0.35007   0.41551    0.012
 6852.00    0.44006   0.41559    0.012
 6853.00    0.46396   0.41363    0.012
 6854.00    0.48145   0.41218    0.012
 6855.00    0.46996   0.41260    0.012
 6856.00    0.46782   0.41333    0.012
 6857.00    0.50024   0.40859    0.012
 6858.00    0.48043   0.39721    0.012
 6859.00    0.29883   0.39112    0.012
 6860.00    0.18481   0.39469    0.013
 6861.00    0.24864   0.39955    0.013
 6862.00    0.30936   0.40276    0.013
 6863.00    0.36307   0.40152    0.013
 6864.00    0.39274   0.39362    0.013
 6865.00    0.37535   0.38889    0.013
 6866.00    0.41315   0.39694    0.013
 6867.00    0.54510   0.41011    0.014
 6868.00    0.63740   0.41556    0.014
 6869.00    0.67043   0.41207    0.014
 6870.00    0.55947   0.40248    0.014
 6871.00    0.25934   0.39174    0.013
 6872.00    0.17297   0.39131    0.013
 6873.00    0.33393   0.40119    0.013
 6874.00    0.37932   0.40581    0.012
 6875.00    0.30676   0.40040    0.012
 6876.00    0.24965   0.39613    0.012
 6877.00    0.20645   0.39890    0.012
 6878.00    0.24495   0.40220    0.012
 6879.00    0.34825   0.40267    0.012
 6880.00    0.37086   0.40555    0.013
 6881.00    0.33716   0.41162    0.013
 6882.00    0.39370   0.41455    0.013
 6883.00    0.50546   0.41257    0.013
 6884.00    0.49562   0.40709    0.013
 6885.00    0.42082   0.39945    0.013
 6886.00    0.46893   0.39502    0.013
 6887.00    0.57406   0.39920    0.013
 6888.00    0.54012   0.40670    0.013
 6889.00    0.45060   0.40866    0.013
 6890.00    0.50832   0.40924    0.013
 6891.00    0.61623   0.41375    0.013
 6892.00    0.53866   0.41757    0.013
 6893.00    0.40790   0.41928    0.013
 6894.00    0.40932   0.42145    0.013
 6895.00    0.44205   0.42069    0.013
 6896.00    0.48663   0.41721    0.013
 6897.00    0.53347   0.41627    0.013
 6898.00    0.43569   0.41533    0.013
 6899.00    0.31654   0.41248    0.013
 6900.00    0.31911   0.41288    0.013
 6901.00    0.33482   0.41729    0.012
 6902.00    0.36810   0.41868    0.013
 6903.00    0.40263   0.41455    0.013
 6904.00    0.30960   0.41282    0.013
 6905.00    0.21199   0.41782    0.013
 6906.00    0.35196   0.42205    0.014
 6907.00    0.48544   0.42049    0.014
 6908.00    0.36667   0.41737    0.014
 6909.00    0.25743   0.41755    0.014
 6910.00    0.29906   0.42082    0.013
 6911.00    0.32530   0.42306    0.013
 6912.00    0.19735   0.42379    0.013
 6913.00    0.09443   0.42431    0.013
 6914.00    0.17139   0.42275    0.013
 6915.00    0.23112   0.41863    0.013
 6916.00    0.19579   0.41313    0.013
 6917.00    0.19894   0.40725    0.012
 6918.00    0.37180   0.40627    0.013
 6919.00    0.48875   0.40991    0.013
 6920.00    0.40303   0.41108    0.012
 6921.00    0.34461   0.41154    0.012
 6922.00    0.36911   0.41528    0.012
 6923.00    0.41537   0.42009    0.012
 6924.00    0.51788   0.42348    0.012
 6925.00    0.54435   0.42443    0.012
 6926.00    0.40182   0.42107    0.012
 6927.00    0.35007   0.41138    0.013
 6928.00    0.47321   0.40044    0.013
 6929.00    0.53971   0.39635    0.013
 6930.00    0.51099   0.40103    0.013
 6931.00    0.48517   0.40865    0.013
 6932.00    0.46361   0.41339    0.014
 6933.00    0.42224   0.41530    0.014
 6934.00    0.35522   0.41541    0.014
 6935.00    0.34223   0.41237    0.014
 6936.00    0.39089   0.40647    0.014
 6937.00    0.40148   0.40518    0.014
 6938.00    0.37376   0.41133    0.013
 6939.00    0.38710   0.41636    0.013
 6940.00    0.43685   0.41540    0.013
 6941.00    0.41088   0.41309    0.013
 6942.00    0.32569   0.41448    0.013
 6943.00    0.30963   0.41953    0.013
 6944.00    0.34110   0.42405    0.013
 6945.00    0.43431   0.42248    0.013
 6946.00    0.56474   0.41487    0.013
 6947.00    0.53816   0.40539    0.013
 6948.00    0.42898   0.39754    0.013
 6949.00    0.34395   0.39735    0.013
 6950.00    0.26994   0.40630    0.013
 6951.00    0.35537   0.41568    0.013
 6952.00    0.50341   0.42022    0.013
 6953.00    0.49209   0.41989    0.013
 6954.00    0.42747   0.41365    0.014
 6955.00    0.36077   0.40644    0.014
 6956.00    0.29350   0.40321    0.013
 6957.00    0.41239   0.40200    0.014
 6958.00    0.57436   0.40375    0.014
 6959.00    0.48322   0.41001    0.014
 6960.00    0.34510   0.41618    0.013
 6961.00    0.34988   0.41801    0.013
 6962.00    0.37511   0.41738    0.013
 6963.00    0.45986   0.41737    0.013
 6964.00    0.55077   0.41886    0.013
 6965.00    0.46022   0.42058    0.013
 6966.00    0.35758   0.42188    0.013
 6967.00    0.29683   0.42315    0.013
 6968.00    0.23746   0.42152    0.013
 6969.00    0.32316   0.41647    0.013
 6970.00    0.40318   0.41618    0.013
 6971.00    0.30858   0.42343    0.013
 6972.00    0.22708   0.42914    0.013
 6973.00    0.34045   0.42655    0.013
 6974.00    0.43123   0.41914    0.013
 6975.00    0.30511   0.41678    0.013
 6976.00    0.21482   0.42289    0.014
 6977.00    0.37385   0.42672    0.014
 6978.00    0.48669   0.42094    0.014
 6979.00    0.35161   0.41248    0.014
 6980.00    0.24956   0.40374    0.014
 6981.00    0.28978   0.38901    0.013
 6982.00    0.33540   0.37651    0.013
 6983.00    0.40014   0.38192    0.013
 6984.00    0.45928   0.39958    0.013
 6985.00    0.50173   0.41445    0.013
 6986.00    0.51654   0.42339    0.013
 6987.00    0.46113   0.42784    0.013
 6988.00    0.42990   0.42840    0.013
 6989.00    0.45152   0.42729    0.013
 6990.00    0.44648   0.42628    0.013
 6991.00    0.39086   0.42405    0.013
 6992.00    0.36946   0.41809    0.013
 6993.00    0.40472   0.41270    0.013
 6994.00    0.41878   0.41475    0.013
 6995.00    0.40207   0.42179    0.013
 6996.00    0.44956   0.42623    0.014
 6997.00    0.57903   0.42457    0.014
 6998.00    0.61191   0.42051    0.014
 6999.00    0.53614   0.41991    0.014
 7000.00    0.47951   0.42245    0.014
 7001.00    0.44187   0.42270    0.014
 7002.00    0.37026   0.41595    0.014
 7003.00    0.26894   0.40604    0.014
 7004.00    0.36287   0.40407    0.013
 7005.00    0.60730   0.41204    0.013
 7006.00    0.60157   0.41870    0.013
 7007.00    0.42633   0.41596    0.013
 7008.00    0.35501   0.40926    0.013
 7009.00    0.34539   0.40666    0.013
 7010.00    0.34038   0.40844    0.013
 7011.00    0.33776   0.41215    0.013
 7012.00    0.34084   0.41688    0.013
 7013.00    0.34647   0.41971    0.013
 7014.00    0.27240   0.41751    0.013
 7015.00    0.16757   0.41521    0.013
 7016.00    0.14126   0.41784    0.013
 7017.00    0.14073   0.41971    0.013
 7018.00    0.14307   0.41121    0.013
 7019.00    0.14620   0.39326    0.014
 7020.00    0.29187   0.38375    0.014
 7021.00    0.46975   0.39524    0.014
 7022.00    0.47413   0.41439    0.014
 7023.00    0.44717   0.42522    0.014
 7024.00    0.38432   0.42804    0.014
 7025.00    0.31651   0.42522    0.014
 7026.00    0.28286   0.41499    0.013
 7027.00    0.25261   0.40227    0.013
 7028.00    0.18731   0.39784    0.013
 7029.00    0.11982   0.40410    0.013
 7030.00    0.20783   0.41211    0.013
 7031.00    0.30017   0.41609    0.013
 7032.00    0.37153   0.41863    0.013
 7033.00    0.43744   0.42135    0.013
 7034.00    0.35386   0.42229    0.013
 7035.00    0.27351   0.42051    0.014
 7036.00    0.23862   0.41810    0.013
 7037.00    0.22001   0.41784    0.013
 7038.00    0.35164   0.42037    0.014
 7039.00    0.46967   0.42503    0.014
 7040.00    0.49606   0.42436    0.014
 7041.00    0.48996   0.41092    0.014
 7042.00    0.31402   0.39905    0.014
 7043.00    0.18878   0.40775    0.014
 7044.00    0.27702   0.42872    0.014
 7045.00    0.33311   0.44320    0.014
 7046.00    0.27739   0.44609    0.014
 7047.00    0.27691   0.43971    0.014
 7048.00    0.43813   0.42844    0.014
 7049.00    0.51130   0.42313    0.014
 7050.00    0.36464   0.42889   -2.000
 7051.00    0.27096   0.43881   -2.000
 7052.00    0.29124   0.44522   -2.000
 7053.00    0.31611   0.44550   -2.000
 7054.00    0.34956   0.44017   -2.000
 7055.00    0.36874   0.42695   -2.000
 7056.00    0.36468   0.40700   -2.000
 7057.00    0.37451   0.39060   -2.000
 7058.00    0.40419   0.38451   -2.000
 7059.00    0.48227   0.38794   -2.000
 7060.00    0.62125   0.39601   -2.000
 7061.00    0.67054   0.40046   -2.000
 7062.00    0.62036   0.39487   -2.000
 7063.00    0.46591   0.38270   -2.000
 7064.00    0.20948   0.37580   -2.000
 7065.00    0.17070   0.37858   -2.000
 7066.00    0.31967   0.38408   -2.000
 7067.00    0.31220   0.38945   -2.000
 7068.00    0.18588   0.39365   -2.000
 7069.00   -0.55098   0.39103   -2.000
 7070.00   -1.69550   0.38091   -2.000
 7071.00   -1.26404   0.36934   -2.000
 7072.00    0.08911   0.36524   -2.000
 7073.00    0.56070   0.37485   -2.000
 7074.00    0.58286   0.39078   -2.000
 7075.00    0.48672   0.39960   -2.000
 7076.00    0.33835   0.39998   -2.000
 7077.00    0.31818   0.39857   -2.000
 7078.00    0.34663   0.39744   -2.000
 7079.00    0.32891   0.39601   -2.000
 7080.00    0.29633   0.39588   -2.000
 7081.00    0.35707   0.39807   -2.000
 7082.00    0.44294   0.40063   -2.000
 7083.00    0.44371   0.40376   -2.000
 7084.00    0.42568   0.40775   -2.000
 7085.00    0.36278   0.40661   -2.000
 7086.00    0.29199   0.39575   -2.000
 7087.00    0.36408   0.37848   -2.000
 7088.00    0.45532   0.36525   -2.000
 7089.00    0.44460   0.36544   -2.000
 7090.00    0.42419   0.37139   -2.000
 7091.00    0.44635   0.37070   -2.000
 7092.00    0.47101   0.36544   -2.000
 7093.00    0.52366   0.36087   -2.000
 7094.00    0.57557   0.35939   -2.000
 7095.00    0.43397   0.36165   -2.000
 7096.00    0.29951   0.36293   -2.000
 7097.00    0.34284   0.36280   -2.000
 7098.00    0.38413   0.36377   -2.000
 7099.00    0.39828   0.36487   -2.000
 7100.00    0.40560   0.36637   -2.000
 7101.00    0.35242   0.36912   -2.000
 7102.00    0.30740   0.37315   -2.000
 7103.00    0.31564   0.37677   -2.000
 7104.00    0.32449   0.37665   -2.000
 7105.00    0.33641   0.37190   -2.000
 7106.00    0.34105   0.36698   -2.000
 7107.00    0.31573   0.36824   -2.000
 7108.00    0.30981   0.37501   -2.000
 7109.00    0.37002   0.37790   -2.000
 7110.00    0.42066   0.37272   -2.000
 7111.00    0.44383   0.36776   -2.000
 7112.00    0.43508   0.36877   -2.000
 7113.00    0.34797   0.36919   -2.000
 7114.00    0.29853   0.36383   -2.000
 7115.00    0.32878   0.35934   -2.000
 7116.00    0.35830   0.36243   -2.000
 7117.00    0.38647   0.36931   -2.000
 7118.00    0.41486   0.37343   -2.000
 7119.00    0.44359   0.37495   -2.000
 7120.00    0.50063   0.37551   -2.000
 7121.00    0.59755   0.37420   -2.000
 7122.00    0.61965   0.37212   -2.000
 7123.00    0.54892   0.37084   -2.000
 7124.00    0.50576   0.36978   -2.000
 7125.00    0.49274   0.36710   -2.000
 7126.00    0.50941   0.36554   -2.000
 7127.00    0.55470   0.36842   -2.000
 7128.00   -0.36697   0.36858   -2.000
 7129.00   -2.11092   0.36104   -2.000
 7130.00   -1.88592   0.35382   -2.000
 7131.00   -0.18640   0.35425   -2.000
 7132.00    0.59415   0.35660   -2.000
 7133.00    0.77006   0.35138   -2.000
 7134.00    0.61665   0.34260   -2.000
 7135.00    0.27355   0.34178   -2.000
 7136.00    0.22548   0.34952   -2.000
 7137.00    0.32545   0.35877   -2.000
 7138.00    0.45219   0.36448   -2.000
 7139.00    0.59056   0.36581   -2.000
 7140.00    0.57102   0.36795   -2.000
 7141.00    0.49266   0.36993   -2.000
 7142.00    0.39942   0.36445   -2.000
 7143.00    0.30148   0.35761   -2.000
 7144.00    0.28080   0.36082   -2.000
 7145.00    0.28051   0.36825   -2.000
 7146.00    0.34140   0.36935   -2.000
 7147.00    0.41548   0.36692   -2.000
 7148.00    0.37634   0.36586   -2.000
 7149.00    0.31785   0.36587   -2.000
 7150.00    0.36981   0.36318   -2.000
 7151.00    0.43607   0.35436   -2.000
 7152.00    0.46166   0.34734   -2.000
 7153.00    0.48357   0.35000   -2.000
 7154.00    0.48571   0.35672   -2.000
 7155.00    0.48677   0.36381   -2.000
 7156.00    0.48670   0.37248   -2.000
 7157.00    0.48751   0.37720   -2.000
 7158.00    0.57038   0.37256   -2.000
 7159.00    0.64752   0.36674   -2.000
 7160.00    0.59454   0.37101   -2.000
 7161.00    0.55207   0.37781   -2.000
 7162.00    0.64213   0.37480   -2.000
 7163.00    0.69349   0.36664   -2.000
 7164.00    0.41475   0.36362   -2.000
 7165.00    0.16606   0.36810   -2.000
 7166.00    0.10783   0.37150   -2.000
 7167.00    0.08830   0.36371   -2.000
 7168.00    0.26089   0.34987   -2.000
 7169.00    0.39171   0.34608   -2.000
 7170.00    0.35438   0.35744   -2.000
 7171.00    0.34689   0.37272   -2.000
 7172.00    0.43908   0.37949   -2.000
 7173.00    0.48213   0.37656   -2.000
 7174.00    0.38655   0.37370   -2.000
 7175.00    0.33958   0.37776   -2.000
 7176.00    0.40990   0.38387   -2.000
 7177.00    0.42512   0.38489   -2.000
 7178.00    0.32562   0.37971   -2.000
 7179.00    0.31130   0.37150   -2.000
 7180.00    0.45120   0.36790   -2.000
 7181.00    0.51239   0.37435   -2.000
 7182.00    0.44900   0.38022   -2.000
 7183.00    0.37754   0.37248   -2.000
 7184.00    0.29486   0.35737   -2.000
 7185.00    0.30215   0.35251   -2.000
 7186.00    0.41945   0.36454   -2.000
 7187.00    0.47226   0.37990   -2.000
 7188.00    0.45556   0.38456   -2.000
 7189.00    0.43559   0.37923   -2.000
 7190.00    0.41253   0.36749   -2.000
 7191.00    0.40172   0.35447   -2.000
 7192.00    0.40120   0.34951   -2.000
 7193.00    0.35036   0.35442   -2.000
 7194.00    0.26238   0.36340   -2.000
 7195.00    0.30154   0.36825   -2.000
 7196.00    0.42311   0.36548   -2.000
 7197.00    0.49353   0.36302   -2.000
 7198.00    0.53494   0.36786   -2.000
 7199.00    0.49858   0.37366   -2.000
 7200.00    0.42382   0.37163   -2.000
 7201.00    0.46936   0.36678   -2.000
 7202.00    0.56627   0.36773   -2.000
 7203.00    0.45967   0.37143   -2.000
 7204.00    0.27862   0.37163   -2.000
 7205.00    0.26279   0.36890   -2.000
 7206.00    0.29814   0.36963   -2.000
 7207.00    0.25497   0.37662   -2.000
 7208.00    0.19154   0.38303   -2.000
 7209.00    0.27814   0.37876   -2.000
 7210.00    0.39631   0.36196   -2.000
 7211.00    0.35328   0.34678   -2.000
 7212.00    0.28347   0.34664   -2.000
 7213.00    0.27693   0.35829   -2.000
 7214.00    0.27829   0.37343   -2.000
 7215.00    0.31045   0.38245   -2.000
 7216.00    0.34528   0.37899   -2.000
 7217.00    0.35362   0.37002   -2.000
 7218.00    0.36062   0.36509   -2.000
