###################################################################
## OUTPUT of StarlightChains_v04.for    [Cid@UFSC - 01/Apr/2007] ##
###################################################################

## Some input info
KUG0210-078._42_44.txt                   [arq_obs]
Base.CB07.vall.4m                        [arq_base]
Masks.EmLines.NEW.gm                     [arq_masks]
StCv04.C11.config                        [arq_config]
   66                                    [N_base]
    0                                    [N_YAV_components = # of components with extra extinction!]
    0                                    [i_FitPowerLaw (1/0 = Yes/No)]
-9.99                                    [alpha_PowerLaw]
CCM                                      [red_law_option]
 1.458241                                [q_norm = A(l_norm)/A(V)]

## (Re)Sampling Parameters
 3741.00                                 [l_ini (A)]
 7218.00                                 [l_fin (A)]
    1.00                                 [dl    (A)]     (OBS: dl_cushion =    50.00 A)

## Normalization info
 4020.00                                 [l_norm (A) - for base]
 4010.00                                 [llow_norm (A) - window for f_obs]
 4060.00                                 [lupp_norm (A) - window for f_obs]
1.009629E-17                             [fobs_norm (in input units)]

## S/N
 3691.00                                 [llow_SN (A) - window for S/N]
 7268.00                                 [lupp_SN (A) - window for S/N]
   4.892                                 [S/N in S/N window]
   4.530                                 [S/N in norm. window]
   0.014                                 [S/N_err in S/N window]
   0.013                                 [S/N_err in norm. window]
  1.0000                                 [fscale_chi2]

## etc...
    -2007785                             [idum_orig]
  2392                                   [NOl_eff]
  2326                                   [Nl_eff]
    66    NSIGMA                         [Ntot_cliped & clip_method]
  1034880                                [Nglobal_steps]
   7                                     [N_chains]
  39                                     [NEX0s_base = N_base in EX0s-fits]
 0   0   1       66   2.0   3.531E+03    [Clip-Bug, RC-Crash & Burn-In warning-flags, n_censored_weights, wei_nsig_threshold & wei_limit]
    19     19.285     18.726      0.559  [idt_all, wdt_TotTime, wdt_UsrTime & wdt_SysTime (sec)]

## Synthesis Results - Best model ##

 1.28617E-05                             [chi2/Nl_eff]
    17.74185                             [adev (%)]

    97.41531                             [sum-of-x (%)]
 6.78320E-18                             [Flux_tot (units of input spectrum!)]
 4.37816E-13                             [Mini_tot (???)]
 2.23554E-13                             [Mcor_tot (???)]

-467.77                                  [v0_min  (km/s)]
   0.03                                  [vd_min  (km/s)]
-0.2766                                  [AV_min  (mag)]
 0.0000                                  [YAV_min (mag)]

# j     x_j(%)      Mini_j(%)     Mcor_j(%)     age_j(yr)     Z_j      (L/M)_j    YAV?  Mstars   component_j        a/Fe...       SSP_chi2r SSP_adev(%)   SSP_AV   SSP_x(%)
  1      0.0000     0.0000E+00    0.0000E+00    1.000000E+06  0.00400  1.094E-02    0   1.0000   age020_m42            0.0000     1.9860E-05    22.4414   3.7908    74.3670
  2      0.0000     0.0000E+00    0.0000E+00    3.160000E+06  0.00400  4.007E-02    0   0.9999   age045_m42            0.0000     1.7809E-05    21.7734   3.0356    80.4097
  3      0.0000     0.0000E+00    0.0000E+00    5.010000E+06  0.00400  2.539E-02    0   0.9488   age055_m42            0.0000     1.9126E-05    22.2777   3.3843    77.4779
  4      0.0000     0.0000E+00    0.0000E+00    6.610000E+06  0.00400  2.620E-02    0   0.9220   age061_m42            0.0000     1.8106E-05    21.9309   2.9741    80.1225
  5      0.0000     0.0000E+00    0.0000E+00    1.000000E+07  0.00400  1.322E-02    0   0.8862   age070_m42            0.0000     1.9279E-05    23.1865   2.7183    80.6893
  6      0.0000     0.0000E+00    0.0000E+00    1.445000E+07  0.00400  7.883E-03    0   0.8571   age078_m42            0.0000     1.9810E-05    23.2620   3.0539    78.4016
  7      0.0000     0.0000E+00    0.0000E+00    2.512000E+07  0.00400  5.251E-03    0   0.8174   age090_m42            0.0000     1.9334E-05    23.3890   2.5913    81.0175
  8      0.0000     0.0000E+00    0.0000E+00    4.000000E+07  0.00400  3.649E-03    0   0.7851   age104_m42            0.0000     1.8768E-05    23.0191   2.3519    82.1195
  9      0.0000     0.0000E+00    0.0000E+00    5.500000E+07  0.00400  3.098E-03    0   0.7629   age110_m42            0.0000     1.7875E-05    22.3331   2.4848    82.9515
 10      0.0000     0.0000E+00    0.0000E+00    1.015200E+08  0.00400  2.228E-03    0   0.7207   age116_m42            0.0000     1.7295E-05    21.8891   2.4930    83.5932
 11      0.0000     0.0000E+00    0.0000E+00    2.861200E+08  0.00400  1.093E-03    0   0.6648   age125_m42            0.0000     1.7020E-05    22.1129   1.9129    86.2061
 12      0.0000     0.0000E+00    0.0000E+00    5.088000E+08  0.00400  6.597E-04    0   0.6365   age130_m42            0.0000     1.5971E-05    21.2484   1.8782    87.9875
 13      0.1526     1.1382E-02    1.2924E-02    1.434000E+09  0.00400  2.132E-04    0   0.5798   age139_m42            0.0000     1.4466E-05    19.9613   0.8742    91.0595
 14      0.0000     0.0000E+00    0.0000E+00    4.250000E+09  0.00400  5.895E-05    0   0.5377   age158_m42            0.0000     1.4408E-05    18.8298   0.4248    87.9735
 15      0.0000     0.0000E+00    0.0000E+00    7.500000E+09  0.00400  3.510E-05    0   0.5212   age171_m42            0.0000     1.4116E-05    18.3853   0.2173    88.0732
 16      0.0000     0.0000E+00    0.0000E+00    1.300000E+10  0.00400  2.005E-05    0   0.5034   age193_m42            0.0000     1.3923E-05    17.9878   0.0367    88.1137
 17      0.0000     0.0000E+00    0.0000E+00    1.800000E+10  0.00400  1.525E-05    0   0.4967   age213_m42            0.0000     1.4067E-05    18.0596   0.0193    87.5205
 18      0.0000     0.0000E+00    0.0000E+00    1.000000E+06  0.00800  1.238E-02    0   1.0000   age020_m52            0.0000     1.9917E-05    22.4607   3.7908    74.4062
 19      0.0000     0.0000E+00    0.0000E+00    3.160000E+06  0.00800  3.074E-02    0   0.9966   age045_m52            0.0000     1.9927E-05    22.4129   3.7177    74.9290
 20      0.0000     0.0000E+00    0.0000E+00    5.010000E+06  0.00800  2.668E-02    0   0.9443   age055_m52            0.0000     1.9505E-05    22.3692   3.4752    76.5120
 21      0.6042     4.4987E-04    8.0853E-04    6.610000E+06  0.00800  2.136E-02    0   0.9177   age061_m52            0.0000     1.8874E-05    22.5770   2.2107    81.9551
 22      0.0000     0.0000E+00    0.0000E+00    1.000000E+07  0.00800  1.215E-02    0   0.8827   age070_m52            0.0000     2.0013E-05    23.7331   2.9083    80.0454
 23      0.0000     0.0000E+00    0.0000E+00    1.445000E+07  0.00800  8.717E-03    0   0.8552   age078_m52            0.0000     1.9646E-05    23.2216   3.0156    79.5869
 24      0.0000     0.0000E+00    0.0000E+00    2.512000E+07  0.00800  5.592E-03    0   0.8162   age090_m52            0.0000     1.9330E-05    23.4376   2.6511    82.0410
 25      0.0000     0.0000E+00    0.0000E+00    4.000000E+07  0.00800  3.896E-03    0   0.7841   age104_m52            0.0000     1.8568E-05    22.9804   2.5484    83.2618
 26      0.3823     2.8306E-03    4.0058E-03    1.015200E+08  0.00800  2.148E-03    0   0.7226   age116_m52            0.0000     1.7569E-05    22.1372   2.4670    83.9426
 27      0.2630     4.2140E-03    5.5154E-03    2.861200E+08  0.00800  9.925E-04    0   0.6683   age125_m52            0.0000     1.5959E-05    21.1941   1.9417    88.8445
 28      1.4367     7.2745E-02    8.7446E-02    9.047900E+08  0.00800  3.141E-04    0   0.6138   age135_m52            0.0000     1.3775E-05    19.2353   1.0798    95.1458
 29      0.0000     0.0000E+00    0.0000E+00    1.434000E+09  0.00800  1.719E-04    0   0.5853   age139_m52            0.0000     1.3882E-05    19.4272   0.4962    93.2037
 30      0.0000     0.0000E+00    0.0000E+00    2.500000E+09  0.00800  7.872E-05    0   0.5600   age150_m52            0.0000     1.3654E-05    18.3855   0.2151    91.3548
 31      0.0030     1.1125E-03    1.1822E-03    4.250000E+09  0.00800  4.336E-05    0   0.5426   age158_m52            0.0000     1.3737E-05    18.1467   0.1993    90.5286
 32      0.0000     0.0000E+00    0.0000E+00    6.250000E+09  0.00800  3.159E-05    0   0.5319   age166_m52            0.0000     1.3274E-05    17.5834  -0.0280    91.4689
 33     12.4481     1.4547E+01    1.4452E+01    1.300000E+10  0.00800  1.361E-05    0   0.5073   age193_m52            0.0000     1.2892E-05    17.1889  -0.5310    92.1149
 34      7.0022     1.1265E+01    1.1009E+01    1.800000E+10  0.00800  9.886E-06    0   0.4990   age213_m52            0.0000     1.2643E-05    16.8850  -0.6644    92.6132
 35      0.0000     0.0000E+00    0.0000E+00    1.000000E+06  0.02000  1.544E-02    0   1.0000   age020_m62            0.0000     2.0051E-05    22.4886   3.7894    74.4768
 36      0.0000     0.0000E+00    0.0000E+00    3.160000E+06  0.02000  3.762E-02    0   0.9858   age045_m62            0.0000     2.0259E-05    22.5297   3.7369    74.8346
 37      0.0000     0.0000E+00    0.0000E+00    5.010000E+06  0.02000  3.296E-02    0   0.9342   age055_m62            0.0000     1.8784E-05    21.9963   3.3422    78.5186
 38      0.0000     0.0000E+00    0.0000E+00    8.710000E+06  0.02000  1.154E-02    0   0.8861   age067_m62            0.0000     2.3850E-05    27.0884   2.4072    79.8710
 39      0.0000     0.0000E+00    0.0000E+00    1.445000E+07  0.02000  7.663E-03    0   0.8472   age078_m62            0.0000     2.0813E-05    24.5924   2.5602    81.3703
 40      0.0000     0.0000E+00    0.0000E+00    2.512000E+07  0.02000  4.532E-03    0   0.8099   age090_m62            0.0000     2.1047E-05    24.8645   2.5557    80.9225
 41      0.0620     3.6088E-04    5.3679E-04    5.500000E+07  0.02000  2.733E-03    0   0.7595   age110_m62            0.0000     1.8951E-05    23.0598   2.5419    82.2383
 42      0.0000     0.0000E+00    0.0000E+00    1.609000E+08  0.02000  1.369E-03    0   0.6985   age120_m62            0.0000     1.7175E-05    21.9068   2.3414    86.0443
 43      0.0000     0.0000E+00    0.0000E+00    2.861200E+08  0.02000  9.013E-04    0   0.6714   age125_m62            0.0000     1.5806E-05    21.1113   2.0568    89.9365
 44     14.0484     4.4437E-01    5.6124E-01    5.088000E+08  0.02000  5.028E-04    0   0.6449   age130_m62            0.0000     1.3864E-05    19.5461   1.6173    94.8888
 45      0.0000     0.0000E+00    0.0000E+00    9.047900E+08  0.02000  2.428E-04    0   0.6179   age135_m62            0.0000     1.3344E-05    18.6433   1.0089    95.1609
 46      0.0000     0.0000E+00    0.0000E+00    1.434000E+09  0.02000  1.263E-04    0   0.5908   age139_m62            0.0000     1.3547E-05    18.3828   0.5617    93.8420
 47      0.0000     0.0000E+00    0.0000E+00    2.500000E+09  0.02000  5.985E-05    0   0.5673   age150_m62            0.0000     1.3351E-05    17.8149   0.1709    93.5036
 48     19.1394     9.3060E+00    9.9656E+00    4.250000E+09  0.02000  3.271E-05    0   0.5468   age158_m62            0.0000     1.2978E-05    17.2642  -0.1665    93.9163
 49      0.5398     6.3123E-01    6.3875E-01    1.000000E+10  0.02000  1.360E-05    0   0.5167   age181_m62            0.0000     1.2713E-05    16.9709  -0.5611    95.2142
 50     17.0422     3.8047E+01    3.7353E+01    1.800000E+10  0.02000  7.124E-06    0   0.5013   age213_m62            0.0000     1.2779E-05    17.0337  -0.8046    95.6297
 51      0.0000     0.0000E+00    0.0000E+00    1.000000E+06  0.05000  2.592E-02    0   0.9998   age020_m72            0.0000     2.0338E-05    22.6051   3.7857    74.3207
 52      0.0000     0.0000E+00    0.0000E+00    3.160000E+06  0.05000  4.845E-02    0   0.9577   age045_m72            0.0000     1.9764E-05    22.3065   3.6186    75.8766
 53      0.0000     0.0000E+00    0.0000E+00    5.010000E+06  0.05000  3.072E-02    0   0.9147   age055_m72            0.0000     2.0885E-05    23.9742   3.1438    78.4155
 54      0.0000     0.0000E+00    0.0000E+00    6.610000E+06  0.05000  1.455E-02    0   0.8877   age061_m72            0.0000     2.6557E-05    29.7434   2.4383    79.9673
 55      0.2174     3.8108E-04    6.3616E-04    1.000000E+07  0.05000  9.074E-03    0   0.8524   age070_m72            0.0000     2.1356E-05    24.5485   3.3038    78.4566
 56      0.0000     0.0000E+00    0.0000E+00    2.512000E+07  0.05000  4.250E-03    0   0.7902   age090_m72            0.0000     2.0252E-05    24.0816   3.0074    80.1299
 57      0.0000     0.0000E+00    0.0000E+00    4.000000E+07  0.05000  3.087E-03    0   0.7618   age104_m72            0.0000     2.0056E-05    24.2493   2.7753    81.5526
 58      0.0000     0.0000E+00    0.0000E+00    1.015200E+08  0.05000  1.700E-03    0   0.7096   age116_m72            0.0000     1.7835E-05    22.5249   2.4944    85.1515
 59      5.5100     1.1868E-01    1.5417E-01    2.861200E+08  0.05000  7.384E-04    0   0.6633   age125_m72            0.0000     1.4778E-05    20.3246   1.8906    92.5551
 60      0.0000     0.0000E+00    0.0000E+00    5.088000E+08  0.05000  3.819E-04    0   0.6372   age130_m72            0.0000     1.3451E-05    18.9404   1.3547    95.9480
 61      1.5581     1.4786E-01    1.7693E-01    9.047900E+08  0.05000  1.676E-04    0   0.6110   age135_m72            0.0000     1.3040E-05    17.8155   0.6253    95.5967
 62      0.4604     8.2863E-02    9.5324E-02    1.434000E+09  0.05000  8.837E-05    0   0.5874   age139_m72            0.0000     1.3089E-05    17.6739   0.1515    95.5679
 63      0.3888     1.4609E-01    1.6016E-01    2.500000E+09  0.05000  4.233E-05    0   0.5598   age150_m72            0.0000     1.2942E-05    17.1692  -0.1815    95.2611
 64     10.7095     1.1869E+01    1.2202E+01    6.250000E+09  0.05000  1.435E-05    0   0.5249   age166_m72            0.0000     1.2863E-05    17.1187  -0.6668    95.0819
 65      5.4472     1.3302E+01    1.3119E+01    1.300000E+10  0.05000  6.513E-06    0   0.5036   age193_m72            0.0000     1.3194E-05    17.2169  -0.9806    97.0826
 66      0.0000     0.0000E+00    0.0000E+00    1.800000E+10  0.05000  4.527E-06    0   0.4945   age213_m72            0.0000     1.3765E-05    16.9842  -1.0000    92.8624


## Synthesis Results - Average & Chains ##

# j      x_j: min, <> & last-chain-values for 1 ...  7 chains
  1      0.0000      1.2701      2.8787      0.0000      3.1024      0.6502      0.0000      0.0723      0.7588
  2      0.0000      1.4500      3.3102      0.0000      0.0000      0.3994      0.0000      2.9465      1.1772
  3      0.0000      1.6555      0.0000      0.6727      0.0000      0.0000      1.4588      0.0000      0.0000
  4      0.0000      1.1878      0.7743      1.5668      0.3915      0.0000      0.0000      0.0349      0.1520
  5      0.0000      1.2587      0.7663      0.0000      1.0526      0.0000      0.0000      0.0000      0.4400
  6      0.0000      1.7107      1.2881      0.6117      0.0000      2.0939      0.0000      1.4250      0.0000
  7      0.0000      2.3196      1.4265      0.0000      0.3995      2.5227      0.0000      3.1392      0.0000
  8      0.0000      2.0441      0.0000      0.7252      1.1977      0.0803      2.7296      0.0795      4.3671
  9      0.0000      1.7564      0.0000      0.9131      0.2602      0.0000      2.5136      0.0000      1.6040
 10      0.0000      2.0716      0.2952      0.0000      0.0000      0.7299      0.7804      0.0000      2.7913
 11      0.0000      1.7767      6.0607      2.8251      0.2789      0.8345      0.0000      0.0000      2.3594
 12      0.0000      1.3991      0.0000      0.0000      0.9077      0.0000      0.0000      0.0000      1.4237
 13      0.1526      1.6001      0.0000      0.0000      6.4388      1.7820      2.5296      0.0000      1.6085
 14      0.0000      2.8888      4.1435      0.0000      1.9157      2.9783      7.4572      7.8922      5.2970
 15      0.0000      1.8460      3.3494      0.0000      0.0000      0.3000      0.0000      0.8080      3.6761
 16      0.0000      1.5188      0.0000      1.0736      1.8392      1.9622      0.0000      0.0816      2.9967
 17      0.0000      1.3164      3.7876      0.1163     10.2951      0.1222      0.9450      0.0000      1.0889
 18      0.0000      1.2665      0.6879      2.2054      0.0000      0.0000      0.0000      0.6229      0.6689
 19      0.0000      1.3342      2.5909      6.2036      0.8758      0.0000      0.0000      6.3823      0.8764
 20      0.0000      1.3618      0.0000      2.8599      0.1631      0.2406      0.0102      2.1431      0.5586
 21      0.6042      1.3057      0.0000      0.0000      0.0000      1.3496      1.9808      0.0000      1.0589
 22      0.0000      1.3815      1.9028      2.5252      0.0000      0.8410      1.7848      0.6110      0.0000
 23      0.0000      1.0358      0.1475      0.8510      0.0000      0.6771      0.0000      0.2810      0.4006
 24      0.0000      1.3727      0.2235      1.8736      5.0460      2.3236      0.0000      2.3048      1.0716
 25      0.0000      1.5639      0.0000      1.7781      2.8988      0.0000      1.2686      0.0000      3.8147
 26      0.3823      2.3671      0.1556      0.0000      1.8524      0.7404      1.7566      0.1739      0.9358
 27      0.2630      1.1654      1.4045      3.6457      0.3185      1.2896      1.5380      0.0000      0.0000
 28      1.4367      1.1666      0.0368      0.0000      0.7180      1.8874      0.2522      3.2312      0.2514
 29      0.0000      1.2533      0.5070      2.5053      0.9935      0.0000      0.0000      0.0000      2.4220
 30      0.0000      1.2033      1.6948      0.0000      2.3862      0.0000      3.3323      0.1266      2.3748
 31      0.0030      1.1105      3.1110      0.0000      1.0533      6.9863      0.0000      3.9675      3.1953
 32      0.0000      1.1063      1.2943      5.7960      4.5584      0.0000      0.4005      4.9906      0.0000
 33     12.4481      4.2794      5.0108      9.8352      4.4551      2.2586      1.1657      3.2650     11.2050
 34      7.0022      5.0161      5.2521      1.9711      0.0597      1.6271      1.3787      0.7986     15.2722
 35      0.0000      1.3120      0.0000      0.0000      0.7327      4.4506      0.0449      0.0000      0.0117
 36      0.0000      1.0250      1.7747      0.0000      1.1991      0.0000      3.2192      0.0554      0.0000
 37      0.0000      1.1559      0.4949      0.0000      0.0000      2.1639      0.4781      0.2781      0.3795
 38      0.0000      1.4307      0.5498      0.0000      0.9427      0.0000      0.0000      5.4667      1.9617
 39      0.0000      1.2920      0.8175      0.2321      1.6948      0.0000      0.4850      0.0000      0.5730
 40      0.0000      2.2575      1.1834      1.0592      1.9265      0.0000      1.3281      0.0823      5.1937
 41      0.0620      2.6332      3.2519      2.5821      2.7452      0.5904      3.3104      0.9262      4.3702
 42      0.0000      1.7446      0.0000      1.6701      0.3450      0.0000      0.4089      1.0674      0.0000
 43      0.0000      1.5636      0.0000      7.1875      0.0000      0.0000      0.9837      0.9107      0.6681
 44     14.0484      2.3955      0.0000      1.6336     18.1795     14.9245      7.0014      5.9124      0.2591
 45      0.0000      1.4201      4.7771      2.8469      0.8548      1.7619      0.6904      5.7327      0.4461
 46      0.0000      1.8437      1.1864      1.0578      2.9290      0.0000      8.9103      0.0000      1.5867
 47      0.0000      1.7226      1.6429     10.6649      0.0971      1.5598      1.4521      1.0315      0.1434
 48     19.1394      1.3234      1.3239      0.0000      2.2582      4.1332      5.9315      0.0000      0.7128
 49      0.5398      3.3701      4.5017      1.5389      3.9945      3.2913      5.8808      0.8397      6.7030
 50     17.0422      1.4835      3.7037      1.1033      0.0000      2.7737      1.1461      0.0000      1.1190
 51      0.0000      1.3071      2.2802      5.3247      0.2324      0.9396      0.0000      2.1734      0.9120
 52      0.0000      1.5373      1.6026      0.0000      1.5524      0.9538      1.2707      0.0000      0.0021
 53      0.0000      1.2345      0.0000      0.0638      0.0000      0.3882      0.0000      4.5208      1.3155
 54      0.0000      1.5408      0.0000      1.9306      1.2342      0.0000      1.8231      2.1787      0.0000
 55      0.2174      1.5434      2.7899      0.2791      0.0000      0.9475      1.8013      0.3406      0.2405
 56      0.0000      2.2777      1.9901      0.4876      0.0000      7.3345      2.5932      0.5011      4.4572
 57      0.0000      1.9741      2.8827      1.2362      2.7815      0.2585      0.2391      0.0000      3.9404
 58      0.0000      1.3633      0.2896      0.0000      0.0000      2.0542      9.1198      0.0000      0.3505
 59      5.5100      1.8312      2.8502      1.2951      0.0000      3.4456      0.0000      3.0485      0.7888
 60      0.0000      1.7565      2.4442      0.1573      1.4452      2.6917      4.0602      0.0000      0.0000
 61      1.5581      1.7281      2.5035      0.0481      3.2793      1.5094      2.9904      2.6061      0.0053
 62      0.4604      1.7023      1.1599      9.4535      0.6970      1.6821      0.0000      0.4898      0.0000
 63      0.3888      1.3377      2.3443      0.4144      1.5444      2.6728      0.6276      9.5977      0.4096
 64     10.7095      1.3372      4.4257      0.0000      0.6901     13.5757      7.4115      6.4700      0.0000
 65      5.4472      1.3587      0.5189      0.0512      1.7012      0.5351      0.3663      3.5528      0.2545
 66      0.0000      1.9354      4.2131      6.6181      6.6630      0.0000      2.7241      2.9791      0.5747

# j      m_j: min, <> & last-chain-values for 1 ...  7 chains
  1  0.0000E+00  8.9046E-03  1.3495E-02  0.0000E+00  1.5268E-02  4.3113E-03  0.0000E+00  4.6006E-04  3.5977E-03
  2  0.0000E+00  2.7754E-03  4.2363E-03  0.0000E+00  0.0000E+00  7.2293E-04  0.0000E+00  5.1204E-03  1.5238E-03
  3  0.0000E+00  4.7453E-03  0.0000E+00  1.5097E-03  0.0000E+00  0.0000E+00  4.0305E-03  0.0000E+00  0.0000E+00
  4  0.0000E+00  3.2062E-03  1.3974E-03  3.3112E-03  7.4169E-04  0.0000E+00  0.0000E+00  8.5603E-05  2.7747E-04
  5  0.0000E+00  6.4717E-03  2.6345E-03  0.0000E+00  3.7990E-03  0.0000E+00  0.0000E+00  0.0000E+00  1.5301E-03
  6  0.0000E+00  1.4267E-02  7.1824E-03  3.9943E-03  0.0000E+00  1.6516E-02  0.0000E+00  1.0790E-02  0.0000E+00
  7  0.0000E+00  2.7695E-02  1.1388E-02  0.0000E+00  3.3482E-03  2.8487E-02  0.0000E+00  3.4031E-02  0.0000E+00
  8  0.0000E+00  3.3734E-02  0.0000E+00  9.3707E-03  1.3875E-02  1.2531E-03  4.3420E-02  1.1917E-03  4.8739E-02
  9  0.0000E+00  3.3175E-02  0.0000E+00  1.3504E-02  3.4503E-03  0.0000E+00  4.5765E-02  0.0000E+00  2.0490E-02
 10  0.0000E+00  5.1398E-02  4.8967E-03  0.0000E+00  0.0000E+00  1.7128E-02  1.8664E-02  0.0000E+00  4.6836E-02
 11  0.0000E+00  8.2890E-02  1.8905E-01  1.0319E-01  9.1320E-03  3.6821E-02  0.0000E+00  0.0000E+00  7.4440E-02
 12  0.0000E+00  1.0354E-01  0.0000E+00  0.0000E+00  4.7153E-02  0.0000E+00  0.0000E+00  0.0000E+00  7.1255E-02
 13  1.2924E-02  3.3378E-01  0.0000E+00  0.0000E+00  9.4277E-01  3.5155E-01  5.0861E-01  0.0000E+00  2.2690E-01
 14  0.0000E+00  2.0210E+00  1.9382E+00  0.0000E+00  9.4079E-01  1.9707E+00  5.0289E+00  5.0132E+00  2.5062E+00
 15  0.0000E+00  2.1025E+00  2.5507E+00  0.0000E+00  0.0000E+00  3.2313E-01  0.0000E+00  8.3553E-01  2.8315E+00
 16  0.0000E+00  2.9248E+00  0.0000E+00  1.6188E+00  2.4863E+00  3.5738E+00  0.0000E+00  1.4276E-01  3.9028E+00
 17  0.0000E+00  3.2886E+00  6.3267E+00  2.2739E-01  1.8054E+01  2.8876E-01  2.2755E+00  0.0000E+00  1.8398E+00
 18  0.0000E+00  7.8466E-03  2.8496E-03  1.0698E-02  0.0000E+00  0.0000E+00  0.0000E+00  3.5041E-03  2.8026E-03
 19  0.0000E+00  3.3178E-03  4.3078E-03  1.2078E-02  1.5287E-03  0.0000E+00  0.0000E+00  1.4410E-02  1.4738E-03
 20  0.0000E+00  3.6969E-03  0.0000E+00  6.0787E-03  3.1082E-04  6.1778E-04  2.6686E-05  5.2823E-03  1.0256E-03
 21  8.0853E-04  4.3028E-03  0.0000E+00  0.0000E+00  0.0000E+00  4.2064E-03  6.2921E-03  0.0000E+00  2.3598E-03
 22  0.0000E+00  7.6981E-03  7.0894E-03  1.1017E-02  0.0000E+00  4.4324E-03  9.5866E-03  3.0912E-03  0.0000E+00
 23  0.0000E+00  7.7944E-03  7.4209E-04  5.0139E-03  0.0000E+00  4.8190E-03  0.0000E+00  1.9201E-03  2.0386E-03
 24  0.0000E+00  1.5368E-02  1.6728E-03  1.6422E-02  3.9654E-02  2.4603E-02  0.0000E+00  2.3428E-02  8.1131E-03
 25  0.0000E+00  2.4142E-02  0.0000E+00  2.1490E-02  3.1411E-02  0.0000E+00  1.8876E-02  0.0000E+00  3.9825E-02
 26  4.0058E-03  6.1078E-02  2.6852E-03  0.0000E+00  3.3552E-02  1.8067E-02  4.3691E-02  4.0729E-03  1.6331E-02
 27  5.5154E-03  6.0188E-02  4.8500E-02  1.4742E-01  1.1545E-02  6.2992E-02  7.6567E-02  0.0000E+00  0.0000E+00
 28  8.7446E-02  1.7486E-01  3.6912E-03  0.0000E+00  7.5539E-02  2.6756E-01  3.6440E-02  4.3973E-01  2.5484E-02
 29  0.0000E+00  3.2733E-01  8.8527E-02  5.1227E-01  1.8212E-01  0.0000E+00  0.0000E+00  0.0000E+00  4.2777E-01
 30  0.0000E+00  6.5658E-01  6.1830E-01  0.0000E+00  9.1396E-01  0.0000E+00  1.7526E+00  6.2715E-02  8.7634E-01
 31  1.1822E-03  1.0659E+00  1.9966E+00  0.0000E+00  7.0970E-01  6.3420E+00  0.0000E+00  3.4575E+00  2.0741E+00
 32  0.0000E+00  1.4287E+00  1.1176E+00  5.8606E+00  4.1324E+00  0.0000E+00  4.9856E-01  5.8519E+00  0.0000E+00
 33  1.4452E+01  1.2235E+01  9.5787E+00  2.2015E+01  8.9409E+00  6.1071E+00  3.2125E+00  8.4754E+00  2.1665E+01
 34  1.1009E+01  1.9420E+01  1.3596E+01  5.9747E+00  1.6219E-01  5.9578E+00  5.1453E+00  2.8072E+00  3.9987E+01
 35  0.0000E+00  6.5175E-03  0.0000E+00  0.0000E+00  2.5551E-03  2.0911E-02  2.1510E-04  0.0000E+00  3.9249E-05
 36  0.0000E+00  2.0601E-03  2.3850E-03  0.0000E+00  1.6918E-03  0.0000E+00  6.2367E-03  1.0107E-04  0.0000E+00
 37  0.0000E+00  2.5130E-03  7.1940E-04  0.0000E+00  0.0000E+00  4.4493E-03  1.0019E-03  5.4897E-04  5.5796E-04
 38  0.0000E+00  8.4265E-03  2.1650E-03  0.0000E+00  3.8973E-03  0.0000E+00  0.0000E+00  2.9232E-02  7.8135E-03
 39  0.0000E+00  1.0956E-02  4.6354E-03  1.5410E-03  1.0088E-02  0.0000E+00  3.9647E-03  0.0000E+00  3.2862E-03
 40  0.0000E+00  3.0944E-02  1.0845E-02  1.1367E-02  1.8537E-02  0.0000E+00  1.7548E-02  1.0245E-03  4.8145E-02
 41  5.3679E-04  5.6128E-02  4.6346E-02  4.3093E-02  4.1074E-02  1.1903E-02  6.8016E-02  1.7925E-02  6.2998E-02
 42  0.0000E+00  6.8276E-02  0.0000E+00  5.1174E-02  9.4774E-03  0.0000E+00  1.5427E-02  3.7927E-02  0.0000E+00
 43  0.0000E+00  8.9341E-02  0.0000E+00  3.2153E-01  0.0000E+00  0.0000E+00  5.4177E-02  4.7247E-02  2.5816E-02
 44  5.6124E-01  2.3567E-01  0.0000E+00  1.2582E-01  1.2554E+00  1.3886E+00  6.6393E-01  5.2811E-01  1.7235E-02
 45  0.0000E+00  2.7721E-01  6.2349E-01  4.3508E-01  1.1713E-01  3.2527E-01  1.2990E-01  1.0160E+00  5.8888E-02
 46  0.0000E+00  6.6152E-01  2.8461E-01  2.9716E-01  7.3768E-01  0.0000E+00  3.0816E+00  0.0000E+00  3.8501E-01
 47  0.0000E+00  1.2524E+00  7.9864E-01  6.0707E+00  4.9556E-02  1.0725E+00  1.0176E+00  6.8092E-01  7.0497E-02
 48  9.9656E+00  1.6969E+00  1.1350E+00  0.0000E+00  2.0325E+00  5.0122E+00  7.3310E+00  0.0000E+00  6.1807E-01
 49  6.3875E-01  9.8210E+00  8.7712E+00  3.5110E+00  8.1710E+00  9.0711E+00  1.6519E+01  2.2218E+00  1.3210E+01
 50  3.7353E+01  8.0072E+00  1.3366E+01  4.6622E+00  0.0000E+00  1.4159E+01  5.9627E+00  0.0000E+00  4.0843E+00
 51  0.0000E+00  3.8671E-03  4.5106E-03  1.2334E-02  4.8257E-04  2.6292E-03  0.0000E+00  5.8383E-03  1.8248E-03
 52  0.0000E+00  2.3308E-03  1.6246E-03  0.0000E+00  1.6522E-03  1.3677E-03  1.8570E-03  0.0000E+00  2.1591E-06
 53  0.0000E+00  2.8194E-03  0.0000E+00  1.1413E-04  0.0000E+00  8.3848E-04  0.0000E+00  9.3742E-03  2.0318E-03
 54  0.0000E+00  7.2104E-03  0.0000E+00  7.0734E-03  4.0541E-03  0.0000E+00  8.2236E-03  9.2568E-03  0.0000E+00
 55  6.3616E-04  1.1121E-02  1.3441E-02  1.5744E-03  0.0000E+00  6.4571E-03  1.2511E-02  2.2284E-03  1.1721E-03
 56  0.0000E+00  3.2482E-02  1.8976E-02  5.4448E-03  0.0000E+00  9.8926E-02  3.5647E-02  6.4881E-03  4.2988E-02
 57  0.0000E+00  3.7367E-02  3.6483E-02  1.8320E-02  3.6957E-02  4.6270E-03  4.3626E-03  0.0000E+00  5.0440E-02
 58  0.0000E+00  4.3648E-02  6.2005E-03  0.0000E+00  0.0000E+00  6.2203E-02  2.8145E-01  0.0000E+00  7.5898E-03
 59  1.5417E-01  1.2618E-01  1.3130E-01  6.9864E-02  0.0000E+00  2.2453E-01  0.0000E+00  1.9071E-01  3.6757E-02
 60  0.0000E+00  2.2480E-01  2.0915E-01  1.5756E-02  1.2983E-01  3.2580E-01  5.0086E-01  0.0000E+00  0.0000E+00
 61  1.7693E-01  4.8322E-01  4.6807E-01  1.0527E-02  6.4368E-01  3.9917E-01  8.0601E-01  6.6165E-01  1.0014E-03
 62  9.5324E-02  8.6791E-01  3.9540E-01  3.7736E+00  2.4945E-01  8.1112E-01  0.0000E+00  2.2673E-01  0.0000E+00
 63  1.6016E-01  1.3569E+00  1.5900E+00  3.2914E-01  1.0997E+00  2.5641E+00  6.1365E-01  8.8392E+00  2.8101E-01
 64  1.2202E+01  3.7519E+00  8.3022E+00  0.0000E+00  1.3591E+00  3.6023E+01  2.0044E+01  1.6481E+01  0.0000E+00
 65  1.3119E+01  8.0583E+00  2.0578E+00  2.3772E-01  7.0824E+00  3.0017E+00  2.0941E+00  1.9131E+01  1.0209E+00
 66  0.0000E+00  1.6215E+01  2.3602E+01  4.3414E+01  3.9187E+01  0.0000E+00  2.2000E+01  2.2662E+01  3.2564E+00

# AV, chi2 & Mass for <> & i_chain = 1 ...  7 solutions
AV      -0.2766      0.1973      0.1805      0.3729      0.2385      0.3586      0.3158      0.2422      0.1373
chi2 1.2862E-05  2.7255E-05  2.0397E-05  2.0564E-05  2.0610E-05  1.8984E-05  1.9662E-05  2.0025E-05  2.1411E-05
Mass 2.2355E-13  1.7156E-13  2.5089E-13  2.7741E-13  2.5833E-13  2.2528E-13  2.0871E-13  2.0071E-13  2.3406E-13
-467.77                                  [v0_min (km/s) before EX0s...]
   0.03                                  [vd_min (km/s) before EX0s...]


## Synthetic spectrum (Best Model) ##l_obs f_obs f_syn wei
 3478    [Nl_obs]
 3741.00    1.01345   0.34027    0.000
 3742.00    0.85154   0.30117    0.000
 3743.00    0.37770   0.26019    0.000
 3744.00   -0.02862   0.28797    0.000
 3745.00   -0.39559   0.37747    0.000
 3746.00   -0.20858   0.45840    0.000
 3747.00    0.25974   0.51145   -1.000
 3748.00    0.47776   0.57002   -1.000
 3749.00    0.58573   0.61908   -1.000
 3750.00    0.66461   0.60289   -1.000
 3751.00    0.73251   0.50618   -1.000
 3752.00    0.69377   0.40898   -1.000
 3753.00    0.62085   0.39978   -1.000
 3754.00    0.79731   0.45291   -1.000
 3755.00    1.04059   0.49535   -1.000
 3756.00    1.39370   0.50208   -1.000
 3757.00    1.77092   0.48070   -1.000
 3758.00    1.59491   0.47252   -1.000
 3759.00    1.32233   0.49065   -1.000
 3760.00    0.79874   0.47304   -1.000
 3761.00    0.24182   0.43477   -1.000
 3762.00    0.25720   0.44879   -1.000
 3763.00    0.32637   0.48432   -1.000
 3764.00    0.20287   0.48326   -1.000
 3765.00    0.06824   0.49106   -1.000
 3766.00   -0.10857   0.53881    0.000
 3767.00   -0.28074   0.57849    0.000
 3768.00    0.23168   0.58005   -1.000
 3769.00    0.72883   0.57076   -1.000
 3770.00    0.85497   0.57955   -1.000
 3771.00    0.99343   0.59576   -1.000
 3772.00    1.29334   0.60472   -1.000
 3773.00    1.55311   0.63176   -1.000
 3774.00    1.46054   0.67090   -1.000
 3775.00    1.35097   0.68302   -1.000
 3776.00    1.13123   0.67645   -1.000
 3777.00    0.93921   0.68555   -1.000
 3778.00    0.88749   0.70166   -1.000
 3779.00    0.79329   0.66523   -1.000
 3780.00    0.52517   0.57754   -1.000
 3781.00    0.30532   0.51867   -1.000
 3782.00    0.24918   0.49723   -1.000
 3783.00    0.17038   0.48220    0.211
 3784.00    0.02678   0.48908    0.043
 3785.00   -0.15477   0.52545    0.000
 3786.00   -0.42904   0.53648    0.000
 3787.00   -0.62677   0.49900    0.000
 3788.00   -0.66319   0.45030    0.000
 3789.00   -0.60706   0.42423    0.000
 3790.00   -0.38139   0.41817    0.000
 3791.00   -0.23133   0.39073    0.000
 3792.00   -0.20226   0.35093    0.000
 3793.00   -0.00424   0.36130    0.000
 3794.00    0.43112   0.43007    0.026
 3795.00    0.70311   0.50010    0.026
 3796.00    0.77318   0.55044    0.026
 3797.00    0.52323   0.59659    0.026
 3798.00   -0.07538   0.62210    0.000
 3799.00   -0.26696   0.61318    0.000
 3800.00   -0.06741   0.57346    0.000
 3801.00   -0.19572   0.54115    0.000
 3802.00   -0.60185   0.56598    0.000
 3803.00   -0.54032   0.62102    0.000
 3804.00   -0.12982   0.65662    0.000
 3805.00   -0.08032   0.65887    0.000
 3806.00   -0.26746   0.62128    0.000
 3807.00   -0.25711   0.55602    0.000
 3808.00   -0.13343   0.50232    0.000
 3809.00    0.09082   0.46711    0.026
 3810.00    0.36535   0.46560    0.026
 3811.00    0.04040   0.51142    0.026
 3812.00   -0.54379   0.53633    0.000
 3813.00   -0.13611   0.48714    0.000
 3814.00    0.63942   0.41814    0.026
 3815.00    0.56981   0.41942    0.026
 3816.00    0.23453   0.47600    0.026
 3817.00   -0.25500   0.49016    0.000
 3818.00   -0.78499   0.43406    0.000
 3819.00   -0.59555   0.37741    0.000
 3820.00   -0.25197   0.36189    0.000
 3821.00   -0.11903   0.36991    0.000
 3822.00   -0.02184   0.37793    0.000
 3823.00    0.07904   0.38704    0.024
 3824.00    0.18041   0.39796    0.024
 3825.00    0.21636   0.38101    0.024
 3826.00    0.24644   0.33070    0.024
 3827.00    0.30107   0.29215    0.025
 3828.00    0.35702   0.28575    0.025
 3829.00    0.45392   0.30829    0.025
 3830.00    0.54566   0.33865    0.025
 3831.00    0.13380   0.33976    0.025
 3832.00   -0.24443   0.31958    0.000
 3833.00    0.12419   0.31631    0.025
 3834.00    0.48719   0.33099    0.025
 3835.00    0.78040   0.37615    0.025
 3836.00    0.97147   0.45507    0.026
 3837.00    0.29923   0.51220    0.027
 3838.00   -0.20607   0.53180    0.000
 3839.00    0.33887   0.53208    0.027
 3840.00    0.76895   0.53183    0.026
 3841.00    0.63225   0.55149    0.026
 3842.00    0.50757   0.55886    0.026
 3843.00    0.43100   0.52125    0.026
 3844.00    0.36262   0.49321    0.026
 3845.00    0.32145   0.52741    0.026
 3846.00    0.25094   0.56950    0.026
 3847.00    0.09803   0.56414    0.000
 3848.00    0.19778   0.54063    0.000
 3849.00    0.90436   0.51821    0.000
 3850.00    1.17897   0.49993    0.000
 3851.00    0.55771   0.50005    0.000
 3852.00    0.34643   0.48125    0.000
 3853.00    0.87462   0.43544    0.000
 3854.00    1.15504   0.42831    0.000
 3855.00    1.04472   0.48592    0.000
 3856.00    0.90945   0.56182    0.000
 3857.00    0.73964   0.59809    0.000
 3858.00    0.75386   0.58877    0.000
 3859.00    0.99232   0.56468    0.000
 3860.00    0.92053   0.55426    0.000
 3861.00    0.51549   0.55829    0.000
 3862.00    0.37270   0.55766    0.000
 3863.00    0.47839   0.54176    0.000
 3864.00    0.63402   0.50768    0.000
 3865.00    0.83139   0.46933    0.000
 3866.00    0.84937   0.45040    0.000
 3867.00    0.73541   0.47924    0.000
 3868.00    0.72814   0.54751    0.000
 3869.00    0.78977   0.59463    0.000
 3870.00    0.70539   0.58069    0.000
 3871.00    0.53848   0.51622    0.000
 3872.00    0.38491   0.45423    0.000
 3873.00    0.23791   0.46177    0.000
 3874.00    0.27217   0.49701    0.000
 3875.00    0.38351   0.48017    0.000
 3876.00    0.37769   0.44924    0.000
 3877.00    0.32920   0.47927    0.000
 3878.00    0.38377   0.52077    0.000
 3879.00    0.47012   0.47665    0.000
 3880.00    0.41339   0.39648    0.000
 3881.00    0.31995   0.37472    0.024
 3882.00    0.21096   0.38678    0.024
 3883.00    0.09872   0.40491    0.023
 3884.00    0.17727   0.45969    0.024
 3885.00    0.28729   0.53414    0.024
 3886.00    0.24908   0.58636    0.024
 3887.00    0.19252   0.59867    0.024
 3888.00    0.22768   0.58219    0.024
 3889.00    0.27069   0.56128    0.024
 3890.00    0.04847   0.57885    0.024
 3891.00   -0.18697   0.61607    0.000
 3892.00   -0.10493   0.60987    0.000
 3893.00   -0.01792   0.58474    0.000
 3894.00    0.05351   0.59689    0.023
 3895.00    0.12501   0.63996    0.023
 3896.00    0.19794   0.64048    0.023
 3897.00    0.28719   0.61175    0.022
 3898.00    0.56939   0.60266    0.022
 3899.00    0.82917   0.57742    0.022
 3900.00    0.90628   0.56592    0.021
 3901.00    0.94921   0.61943    0.021
 3902.00    0.78337   0.68747    0.020
 3903.00    0.64673   0.72141    0.020
 3904.00    0.65059   0.72863    0.019
 3905.00    0.61203   0.74110    0.019
 3906.00    0.40731   0.75342    0.019
 3907.00    0.22774   0.74206    0.019
 3908.00    0.13015   0.72628    0.019
 3909.00    0.07484   0.71948    0.020
 3910.00    0.13612   0.70001    0.020
 3911.00    0.24436   0.68349    0.021
 3912.00    0.46351   0.66874    0.021
 3913.00    0.60595   0.63140    0.022
 3914.00    0.59181   0.58459    0.022
 3915.00    0.42194   0.56409    0.022
 3916.00   -0.02454   0.57680    0.000
 3917.00   -0.14711   0.60045    0.000
 3918.00    0.23357   0.61814    0.023
 3919.00    0.64194   0.60218    0.023
 3920.00    1.08806   0.55943    0.024
 3921.00    1.13142   0.50745    0.024
 3922.00    0.69100   0.44919    0.024
 3923.00    0.49301   0.40004    0.024
 3924.00    0.55177   0.35766    0.024
 3925.00    0.45518   0.31375    0.024
 3926.00    0.21345   0.26697    0.024
 3927.00    0.32154   0.22877    0.024
 3928.00    0.71774   0.22497    0.024
 3929.00    0.64386   0.26379    0.023
 3930.00    0.22921   0.32639    0.023
 3931.00    0.01769   0.38934    0.023
 3932.00   -0.06454   0.44800    0.000
 3933.00    0.08132   0.50375    0.023
 3934.00    0.35412   0.53995    0.023
 3935.00    0.40292   0.54955    0.023
 3936.00    0.34330   0.54526    0.023
 3937.00    0.23765   0.52807    0.023
 3938.00    0.11276   0.52752    0.023
 3939.00    0.07574   0.58673    0.022
 3940.00    0.07015   0.65597    0.022
 3941.00    0.38777   0.66306    0.023
 3942.00    0.80307   0.64480    0.023
 3943.00    1.01038   0.66605    0.023
 3944.00    1.16545   0.71095    0.023
 3945.00    0.92641   0.71887    0.023
 3946.00    0.60701   0.68536    0.023
 3947.00    0.40922   0.68472    0.023
 3948.00    0.23090   0.72702    0.022
 3949.00    0.39661   0.72171    0.022
 3950.00    0.60340   0.66681    0.023
 3951.00    0.56578   0.64478    0.023
 3952.00    0.50827   0.66614    0.023
 3953.00    0.65869   0.67121    0.023
 3954.00    0.81867   0.60861    0.023
 3955.00    1.00810   0.50433    0.023
 3956.00    1.20022   0.44027    0.023
 3957.00    1.51267   0.42804    0.023
 3958.00    1.79829   0.41052    0.023
 3959.00    1.57569   0.36108    0.024
 3960.00    1.33612   0.29313    0.000
 3961.00    0.90528   0.23092    0.000
 3962.00    0.52054   0.19299    0.000
 3963.00    0.49806   0.19080    0.000
 3964.00    0.47705   0.22594    0.000
 3965.00    0.46473   0.28372    0.000
 3966.00    0.42545   0.34448    0.000
 3967.00    0.25957   0.40044    0.000
 3968.00    0.10817   0.46044    0.000
 3969.00    0.01228   0.52335    0.000
 3970.00    0.04579   0.57161    0.000
 3971.00    0.49289   0.61547    0.000
 3972.00    0.80786   0.67008    0.000
 3973.00    0.76498   0.72393    0.000
 3974.00    0.68092   0.75540    0.000
 3975.00    0.50126   0.74736    0.000
 3976.00    0.47114   0.72497    0.000
 3977.00    0.74142   0.72408    0.000
 3978.00    0.98834   0.74515    0.000
 3979.00    1.19441   0.77375    0.000
 3980.00    1.23934   0.79071    0.000
 3981.00    1.03759   0.81241    0.023
 3982.00    0.94691   0.84108    0.023
 3983.00    1.00563   0.83208    0.023
 3984.00    0.95635   0.81459    0.023
 3985.00    0.77917   0.83357    0.023
 3986.00    0.71042   0.86260    0.022
 3987.00    0.75489   0.87204    0.022
 3988.00    0.81585   0.85614    0.022
 3989.00    0.89198   0.83131    0.022
 3990.00    0.89811   0.80405    0.022
 3991.00    0.84738   0.78271    0.022
 3992.00    0.99909   0.80428    0.022
 3993.00    1.29544   0.86943    0.022
 3994.00    1.44933   0.91330    0.022
 3995.00    1.51389   0.91855    0.022
 3996.00    1.30989   0.92941    0.022
 3997.00    0.95871   0.92584    0.022
 3998.00    0.69811   0.85242    0.033
 3999.00    0.48066   0.75957    0.147
 4000.00    0.36869   0.75777   -1.000
 4001.00    0.30008   0.83351   -1.000
 4002.00    0.51111   0.89424   -1.000
 4003.00    0.82037   0.91282   -1.000
 4004.00    0.97881   0.91582   -1.000
 4005.00    1.09257   0.91711   -1.000
 4006.00    1.07618   0.91806   -1.000
 4007.00    1.02782   0.92418   -1.000
 4008.00    1.07642   0.93519   -1.000
 4009.00    1.14429   0.95157   -1.000
 4010.00    1.01755   0.94584    0.050
 4011.00    0.86056   0.91964    0.023
 4012.00    0.91801   0.93021    0.022
 4013.00    1.00011   0.96625    0.022
 4014.00    0.85281   0.96699    0.022
 4015.00    0.68777   0.94439    0.022
 4016.00    0.69671   0.93361    0.022
 4017.00    0.71297   0.92209    0.022
 4018.00    0.66135   0.89992    0.022
 4019.00    0.61440   0.90662    0.022
 4020.00    0.79896   0.95169    0.022
 4021.00    0.98676   0.99358    0.023
 4022.00    1.23173   1.00128    0.023
 4023.00    1.44898   0.94348    0.022
 4024.00    1.36793   0.83557    0.022
 4025.00    1.24413   0.76475    0.022
 4026.00    0.79583   0.75067    0.022
 4027.00    0.40672   0.75417    0.021
 4028.00    0.35909   0.78380    0.021
 4029.00    0.37813   0.84987    0.021
 4030.00    0.70274   0.93617    0.021
 4031.00    0.96766   1.00398    0.021
 4032.00    1.00866   1.01981    0.021
 4033.00    1.00000   0.98935    0.021
 4034.00    0.83570   0.94902    0.021
 4035.00    0.76941   0.94325    0.020
 4036.00    0.96386   0.95751    0.020
 4037.00    1.11117   0.90750    0.020
 4038.00    1.15082   0.77356    0.020
 4039.00    1.14730   0.65974    0.021
 4040.00    1.05841   0.68143    0.021
 4041.00    1.01419   0.81144    0.021
 4042.00    1.04692   0.91534    0.021
 4043.00    1.05445   0.95676    0.021
 4044.00    1.02396   0.97763    0.021
 4045.00    0.90646   0.97447    0.021
 4046.00    0.67360   0.94371    0.021
 4047.00    0.60592   0.90942    0.021
 4048.00    0.73109   0.87942    0.021
 4049.00    0.83114   0.86401    0.021
 4050.00    0.90532   0.85672    0.021
 4051.00    1.02165   0.83038    0.021
 4052.00    1.17626   0.82312    0.021
 4053.00    1.26495   0.87159    0.021
 4054.00    1.30089   0.92370    0.022
 4055.00    1.50057   0.90448    0.022
 4056.00    1.81555   0.80180    0.022
 4057.00    1.75516   0.70840    0.022
 4058.00    1.46291   0.72878    0.021
 4059.00    1.28108   0.81351    0.021
 4060.00    1.15883   0.84606    0.021
 4061.00    1.08883   0.85378    0.021
 4062.00    1.04333   0.90558    0.021
 4063.00    1.00569   0.94489    0.021
 4064.00    0.97121   0.88920    0.021
 4065.00    0.79922   0.79689    0.021
 4066.00    0.57982   0.80117    0.020
 4067.00    0.67668   0.88579    0.021
 4068.00    0.86538   0.91835    0.021
 4069.00    0.90818   0.86042    0.021
 4070.00    0.91594   0.76809    0.021
 4071.00    1.01156   0.71936    0.021
 4072.00    1.12420   0.75830    0.021
 4073.00    1.08188   0.85193    0.021
 4074.00    1.01621   0.94252    0.020
 4075.00    1.31401   0.98459    0.020
 4076.00    1.65201   0.95836    0.020
 4077.00    1.48672   0.90541    0.020
 4078.00    1.28456   0.87672    0.020
 4079.00    1.03778   0.88282    0.020
 4080.00    0.78929   0.92364    0.020
 4081.00    0.90821   0.98412    0.020
 4082.00    1.02759   1.02189    0.020
 4083.00    1.08779   1.01428    0.020
 4084.00    1.15637   0.98141    0.020
 4085.00    1.36304   0.94777    0.020
 4086.00    1.54233   0.93000    0.020
 4087.00    1.43998   0.93454    0.020
 4088.00    1.30868   0.91435    0.020
 4089.00    0.96497   0.84576    0.020
 4090.00    0.68624   0.79028    0.020
 4091.00    0.77206   0.77923    0.020
 4092.00    0.86672   0.77749    0.000
 4093.00    1.00094   0.74189    0.000
 4094.00    1.02363   0.66377    0.000
 4095.00    0.63671   0.60533    0.000
 4096.00    0.40461   0.63070    0.000
 4097.00    0.64864   0.70479    0.000
 4098.00    0.82795   0.77088    0.000
 4099.00    0.83814   0.82888    0.000
 4100.00    0.82738   0.87222    0.000
 4101.00    0.76959   0.88202    0.000
 4102.00    0.84405   0.86836    0.000
 4103.00    1.17583   0.84700    0.000
 4104.00    1.33768   0.83249    0.000
 4105.00    1.21120   0.83776    0.000
 4106.00    1.11239   0.86632    0.000
 4107.00    1.05472   0.90687    0.000
 4108.00    0.98308   0.93577    0.000
 4109.00    0.89319   0.95175    0.000
 4110.00    0.92031   0.95640    0.000
 4111.00    1.08212   0.92620    0.000
 4112.00    1.05272   0.87391    0.000
 4113.00    0.82922   0.86148    0.020
 4114.00    0.88810   0.89037    0.020
 4115.00    1.19979   0.90200    0.020
 4116.00    1.09086   0.89266    0.020
 4117.00    0.65005   0.90235    0.020
 4118.00    0.65852   0.93524    0.028
 4119.00    0.97876   0.94960    0.102
 4120.00    1.10458   0.92590   -1.000
 4121.00    1.11210   0.89255   -1.000
 4122.00    1.18287   0.87670   -1.000
 4123.00    1.28725   0.87481   -1.000
 4124.00    1.25748   0.85824   -1.000
 4125.00    1.16585   0.81341   -1.000
 4126.00    1.25276   0.77652   -1.000
 4127.00    1.41057   0.78480   -1.000
 4128.00    1.38941   0.83379    0.052
 4129.00    1.30768   0.90337    0.022
 4130.00    1.09986   0.94677    0.020
 4131.00    0.85617   0.95456    0.019
 4132.00    0.61727   0.96633    0.019
 4133.00    0.37948   0.98013    0.019
 4134.00    0.61240   0.96900    0.019
 4135.00    0.93415   0.90565    0.019
 4136.00    0.89423   0.79490    0.019
 4137.00    0.80148   0.72435    0.019
 4138.00    0.77221   0.76415    0.019
 4139.00    0.74968   0.85497    0.019
 4140.00    0.71050   0.91017    0.019
 4141.00    0.67016   0.92098    0.019
 4142.00    0.66428   0.90230    0.019
 4143.00    0.65960   0.87189    0.019
 4144.00    0.97753   0.86134    0.019
 4145.00    1.28754   0.86828    0.019
 4146.00    1.31468   0.86700    0.019
 4147.00    1.33094   0.85165    0.019
 4148.00    1.17893   0.83797    0.019
 4149.00    1.05874   0.83591    0.019
 4150.00    1.25213   0.84097    0.019
 4151.00    1.43597   0.86743    0.019
 4152.00    1.55203   0.91212    0.019
 4153.00    1.61139   0.93959    0.019
 4154.00    1.36118   0.94199    0.019
 4155.00    1.13393   0.95360    0.019
 4156.00    1.00706   0.98001    0.019
 4157.00    0.90822   0.97970    0.018
 4158.00    0.91020   0.95401    0.018
 4159.00    0.92335   0.92992    0.018
 4160.00    0.97019   0.89922    0.019
 4161.00    1.04354   0.87953    0.019
 4162.00    1.18494   0.90341    0.019
 4163.00    1.33298   0.93504    0.019
 4164.00    1.49566   0.91662    0.019
 4165.00    1.52775   0.84260    0.019
 4166.00    1.30965   0.77220    0.019
 4167.00    1.16731   0.76696    0.019
 4168.00    1.15156   0.80911    0.019
 4169.00    1.07621   0.84234    0.019
 4170.00    0.91357   0.84198    0.018
 4171.00    0.91309   0.82840    0.018
 4172.00    1.12149   0.84053    0.019
 4173.00    1.06398   0.87327    0.019
 4174.00    0.70474   0.88131    0.019
 4175.00    0.65948   0.86101    0.019
 4176.00    0.92849   0.85671    0.019
 4177.00    1.16540   0.88774    0.019
 4178.00    1.37396   0.93185    0.019
 4179.00    1.37111   0.93596    0.019
 4180.00    1.20384   0.87487    0.019
 4181.00    1.19521   0.82846    0.019
 4182.00    1.29506   0.86126    0.019
 4183.00    1.08045   0.90998    0.019
 4184.00    0.67734   0.91138    0.019
 4185.00    0.71432   0.90949    0.019
 4186.00    0.98149   0.95040    0.019
 4187.00    1.11674   0.97782    0.019
 4188.00    1.19215   0.93638    0.019
 4189.00    1.12807   0.86696    0.019
 4190.00    1.00955   0.82223    0.018
 4191.00    0.89686   0.79587    0.018
 4192.00    0.78610   0.78783    0.018
 4193.00    0.57978   0.81131    0.018
 4194.00    0.34681   0.82402    0.018
 4195.00    0.61878   0.80740    0.019
 4196.00    1.00660   0.81613    0.019
 4197.00    1.16060   0.85695    0.019
 4198.00    1.27165   0.89012    0.019
 4199.00    1.04706   0.91848    0.018
 4200.00    0.77502   0.95202    0.018
 4201.00    0.83663   0.97772    0.018
 4202.00    0.93227   0.97527    0.018
 4203.00    0.83658   0.94793    0.018
 4204.00    0.72843   0.93928    0.018
 4205.00    1.05490   0.96331    0.018
 4206.00    1.39386   0.97489    0.018
 4207.00    1.18061   0.93730    0.018
 4208.00    0.97299   0.85973    0.018
 4209.00    0.93050   0.81615    0.018
 4210.00    0.89597   0.87246    0.018
 4211.00    0.97735   0.96891    0.018
 4212.00    1.03608   1.02056    0.018
 4213.00    0.88057   1.03696    0.018
 4214.00    0.73888   1.04518    0.018
 4215.00    0.69227   1.02045    0.018
 4216.00    0.67415   0.95300    0.018
 4217.00    0.80750   0.86794    0.017
 4218.00    0.95311   0.76499    0.017
 4219.00    1.15111   0.64073    0.017
 4220.00    1.28310   0.57165    0.017
 4221.00    1.18251   0.65034    0.017
 4222.00    1.07469   0.81463    0.017
 4223.00    0.94545   0.93688    0.017
 4224.00    0.86500   0.99463    0.017
 4225.00    0.90766   0.99040    0.017
 4226.00    0.93498   0.93365    0.017
 4227.00    0.92899   0.89747    0.017
 4228.00    0.93998   0.89164    0.017
 4229.00    0.98301   0.86882    0.017
 4230.00    1.02489   0.86059    0.017
 4231.00    1.06488   0.88415    0.017
 4232.00    1.04966   0.89973    0.016
 4233.00    0.95474   0.91447    0.016
 4234.00    0.99750   0.95489    0.016
 4235.00    1.21507   0.98639    0.016
 4236.00    1.34904   0.99461    0.016
 4237.00    1.38946   1.02881    0.016
 4238.00    1.38708   1.06898    0.016
 4239.00    1.34246   1.04908    0.016
 4240.00    1.29324   0.98070    0.016
 4241.00    1.24004   0.92308    0.017
 4242.00    1.13337   0.88772    0.016
 4243.00    0.98570   0.84619    0.016
 4244.00    0.98468   0.83537    0.017
 4245.00    1.08247   0.88912    0.017
 4246.00    1.06453   0.92395    0.018
 4247.00    0.97824   0.88209    0.018
 4248.00    1.09758   0.84449    0.018
 4249.00    1.32279   0.89249    0.018
 4250.00    1.35559   0.97652    0.018
 4251.00    1.30255   0.98652    0.018
 4252.00    1.22047   0.91117    0.018
 4253.00    1.12726   0.82300    0.018
 4254.00    1.11482   0.79564    0.018
 4255.00    1.12870   0.86684    0.018
 4256.00    0.96118   0.97883    0.018
 4257.00    0.74415   1.04716    0.018
 4258.00    0.74463   1.07256    0.018
 4259.00    0.79386   1.08254    0.017
 4260.00    0.89487   1.05543    0.018
 4261.00    1.00515   0.99821    0.018
 4262.00    1.10903   0.94751    0.018
 4263.00    1.21202   0.88080    0.018
 4264.00    0.92620   0.77403    0.018
 4265.00    0.60239   0.70458    0.017
 4266.00    0.83641   0.73101    0.018
 4267.00    1.10454   0.76878    0.018
 4268.00    1.04994   0.78515    0.017
 4269.00    0.98824   0.85003    0.017
 4270.00    1.24091   0.95178    0.017
 4271.00    1.46812   1.02227    0.017
 4272.00    1.02224   1.02041    0.017
 4273.00    0.61552   0.95673    0.017
 4274.00    0.74722   0.91285    0.017
 4275.00    0.87162   0.91924    0.017
 4276.00    0.92970   0.94103    0.017
 4277.00    1.01932   0.95434    0.018
 4278.00    1.31895   0.93078    0.018
 4279.00    1.56569   0.89773    0.018
 4280.00    1.53854   0.89828    0.018
 4281.00    1.46322   0.89064    0.018
 4282.00    1.18678   0.82021   -2.000
 4283.00    0.96148   0.74577   -2.000
 4284.00    0.91275   0.75850   -2.000
 4285.00    0.86473   0.84561   -2.000
 4286.00    0.81882   0.91936   -2.000
 4287.00    0.85223   0.91665   -2.000
 4288.00    1.08237   0.89084   -2.000
 4289.00    1.21931   0.88652   -2.000
 4290.00    1.15703   0.86532   -2.000
 4291.00    1.15598   0.80503   -2.000
 4292.00    1.26863   0.71049   -2.000
 4293.00    1.28649   0.64304   -2.000
 4294.00    1.15061   0.65514   -2.000
 4295.00    1.05902   0.68682   -2.000
 4296.00    1.03044   0.69795   -2.000
 4297.00    0.95791   0.71766   -2.000
 4298.00    0.83038   0.72865    0.017
 4299.00    0.87496   0.71018    0.017
 4300.00    1.10940   0.66456    0.017
 4301.00    1.19086   0.60859    0.017
 4302.00    1.12348   0.59828    0.017
 4303.00    0.92237   0.64681    0.017
 4304.00    0.60654   0.71425    0.017
 4305.00    0.50513   0.77355    0.016
 4306.00    0.56578   0.82188    0.016
 4307.00    0.58103   0.85748    0.016
 4308.00    0.56614   0.92321    0.017
 4309.00    0.72242   1.05300    0.016
 4310.00    0.97826   1.15707    0.016
 4311.00    1.09631   1.17178    0.016
 4312.00    1.14454   1.14353    0.017
 4313.00    1.23856   1.10774    0.016
 4314.00    1.35266   1.06814    0.016
 4315.00    1.26730   1.03614    0.016
 4316.00    1.10682   0.96427    0.016
 4317.00    0.95534   0.83523    0.016
 4318.00    0.80675   0.71068    0.016
 4319.00    0.78664   0.68003    0.016
 4320.00    0.80086   0.79781    0.016
 4321.00    0.80924   0.97505    0.016
 4322.00    0.81634   1.07451    0.016
 4323.00    0.84626   1.06476    0.016
 4324.00    0.88016   1.03231    0.016
 4325.00    0.92626   1.04052    0.016
 4326.00    0.97398   1.05895    0.016
 4327.00    0.83397   1.07406    0.016
 4328.00    0.67641   1.09576    0.016
 4329.00    0.70979   1.06734    0.016
 4330.00    0.75410   0.94010    0.000
 4331.00    0.65167   0.80343    0.000
 4332.00    0.54834   0.72358    0.000
 4333.00    0.73459   0.66898    0.000
 4334.00    0.91577   0.68509    0.000
 4335.00    0.97528   0.79696    0.000
 4336.00    1.01816   0.88897    0.000
 4337.00    0.84450   0.91939    0.000
 4338.00    0.69374   0.96401    0.000
 4339.00    0.74311   1.00595    0.000
 4340.00    0.79895   1.01093    0.000
 4341.00    0.89660   1.03991    0.000
 4342.00    0.97989   1.10231    0.000
 4343.00    0.99068   1.08630    0.000
 4344.00    0.96121   0.94736    0.000
 4345.00    0.76744   0.83179    0.000
 4346.00    0.65090   0.86043    0.000
 4347.00    0.79565   0.94825    0.000
 4348.00    0.92896   0.99702    0.000
 4349.00    1.02962   1.03797    0.000
 4350.00    1.07624   1.08162    0.000
 4351.00    0.99111   1.06472    0.017
 4352.00    0.93651   1.00410    0.017
 4353.00    0.94609   1.00259    0.017
 4354.00    1.02512   1.07060    0.021
 4355.00    1.23109   1.11855    0.054
 4356.00    1.33288   1.11837   -1.000
 4357.00    1.26822   1.13872   -1.000
 4358.00    1.22229   1.18254   -1.000
 4359.00    1.20263   1.16577   -1.000
 4360.00    1.17046   1.08245   -1.000
 4361.00    1.12286   1.02323   -1.000
 4362.00    1.07619   1.02913   -1.000
 4363.00    1.03053   1.04713   -1.000
 4364.00    0.93210   1.05713    0.066
 4365.00    0.78307   1.06426    0.022
 4366.00    0.77607   1.02983    0.017
 4367.00    0.88920   0.94627    0.017
 4368.00    0.99649   0.88717    0.017
 4369.00    1.09941   0.92164    0.017
 4370.00    1.07929   1.02272    0.017
 4371.00    0.97866   1.09762    0.017
 4372.00    0.93914   1.10108    0.017
 4373.00    0.93462   1.06587    0.017
 4374.00    0.90115   1.02555    0.017
 4375.00    0.85326   0.92594    0.017
 4376.00    0.93902   0.74458    0.017
 4377.00    1.08245   0.63183    0.017
 4378.00    0.93760   0.70370    0.017
 4379.00    0.68606   0.86943    0.017
 4380.00    0.80259   0.96961    0.017
 4381.00    1.03453   0.98079    0.017
 4382.00    1.02049   0.96488    0.017
 4383.00    0.94210   0.94605    0.017
 4384.00    0.82401   0.95155    0.016
 4385.00    0.69743   0.99456    0.016
 4386.00    0.92778   1.02461    0.016
 4387.00    1.21850   1.00022    0.016
 4388.00    1.18698   0.97297    0.016
 4389.00    1.11429   1.02543    0.016
 4390.00    1.06533   1.11762    0.016
 4391.00    1.01849   1.14098    0.016
 4392.00    0.87131   1.08467    0.016
 4393.00    0.71880   1.00009    0.016
 4394.00    0.78520   0.97813    0.016
 4395.00    0.85658   1.04359    0.016
 4396.00    0.98349   1.03981    0.016
 4397.00    1.10376   0.89830    0.016
 4398.00    1.07780   0.80687    0.016
 4399.00    1.05618   0.86961    0.016
 4400.00    1.08823   0.93806    0.016
 4401.00    1.11261   0.93572    0.017
 4402.00    1.07238   0.96862    0.017
 4403.00    1.06945   1.06412    0.017
 4404.00    1.30026   1.13780    0.017
 4405.00    1.44860   1.17249    0.017
 4406.00    1.19134   1.16517    0.017
 4407.00    1.01593   1.06271    0.016
 4408.00    1.16726   0.93457    0.017
 4409.00    1.27612   0.92527    0.017
 4410.00    1.24415   0.99868    0.016
 4411.00    1.18381   1.07467    0.016
 4412.00    1.04398   1.14791    0.016
 4413.00    0.96914   1.18114    0.017
 4414.00    1.05006   1.13739    0.016
 4415.00    1.09746   1.05332    0.016
 4416.00    1.07550   1.02008    0.016
 4417.00    1.13692   1.05600    0.016
 4418.00    1.34845   1.08178    0.016
 4419.00    1.36544   1.07331    0.016
 4420.00    1.07619   1.07035    0.016
 4421.00    0.96540   1.09564    0.016
 4422.00    1.10120   1.10075    0.017
 4423.00    1.19506   1.04944    0.017
 4424.00    1.23793   1.04332    0.017
 4425.00    1.15858   1.09202    0.016
 4426.00    0.94816   1.08192    0.016
 4427.00    0.78606   0.99961    0.016
 4428.00    0.66964   0.92944    0.017
 4429.00    0.78644   0.95546    0.017
 4430.00    1.09771   1.06320    0.016
 4431.00    1.19159   1.16253    0.016
 4432.00    1.12586   1.20892    0.017
 4433.00    1.09936   1.17976    0.017
 4434.00    1.09815   1.09071    0.017
 4435.00    1.11594   1.00406    0.017
 4436.00    1.14446   0.97316    0.017
 4437.00    1.14980   1.02506    0.017
 4438.00    1.14375   1.12948    0.017
 4439.00    1.24863   1.18653    0.017
 4440.00    1.40059   1.16535    0.017
 4441.00    1.31348   1.16222    0.017
 4442.00    1.13947   1.17255    0.017
 4443.00    1.00113   1.13937    0.017
 4444.00    0.87376   1.12648    0.017
 4445.00    1.00081   1.14144    0.016
 4446.00    1.19300   1.11175    0.016
 4447.00    1.28334   1.02337    0.016
 4448.00    1.35246   0.94291    0.016
 4449.00    1.39093   0.94822    0.016
 4450.00    1.42437   0.99309    0.017
 4451.00    1.40548   0.99618    0.016
 4452.00    1.38015   0.97710    0.016
 4453.00    1.40702   0.97095    0.016
 4454.00    1.43833   0.94496    0.016
 4455.00    1.29751   0.93935    0.016
 4456.00    1.14820   1.02579    0.016
 4457.00    1.19806   1.10239    0.016
 4458.00    1.24796   1.09934    0.016
 4459.00    1.10133   1.08362    0.016
 4460.00    0.96141   1.08632    0.016
 4461.00    0.95744   1.07735    0.000
 4462.00    0.95920   1.04409    0.000
 4463.00    1.02842   1.04430    0.000
 4464.00    1.10807   1.08663    0.000
 4465.00    1.27238   1.13656    0.000
 4466.00    1.38485   1.18772    0.000
 4467.00    1.18186   1.21376    0.000
 4468.00    0.99452   1.19863    0.000
 4469.00    0.88220   1.20344    0.000
 4470.00    0.83928   1.25446    0.000
 4471.00    1.06740   1.27186    0.000
 4472.00    1.22723   1.19985    0.000
 4473.00    1.16504   1.08501    0.000
 4474.00    1.14619   1.00741    0.000
 4475.00    1.24664   1.00825    0.000
 4476.00    1.25808   1.09096    0.000
 4477.00    1.05975   1.18881    0.000
 4478.00    0.95020   1.24533    0.000
 4479.00    1.02147   1.26605    0.000
 4480.00    1.09749   1.23867    0.000
 4481.00    1.18193   1.15870    0.000
 4482.00    1.24584   1.07665    0.016
 4483.00    1.27789   1.05827    0.016
 4484.00    1.19053   1.11491    0.016
 4485.00    0.94053   1.18145    0.016
 4486.00    0.81860   1.17686    0.016
 4487.00    0.85023   1.09553    0.016
 4488.00    1.03340   1.04106    0.016
 4489.00    1.37677   1.05848    0.016
 4490.00    1.41994   1.11735    0.016
 4491.00    1.18316   1.18707    0.016
 4492.00    1.04279   1.22625    0.016
 4493.00    0.98168   1.21215    0.016
 4494.00    0.93223   1.15931    0.016
 4495.00    0.89120   1.17077    0.016
 4496.00    1.00313   1.27018    0.016
 4497.00    1.21223   1.33687    0.016
 4498.00    1.27156   1.33061    0.016
 4499.00    1.24770   1.29257    0.016
 4500.00    1.13884   1.25309    0.016
 4501.00    0.98891   1.23676    0.016
 4502.00    1.13866   1.25236    0.016
 4503.00    1.41344   1.28156    0.016
 4504.00    1.25993   1.28236    0.016
 4505.00    0.95357   1.23975    0.016
 4506.00    1.00847   1.19179    0.016
 4507.00    1.17229   1.16292    0.016
 4508.00    1.35387   1.16665    0.016
 4509.00    1.53990   1.19240    0.016
 4510.00    1.38398   1.18461    0.016
 4511.00    1.15855   1.16190    0.016
 4512.00    1.19368   1.18808    0.016
 4513.00    1.27038   1.23787    0.016
 4514.00    1.26866   1.26298    0.016
 4515.00    1.25761   1.22048    0.016
 4516.00    1.10807   1.16303    0.016
 4517.00    0.94731   1.15519    0.016
 4518.00    1.01258   1.13149    0.016
 4519.00    1.08812   1.07140    0.016
 4520.00    1.24231   1.01393    0.016
 4521.00    1.38931   0.97780    0.016
 4522.00    1.11976   0.97856    0.016
 4523.00    0.86877   1.01280    0.015
 4524.00    0.96598   1.05371    0.015
 4525.00    1.05735   1.09713    0.015
 4526.00    1.08321   1.08537    0.016
 4527.00    1.09744   1.02301    0.016
 4528.00    1.02066   0.99375    0.016
 4529.00    0.95442   1.06466    0.015
 4530.00    0.95053   1.20048    0.015
 4531.00    0.96732   1.25638    0.015
 4532.00    1.08091   1.21436    0.016
 4533.00    1.17435   1.15306    0.016
 4534.00    1.19077   1.12670    0.016
 4535.00    1.17985   1.16116    0.016
 4536.00    1.08174   1.20006    0.016
 4537.00    1.00181   1.17422    0.016
 4538.00    0.97102   1.13087    0.016
 4539.00    1.01404   1.13745    0.016
 4540.00    1.22809   1.15766    0.016
 4541.00    1.34325   1.13685    0.016
 4542.00    1.26017   1.08617    0.016
 4543.00    1.25583   1.09303    0.016
 4544.00    1.38893   1.14839    0.016
 4545.00    1.39742   1.15181    0.016
 4546.00    1.21549   1.11540    0.015
 4547.00    1.09249   1.08128    0.015
 4548.00    1.04862   1.07533    0.016
 4549.00    1.10201   1.12777    0.016
 4550.00    1.27040   1.20789    0.000
 4551.00    1.26551   1.25099    0.000
 4552.00    1.08002   1.25522    0.000
 4553.00    1.00843   1.24740    0.000
 4554.00    1.04158   1.25150    0.000
 4555.00    1.00140   1.24872    0.000
 4556.00    0.90178   1.19306    0.000
 4557.00    0.89301   1.12169    0.000
 4558.00    0.94902   1.10071    0.000
 4559.00    1.13190   1.15096    0.000
 4560.00    1.39417   1.23558    0.000
 4561.00    1.34964   1.27648    0.000
 4562.00    1.13731   1.26575    0.000
 4563.00    1.16324   1.22297    0.000
 4564.00    1.30245   1.15018    0.000
 4565.00    1.30156   1.14434    0.000
 4566.00    1.24322   1.22661    0.000
 4567.00    1.25545   1.26354    0.000
 4568.00    1.29240   1.24239    0.000
 4569.00    1.16028   1.23727    0.000
 4570.00    0.97820   1.23871    0.000
 4571.00    1.07533   1.20890    0.000
 4572.00    1.24086   1.14503    0.000
 4573.00    1.30483   1.09034    0.000
 4574.00    1.34867   1.09234    0.000
 4575.00    1.21904   1.13391    0.000
 4576.00    1.06257   1.15114    0.000
 4577.00    1.02854   1.13866    0.000
 4578.00    1.00853   1.12623    0.000
 4579.00    0.89780   1.12777    0.000
 4580.00    0.78010   1.17095    0.000
 4581.00    0.85963   1.23110    0.000
 4582.00    0.94737   1.25948    0.000
 4583.00    0.97230   1.23863    0.000
 4584.00    0.99795   1.18512    0.000
 4585.00    1.07763   1.14521    0.000
 4586.00    1.14874   1.14213    0.000
 4587.00    1.06995   1.14224    0.000
 4588.00    0.99572   1.13091    0.000
 4589.00    0.97021   1.13328    0.000
 4590.00    0.97128   1.14593    0.000
 4591.00    1.17331   1.16271    0.000
 4592.00    1.34511   1.17487    0.000
 4593.00    1.34322   1.15078    0.000
 4594.00    1.33926   1.13919    0.000
 4595.00    1.32589   1.16360    0.000
 4596.00    1.34746   1.17442    0.000
 4597.00    1.49976   1.16547    0.000
 4598.00    1.53973   1.15110    0.000
 4599.00    1.22838   1.16649    0.000
 4600.00    1.03180   1.22220    0.000
 4601.00    1.13983   1.29180    0.000
 4602.00    1.18060   1.32707    0.000
 4603.00    1.06812   1.30094    0.000
 4604.00    1.08735   1.25311    0.000
 4605.00    1.36641   1.22410    0.000
 4606.00    1.46773   1.21296    0.000
 4607.00    1.26345   1.23292    0.000
 4608.00    1.13606   1.26199    0.000
 4609.00    1.12446   1.26240    0.000
 4610.00    1.13760   1.26627    0.000
 4611.00    1.18350   1.25747    0.000
 4612.00    1.19824   1.22733    0.000
 4613.00    1.17665   1.23916    0.000
 4614.00    1.07719   1.27526    0.000
 4615.00    0.89769   1.27358    0.000
 4616.00    0.89712   1.26537    0.000
 4617.00    1.05874   1.26642    0.000
 4618.00    1.12793   1.24810    0.000
 4619.00    1.12327   1.23565    0.000
 4620.00    1.12980   1.24902    0.000
 4621.00    1.14419   1.24758    0.000
 4622.00    1.20715   1.22482    0.000
 4623.00    1.30005   1.23776    0.000
 4624.00    1.37325   1.27686    0.000
 4625.00    1.43586   1.26420    0.000
 4626.00    1.32330   1.21261    0.000
 4627.00    1.12881   1.19308    0.000
 4628.00    1.05293   1.20158    0.000
 4629.00    1.02487   1.19715    0.000
 4630.00    1.03230   1.16911    0.000
 4631.00    1.05195   1.14387    0.000
 4632.00    1.02456   1.13418    0.000
 4633.00    0.98355   1.14417    0.000
 4634.00    1.03523   1.19001    0.000
 4635.00    1.10911   1.22234    0.000
 4636.00    1.11075   1.20473    0.000
 4637.00    1.09844   1.16924    0.000
 4638.00    0.99270   1.12162    0.000
 4639.00    0.87294   1.06010    0.000
 4640.00    0.92733   1.03641    0.000
 4641.00    1.00089   1.06835    0.000
 4642.00    1.15045   1.12369    0.000
 4643.00    1.30554   1.17443    0.000
 4644.00    1.22808   1.20512    0.000
 4645.00    1.14182   1.22091    0.000
 4646.00    0.98485   1.21220    0.000
 4647.00    0.83696   1.16435    0.000
 4648.00    1.03812   1.12417    0.000
 4649.00    1.22361   1.12723    0.000
 4650.00    1.15313   1.17625    0.000
 4651.00    1.09751   1.25727    0.000
 4652.00    1.19410   1.31774    0.000
 4653.00    1.26300   1.32026    0.000
 4654.00    1.12950   1.27214    0.000
 4655.00    1.03707   1.20927    0.000
 4656.00    1.17417   1.16935    0.000
 4657.00    1.27529   1.16300    0.000
 4658.00    1.21586   1.13988    0.000
 4659.00    1.15638   1.05493    0.000
 4660.00    1.09669   0.97348    0.000
 4661.00    1.06852   0.98534    0.000
 4662.00    1.13709   1.07060    0.000
 4663.00    1.20120   1.15443    0.000
 4664.00    1.25370   1.19940    0.000
 4665.00    1.23396   1.19698    0.000
 4666.00    1.05233   1.17405    0.000
 4667.00    0.95036   1.17036    0.000
 4668.00    1.00308   1.20033    0.000
 4669.00    1.04027   1.23814    0.000
 4670.00    1.05116   1.23154    0.000
 4671.00    1.06961   1.18393    0.000
 4672.00    1.09927   1.14250    0.000
 4673.00    1.12523   1.12041    0.000
 4674.00    1.14639   1.11443    0.000
 4675.00    1.21573   1.13800    0.000
 4676.00    1.34043   1.18225    0.000
 4677.00    1.32828   1.20544    0.000
 4678.00    1.17745   1.20368    0.000
 4679.00    1.09605   1.19501    0.000
 4680.00    1.07672   1.17759    0.000
 4681.00    1.10780   1.16885    0.000
 4682.00    1.17860   1.17543    0.000
 4683.00    1.23307   1.16972    0.000
 4684.00    1.27622   1.15622    0.000
 4685.00    1.22865   1.16300    0.000
 4686.00    1.12599   1.18387    0.000
 4687.00    1.07600   1.20985    0.000
 4688.00    1.05393   1.24060    0.000
 4689.00    1.10267   1.24702    0.000
 4690.00    1.18399   1.20146    0.000
 4691.00    1.04122   1.13458    0.000
 4692.00    0.80967   1.11066    0.000
 4693.00    0.92499   1.12598    0.000
 4694.00    1.15743   1.12270    0.000
 4695.00    1.23929   1.09695    0.000
 4696.00    1.27842   1.09457    0.000
 4697.00    1.12173   1.13458    0.000
 4698.00    0.91920   1.16688    0.000
 4699.00    0.86603   1.15228    0.000
 4700.00    0.84097   1.11602    0.000
 4701.00    0.92569   1.09709    0.000
 4702.00    1.02639   1.10818    0.000
 4703.00    1.01319   1.15401    0.000
 4704.00    0.98796   1.20408    0.000
 4705.00    0.93935   1.20641    0.000
 4706.00    0.88914   1.16438    0.000
 4707.00    0.99553   1.12638    0.000
 4708.00    1.10724   1.14558    0.000
 4709.00    1.14605   1.20706    0.000
 4710.00    1.18177   1.24795    0.000
 4711.00    1.12052   1.26674    0.000
 4712.00    1.05809   1.28774    0.000
 4713.00    0.97757   1.29556    0.000
 4714.00    0.89784   1.27664    0.000
 4715.00    0.82583   1.25204    0.000
 4716.00    0.78828   1.25724    0.000
 4717.00    0.99449   1.28862    0.000
 4718.00    1.16609   1.29476    0.000
 4719.00    1.14941   1.23721    0.000
 4720.00    1.14746   1.14399    0.000
 4721.00    1.20964   1.08818    0.000
 4722.00    1.24068   1.08918    0.000
 4723.00    1.16003   1.11010    0.000
 4724.00    1.10063   1.13824    0.000
 4725.00    1.10515   1.17304    0.000
 4726.00    1.12751   1.19692    0.000
 4727.00    1.19557   1.21101    0.000
 4728.00    1.24486   1.20690    0.000
 4729.00    1.25277   1.17539    0.000
 4730.00    1.26687   1.17849    0.000
 4731.00    1.29282   1.22812    0.000
 4732.00    1.20777   1.24437    0.000
 4733.00    0.93759   1.21644    0.000
 4734.00    0.81533   1.20379    0.000
 4735.00    0.90936   1.22462    0.000
 4736.00    1.00470   1.24428    0.000
 4737.00    1.10174   1.23786    0.000
 4738.00    1.18752   1.23498    0.000
 4739.00    1.26055   1.25863    0.000
 4740.00    1.24202   1.27370    0.000
 4741.00    1.13200   1.26684    0.000
 4742.00    1.08688   1.26503    0.000
 4743.00    1.09894   1.26722    0.000
 4744.00    1.08961   1.25091    0.000
 4745.00    1.06367   1.22210    0.000
 4746.00    1.13750   1.20005    0.000
 4747.00    1.27943   1.18731    0.000
 4748.00    1.29386   1.18494    0.000
 4749.00    1.23200   1.18979    0.000
 4750.00    1.16644   1.20051    0.000
 4751.00    1.09895   1.21765    0.000
 4752.00    1.21805   1.23698    0.000
 4753.00    1.42162   1.23304    0.000
 4754.00    1.40444   1.18920    0.000
 4755.00    1.30130   1.14457    0.000
 4756.00    1.38182   1.12846    0.000
 4757.00    1.52320   1.11332    0.000
 4758.00    1.30587   1.09006    0.000
 4759.00    0.98882   1.09353    0.000
 4760.00    1.01833   1.13406    0.000
 4761.00    1.12710   1.18699    0.015
 4762.00    1.18434   1.22836    0.015
 4763.00    1.23214   1.22844    0.015
 4764.00    1.20520   1.19351    0.015
 4765.00    1.16775   1.18284    0.015
 4766.00    1.18022   1.22069    0.015
 4767.00    1.19776   1.26385    0.015
 4768.00    1.24753   1.26953    0.015
 4769.00    1.29939   1.26334    0.015
 4770.00    1.20182   1.27306    0.015
 4771.00    1.09987   1.27092    0.014
 4772.00    1.06352   1.25145    0.015
 4773.00    1.03038   1.24041    0.015
 4774.00    1.09069   1.22788    0.015
 4775.00    1.14470   1.19385    0.015
 4776.00    1.10775   1.17201    0.014
 4777.00    1.08214   1.18620    0.014
 4778.00    1.16327   1.18543    0.014
 4779.00    1.23744   1.16288    0.014
 4780.00    1.26391   1.16755    0.014
 4781.00    1.27375   1.17743    0.014
 4782.00    1.19543   1.17118    0.014
 4783.00    1.13929   1.17849    0.014
 4784.00    1.17760   1.20087    0.014
 4785.00    1.20948   1.23312    0.014
 4786.00    1.21871   1.28139    0.014
 4787.00    1.21932   1.32142    0.014
 4788.00    1.19443   1.32217    0.013
 4789.00    1.16388   1.29060    0.013
 4790.00    1.11903   1.24682    0.014
 4791.00    1.09128   1.20195    0.014
 4792.00    1.10058   1.17842    0.014
 4793.00    1.10984   1.19892    0.014
 4794.00    1.11900   1.25099    0.014
 4795.00    1.14243   1.28991    0.014
 4796.00    1.18930   1.28293    0.014
 4797.00    1.22687   1.24193    0.014
 4798.00    1.25104   1.21113    0.014
 4799.00    1.23583   1.19900    0.014
 4800.00    1.17071   1.18440    0.014
 4801.00    1.10041   1.18432    0.014
 4802.00    1.02435   1.20950    0.014
 4803.00    1.01494   1.23122    0.014
 4804.00    1.07119   1.23479    0.014
 4805.00    1.18348   1.23190    0.014
 4806.00    1.34443   1.23306    0.014
 4807.00    1.29429   1.24064    0.014
 4808.00    1.08260   1.25504    0.014
 4809.00    1.04865   1.27348    0.014
 4810.00    1.13427   1.28841    0.014
 4811.00    1.16308   1.30060    0.014
 4812.00    1.15841   1.30576    0.014
 4813.00    1.18187   1.29608    0.014
 4814.00    1.21979   1.26801    0.014
 4815.00    1.22748   1.20886    0.014
 4816.00    1.22171   1.15511    0.014
 4817.00    1.26019   1.16922    0.014
 4818.00    1.31560   1.22418    0.014
 4819.00    1.28182   1.24989    0.014
 4820.00    1.21905   1.23400    0.014
 4821.00    1.09492   1.21269    0.014
 4822.00    0.95409   1.21330    0.015
 4823.00    1.00815   1.20904    0.014
 4824.00    1.10575   1.17826    0.014
 4825.00    1.14701   1.16947    0.014
 4826.00    1.17822   1.20484    0.014
 4827.00    1.13293   1.23555    0.014
 4828.00    1.07722   1.23612    0.014
 4829.00    1.06246   1.23189    0.014
 4830.00    1.05169   1.22576    0.014
 4831.00    1.13368   1.19552    0.014
 4832.00    1.22130   1.15994    0.014
 4833.00    1.24030   1.15796    0.014
 4834.00    1.25771   1.17538    0.015
 4835.00    1.31951   1.17099    0.015
 4836.00    1.38039   1.16734    0.015
 4837.00    1.41725   1.20128    0.015
 4838.00    1.44840   1.23939    0.014
 4839.00    1.40154   1.23530    0.014
 4840.00    1.34240   1.18962    0.014
 4841.00    1.17231   1.15203    0.014
 4842.00    1.03026   1.16703    0.014
 4843.00    1.07431   1.19785    0.014
 4844.00    1.11419   1.20120    0.014
 4845.00    1.13259   1.19174    0.015
 4846.00    1.16781   1.15936    0.015
 4847.00    1.27308   1.08916    0.015
 4848.00    1.33790   1.04481    0.000
 4849.00    1.26343   1.06993    0.000
 4850.00    1.19839   1.09661    0.000
 4851.00    1.16073   1.05369    0.000
 4852.00    1.08766   0.94329    0.000
 4853.00    0.92698   0.82505    0.000
 4854.00    0.90320   0.80308    0.000
 4855.00    1.17150   0.89512    0.000
 4856.00    1.36041   0.98864    0.000
 4857.00    1.40219   1.03879    0.000
 4858.00    1.42253   1.08104    0.000
 4859.00    1.40815   1.11201    0.000
 4860.00    1.34298   1.12139    0.000
 4861.00    1.20570   1.12756    0.000
 4862.00    1.06766   1.10721    0.000
 4863.00    0.92867   1.03114    0.000
 4864.00    0.86580   0.97679    0.000
 4865.00    0.88674   1.01738    0.000
 4866.00    0.92315   1.08971    0.000
 4867.00    0.97459   1.11866    0.000
 4868.00    1.09841   1.12733    0.000
 4869.00    1.28421   1.14693    0.000
 4870.00    1.26669   1.16832    0.000
 4871.00    1.09580   1.20726    0.000
 4872.00    1.08125   1.23862    0.000
 4873.00    1.17032   1.20647    0.000
 4874.00    1.19930   1.16025    0.000
 4875.00    1.19339   1.16511    0.015
 4876.00    1.13739   1.17458    0.015
 4877.00    1.05604   1.13788    0.015
 4878.00    1.13252   1.09173    0.015
 4879.00    1.27811   1.08728    0.015
 4880.00    1.27106   1.11306    0.015
 4881.00    1.20664   1.12359    0.015
 4882.00    1.24167   1.08597    0.015
 4883.00    1.30841   1.02175    0.015
 4884.00    1.29479   1.03410    0.015
 4885.00    1.25976   1.14072    0.015
 4886.00    1.18258   1.24632    0.015
 4887.00    1.09620   1.30667    0.015
 4888.00    1.18220   1.32700    0.015
 4889.00    1.29807   1.32344    0.015
 4890.00    1.14710   1.31241    0.015
 4891.00    0.96099   1.27868    0.015
 4892.00    1.10257   1.23200    0.015
 4893.00    1.27460   1.22330    0.015
 4894.00    1.21726   1.23322    0.015
 4895.00    1.14691   1.21271    0.015
 4896.00    1.12728   1.19580    0.015
 4897.00    1.11031   1.23068    0.015
 4898.00    1.25904   1.28645    0.015
 4899.00    1.39842   1.29829    0.015
 4900.00    1.31565   1.25800    0.015
 4901.00    1.23810   1.19712    0.015
 4902.00    1.22806   1.14126    0.015
 4903.00    1.22076   1.12613    0.014
 4904.00    1.23726   1.16000    0.014
 4905.00    1.25991   1.20269    0.015
 4906.00    1.32209   1.23305    0.014
 4907.00    1.36219   1.26640    0.014
 4908.00    1.29121   1.28731    0.014
 4909.00    1.22764   1.25518    0.015
 4910.00    1.19423   1.15853    0.014
 4911.00    1.16255   1.03772    0.014
 4912.00    1.13674   0.95849    0.014
 4913.00    1.13265   0.96948    0.015
 4914.00    1.19043   1.05675    0.015
 4915.00    1.24364   1.12908    0.015
 4916.00    1.28573   1.13370    0.014
 4917.00    1.30265   1.13002    0.014
 4918.00    1.26675   1.17598    0.014
 4919.00    1.28207   1.23091    0.014
 4920.00    1.39084   1.26164    0.014
 4921.00    1.43447   1.29117    0.014
 4922.00    1.37422   1.30821    0.014
 4923.00    1.24366   1.30578    0.014
 4924.00    1.01469   1.28228    0.014
 4925.00    0.96622   1.21128    0.014
 4926.00    1.14003   1.15076    0.014
 4927.00    1.28226   1.17506    0.014
 4928.00    1.39019   1.21491    0.014
 4929.00    1.40057   1.18284    0.014
 4930.00    1.31755   1.10140    0.014
 4931.00    1.22018   1.05638    0.014
 4932.00    1.11071   1.10529    0.014
 4933.00    1.08027   1.20042    0.014
 4934.00    1.10860   1.25577    0.014
 4935.00    1.15594   1.27895    0.014
 4936.00    1.21569   1.29562    0.014
 4937.00    1.13274   1.27993    0.014
 4938.00    0.96823   1.24853    0.014
 4939.00    1.01875   1.25530    0.014
 4940.00    1.17633   1.28547    0.000
 4941.00    1.19198   1.30008    0.000
 4942.00    1.14652   1.30498    0.000
 4943.00    1.06337   1.31546    0.000
 4944.00    0.96632   1.30958    0.000
 4945.00    0.96632   1.28081    0.000
 4946.00    0.99668   1.25999    0.000
 4947.00    1.03477   1.24881    0.000
 4948.00    1.07487   1.19143    0.000
 4949.00    1.00545   1.05940    0.000
 4950.00    0.91270   0.99323    0.000
 4951.00    1.06936   1.09061    0.000
 4952.00    1.26805   1.22072    0.000
 4953.00    1.20754   1.26744    0.000
 4954.00    1.11407   1.26046    0.000
 4955.00    1.16572   1.26141    0.000
 4956.00    1.23025   1.25297    0.000
 4957.00    1.22057   1.20211    0.000
 4958.00    1.20697   1.15503    0.000
 4959.00    1.06424   1.14977    0.000
 4960.00    0.92289   1.15892    0.000
 4961.00    1.08335   1.16994    0.000
 4962.00    1.23079   1.18167    0.000
 4963.00    1.09506   1.20045    0.000
 4964.00    0.97656   1.23119    0.000
 4965.00    1.06952   1.25452    0.000
 4966.00    1.15451   1.27056    0.000
 4967.00    1.17276   1.27319    0.000
 4968.00    1.19034   1.25798    0.000
 4969.00    1.20372   1.23434    0.000
 4970.00    1.21598   1.19392    0.000
 4971.00    1.22275   1.16138    0.000
 4972.00    1.22607   1.15573    0.000
 4973.00    1.21561   1.12997    0.000
 4974.00    1.18945   1.05607    0.000
 4975.00    1.11130   0.99801    0.000
 4976.00    1.08329   1.00977    0.000
 4977.00    1.19544   1.05572    0.000
 4978.00    1.24095   1.10789    0.000
 4979.00    1.12705   1.17287    0.000
 4980.00    1.03872   1.21281    0.000
 4981.00    1.00320   1.20596    0.000
 4982.00    1.05286   1.17822    0.000
 4983.00    1.25556   1.15785    0.000
 4984.00    1.36166   1.17416    0.000
 4985.00    1.31599   1.18787    0.000
 4986.00    1.20499   1.17546    0.000
 4987.00    1.00386   1.18786    0.000
 4988.00    0.94065   1.21066    0.000
 4989.00    1.04489   1.21148    0.000
 4990.00    1.09051   1.19575    0.000
 4991.00    1.07340   1.15146    0.000
 4992.00    1.04109   1.10267    0.000
 4993.00    0.99441   1.08573    0.000
 4994.00    1.04002   1.09243    0.000
 4995.00    1.16245   1.10773    0.000
 4996.00    1.16836   1.10712    0.000
 4997.00    1.08889   1.06263    0.000
 4998.00    1.06155   1.00860    0.000
 4999.00    1.06776   1.02566    0.000
 5000.00    1.06840   1.11126    0.000
 5001.00    1.06590   1.17162    0.000
 5002.00    1.18498   1.17186    0.000
 5003.00    1.36363   1.13850    0.000
 5004.00    1.35090   1.07710    0.000
 5005.00    1.25712   1.01740    0.000
 5006.00    1.26218   0.99071    0.000
 5007.00    1.30307   1.01704    0.000
 5008.00    1.28566   1.06818    0.000
 5009.00    1.25036   1.07533    0.000
 5010.00    1.29733   1.05281    0.000
 5011.00    1.36531   1.06560    0.000
 5012.00    1.29614   1.10015    0.000
 5013.00    1.19848   1.10358    0.000
 5014.00    1.03942   1.07679    0.000
 5015.00    0.87031   1.08241    0.000
 5016.00    1.02004   1.12778    0.000
 5017.00    1.20891   1.15527    0.000
 5018.00    1.14582   1.15135    0.000
 5019.00    1.06142   1.11238    0.000
 5020.00    0.96750   1.09393    0.000
 5021.00    0.87312   1.13716    0.000
 5022.00    1.01712   1.17642    0.000
 5023.00    1.16275   1.19255    0.000
 5024.00    1.18295   1.22320    0.000
 5025.00    1.19894   1.26027    0.000
 5026.00    1.13020   1.25472    0.000
 5027.00    1.07115   1.17892    0.000
 5028.00    1.12529   1.10194    0.000
 5029.00    1.17075   1.10732    0.014
 5030.00    1.14613   1.12616    0.014
 5031.00    1.11832   1.08072    0.014
 5032.00    1.07114   0.99072    0.014
 5033.00    1.04513   0.91918    0.014
 5034.00    1.12033   0.96498    0.014
 5035.00    1.18975   1.09246    0.014
 5036.00    1.23669   1.18260    0.014
 5037.00    1.25244   1.23676    0.014
 5038.00    1.16707   1.27361    0.014
 5039.00    1.06729   1.25291    0.014
 5040.00    0.92796   1.17017    0.014
 5041.00    0.85753   1.09860    0.014
 5042.00    0.94912   1.08540    0.014
 5043.00    1.06952   1.09508    0.014
 5044.00    1.24849   1.10503    0.014
 5045.00    1.31478   1.14012    0.014
 5046.00    1.18170   1.18974    0.014
 5047.00    1.10976   1.22139    0.014
 5048.00    1.13247   1.22404    0.014
 5049.00    1.16386   1.22182    0.014
 5050.00    1.20707   1.23188    0.014
 5051.00    1.25336   1.23703    0.014
 5052.00    1.30333   1.24345    0.014
 5053.00    1.33537   1.26677    0.014
 5054.00    1.34850   1.27874    0.014
 5055.00    1.27714   1.24617    0.014
 5056.00    1.12713   1.15730    0.014
 5057.00    1.09856   1.08721    0.014
 5058.00    1.16963   1.10715    0.014
 5059.00    1.16919   1.13732    0.014
 5060.00    1.11708   1.12554    0.014
 5061.00    1.08107   1.13140    0.014
 5062.00    1.05528   1.17359    0.014
 5063.00    1.14696   1.17550    0.014
 5064.00    1.30376   1.12907    0.014
 5065.00    1.16763   1.12772    0.014
 5066.00    0.89027   1.16250    0.014
 5067.00    0.91425   1.15992    0.014
 5068.00    1.06368   1.14737    0.014
 5069.00    1.08409   1.16628    0.014
 5070.00    1.05855   1.15155    0.014
 5071.00    1.11541   1.05109    0.014
 5072.00    1.19705   0.97768    0.014
 5073.00    1.06121   1.01050    0.014
 5074.00    0.87104   1.06706    0.014
 5075.00    0.91342   1.08044    0.014
 5076.00    1.00291   1.09521    0.014
 5077.00    0.93398   1.13778    0.014
 5078.00    0.83987   1.16559    0.014
 5079.00    0.91033   1.16220    0.014
 5080.00    1.00026   1.16033    0.014
 5081.00    1.08801   1.17559    0.014
 5082.00    1.17558   1.18475    0.014
 5083.00    1.29826   1.18478    0.014
 5084.00    1.42252   1.20384    0.014
 5085.00    1.19625   1.23425    0.013
 5086.00    0.97020   1.23686    0.013
 5087.00    0.96209   1.20655    0.013
 5088.00    0.96226   1.16650    0.013
 5089.00    1.11656   1.12144    0.013
 5090.00    1.24993   1.06248    0.013
 5091.00    1.15015   1.02038    0.013
 5092.00    1.05454   1.06036    0.013
 5093.00    0.99151   1.14248    0.013
 5094.00    0.94717   1.18286    0.013
 5095.00    1.01290   1.17042    0.013
 5096.00    1.07172   1.14487    0.013
 5097.00    1.09828   1.13492    0.013
 5098.00    1.13056   1.12512    0.013
 5099.00    1.18462   1.09331    0.013
 5100.00    1.22611   1.07730    0.013
 5101.00    1.22761   1.08270    0.013
 5102.00    1.21734   1.07402    0.013
 5103.00    1.17535   1.09766    0.013
 5104.00    1.14392   1.14501    0.013
 5105.00    1.13695   1.16191    0.013
 5106.00    1.14053   1.17286    0.013
 5107.00    1.16525   1.18415    0.013
 5108.00    1.18263   1.19501    0.013
 5109.00    1.18724   1.22249    0.014
 5110.00    1.12908   1.23750    0.013
 5111.00    0.97518   1.22271    0.013
 5112.00    0.91617   1.19036    0.013
 5113.00    0.98432   1.15382    0.013
 5114.00    1.07724   1.11741    0.014
 5115.00    1.19938   1.06211    0.014
 5116.00    1.28379   1.02402    0.014
 5117.00    1.32894   1.04016    0.014
 5118.00    1.27188   1.06708    0.014
 5119.00    1.12103   1.06951    0.014
 5120.00    1.03602   1.06182    0.014
 5121.00    1.00428   1.05649    0.014
 5122.00    0.98858   1.06972    0.014
 5123.00    0.98430   1.10653    0.013
 5124.00    0.92510   1.13193    0.014
 5125.00    0.83159   1.13334    0.014
 5126.00    0.92905   1.14501    0.014
 5127.00    1.13075   1.18067    0.014
 5128.00    1.20176   1.17073    0.014
 5129.00    1.21076   1.11769    0.014
 5130.00    1.20271   1.07543    0.014
 5131.00    1.18768   1.04547    0.014
 5132.00    1.12399   1.07779    0.014
 5133.00    1.04328   1.11736    0.014
 5134.00    1.03689   1.06925    0.014
 5135.00    1.05241   1.04444    0.014
 5136.00    0.98870   1.09289    0.014
 5137.00    0.90564   1.10412    0.014
 5138.00    0.95651   1.07075    0.014
 5139.00    1.03385   1.05030    0.015
 5140.00    1.16001   1.06219    0.014
 5141.00    1.29370   1.09604    0.014
 5142.00    1.29709   1.09898    0.014
 5143.00    1.28564   1.06838    0.014
 5144.00    1.21146   1.05062    0.014
 5145.00    1.13250   1.04809    0.014
 5146.00    1.05956   1.05496    0.014
 5147.00    0.98687   1.08859    0.014
 5148.00    1.05274   1.13588    0.014
 5149.00    1.11779   1.17738    0.014
 5150.00    1.10040   1.19390    0.014
 5151.00    1.08353   1.18439    0.014
 5152.00    1.07553   1.18620    0.014
 5153.00    1.07374   1.18088    0.014
 5154.00    1.13815   1.13936    0.014
 5155.00    1.19047   1.11344    0.014
 5156.00    1.15189   1.09001    0.014
 5157.00    1.11914   1.00511    0.014
 5158.00    1.11986   0.87259    0.014
 5159.00    1.11558   0.75683    0.013
 5160.00    1.08853   0.74613    0.014
 5161.00    1.07864   0.84824    0.014
 5162.00    1.13280   0.94302    0.013
 5163.00    1.19051   0.89118    0.013
 5164.00    1.25927   0.74668    0.013
 5165.00    1.26921   0.72637    0.013
 5166.00    1.12335   0.88291    0.013
 5167.00    1.01878   1.04020    0.013
 5168.00    1.00807   1.09267    0.013
 5169.00    0.98025   1.10350    0.013
 5170.00    0.91873   1.11785    0.013
 5171.00    0.87435   1.11334    0.013
 5172.00    0.85937   1.08413    0.013
 5173.00    0.90141   1.02451    0.013
 5174.00    1.02913   0.89824    0.013
 5175.00    1.09170   0.74176    0.013
 5176.00    1.06823   0.72274    0.013
 5177.00    0.99657   0.88387    0.013
 5178.00    0.86884   1.05089    0.013
 5179.00    0.87360   1.11636    0.013
 5180.00    1.01429   1.11323    0.013
 5181.00    1.06189   1.12932    0.013
 5182.00    1.02526   1.15175    0.013
 5183.00    1.02791   1.07810    0.013
 5184.00    1.06188   0.97894    0.013
 5185.00    1.13876   0.99137    0.013
 5186.00    1.24575   1.05110    0.013
 5187.00    1.23456   1.05917    0.013
 5188.00    1.15064   1.06750    0.013
 5189.00    1.15211   1.10415    0.013
 5190.00    1.19947   1.13655    0.000
 5191.00    1.15130   1.16280    0.000
 5192.00    1.05853   1.17554    0.000
 5193.00    1.03946   1.16357    0.000
 5194.00    1.05004   1.14180    0.000
 5195.00    0.98952   1.11705    0.000
 5196.00    0.90460   1.05294    0.000
 5197.00    1.08555   0.97036    0.000
 5198.00    1.34331   0.94897    0.000
 5199.00    1.32160   0.96291    0.000
 5200.00    1.23316   0.94451    0.000
 5201.00    1.26514   0.95377    0.000
 5202.00    1.32030   1.01939    0.000
 5203.00    1.22208   1.09489    0.000
 5204.00    1.10093   1.16323    0.000
 5205.00    1.03841   1.19843    0.000
 5206.00    0.98231   1.17862    0.000
 5207.00    1.09800   1.11868    0.000
 5208.00    1.22610   1.08194    0.000
 5209.00    1.16449   1.10262    0.000
 5210.00    1.09580   1.15592    0.000
 5211.00    1.08506   1.19883    0.014
 5212.00    1.07489   1.21454    0.014
 5213.00    1.07563   1.22026    0.014
 5214.00    1.08385   1.20877    0.014
 5215.00    1.21323   1.16408    0.014
 5216.00    1.31320   1.09293    0.014
 5217.00    1.11384   1.01110    0.014
 5218.00    0.93876   0.93544    0.014
 5219.00    0.94035   0.92833    0.013
 5220.00    0.95094   1.03351    0.013
 5221.00    1.01170   1.14424    0.013
 5222.00    1.05429   1.18505    0.014
 5223.00    1.01605   1.18850    0.014
 5224.00    0.99408   1.14292    0.013
 5225.00    1.03154   1.08360    0.013
 5226.00    1.06672   1.08189    0.013
 5227.00    1.09490   1.12214    0.013
 5228.00    1.09213   1.17943    0.013
 5229.00    1.00882   1.22500    0.013
 5230.00    0.93139   1.23378    0.013
 5231.00    0.86711   1.22140    0.013
 5232.00    0.89525   1.21665    0.013
 5233.00    1.10252   1.22224    0.013
 5234.00    1.22156   1.21631    0.013
 5235.00    1.19148   1.21461    0.013
 5236.00    1.17938   1.24099    0.013
 5237.00    1.19391   1.24456    0.013
 5238.00    1.23140   1.17585    0.013
 5239.00    1.29877   1.10421    0.013
 5240.00    1.29503   1.10826    0.013
 5241.00    1.20971   1.12227    0.013
 5242.00    1.13339   1.09408    0.013
 5243.00    1.06618   1.09498    0.013
 5244.00    1.05469   1.13865    0.013
 5245.00    1.09292   1.16061    0.013
 5246.00    1.17581   1.13619    0.013
 5247.00    1.29381   1.11517    0.013
 5248.00    1.31081   1.16451    0.013
 5249.00    1.25799   1.24164    0.013
 5250.00    1.12320   1.27650    0.013
 5251.00    0.93871   1.26622    0.013
 5252.00    0.95058   1.22203    0.013
 5253.00    1.06635   1.15227    0.013
 5254.00    1.14339   1.06941    0.013
 5255.00    1.20263   0.99832    0.014
 5256.00    1.20177   0.95029    0.014
 5257.00    1.17714   0.92048    0.014
 5258.00    1.12154   0.93481    0.014
 5259.00    1.05550   1.00070    0.014
 5260.00    1.10433   0.99573    0.014
 5261.00    1.18567   0.88516    0.014
 5262.00    1.15420   0.85696    0.014
 5263.00    1.09638   0.98159    0.014
 5264.00    1.00190   1.09526    0.014
 5265.00    0.90054   1.11712    0.014
 5266.00    1.00581   1.10109    0.014
 5267.00    1.14102   1.08342    0.014
 5268.00    1.16238   1.11708    0.014
 5269.00    1.17177   1.20515    0.015
 5270.00    1.13365   1.25897    0.015
 5271.00    1.09229   1.24417    0.015
 5272.00    1.08991   1.19431    0.014
 5273.00    1.08883   1.14731    0.014
 5274.00    0.99561   1.11417    0.014
 5275.00    0.90745   1.09257    0.014
 5276.00    0.98425   1.11453    0.014
 5277.00    1.04996   1.20126    0.014
 5278.00    0.94680   1.28100    0.014
 5279.00    0.86079   1.29435    0.014
 5280.00    0.94210   1.27324    0.014
 5281.00    1.01826   1.27150    0.014
 5282.00    1.05819   1.29199    0.014
 5283.00    1.10627   1.29782    0.014
 5284.00    1.19853   1.27608    0.014
 5285.00    1.28250   1.25222    0.014
 5286.00    1.33038   1.24464    0.013
 5287.00    1.36942   1.22060    0.013
 5288.00    1.37676   1.14707    0.013
 5289.00    1.36532   1.06207    0.013
 5290.00    1.29742   1.04800    0.013
 5291.00    1.26213   1.11557    0.013
 5292.00    1.31021   1.16685    0.013
 5293.00    1.30303   1.16293    0.013
 5294.00    1.17429   1.17086    0.013
 5295.00    1.11668   1.22192    0.013
 5296.00    1.19482   1.27829    0.013
 5297.00    1.23438   1.29866    0.013
 5298.00    1.20972   1.27842    0.013
 5299.00    1.18788   1.25238    0.013
 5300.00    1.17019   1.26018    0.013
 5301.00    1.16253   1.28990    0.013
 5302.00    1.16774   1.30273    0.013
 5303.00    1.18548   1.29328    0.013
 5304.00    1.21736   1.27525    0.013
 5305.00    1.18118   1.25978    0.013
 5306.00    1.07711   1.25269    0.013
 5307.00    1.06068   1.23791    0.013
 5308.00    1.12135   1.21234    0.013
 5309.00    1.14200   1.20833    0.013
 5310.00    1.13165   1.22566    0.013
 5311.00    1.17610   1.23281    0.013
 5312.00    1.25789   1.23088    0.013
 5313.00    1.27500   1.22705    0.013
 5314.00    1.25348   1.20774    0.013
 5315.00    1.28194   1.16226    0.013
 5316.00    1.33645   1.12693    0.013
 5317.00    1.27400   1.13671    0.013
 5318.00    1.15872   1.11796    0.013
 5319.00    1.16964   1.00613    0.013
 5320.00    1.22960   0.91081    0.013
 5321.00    1.26352   0.96912    0.013
 5322.00    1.28882   1.10788    0.014
 5323.00    1.20953   1.18551    0.013
 5324.00    1.10124   1.19036    0.013
 5325.00    1.12910   1.19535    0.013
 5326.00    1.18802   1.23234    0.013
 5327.00    1.10773   1.25715    0.013
 5328.00    1.00202   1.24724    0.013
 5329.00    1.05851   1.23177    0.013
 5330.00    1.13776   1.21353    0.013
 5331.00    1.24134   1.15800    0.013
 5332.00    1.34738   1.09626    0.013
 5333.00    1.16588   1.10982    0.013
 5334.00    0.96595   1.18041    0.013
 5335.00    1.07211   1.22488    0.013
 5336.00    1.18694   1.22321    0.013
 5337.00    1.11720   1.19808    0.013
 5338.00    1.05315   1.18581    0.013
 5339.00    1.15177   1.18662    0.013
 5340.00    1.23873   1.16434    0.013
 5341.00    1.15832   1.14958    0.013
 5342.00    1.09046   1.18626    0.013
 5343.00    1.14018   1.24079    0.013
 5344.00    1.18903   1.26380    0.013
 5345.00    1.23208   1.26962    0.012
 5346.00    1.25955   1.29399    0.012
 5347.00    1.20478   1.32140    0.012
 5348.00    1.14570   1.32812    0.012
 5349.00    1.06830   1.32604    0.012
 5350.00    1.03642   1.32444    0.012
 5351.00    1.16409   1.31877    0.012
 5352.00    1.27836   1.29771    0.012
 5353.00    1.35315   1.26071    0.012
 5354.00    1.38601   1.23288    0.012
 5355.00    1.31353   1.22376    0.012
 5356.00    1.26239   1.20950    0.012
 5357.00    1.25746   1.19427    0.012
 5358.00    1.24326   1.19606    0.013
 5359.00    1.21163   1.19866    0.012
 5360.00    1.16216   1.18164    0.012
 5361.00    1.08340   1.12604    0.013
 5362.00    1.04973   1.05174    0.013
 5363.00    1.08090   1.03444    0.012
 5364.00    1.16084   1.11021    0.012
 5365.00    1.30246   1.21324    0.013
 5366.00    1.32261   1.27146    0.013
 5367.00    1.20737   1.28334    0.013
 5368.00    1.09652   1.26697   -2.000
 5369.00    0.99002   1.25444   -2.000
 5370.00    0.94032   1.26283   -2.000
 5371.00    0.93989   1.26405   -2.000
 5372.00    0.90104   1.24626   -2.000
 5373.00    0.83284   1.22814   -2.000
 5374.00    0.91085   1.21272   -2.000
 5375.00    1.08705   1.20715   -2.000
 5376.00    1.06314   1.22883   -2.000
 5377.00    0.92154   1.25329   -2.000
 5378.00    1.00023   1.25420   -2.000
 5379.00    1.19189   1.24206   -2.000
 5380.00    1.30350   1.22050   -2.000
 5381.00    1.37954   1.18923   -2.000
 5382.00    1.43316   1.16551   -2.000
 5383.00    1.47822   1.15823    0.013
 5384.00    1.38516   1.15785    0.013
 5385.00    1.24730   1.15803    0.013
 5386.00    1.18482   1.15803    0.013
 5387.00    1.14281   1.13732    0.013
 5388.00    1.19328   1.08406    0.012
 5389.00    1.26435   1.06457    0.012
 5390.00    1.16524   1.12065    0.012
 5391.00    1.03590   1.17498    0.012
 5392.00    1.16932   1.18552    0.012
 5393.00    1.33839   1.19399    0.012
 5394.00    1.34502   1.19427    0.012
 5395.00    1.33596   1.14043    0.012
 5396.00    1.29523   1.05349    0.012
 5397.00    1.25260   1.00549    0.012
 5398.00    1.20030   1.03487    0.012
 5399.00    1.14827   1.10054    0.012
 5400.00    1.18409   1.12278    0.012
 5401.00    1.21512   1.09610    0.012
 5402.00    1.12262   1.09746    0.012
 5403.00    1.03823   1.15600    0.012
 5404.00    1.06400   1.21182    0.012
 5405.00    1.09092   1.22184    0.012
 5406.00    1.12815   1.20915    0.012
 5407.00    1.14917   1.21777    0.012
 5408.00    1.06307   1.25077    0.012
 5409.00    1.00414   1.26903    0.012
 5410.00    1.08503   1.25460    0.012
 5411.00    1.16437   1.22398    0.012
 5412.00    1.23728   1.20476    0.012
 5413.00    1.28129   1.21517    0.012
 5414.00    1.22606   1.22169    0.012
 5415.00    1.16219   1.18831    0.012
 5416.00    1.07329   1.16624    0.012
 5417.00    1.02101   1.20542    0.012
 5418.00    1.05915   1.26258    0.012
 5419.00    1.08224   1.26481    0.012
 5420.00    1.07327   1.18439    0.012
 5421.00    1.08965   1.10183    0.012
 5422.00    1.15292   1.11594    0.012
 5423.00    1.18839   1.16743    0.012
 5424.00    1.17894   1.16051    0.012
 5425.00    1.19339   1.11853    0.012
 5426.00    1.24170   1.09446    0.012
 5427.00    1.26470   1.10541    0.012
 5428.00    1.25613   1.14595    0.012
 5429.00    1.27166   1.20435    0.012
 5430.00    1.31369   1.26067    0.013
 5431.00    1.24676   1.29322    0.012
 5432.00    1.07418   1.30112    0.012
 5433.00    1.00825   1.29932    0.012
 5434.00    1.03351   1.29749    0.012
 5435.00    1.08679   1.28105    0.012
 5436.00    1.16117   1.22814    0.012
 5437.00    1.21223   1.14165    0.012
 5438.00    1.24787   1.07285    0.012
 5439.00    1.22221   1.08974    0.012
 5440.00    1.16104   1.17063    0.012
 5441.00    1.14064   1.23203    0.012
 5442.00    1.14082   1.24744    0.012
 5443.00    1.21917   1.23896    0.012
 5444.00    1.33169   1.22056    0.012
 5445.00    1.36170   1.18134    0.012
 5446.00    1.36077   1.11465    0.012
 5447.00    1.29652   1.07384    0.012
 5448.00    1.21213   1.11705    0.012
 5449.00    1.20532   1.20164    0.012
 5450.00    1.21915   1.25061    0.012
 5451.00    1.27857   1.24749    0.012
 5452.00    1.34790   1.21891    0.012
 5453.00    1.38021   1.18199    0.012
 5454.00    1.40612   1.14307    0.012
 5455.00    1.34495   1.13857    0.012
 5456.00    1.27236   1.17704    0.012
 5457.00    1.11862   1.20489    0.012
 5458.00    0.95739   1.20765    0.012
 5459.00    1.00345   1.21564    0.012
 5460.00    1.06116   1.22084    0.012
 5461.00    1.14671   1.20323    0.012
 5462.00    1.23294   1.18611    0.012
 5463.00    1.32478   1.18564    0.012
 5464.00    1.40859   1.17419    0.012
 5465.00    1.30421   1.15478    0.012
 5466.00    1.21174   1.14476    0.012
 5467.00    1.27235   1.10637    0.012
 5468.00    1.31707   1.05494    0.012
 5469.00    1.22437   1.07649    0.012
 5470.00    1.14527   1.15438    0.012
 5471.00    1.15336   1.18524    0.012
 5472.00    1.15995   1.14559    0.012
 5473.00    1.15895   1.11194    0.012
 5474.00    1.14305   1.13156    0.012
 5475.00    1.06669   1.18103    0.012
 5476.00    1.00360   1.22736    0.012
 5477.00    0.98515   1.23778    0.012
 5478.00    1.00424   1.20005   -2.000
 5479.00    1.12995   1.16186   -2.000
 5480.00    1.19588   1.16503   -2.000
 5481.00    1.11671   1.18313   -2.000
 5482.00    1.07087   1.19714   -2.000
 5483.00    1.09487   1.21045   -2.000
 5484.00    1.00614   1.20391   -2.000
 5485.00    0.71215   1.18770   -2.000
 5486.00    0.52847   1.19509   -2.000
 5487.00    0.52036   1.20414   -2.000
 5488.00    0.53280   1.18217   -2.000
 5489.00    0.57394   1.17073   -2.000
 5490.00    0.82921   1.20537   -2.000
 5491.00    1.34773   1.23080   -2.000
 5492.00    1.58127   1.20217   -2.000
 5493.00    1.50598   1.16204   -2.000
 5494.00    1.46615   1.15609   -2.000
 5495.00    1.46023   1.17261   -2.000
 5496.00    1.43102   1.17551   -2.000
 5497.00    1.38219   1.14732   -2.000
 5498.00    1.33368   1.13026   -2.000
 5499.00    1.28542   1.16020   -2.000
 5500.00    1.27811   1.19340   -2.000
 5501.00    1.29748   1.19459   -2.000
 5502.00    1.28378   1.17314    0.012
 5503.00    1.25122   1.13560    0.011
 5504.00    1.20549   1.10715    0.011
 5505.00    1.15322   1.11031    0.011
 5506.00    1.08931   1.13314    0.011
 5507.00    1.02041   1.15695    0.012
 5508.00    1.02074   1.17943    0.012
 5509.00    1.04657   1.21241    0.012
 5510.00    1.07464   1.24322    0.012
 5511.00    1.10340   1.24811    0.012
 5512.00    1.12461   1.23662    0.012
 5513.00    1.14385   1.22921    0.012
 5514.00    1.18508   1.22940    0.012
 5515.00    1.23099   1.22915    0.012
 5516.00    1.24990   1.21783    0.012
 5517.00    1.26428   1.19343    0.012
 5518.00    1.22835   1.15417    0.012
 5519.00    1.18605   1.11062    0.012
 5520.00    1.19896   1.10923    0.012
 5521.00    1.21673   1.16084    0.012
 5522.00    1.25420   1.20728    0.012
 5523.00    1.29270   1.21483    0.012
 5524.00    1.26609   1.20380    0.012
 5525.00    1.23886   1.18967    0.011
 5526.00    1.25549   1.17317    0.012
 5527.00    1.27072   1.17412    0.012
 5528.00    1.25594   1.19001    0.012
 5529.00    1.23284   1.19642    0.012
 5530.00    1.10813   1.20494    0.012
 5531.00    0.99959   1.22852    0.011
 5532.00    1.02572   1.24934    0.011
 5533.00    1.05418   1.24380    0.011
 5534.00    1.09710   1.21536    0.011
 5535.00    1.13702   1.19805    0.011
 5536.00    1.16226   1.20088    0.011
 5537.00    1.18329   1.20092    0.011
 5538.00    1.18764   1.20615    0.011
 5539.00    1.19533   1.23294    0.012
 5540.00    1.21403   1.25810    0.029
 5541.00    1.24039   1.26539   -1.000
 5542.00    1.28809   1.26431   -1.000
 5543.00    1.31199   1.25562   -1.000
 5544.00    1.27907   1.23295   -1.000
 5545.00    1.25451   1.20731   -1.000
 5546.00    1.24717   1.20136   -1.000
 5547.00    1.23333   1.21414    0.061
 5548.00    1.20781   1.21927    0.016
 5549.00    1.22179   1.21432    0.011
 5550.00    1.29768   1.21662    0.011
 5551.00    1.29586   1.22041    0.011
 5552.00    1.18704   1.21491    0.011
 5553.00    1.13396   1.19724    0.011
 5554.00    1.14845   1.17876    0.011
 5555.00    1.16094   1.17835    0.012
 5556.00    1.17129   1.17914    0.012
 5557.00    1.15603   1.16576    0.012
 5558.00    1.11661   1.16047    0.012
 5559.00    1.14773   1.16702    0.012
 5560.00    1.23746   1.16277    0.012
 5561.00    1.24356   1.16411    0.012
 5562.00    1.18848   1.18685    0.012
 5563.00    1.15358   1.18043    0.012
 5564.00    1.13163   1.15163    0.012
 5565.00    1.18853   1.16781    0.012
 5566.00    1.28972   1.20011    0.012
 5567.00    1.32330   1.20172    0.012
 5568.00    1.32382   1.20331    0.011
 5569.00    1.24657   1.21088    0.011
 5570.00    1.13645   1.21138    0.011
 5571.00    1.08327   1.21824    0.011
 5572.00    1.05070   1.21862    0.011
 5573.00    1.06791   1.20479    0.011
 5574.00    1.10035   1.20111    0.011
 5575.00    1.08819   1.20048    0.011
 5576.00    1.06467   1.17840    0.011
 5577.00    1.05153   1.12902    0.011
 5578.00    1.04055   1.07145    0.011
 5579.00    1.06180   1.04121    0.011
 5580.00    1.08831   1.04770    0.011
 5581.00    1.09782   1.08081    0.011
 5582.00    1.10526   1.12104    0.011
 5583.00    1.16869   1.14148    0.011
 5584.00    1.23682   1.13953    0.011
 5585.00    1.26664   1.12905    0.011
 5586.00    1.29461   1.14696    0.011
 5587.00    1.28580   1.19825    0.011
 5588.00    1.27536   1.21396    0.011
 5589.00    1.20073   1.17111    0.011
 5590.00    1.12904   1.13623    0.011
 5591.00    1.11589   1.12962    0.011
 5592.00    1.10147   1.11449    0.011
 5593.00    1.07236   1.09254    0.011
 5594.00    1.04019   1.09494    0.011
 5595.00    0.98349   1.14313    0.011
 5596.00    0.94161   1.20643    0.012
 5597.00    0.98921   1.24593    0.012
 5598.00    1.03477   1.25806    0.012
 5599.00    1.07064   1.25407    0.012
 5600.00    1.09036   1.24619    0.012
 5601.00    1.04732   1.24200    0.012
 5602.00    1.05357   1.24779    0.012
 5603.00    1.21929   1.26067    0.012
 5604.00    1.33454   1.25795    0.012
 5605.00    1.31154   1.20039    0.012
 5606.00    1.28854   1.10015    0.012
 5607.00    1.26554   1.06073    0.012
 5608.00    1.22877   1.11339    0.012
 5609.00    1.16407   1.16529    0.012
 5610.00    1.14210   1.17052    0.012
 5611.00    1.19558   1.16632    0.012
 5612.00    1.23440   1.18470    0.012
 5613.00    1.25057   1.20873    0.011
 5614.00    1.24658   1.19448    0.011
 5615.00    1.21523   1.13428    0.011
 5616.00    1.23185   1.09469    0.011
 5617.00    1.30580   1.11930    0.011
 5618.00    1.33015   1.15992    0.011
 5619.00    1.30225   1.18250    0.011
 5620.00    1.26718   1.20650    0.011
 5621.00    1.22545   1.23091    0.011
 5622.00    1.20623   1.24070    0.011
 5623.00    1.20546   1.23682    0.011
 5624.00    1.23022   1.22409    0.011
 5625.00    1.27341   1.20720    0.011
 5626.00    1.28818   1.19166    0.011
 5627.00    1.28496   1.17316    0.011
 5628.00    1.25978   1.15282    0.011
 5629.00    1.22244   1.15074    0.011
 5630.00    1.15238   1.16921    0.011
 5631.00    1.06658   1.17418    0.011
 5632.00    1.06601   1.15380    0.011
 5633.00    1.10085   1.14637    0.011
 5634.00    1.12644   1.16096    0.011
 5635.00    1.14873   1.17231    0.011
 5636.00    1.11173   1.18099    0.011
 5637.00    1.05693   1.19044    0.011
 5638.00    1.12307   1.19967    0.011
 5639.00    1.21933   1.20136    0.011
 5640.00    1.25167   1.18956    0.011
 5641.00    1.27109   1.18159    0.011
 5642.00    1.23561   1.19522    0.011
 5643.00    1.19144   1.21800    0.011
 5644.00    1.15437   1.22151    0.011
 5645.00    1.11813   1.19267    0.011
 5646.00    1.12599   1.16627    0.011
 5647.00    1.13738   1.17515    0.011
 5648.00    1.14892   1.16089    0.011
 5649.00    1.16046   1.08910    0.011
 5650.00    1.16457   1.06208    0.011
 5651.00    1.16782   1.11714    0.011
 5652.00    1.13296   1.15202    0.011
 5653.00    1.09924   1.13169    0.011
 5654.00    1.08667   1.12466    0.011
 5655.00    1.07885   1.16038    0.011
 5656.00    1.12376   1.19713    0.011
 5657.00    1.17031   1.20081    0.011
 5658.00    1.22970   1.17568    0.011
 5659.00    1.27089   1.15786    0.011
 5660.00    1.20535   1.16267    0.010
 5661.00    1.13815   1.17334    0.010
 5662.00    1.06327   1.18323    0.010
 5663.00    1.01151   1.20689    0.011
 5664.00    1.04767   1.23886    0.011
 5665.00    1.08109   1.24708    0.011
 5666.00    1.10584   1.23118    0.011
 5667.00    1.12182   1.22905    0.011
 5668.00    1.11420   1.24243    0.010
 5669.00    1.11200   1.23687    0.010
 5670.00    1.12230   1.21863    0.010
 5671.00    1.13714   1.21388    0.011
 5672.00    1.16103   1.20660    0.011
 5673.00    1.17621   1.17227    0.011
 5674.00    1.17622   1.14858    0.011
 5675.00    1.16508   1.16479    0.011
 5676.00    1.13695   1.18806    0.011
 5677.00    1.11572   1.18019    0.011
 5678.00    1.10374   1.15177    0.011
 5679.00    1.09560   1.13936    0.011
 5680.00    1.09196   1.15678    0.011
 5681.00    1.08820   1.18844    0.011
 5682.00    1.08432   1.21111    0.011
 5683.00    1.12817   1.23027    0.011
 5684.00    1.21574   1.23855    0.011
 5685.00    1.26256   1.22855    0.011
 5686.00    1.27645   1.21939    0.011
 5687.00    1.26985   1.22348    0.011
 5688.00    1.24869   1.21891    0.011
 5689.00    1.24986   1.18887    0.011
 5690.00    1.26495   1.16977    0.011
 5691.00    1.24086   1.16396    0.011
 5692.00    1.19543   1.14176    0.011
 5693.00    1.15989   1.12828    0.011
 5694.00    1.12903   1.14767    0.011
 5695.00    1.14017   1.17649    0.011
 5696.00    1.16846   1.17603    0.011
 5697.00    1.23665   1.14433    0.011
 5698.00    1.31875   1.11559    0.011
 5699.00    1.32483   1.09078    0.011
 5700.00    1.30855   1.06893    0.011
 5701.00    1.25956   1.07862    0.011
 5702.00    1.20259   1.09040    0.011
 5703.00    1.17574   1.09746    0.011
 5704.00    1.15482   1.14198    0.011
 5705.00    1.13351   1.18716    0.011
 5706.00    1.11214   1.20260    0.010
 5707.00    1.14569   1.21228    0.010
 5708.00    1.18546   1.21431    0.010
 5709.00    1.24469   1.21118    0.010
 5710.00    1.30539   1.22214    0.011
 5711.00    1.26609   1.23386    0.011
 5712.00    1.22274   1.24181    0.011
 5713.00    1.17966   1.25594    0.011
 5714.00    1.13704   1.26436    0.011
 5715.00    1.11327   1.26096    0.011
 5716.00    1.09332   1.25231    0.011
 5717.00    1.13921   1.22792    0.011
 5718.00    1.18217   1.19352    0.011
 5719.00    1.19414   1.19681    0.012
 5720.00    1.20388   1.23122    0.013
 5721.00    1.19689   1.23571    0.013
 5722.00    1.18392   1.20076    0.013
 5723.00    1.13675   1.18666    0.013
 5724.00    1.12037   1.21591    0.012
 5725.00    1.24383   1.24417    0.012
 5726.00    1.35096   1.25052    0.011
 5727.00    1.39729   1.24233    0.011
 5728.00    1.42008   1.22986    0.011
 5729.00    1.36956   1.22489    0.011
 5730.00    1.31548   1.22561    0.011
 5731.00    1.25198   1.22682    0.011
 5732.00    1.20146   1.22631    0.011
 5733.00    1.18042   1.21755    0.011
 5734.00    1.18707   1.20911    0.011
 5735.00    1.24815   1.22278    0.011
 5736.00    1.27222   1.25051    0.011
 5737.00    1.23289   1.25840    0.011
 5738.00    1.21031   1.22654    0.011
 5739.00    1.21282   1.18668    0.011
 5740.00    1.21801   1.19538    0.000
 5741.00    1.22671   1.23449    0.000
 5742.00    1.22435   1.24388    0.000
 5743.00    1.20914   1.20687    0.000
 5744.00    1.21868   1.15335    0.000
 5745.00    1.25358   1.12964    0.000
 5746.00    1.31250   1.16402    0.000
 5747.00    1.39313   1.22176    0.000
 5748.00    1.41972   1.25360    0.000
 5749.00    1.40328   1.25806    0.000
 5750.00    1.34576   1.23909    0.000
 5751.00    1.25948   1.20461    0.000
 5752.00    1.23143   1.16796    0.000
 5753.00    1.23914   1.13843    0.000
 5754.00    1.24642   1.14176    0.000
 5755.00    1.25348   1.19652    0.000
 5756.00    1.28394   1.24644    0.000
 5757.00    1.32529   1.25842    0.000
 5758.00    1.29775   1.25820    0.000
 5759.00    1.24255   1.25617    0.000
 5760.00    1.19666   1.24814    0.000
 5761.00    1.15395   1.24130    0.000
 5762.00    1.20747   1.23294    0.000
 5763.00    1.28871   1.21967    0.000
 5764.00    1.35558   1.21665    0.000
 5765.00    1.41903   1.21257    0.000
 5766.00    1.42096   1.20895    0.000
 5767.00    1.41108   1.22296    0.000
 5768.00    1.37565   1.23642    0.000
 5769.00    1.33642   1.23528    0.000
 5770.00    1.34451   1.21420    0.000
 5771.00    1.35776   1.16188    0.000
 5772.00    1.40469   1.10194    0.000
 5773.00    1.45404   1.09028    0.000
 5774.00    1.40117   1.11435    0.000
 5775.00    1.34453   1.11611    0.000
 5776.00    1.29262   1.09561    0.000
 5777.00    1.24188   1.11345    0.000
 5778.00    1.23219   1.16439    0.000
 5779.00    1.22225   1.19729    0.000
 5780.00    1.20823   1.21026    0.000
 5781.00    1.19420   1.19558    0.000
 5782.00    1.18008   1.17153    0.000
 5783.00    1.16823   1.18420    0.000
 5784.00    1.17282   1.21164    0.000
 5785.00    1.18158   1.23201    0.000
 5786.00    1.21353   1.24814    0.000
 5787.00    1.23175   1.23880    0.000
 5788.00    1.18905   1.19866    0.000
 5789.00    1.15031   1.17751    0.000
 5790.00    1.12595   1.21200    0.000
 5791.00    1.11019   1.25795   -2.000
 5792.00    1.12071   1.27608   -2.000
 5793.00    1.13560   1.27755   -2.000
 5794.00    1.16184   1.25665   -2.000
 5795.00    1.20374   1.21636   -2.000
 5796.00    1.28060   1.19471   -2.000
 5797.00    1.35884   1.20049   -2.000
 5798.00    1.43976   1.21363   -2.000
 5799.00    1.46790   1.22235   -2.000
 5800.00    1.40698   1.22621   -2.000
 5801.00    1.38151   1.23549   -2.000
 5802.00    1.40844   1.24519   -2.000
 5803.00    1.40059   1.24577   -2.000
 5804.00    1.34756   1.24174   -2.000
 5805.00    1.29259   1.22815   -2.000
 5806.00    1.23539   1.20024   -2.000
 5807.00    1.20583   1.17903   -2.000
 5808.00    1.20418   1.19491   -2.000
 5809.00    1.23869   1.23580   -2.000
 5810.00    1.30540   1.26082   -2.000
 5811.00    1.32748   1.26617    0.000
 5812.00    1.31455   1.26384    0.000
 5813.00    1.27538   1.25484    0.000
 5814.00    1.21810   1.24497    0.000
 5815.00    1.19133   1.24462    0.000
 5816.00    1.18300   1.25266    0.000
 5817.00    1.22029   1.25451    0.000
 5818.00    1.28166   1.25053    0.000
 5819.00    1.31037   1.25141    0.000
 5820.00    1.32410   1.26005    0.000
 5821.00    1.27630   1.26294    0.000
 5822.00    1.20423   1.25569    0.000
 5823.00    1.17711   1.25166    0.000
 5824.00    1.16509   1.24728    0.000
 5825.00    1.22369   1.23173    0.000
 5826.00    1.30223   1.22337    0.000
 5827.00    1.29914   1.23705    0.000
 5828.00    1.27705   1.24274    0.000
 5829.00    1.24855   1.22847    0.000
 5830.00    1.21885   1.22859    0.000
 5831.00    1.26955   1.24958    0.000
 5832.00    1.33184   1.26654    0.000
 5833.00    1.28377   1.27145    0.000
 5834.00    1.22416   1.26952    0.000
 5835.00    1.24980   1.26051    0.000
 5836.00    1.28120   1.24603    0.000
 5837.00    1.37412   1.22739    0.000
 5838.00    1.46907   1.20987    0.000
 5839.00    1.42153   1.20656    0.000
 5840.00    1.37347   1.21641    0.000
 5841.00    1.31170   1.22347    0.000
 5842.00    1.25086   1.21482    0.000
 5843.00    1.20400   1.18642    0.000
 5844.00    1.16036   1.15841    0.000
 5845.00    1.14798   1.16262    0.000
 5846.00    1.13987   1.18174    0.000
 5847.00    1.16164   1.16658    0.000
 5848.00    1.19365   1.12354    0.000
 5849.00    1.28095   1.11043    0.000
 5850.00    1.35223   1.14283    0.000
 5851.00    1.35407   1.17988    0.000
 5852.00    1.34044   1.19670    0.000
 5853.00    1.27160   1.18849    0.000
 5854.00    1.23652   1.18536    0.000
 5855.00    1.30258   1.19978    0.000
 5856.00    1.35422   1.20370    0.000
 5857.00    1.36909   1.18424    0.000
 5858.00    1.35014   1.17499    0.000
 5859.00    1.25698   1.19689    0.000
 5860.00    1.18134   1.22381    0.000
 5861.00    1.13907   1.23580    0.000
 5862.00    1.10624   1.23248    0.000
 5863.00    1.08911   1.21958    0.000
 5864.00    1.07945   1.20943    0.000
 5865.00    1.08068   1.21618    0.000
 5866.00    1.10164   1.22537    0.000
 5867.00    1.14788   1.21889    0.000
 5868.00    1.19867   1.20683    0.000
 5869.00    1.25457   1.19558    0.000
 5870.00    1.29901   1.17831    0.000
 5871.00    1.33205   1.16050    0.000
 5872.00    1.34425   1.16601    0.000
 5873.00    1.33814   1.18226    0.000
 5874.00    1.32660   1.17720    0.000
 5875.00    1.31086   1.16400    0.000
 5876.00    1.31779   1.16872    0.000
 5877.00    1.34014   1.17248    0.000
 5878.00    1.33237   1.13603    0.000
 5879.00    1.30666   1.02375    0.000
 5880.00    1.32445   0.85435    0.000
 5881.00    1.36484   0.76658    0.000
 5882.00    1.37323   0.85080    0.000
 5883.00    1.36718   0.97972    0.000
 5884.00    1.30962   1.03593    0.000
 5885.00    1.23209   1.01067    0.000
 5886.00    1.16520   0.90946    0.000
 5887.00    1.10182   0.85035    0.000
 5888.00    1.05556   0.93621    0.000
 5889.00    1.01404   1.05304    0.000
 5890.00    1.03585   1.10502    0.000
 5891.00    1.07206   1.13441    0.000
 5892.00    1.05309   1.16199    0.000
 5893.00    1.02408   1.17299    0.000
 5894.00    1.09838   1.17666    0.000
 5895.00    1.18711   1.17777    0.000
 5896.00    1.23200   1.16898    0.000
 5897.00    1.27249   1.16447    0.000
 5898.00    1.26465   1.17651    0.000
 5899.00    1.25374   1.18975    0.000
 5900.00    1.22240   1.19128    0.000
 5901.00    1.19045   1.19223    0.011
 5902.00    1.15447   1.20100    0.011
 5903.00    1.12012   1.19820    0.010
 5904.00    1.13163   1.16875    0.010
 5905.00    1.14612   1.13602    0.010
 5906.00    1.20304   1.12913    0.010
 5907.00    1.25023   1.14066    0.010
 5908.00    1.20690   1.16119    0.010
 5909.00    1.15957   1.17878    0.010
 5910.00    1.08502   1.18865    0.010
 5911.00    1.02311   1.19629    0.010
 5912.00    1.02779   1.19137    0.010
 5913.00    1.03742   1.18018    0.010
 5914.00    1.06800   1.18227    0.010
 5915.00    1.10295   1.19286    0.010
 5916.00    1.15312   1.20110    0.010
 5917.00    1.19643   1.20581    0.010
 5918.00    1.21953   1.19822    0.010
 5919.00    1.23836   1.17825    0.010
 5920.00    1.24650   1.15597    0.010
 5921.00    1.23642   1.15038    0.010
 5922.00    1.18698   1.17579    0.010
 5923.00    1.13641   1.20059    0.010
 5924.00    1.08371   1.19250    0.010
 5925.00    1.07528   1.16530    0.010
 5926.00    1.13933   1.15950    0.010
 5927.00    1.18033   1.18142    0.010
 5928.00    1.18822   1.19892    0.010
 5929.00    1.20154   1.20683    0.010
 5930.00    1.22171   1.20910    0.011
 5931.00    1.21657   1.19099    0.011
 5932.00    1.18326   1.16505    0.010
 5933.00    1.15708   1.16183    0.010
 5934.00    1.13791   1.17725    0.010
 5935.00    1.13334   1.19499    0.010
 5936.00    1.14141   1.20987    0.010
 5937.00    1.16846   1.21328    0.010
 5938.00    1.20998   1.19547    0.010
 5939.00    1.21581   1.16500    0.010
 5940.00    1.19772   1.15368    0.010
 5941.00    1.17445   1.17368    0.010
 5942.00    1.14814   1.18618    0.010
 5943.00    1.18192   1.16688    0.010
 5944.00    1.24646   1.15386    0.010
 5945.00    1.25298   1.17218    0.010
 5946.00    1.23379   1.18386    0.010
 5947.00    1.18713   1.16759    0.010
 5948.00    1.13001   1.15330    0.010
 5949.00    1.10981   1.16163    0.010
 5950.00    1.10156   1.18301    0.010
 5951.00    1.12609   1.20410    0.010
 5952.00    1.15949   1.21700    0.010
 5953.00    1.21732   1.21943    0.010
 5954.00    1.28057   1.21506    0.010
 5955.00    1.22549   1.20660    0.010
 5956.00    1.14946   1.19260    0.010
 5957.00    1.12729   1.18773    0.010
 5958.00    1.11239   1.20116    0.010
 5959.00    1.18064   1.21389    0.011
 5960.00    1.25687   1.22020    0.011
 5961.00    1.24742   1.22665    0.011
 5962.00    1.23285   1.23026    0.010
 5963.00    1.21578   1.22872    0.010
 5964.00    1.19859   1.22359    0.010
 5965.00    1.17357   1.20883    0.010
 5966.00    1.15014   1.18258    0.010
 5967.00    1.16702   1.15926    0.010
 5968.00    1.18528   1.15292    0.010
 5969.00    1.22221   1.16209    0.010
 5970.00    1.25809   1.18230    0.010
 5971.00    1.28451   1.20357    0.010
 5972.00    1.31005   1.20758    0.010
 5973.00    1.32983   1.18742    0.010
 5974.00    1.35011   1.14961    0.010
 5975.00    1.37296   1.12381    0.010
 5976.00    1.38215   1.13740    0.010
 5977.00    1.33480   1.16561    0.010
 5978.00    1.28934   1.17834    0.010
 5979.00    1.25034   1.18652    0.010
 5980.00    1.21433   1.19654    0.010
 5981.00    1.18693   1.19461    0.010
 5982.00    1.16782   1.18262    0.010
 5983.00    1.16909   1.18668    0.010
 5984.00    1.17774   1.20938    0.010
 5985.00    1.20206   1.22273    0.010
 5986.00    1.22075   1.21415    0.010
 5987.00    1.22902   1.19007    0.010
 5988.00    1.24125   1.16629    0.010
 5989.00    1.25989   1.16149    0.010
 5990.00    1.27683   1.17504    0.010
 5991.00    1.29135   1.18979    0.011
 5992.00    1.30975   1.18884    0.011
 5993.00    1.33298   1.17117    0.010
 5994.00    1.34406   1.16480    0.010
 5995.00    1.34182   1.17865    0.010
 5996.00    1.31187   1.18196    0.010
 5997.00    1.25511   1.16088    0.010
 5998.00    1.22200   1.12929    0.010
 5999.00    1.20907   1.11864    0.010
 6000.00    1.18113   1.15208    0.010
 6001.00    1.14190   1.19310    0.010
 6002.00    1.11325   1.19558    0.010
 6003.00    1.09160   1.16744    0.010
 6004.00    1.05316   1.14825    0.010
 6005.00    1.00502   1.15653    0.010
 6006.00    0.98671   1.16480    0.010
 6007.00    0.98343   1.15568    0.009
 6008.00    1.04713   1.15372    0.010
 6009.00    1.14004   1.16023    0.010
 6010.00    1.18687   1.15089    0.010
 6011.00    1.21646   1.13610    0.010
 6012.00    1.20394   1.13844    0.010
 6013.00    1.17805   1.15067    0.010
 6014.00    1.15020   1.15856    0.010
 6015.00    1.12182   1.16700    0.010
 6016.00    1.12261   1.18198    0.010
 6017.00    1.12973   1.18727    0.010
 6018.00    1.19549   1.18730    0.010
 6019.00    1.27134   1.19968    0.010
 6020.00    1.28535   1.21129    0.010
 6021.00    1.29129   1.21054    0.011
 6022.00    1.26748   1.20958    0.011
 6023.00    1.24094   1.21722    0.010
 6024.00    1.21469   1.22342    0.010
 6025.00    1.18847   1.22250    0.010
 6026.00    1.18390   1.22076    0.010
 6027.00    1.18024   1.22226    0.010
 6028.00    1.22013   1.22396    0.010
 6029.00    1.25965   1.22002    0.010
 6030.00    1.29069   1.21018    0.010
 6031.00    1.31895   1.20278    0.010
 6032.00    1.31166   1.20077    0.010
 6033.00    1.30489   1.20524    0.010
 6034.00    1.30259   1.21878    0.010
 6035.00    1.29520   1.23004    0.010
 6036.00    1.25524   1.23273    0.010
 6037.00    1.21762   1.23378    0.009
 6038.00    1.19162   1.23355    0.010
 6039.00    1.17472   1.22979    0.010
 6040.00    1.19470   1.22936    0.010
 6041.00    1.20926   1.23379    0.010
 6042.00    1.20560   1.23157    0.010
 6043.00    1.20490   1.21881    0.010
 6044.00    1.21256   1.20512    0.010
 6045.00    1.21491   1.19689    0.010
 6046.00    1.20440   1.18834    0.010
 6047.00    1.19304   1.18140    0.010
 6048.00    1.17989   1.18649    0.010
 6049.00    1.15803   1.20155    0.010
 6050.00    1.12035   1.21660    0.010
 6051.00    1.11101   1.22250    0.010
 6052.00    1.14669   1.21600    0.010
 6053.00    1.15310   1.20016    0.010
 6054.00    1.11869   1.17882    0.010
 6055.00    1.10871   1.15125    0.010
 6056.00    1.12871   1.13865    0.010
 6057.00    1.16485   1.16894    0.010
 6058.00    1.21845   1.21550    0.010
 6059.00    1.25310   1.23902    0.010
 6060.00    1.26966   1.24200    0.010
 6061.00    1.27082   1.24100    0.010
 6062.00    1.25902   1.24252    0.010
 6063.00    1.25265   1.24483    0.010
 6064.00    1.25031   1.24546    0.010
 6065.00    1.24675   1.24325    0.010
 6066.00    1.24240   1.23634    0.010
 6067.00    1.25591   1.22230    0.010
 6068.00    1.27958   1.19844    0.010
 6069.00    1.31536   1.17646    0.010
 6070.00    1.35714   1.17665    0.010
 6071.00    1.35339   1.18328    0.010
 6072.00    1.33011   1.17124    0.010
 6073.00    1.24333   1.16078    0.010
 6074.00    1.13322   1.16946    0.010
 6075.00    1.07293   1.17634    0.010
 6076.00    1.02817   1.17338    0.010
 6077.00    1.05449   1.17793    0.010
 6078.00    1.09925   1.19148    0.010
 6079.00    1.14284   1.19262    0.010
 6080.00    1.18617   1.17227    0.010
 6081.00    1.20347   1.15480    0.010
 6082.00    1.21641   1.15656    0.010
 6083.00    1.14566   1.16315    0.010
 6084.00    1.06435   1.17220    0.010
 6085.00    1.02488   1.19286    0.010
 6086.00    0.98906   1.20736    0.010
 6087.00    1.01010   1.20042    0.010
 6088.00    1.03409   1.19197    0.010
 6089.00    1.08331   1.20001    0.010
 6090.00    1.13248   1.21337    0.010
 6091.00    1.14421   1.20234    0.010
 6092.00    1.15608   1.14387    0.009
 6093.00    1.17079   1.07930    0.010
 6094.00    1.18299   1.08696    0.010
 6095.00    1.16460   1.15034    0.010
 6096.00    1.15014   1.19300    0.010
 6097.00    1.16818   1.19553    0.010
 6098.00    1.18887   1.18363    0.010
 6099.00    1.22601   1.18673    0.010
 6100.00    1.25640   1.20211    0.010
 6101.00    1.25390   1.19982    0.010
 6102.00    1.24097   1.18633    0.010
 6103.00    1.18677   1.19205    0.010
 6104.00    1.14558   1.21232    0.010
 6105.00    1.14724   1.21971    0.010
 6106.00    1.15920   1.20367    0.010
 6107.00    1.19984   1.18836    0.010
 6108.00    1.20795   1.19375    0.010
 6109.00    1.13859   1.19512    0.010
 6110.00    1.09790   1.17179    0.010
 6111.00    1.11616   1.13357    0.010
 6112.00    1.13908   1.09453    0.010
 6113.00    1.17036   1.09291    0.010
 6114.00    1.19794   1.14197    0.010
 6115.00    1.21972   1.18328    0.010
 6116.00    1.23287   1.18509    0.010
 6117.00    1.23417   1.17110    0.010
 6118.00    1.21078   1.15802    0.010
 6119.00    1.15750   1.15496    0.010
 6120.00    1.09395   1.17038    0.010
 6121.00    1.01944   1.19287    0.010
 6122.00    0.99210   1.20547    0.009
 6123.00    1.00913   1.20880    0.009
 6124.00    1.04583   1.20000    0.009
 6125.00    1.09884   1.16350    0.009
 6126.00    1.14633   1.09268    0.009
 6127.00    1.18979   1.01768    0.009
 6128.00    1.23225   1.01075    0.009
 6129.00    1.27406   1.08857    0.010
 6130.00    1.26562   1.16510    0.010
 6131.00    1.22898   1.17063    0.010
 6132.00    1.15534   1.14023    0.010
 6133.00    1.06363   1.14558    0.010
 6134.00    1.05247   1.18503    0.010
 6135.00    1.07526   1.21017    0.010
 6136.00    1.13310   1.21006    0.010
 6137.00    1.20358   1.19906    0.010
 6138.00    1.21995   1.18110    0.010
 6139.00    1.21981   1.16048    0.010
 6140.00    1.20731   1.14811    0.010
 6141.00    1.19168   1.15141    0.010
 6142.00    1.19114   1.16807    0.010
 6143.00    1.19371   1.18399    0.010
 6144.00    1.22633   1.17850    0.010
 6145.00    1.26384   1.15828    0.010
 6146.00    1.22382   1.15227    0.010
 6147.00    1.17436   1.15861    0.010
 6148.00    1.15485   1.15996    0.010
 6149.00    1.13784   1.15588    0.009
 6150.00    1.13448   1.13050    0.009
 6151.00    1.13177   1.06128    0.009
 6152.00    1.11506   0.98465    0.009
 6153.00    1.09873   0.96561    0.009
 6154.00    1.11605   1.00907    0.009
 6155.00    1.13272   1.06554    0.010
 6156.00    1.13685   1.09862    0.010
 6157.00    1.13621   1.11739    0.010
 6158.00    1.08063   1.11848    0.010
 6159.00    1.03046   1.07684    0.010
 6160.00    1.02364   1.03318    0.010
 6161.00    1.02183   1.05279    0.010
 6162.00    1.05023   1.10745    0.010
 6163.00    1.07757   1.13135    0.010
 6164.00    1.09988   1.13028    0.010
 6165.00    1.11551   1.13248    0.010
 6166.00    1.10528   1.13146    0.010
 6167.00    1.10294   1.12626    0.010
 6168.00    1.12607   1.13556    0.010
 6169.00    1.14710   1.15044    0.010
 6170.00    1.16241   1.14954    0.010
 6171.00    1.17357   1.14937    0.010
 6172.00    1.17500   1.16235    0.010
 6173.00    1.17344   1.17017    0.010
 6174.00    1.16585   1.16864    0.010
 6175.00    1.14962   1.16403    0.010
 6176.00    1.11819   1.14684    0.010
 6177.00    1.09525   1.12238    0.009
 6178.00    1.08543   1.10944    0.009
 6179.00    1.08559   1.10914    0.009
 6180.00    1.09928   1.09805    0.009
 6181.00    1.11523   1.05714    0.009
 6182.00    1.13389   1.03394    0.009
 6183.00    1.15545   1.07242    0.009
 6184.00    1.18005   1.12457    0.009
 6185.00    1.19469   1.14795    0.010
 6186.00    1.20009   1.15769    0.010
 6187.00    1.17984   1.16740    0.010
 6188.00    1.13862   1.16287    0.010
 6189.00    1.12694   1.13094    0.010
 6190.00    1.13652   1.09823    0.010
 6191.00    1.15506   1.10309    0.010
 6192.00    1.17925   1.13643    0.010
 6193.00    1.19883   1.16168    0.010
 6194.00    1.21586   1.16561    0.010
 6195.00    1.24818   1.16166    0.010
 6196.00    1.28785   1.16349   -2.000
 6197.00    1.35554   1.16779   -2.000
 6198.00    1.43485   1.16861   -2.000
 6199.00    1.42223   1.16628   -2.000
 6200.00    1.37701   1.15848   -2.000
 6201.00    1.29637   1.14772   -2.000
 6202.00    1.20513   1.13400   -2.000
 6203.00    1.09403   1.10242   -2.000
 6204.00    0.97799   1.06326   -2.000
 6205.00    0.97623   1.04377   -2.000
 6206.00    0.99748   1.04988   -2.000
 6207.00    1.05127   1.07706   -2.000
 6208.00    1.11019   1.09978    0.010
 6209.00    1.11767   1.08971    0.010
 6210.00    1.11913   1.06727    0.010
 6211.00    1.13608   1.06656    0.010
 6212.00    1.15427   1.08753    0.010
 6213.00    1.20011   1.10648    0.010
 6214.00    1.24718   1.10688    0.010
 6215.00    1.26062   1.10535    0.010
 6216.00    1.27207   1.11309    0.010
 6217.00    1.20612   1.11857    0.010
 6218.00    1.14159   1.11706    0.010
 6219.00    1.10299   1.09509    0.010
 6220.00    1.07003   1.04506    0.010
 6221.00    1.09913   1.00834    0.010
 6222.00    1.12640   1.02006    0.010
 6223.00    1.13950   1.05522    0.010
 6224.00    1.15286   1.09789    0.010
 6225.00    1.16777   1.13698    0.010
 6226.00    1.18113   1.14921    0.010
 6227.00    1.18725   1.13417    0.010
 6228.00    1.19245   1.10995    0.010
 6229.00    1.19412   1.08510    0.010
 6230.00    1.19684   1.06403    0.010
 6231.00    1.20292   1.06607    0.010
 6232.00    1.19936   1.07322    0.010
 6233.00    1.16989   1.05344    0.009
 6234.00    1.14387   1.03899    0.009
 6235.00    1.12581   1.04504    0.009
 6236.00    1.11446   1.04911    0.009
 6237.00    1.11650   1.06564    0.009
 6238.00    1.11087   1.10081    0.009
 6239.00    1.09192   1.12478    0.009
 6240.00    1.07670   1.12695    0.009
 6241.00    1.06713   1.10795    0.010
 6242.00    1.04099   1.06708    0.010
 6243.00    0.99275   1.03529    0.010
 6244.00    0.96381   1.03308    0.010
 6245.00    0.95754   1.04380    0.010
 6246.00    0.98105   1.04163    0.010
 6247.00    1.03544   1.02201    0.010
 6248.00    1.07715   1.00057    0.010
 6249.00    1.10728   1.00559    0.010
 6250.00    1.12339   1.04398    0.010
 6251.00    1.12820   1.07565    0.010
 6252.00    1.12304   1.09826    0.010
 6253.00    1.11081   1.12572    0.010
 6254.00    1.12648   1.12958    0.010
 6255.00    1.15952   1.10165    0.010
 6256.00    1.17842   1.08952    0.010
 6257.00    1.18963   1.10779    0.010
 6258.00    1.21679   1.11816    0.010
 6259.00    1.25148   1.10856    0.010
 6260.00    1.32544   1.09988    0.010
 6261.00    1.41540   1.10320    0.011
 6262.00    1.40790   1.11606    0.012
 6263.00    1.36650   1.12807    0.012
 6264.00    1.23245   1.12805    0.012
 6265.00    1.07122   1.12524    0.011
 6266.00    1.01236   1.12730    0.011
 6267.00    0.97837   1.12717    0.010
 6268.00    1.03046   1.12377    0.010
 6269.00    1.09945   1.11247    0.010
 6270.00    1.16387   1.08887    0.010
 6271.00    1.22758   1.07731    0.010
 6272.00    1.19639   1.08936    0.010
 6273.00    1.15449   1.11006    0.010
 6274.00    1.14087   1.12848    0.010
 6275.00    1.12938   1.13064    0.010
 6276.00    1.15471   1.13137    0.010
 6277.00    1.18152   1.14471    0.010
 6278.00    1.19178   1.16071    0.010
 6279.00    1.20189   1.16744    0.010
 6280.00    1.21034   1.15480    0.000
 6281.00    1.21783   1.13249    0.000
 6282.00    1.20902   1.11935    0.000
 6283.00    1.20022   1.11678    0.000
 6284.00    1.19160   1.12599    0.000
 6285.00    1.18428   1.13123    0.000
 6286.00    1.18663   1.10953    0.000
 6287.00    1.18577   1.08092    0.000
 6288.00    1.16661   1.07851    0.000
 6289.00    1.15346   1.09731    0.000
 6290.00    1.16755   1.10354    0.000
 6291.00    1.18361   1.08197    0.000
 6292.00    1.20702   1.06261    0.000
 6293.00    1.21896   1.07639    0.000
 6294.00    1.19528   1.10459    0.000
 6295.00    1.17608   1.11518    0.000
 6296.00    1.16870   1.11889    0.000
 6297.00    1.16572   1.13918    0.000
 6298.00    1.17270   1.15874    0.000
 6299.00    1.17198   1.15790    0.000
 6300.00    1.15619   1.13969    0.000
 6301.00    1.13334   1.11847    0.000
 6302.00    1.09842   1.11114    0.000
 6303.00    1.10016   1.11842    0.000
 6304.00    1.15677   1.10880    0.000
 6305.00    1.18732   1.08093    0.000
 6306.00    1.18355   1.07792    0.000
 6307.00    1.19285   1.08199    0.000
 6308.00    1.21730   1.05965    0.000
 6309.00    1.21713   1.05463    0.000
 6310.00    1.19180   1.08573    0.000
 6311.00    1.17148   1.11079    0.000
 6312.00    1.15569   1.11196    0.000
 6313.00    1.15676   1.11562    0.000
 6314.00    1.17123   1.13529    0.000
 6315.00    1.14650   1.14876    0.000
 6316.00    1.09438   1.14951    0.000
 6317.00    1.05293   1.14172    0.000
 6318.00    1.01802   1.14206    0.000
 6319.00    1.02340   1.14917    0.000
 6320.00    1.05034   1.13994    0.000
 6321.00    1.09260   1.13378    0.010
 6322.00    1.14196   1.14867    0.010
 6323.00    1.18885   1.16421    0.010
 6324.00    1.23474   1.14972    0.010
 6325.00    1.21443   1.09887    0.010
 6326.00    1.17151   1.06009    0.010
 6327.00    1.14470   1.07053    0.010
 6328.00    1.12252   1.09989    0.010
 6329.00    1.13057   1.11371    0.010
 6330.00    1.14579   1.13065    0.010
 6331.00    1.12272   1.14932    0.010
 6332.00    1.09233   1.14252    0.009
 6333.00    1.05616   1.11204    0.009
 6334.00    1.01914   1.08497    0.009
 6335.00    1.01783   1.09173    0.009
 6336.00    1.02039   1.11476    0.009
 6337.00    1.04574   1.12690    0.009
 6338.00    1.07271   1.13808    0.009
 6339.00    1.09411   1.14968    0.009
 6340.00    1.11530   1.15284    0.009
 6341.00    1.12574   1.15370    0.009
 6342.00    1.13597   1.15452    0.009
 6343.00    1.14050   1.14491    0.009
 6344.00    1.14115   1.11829    0.009
 6345.00    1.07971   1.09640    0.009
 6346.00    1.02520   1.10409    0.009
 6347.00    1.04035   1.11171    0.010
 6348.00    1.05653   1.08505    0.010
 6349.00    1.08021   1.05730    0.010
 6350.00    1.09689   1.05652    0.010
 6351.00    1.07483   1.05531    0.010
 6352.00    1.05659   1.04170    0.010
 6353.00    1.05526   1.04120    0.010
 6354.00    1.05617   1.06081    0.010
 6355.00    1.06521   1.08440    0.010
 6356.00    1.06764   1.10218    0.010
 6357.00    1.04990   1.11985    0.009
 6358.00    1.03853   1.13956    0.009
 6359.00    1.04366   1.14366    0.009
 6360.00    1.06455   1.13260    0.009
 6361.00    1.12055   1.13108    0.009
 6362.00    1.15987   1.14957    0.009
 6363.00    1.16699   1.16740    0.009
 6364.00    1.14551   1.16698    0.010
 6365.00    1.07586   1.15999    0.010
 6366.00    1.01907   1.16048    0.010
 6367.00    0.98127   1.15894    0.010
 6368.00    0.96832   1.14178    0.010
 6369.00    0.98761   1.12643    0.009
 6370.00    1.04371   1.12353    0.009
 6371.00    1.14188   1.12555    0.010
 6372.00    1.17579   1.13747    0.010
 6373.00    1.14491   1.14610    0.010
 6374.00    1.12452   1.13777    0.010
 6375.00    1.11345   1.13264    0.010
 6376.00    1.12411   1.14480    0.010
 6377.00    1.15180   1.15637    0.010
 6378.00    1.16000   1.15569    0.010
 6379.00    1.15478   1.15400    0.010
 6380.00    1.19389   1.15655    0.010
 6381.00    1.25975   1.15085    0.010
 6382.00    1.29708   1.11791    0.009
 6383.00    1.31937   1.06752    0.009
 6384.00    1.30382   1.06083    0.009
 6385.00    1.27098   1.10772    0.009
 6386.00    1.22393   1.15077    0.009
 6387.00    1.17128   1.16708    0.009
 6388.00    1.14266   1.15619    0.009
 6389.00    1.12210   1.10223    0.009
 6390.00    1.13306   1.04303    0.009
 6391.00    1.15290   1.06734    0.009
 6392.00    1.16010   1.13754    0.009
 6393.00    1.16436   1.17037    0.010
 6394.00    1.12431   1.17486    0.010
 6395.00    1.07601   1.16863    0.010
 6396.00    1.07111   1.15128    0.010
 6397.00    1.07244   1.12033    0.010
 6398.00    1.06603   1.09866    0.010
 6399.00    1.05881   1.12092    0.010
 6400.00    1.03580   1.14097    0.010
 6401.00    1.01174   1.11465    0.010
 6402.00    1.03689   1.09814    0.010
 6403.00    1.06364   1.11599    0.010
 6404.00    1.04327   1.12723    0.010
 6405.00    1.02152   1.13156    0.010
 6406.00    0.95746   1.14292    0.009
 6407.00    0.89903   1.14676    0.009
 6408.00    0.92490   1.13854    0.009
 6409.00    0.95146   1.11532    0.009
 6410.00    0.98458   1.08003    0.009
 6411.00    1.01509   1.06645    0.009
 6412.00    1.02735   1.10043    0.009
 6413.00    1.03529   1.15192    0.009
 6414.00    1.01998   1.16793    0.009
 6415.00    1.01091   1.15942    0.009
 6416.00    1.02885   1.16157    0.009
 6417.00    1.04994   1.17420    0.009
 6418.00    1.08224   1.17689    0.009
 6419.00    1.10186   1.15350    0.009
 6420.00    1.08357   1.10251    0.009
 6421.00    1.07048   1.06797    0.009
 6422.00    1.07058   1.08814    0.010
 6423.00    1.08406   1.12707    0.010
 6424.00    1.12687   1.15120    0.010
 6425.00    1.15995   1.16207    0.010
 6426.00    1.17456   1.16522    0.010
 6427.00    1.16458   1.15065    0.010
 6428.00    1.11383   1.10571    0.010
 6429.00    1.09550   1.07238    0.010
 6430.00    1.12432   1.10433    0.010
 6431.00    1.15991   1.15901    0.010
 6432.00    1.20416   1.18136    0.010
 6433.00    1.22075   1.18189    0.010
 6434.00    1.20616   1.17894    0.009
 6435.00    1.17187   1.18130    0.009
 6436.00    1.11801   1.18810    0.009
 6437.00    1.07568   1.18436    0.009
 6438.00    1.04344   1.14569    0.009
 6439.00    1.03627   1.06740    0.009
 6440.00    1.04845   1.01696    0.009
 6441.00    1.05379   1.05342    0.009
 6442.00    1.05449   1.11707    0.009
 6443.00    1.04715   1.15339    0.009
 6444.00    1.03502   1.15403    0.009
 6445.00    1.06952   1.12261    0.010
 6446.00    1.12824   1.10206    0.010
 6447.00    1.17596   1.12505    0.010
 6448.00    1.21874   1.16312    0.010
 6449.00    1.22904   1.18429    0.010
 6450.00    1.22678   1.18366    0.010
 6451.00    1.20578   1.14855    0.010
 6452.00    1.17862   1.08192    0.010
 6453.00    1.16777   1.05531    0.010
 6454.00    1.16141   1.09833    0.009
 6455.00    1.15587   1.14221    0.009
 6456.00    1.15051   1.16087    0.009
 6457.00    1.14108   1.16883    0.009
 6458.00    1.13091   1.16683    0.009
 6459.00    1.10966   1.15181    0.009
 6460.00    1.08687   1.13685    0.009
 6461.00    1.07321   1.12361    0.009
 6462.00    1.06046   1.12560    0.009
 6463.00    1.05625   1.14643    0.009
 6464.00    1.05257   1.14829    0.009
 6465.00    1.05450   1.13197    0.009
 6466.00    1.05666   1.13331    0.009
 6467.00    1.07391   1.15157    0.009
 6468.00    1.09201   1.15790    0.009
 6469.00    1.13395   1.15548    0.009
 6470.00    1.17196   1.14657    0.010
 6471.00    1.15426   1.11492    0.010
 6472.00    1.13405   1.07912    0.010
 6473.00    1.09052   1.07846    0.010
 6474.00    1.04739   1.10732    0.010
 6475.00    1.00696   1.13214    0.010
 6476.00    0.97666   1.14275    0.010
 6477.00    0.99952   1.14754    0.010
 6478.00    1.03321   1.14967    0.009
 6479.00    1.11265   1.14090    0.009
 6480.00    1.17062   1.12142    0.009
 6481.00    1.15376   1.10529    0.009
 6482.00    1.12620   1.08925    0.009
 6483.00    1.06726   1.04208    0.009
 6484.00    1.02601   0.96770    0.009
 6485.00    1.02902   0.92883    0.009
 6486.00    1.03674   0.94391    0.009
 6487.00    1.05461   0.98134    0.009
 6488.00    1.07798   1.01650    0.009
 6489.00    1.11163   1.03342    0.009
 6490.00    1.12230   1.05711    0.009
 6491.00    1.09543   1.08893    0.009
 6492.00    1.06462   1.10837    0.009
 6493.00    1.02815   1.11916    0.009
 6494.00    1.02524   1.12630    0.010
 6495.00    1.06463   1.13494    0.010
 6496.00    1.09749   1.14208    0.010
 6497.00    1.12307   1.13752    0.010
 6498.00    1.12675   1.12329    0.010
 6499.00    1.10897   1.11882    0.010
 6500.00    1.11575   1.13003    0.010
 6501.00    1.14376   1.14062    0.010
 6502.00    1.16614   1.14123    0.010
 6503.00    1.18422   1.13945    0.009
 6504.00    1.21275   1.13264    0.009
 6505.00    1.24826   1.11556    0.009
 6506.00    1.25213   1.10052    0.009
 6507.00    1.23746   1.09346    0.009
 6508.00    1.19223   1.08610    0.009
 6509.00    1.13138   1.09173    0.009
 6510.00    1.11619   1.11761    0.009
 6511.00    1.12121   1.13752    0.009
 6512.00    1.13370   1.14075    0.009
 6513.00    1.14902   1.13922    0.009
 6514.00    1.16085   1.14230    0.009
 6515.00    1.17154   1.14057    0.009
 6516.00    1.17940   1.12157    0.009
 6517.00    1.18649   1.10434    0.010
 6518.00    1.16590   1.11207    0.010
 6519.00    1.13918   1.13044    0.010
 6520.00    1.14020   1.13702    0.010
 6521.00    1.14610   1.12621    0.010
 6522.00    1.16467   1.10767    0.010
 6523.00    1.18495   1.10072    0.009
 6524.00    1.17419   1.11410    0.009
 6525.00    1.16046   1.13508    0.009
 6526.00    1.08831   1.14175    0.009
 6527.00    1.01270   1.13286    0.009
 6528.00    0.99075   1.13149    0.000
 6529.00    0.97073   1.14495    0.000
 6530.00    1.03407   1.15397    0.000
 6531.00    1.09567   1.14550    0.000
 6532.00    1.11368   1.12949    0.000
 6533.00    1.13142   1.11709    0.000
 6534.00    1.14564   1.10650    0.000
 6535.00    1.15949   1.08494    0.000
 6536.00    1.16991   1.06151    0.000
 6537.00    1.17924   1.06822    0.000
 6538.00    1.18142   1.09452    0.000
 6539.00    1.17273   1.10879    0.000
 6540.00    1.10853   1.10452    0.000
 6541.00    1.06123   1.09175    0.000
 6542.00    1.08371   1.08315    0.000
 6543.00    1.11014   1.07371    0.000
 6544.00    1.15007   1.05369    0.000
 6545.00    1.18129   1.03442    0.000
 6546.00    1.18738   1.03389    0.000
 6547.00    1.18602   1.04824    0.000
 6548.00    1.16633   1.05548    0.000
 6549.00    1.14404   1.04518    0.000
 6550.00    1.11619   1.00956    0.000
 6551.00    1.10144   0.91134    0.000
 6552.00    1.11082   0.76250    0.000
 6553.00    1.14308   0.71155    0.000
 6554.00    1.21216   0.83219    0.000
 6555.00    1.31673   0.97873    0.000
 6556.00    1.47140   1.05015    0.000
 6557.00    1.64007   1.07422    0.000
 6558.00    1.82615   1.07114    0.000
 6559.00    1.96480   1.05529    0.000
 6560.00    2.05151   1.05532    0.000
 6561.00    2.03523   1.06309    0.000
 6562.00    1.91945   1.05362    0.000
 6563.00    1.73031   1.03386    0.000
 6564.00    1.47867   1.02457    0.000
 6565.00    1.28969   1.03765    0.000
 6566.00    1.14772   1.07296    0.000
 6567.00    1.07911   1.10526    0.000
 6568.00    1.05885   1.11641    0.000
 6569.00    1.07225   1.10863    0.000
 6570.00    1.10507   1.08953    0.000
 6571.00    1.12287   1.07761    0.000
 6572.00    1.13312   1.08784    0.000
 6573.00    1.12771   1.10399    0.000
 6574.00    1.11550   1.10860    0.000
 6575.00    1.12799   1.10221    0.000
 6576.00    1.14969   1.09642    0.000
 6577.00    1.24294   1.10573    0.000
 6578.00    1.35884   1.12161    0.000
 6579.00    1.48563   1.12787    0.000
 6580.00    1.61531   1.12239    0.000
 6581.00    1.61186   1.09467    0.000
 6582.00    1.57963   1.04172    0.000
 6583.00    1.46359   1.00513    0.000
 6584.00    1.33317   1.02573    0.000
 6585.00    1.22403   1.07282    0.000
 6586.00    1.11765   1.09567    0.000
 6587.00    1.05736   1.09054    0.000
 6588.00    1.00127   1.08048    0.000
 6589.00    0.96904   1.08644    0.000
 6590.00    0.93814   1.10886    0.000
 6591.00    0.94567   1.12620    0.000
 6592.00    0.95455   1.12658    0.000
 6593.00    1.01265   1.11467    0.000
 6594.00    1.06953   1.09827    0.000
 6595.00    1.09826   1.08631    0.000
 6596.00    1.12754   1.08120    0.000
 6597.00    1.16382   1.07252    0.000
 6598.00    1.19639   1.05536    0.000
 6599.00    1.19708   1.04869    0.000
 6600.00    1.19387   1.07399    0.000
 6601.00    1.16579   1.10818    0.000
 6602.00    1.13070   1.11579    0.000
 6603.00    1.06072   1.10377    0.000
 6604.00    0.99722   1.10304    0.000
 6605.00    0.95989   1.11867    0.000
 6606.00    0.93517   1.12582    0.000
 6607.00    0.95267   1.12000    0.000
 6608.00    0.98200   1.11762    0.000
 6609.00    1.04476   1.12339    0.010
 6610.00    1.09476   1.13002    0.010
 6611.00    1.11392   1.13098    0.010
 6612.00    1.11420   1.12178    0.010
 6613.00    1.07510   1.10039    0.010
 6614.00    1.05406   1.07660    0.009
 6615.00    1.06578   1.07222    0.009
 6616.00    1.08227   1.08845    0.009
 6617.00    1.10631   1.10057    0.009
 6618.00    1.12358   1.10163    0.009
 6619.00    1.13140   1.09823    0.009
 6620.00    1.14504   1.09282    0.009
 6621.00    1.16580   1.08397    0.009
 6622.00    1.18988   1.06519    0.009
 6623.00    1.21754   1.04262    0.009
 6624.00    1.21965   1.04002    0.009
 6625.00    1.19742   1.06403    0.009
 6626.00    1.16902   1.09121    0.009
 6627.00    1.13545   1.10404    0.009
 6628.00    1.09031   1.10095    0.009
 6629.00    1.03661   1.09094    0.009
 6630.00    1.00554   1.09136    0.010
 6631.00    0.98916   1.09975    0.010
 6632.00    0.99997   1.08855    0.010
 6633.00    1.02623   1.06335    0.009
 6634.00    1.05294   1.06189    0.009
 6635.00    1.07989   1.08262    0.010
 6636.00    1.06300   1.09332    0.009
 6637.00    1.02736   1.09034    0.009
 6638.00    1.00334   1.09134    0.009
 6639.00    0.98358   1.09779    0.009
 6640.00    0.98612   1.09822    0.009
 6641.00    0.99559   1.09258    0.009
 6642.00    1.01574   1.08874    0.009
 6643.00    1.03866   1.08886    0.009
 6644.00    1.04696   1.09149    0.009
 6645.00    1.05218   1.09367    0.009
 6646.00    1.02815   1.09208    0.009
 6647.00    0.99924   1.09137    0.009
 6648.00    1.00876   1.09327    0.009
 6649.00    1.02309   1.09082    0.009
 6650.00    1.00505   1.08312    0.009
 6651.00    0.98419   1.07166    0.009
 6652.00    0.96359   1.05148    0.009
 6653.00    0.94300   1.03397    0.009
 6654.00    0.99307   1.04081    0.010
 6655.00    1.04384   1.05790    0.010
 6656.00    1.05617   1.06209    0.010
 6657.00    1.06676   1.06075    0.010
 6658.00    1.04074   1.06828    0.010
 6659.00    1.01615   1.08415    0.009
 6660.00    1.00894   1.09745    0.009
 6661.00    1.00521   1.10122    0.009
 6662.00    1.03013   1.09932    0.009
 6663.00    1.04855   1.09835    0.009
 6664.00    1.02692   1.09949    0.009
 6665.00    1.01307   1.09564    0.009
 6666.00    1.03702   1.07042    0.009
 6667.00    1.06116   1.02703    0.009
 6668.00    1.08608   1.00846    0.009
 6669.00    1.11395   1.03496    0.009
 6670.00    1.15153   1.06534    0.009
 6671.00    1.17708   1.07455    0.009
 6672.00    1.16928   1.07859    0.010
 6673.00    1.14330   1.08567    0.010
 6674.00    1.07411   1.09074    0.010
 6675.00    1.01409   1.09137    0.010
 6676.00    0.97294   1.08866    0.010
 6677.00    0.96297   1.08415    0.009
 6678.00    1.00870   1.08277    0.009
 6679.00    1.03716   1.08656    0.010
 6680.00    1.03863   1.09013    0.010
 6681.00    1.03757   1.09030    0.010
 6682.00    1.03304   1.08905    0.009
 6683.00    1.03876   1.08782    0.009
 6684.00    1.05686   1.07989    0.009
 6685.00    1.05602   1.06060    0.009
 6686.00    1.03503   1.04428    0.009
 6687.00    1.01807   1.04531    0.009
 6688.00    1.00492   1.05741    0.009
 6689.00    1.01342   1.07359    0.009
 6690.00    1.03985   1.08745    0.009
 6691.00    1.06312   1.08942    0.009
 6692.00    1.08408   1.07852    0.009
 6693.00    1.08797   1.06204    0.009
 6694.00    1.08094   1.05406    0.009
 6695.00    1.08990   1.06138    0.009
 6696.00    1.10782   1.07312    0.000
 6697.00    1.12821   1.07853    0.000
 6698.00    1.14981   1.07798    0.000
 6699.00    1.10337   1.07212    0.000
 6700.00    1.02829   1.06556    0.000
 6701.00    0.98865   1.06469    0.000
 6702.00    0.96178   1.06155    0.000
 6703.00    0.99290   1.05193    0.000
 6704.00    1.04168   1.04078    0.000
 6705.00    1.09064   1.02606    0.000
 6706.00    1.13964   1.00668    0.000
 6707.00    1.15297   0.99752    0.000
 6708.00    1.15896   1.01633    0.000
 6709.00    1.22537   1.04745    0.000
 6710.00    1.30156   1.06140    0.000
 6711.00    1.33325   1.05961    0.000
 6712.00    1.35955   1.06183    0.000
 6713.00    1.33425   1.07092    0.000
 6714.00    1.30466   1.07136    0.000
 6715.00    1.26142   1.05975    0.000
 6716.00    1.21754   1.05232    0.000
 6717.00    1.19473   1.05777    0.000
 6718.00    1.17234   1.06742    0.000
 6719.00    1.15630   1.07486    0.000
 6720.00    1.14054   1.07897    0.000
 6721.00    1.13015   1.07711    0.000
 6722.00    1.12124   1.06967    0.000
 6723.00    1.12938   1.06402    0.000
 6724.00    1.14039   1.06613    0.000
 6725.00    1.17421   1.07250    0.000
 6726.00    1.21102   1.07214    0.000
 6727.00    1.26576   1.05919    0.000
 6728.00    1.30746   1.04402    0.000
 6729.00    1.28740   1.04161    0.000
 6730.00    1.25498   1.05139    0.000
 6731.00    1.17480   1.05543    0.000
 6732.00    1.10198   1.04737    0.000
 6733.00    1.05286   1.04415    0.000
 6734.00    1.02121   1.05164    0.000
 6735.00    1.03720   1.05540    0.000
 6736.00    1.04870   1.05136    0.000
 6737.00    1.04972   1.04591    0.000
 6738.00    1.04922   1.03968    0.000
 6739.00    1.04563   1.03309    0.000
 6740.00    1.04930   1.03408    0.000
 6741.00    1.06574   1.03970    0.000
 6742.00    1.08557   1.03786    0.000
 6743.00    1.11065   1.03906    0.000
 6744.00    1.12630   1.04929    0.000
 6745.00    1.12922   1.05830    0.000
 6746.00    1.11831   1.06675    0.000
 6747.00    1.09093   1.07666    0.000
 6748.00    1.06780   1.08360    0.000
 6749.00    1.04912   1.08650    0.000
 6750.00    1.04176   1.08558    0.000
 6751.00    1.04489   1.08056    0.000
 6752.00    1.03768   1.07743    0.000
 6753.00    1.02204   1.07900    0.010
 6754.00    1.00230   1.07784    0.010
 6755.00    0.97963   1.06654    0.010
 6756.00    0.98475   1.04714    0.010
 6757.00    1.00739   1.03547    0.011
 6758.00    1.05810   1.04254    0.011
 6759.00    1.12429   1.05193    0.011
 6760.00    1.21774   1.04766    0.011
 6761.00    1.32426   1.04291    0.012
 6762.00    1.39346   1.05249    0.012
 6763.00    1.44722   1.06951    0.012
 6764.00    1.41293   1.08262    0.012
 6765.00    1.34750   1.08903    0.012
 6766.00    1.31348   1.08863    0.012
 6767.00    1.28883   1.08654    0.011
 6768.00    1.22740   1.09027    0.011
 6769.00    1.15687   1.09396    0.010
 6770.00    1.12989   1.08875    0.010
 6771.00    1.11166   1.07319    0.010
 6772.00    1.15535   1.04987    0.010
 6773.00    1.20877   1.02869    0.010
 6774.00    1.19261   1.02129    0.009
 6775.00    1.16835   1.02653    0.009
 6776.00    1.15715   1.03903    0.010
 6777.00    1.14698   1.05584    0.010
 6778.00    1.19584   1.06538    0.010
 6779.00    1.24728   1.06492    0.011
 6780.00    1.19614   1.06564    0.011
 6781.00    1.14598   1.06700    0.011
 6782.00    1.19133   1.05910    0.011
 6783.00    1.23315   1.04764    0.011
 6784.00    1.21094   1.04455    0.011
 6785.00    1.18684   1.04751    0.011
 6786.00    1.14210   1.05295    0.011
 6787.00    1.09981   1.05859    0.010
 6788.00    1.07633   1.06173    0.010
 6789.00    1.06068   1.06515    0.010
 6790.00    1.09072   1.07013    0.010
 6791.00    1.11145   1.07356    0.010
 6792.00    1.08912   1.07060    0.010
 6793.00    1.07366   1.06291    0.010
 6794.00    1.08420   1.06111    0.010
 6795.00    1.09389   1.06229    0.010
 6796.00    1.10089   1.05881    0.010
 6797.00    1.12629   1.05952    0.010
 6798.00    1.20094   1.06208    0.010
 6799.00    1.23824   1.05762    0.010
 6800.00    1.18969   1.05632    0.010
 6801.00    1.14087   1.06236    0.010
 6802.00    1.09151   1.06549    0.011
 6803.00    1.04043   1.05807    0.011
 6804.00    0.98640   1.04673    0.011
 6805.00    0.93044   1.04980    0.011
 6806.00    0.87158   1.06648    0.010
 6807.00    0.85511   1.07615    0.010
 6808.00    0.89514   1.07025    0.010
 6809.00    0.95923   1.05777    0.010
 6810.00    1.05158   1.05474    0.010
 6811.00    1.11498   1.06546    0.010
 6812.00    1.14842   1.07829    0.010
 6813.00    1.14202   1.08401    0.010
 6814.00    1.09923   1.08441    0.010
 6815.00    1.06225   1.08184    0.010
 6816.00    1.02993   1.07190    0.010
 6817.00    1.00875   1.05423    0.010
 6818.00    0.99545   1.04542    0.010
 6819.00    1.00470   1.05529    0.010
 6820.00    1.02796   1.07011    0.010
 6821.00    1.04394   1.07360    0.010
 6822.00    1.05597   1.06901    0.010
 6823.00    1.09641   1.07023    0.010
 6824.00    1.15025   1.07789    0.010
 6825.00    1.14575   1.07962    0.010
 6826.00    1.11752   1.07223    0.010
 6827.00    1.06184   1.06072    0.010
 6828.00    0.99661   1.04522    0.010
 6829.00    1.02547   1.02755    0.010
 6830.00    1.08186   1.01024    0.010
 6831.00    1.13855   1.00082    0.010
 6832.00    1.19532   1.00839    0.010
 6833.00    1.21701   1.03060    0.010
 6834.00    1.23185   1.05427    0.010
 6835.00    1.21900   1.06654    0.010
 6836.00    1.20194   1.06883    0.010
 6837.00    1.20677   1.06923    0.010
 6838.00    1.21406   1.06799    0.010
 6839.00    1.14341   1.06454    0.010
 6840.00    1.06695   1.06256    0.010
 6841.00    1.00895   1.06430    0.010
 6842.00    0.95170   1.06596    0.011
 6843.00    0.89526   1.05344    0.010
 6844.00    0.84254   1.02801    0.010
 6845.00    0.93726   1.01690    0.010
 6846.00    1.02692   1.02521    0.010
 6847.00    1.03120   1.03467    0.010
 6848.00    1.03532   1.04189    0.010
 6849.00    1.03785   1.04087    0.010
 6850.00    1.03999   1.02454    0.010
 6851.00    1.03929   1.01459    0.010
 6852.00    1.03699   1.03226    0.010
 6853.00    1.02564   1.06100    0.010
 6854.00    1.01782   1.07269    0.009
 6855.00    1.02591   1.06394    0.009
 6856.00    1.03628   1.04367    0.009
 6857.00    1.05509   1.02385    0.010
 6858.00    1.06094   1.02295    0.010
 6859.00    1.02664   1.03998    0.010
 6860.00    1.00767   1.04790    0.010
 6861.00    1.02901   1.03774    0.010
 6862.00    1.03257   1.03179    0.010
 6863.00    0.99595   1.03832    0.010
 6864.00    0.95876   1.04238    0.010
 6865.00    0.92048   1.04324    0.010
 6866.00    0.88611   1.05189    0.010
 6867.00    0.85839   1.06429    0.010
 6868.00    0.88833   1.06896    0.010
 6869.00    1.00444   1.06436    0.010
 6870.00    1.05958   1.05051    0.011
 6871.00    1.03464   1.03171    0.010
 6872.00    1.01092   1.02328    0.010
 6873.00    0.98861   1.03539    0.010
 6874.00    0.99909   1.04999    0.010
 6875.00    1.04303   1.05113    0.010
 6876.00    1.03274   1.05412    0.010
 6877.00    0.97362   1.06632    0.009
 6878.00    0.93921   1.07496    0.009
 6879.00    0.92441   1.07881    0.010
 6880.00    0.92186   1.08352    0.010
 6881.00    0.92787   1.08296    0.010
 6882.00    0.94668   1.07640    0.010
 6883.00    0.97332   1.07246    0.010
 6884.00    1.00345   1.06773    0.010
 6885.00    1.03545   1.06155    0.010
 6886.00    1.05301   1.06296    0.010
 6887.00    1.06387   1.07101    0.010
 6888.00    1.04023   1.07247    0.010
 6889.00    1.00280   1.06427    0.010
 6890.00    1.01333   1.06294    0.010
 6891.00    1.04021   1.07412    0.010
 6892.00    1.03425   1.08158    0.010
 6893.00    1.01889   1.07771    0.010
 6894.00    1.03852   1.07173    0.010
 6895.00    1.06645   1.07392    0.010
 6896.00    1.07298   1.08346    0.010
 6897.00    1.07544   1.08847    0.010
 6898.00    1.06285   1.08851    0.010
 6899.00    1.04805   1.08663    0.010
 6900.00    1.03194   1.08055    0.010
 6901.00    1.01570   1.07161    0.010
 6902.00    1.02257   1.05988    0.010
 6903.00    1.03108   1.04472    0.010
 6904.00    0.99978   1.04136    0.010
 6905.00    0.96707   1.04961    0.010
 6906.00    0.96189   1.05244    0.010
 6907.00    0.95690   1.05656    0.010
 6908.00    0.95490   1.06593    0.010
 6909.00    0.95588   1.07642    0.010
 6910.00    1.00403   1.08458    0.010
 6911.00    1.04898   1.08703    0.010
 6912.00    1.06185   1.07732    0.010
 6913.00    1.06817   1.05331    0.010
 6914.00    1.02735   1.03147    0.010
 6915.00    0.99367   1.02941    0.010
 6916.00    0.99929   1.04639    0.010
 6917.00    1.00054   1.06429    0.010
 6918.00    0.98248   1.07140    0.009
 6919.00    0.97793   1.07226    0.009
 6920.00    1.02239   1.07071    0.010
 6921.00    1.04784   1.06251    0.010
 6922.00    1.01557   1.04848    0.010
 6923.00    1.00283   1.04778    0.010
 6924.00    1.04056   1.06326    0.010
 6925.00    1.04628   1.07204    0.010
 6926.00    0.98083   1.06975    0.010
 6927.00    0.94619   1.06759    0.010
 6928.00    0.97089   1.07202    0.010
 6929.00    1.01371   1.08043    0.010
 6930.00    1.08695   1.08554    0.011
 6931.00    1.10483   1.08026    0.010
 6932.00    1.04118   1.06591    0.010
 6933.00    0.97272   1.04542    0.010
 6934.00    0.89803   1.02728    0.010
 6935.00    0.89564   1.03208    0.010
 6936.00    0.97571   1.05474    0.010
 6937.00    1.06492   1.07019    0.010
 6938.00    1.16334   1.07679    0.010
 6939.00    1.20379   1.07342    0.010
 6940.00    1.19280   1.05689    0.010
 6941.00    1.14151   1.04474    0.010
 6942.00    1.05871   1.04337    0.010
 6943.00    1.04317   1.04334    0.010
 6944.00    1.07386   1.04898    0.010
 6945.00    1.07067   1.06251    0.010
 6946.00    1.04705   1.07322    0.010
 6947.00    1.05013   1.07459    0.010
 6948.00    1.06727   1.07416    0.010
 6949.00    1.08553   1.07398    0.010
 6950.00    1.10432   1.07657    0.011
 6951.00    1.08953   1.08014    0.011
 6952.00    1.06157   1.08328    0.010
 6953.00    1.05274   1.08540    0.010
 6954.00    1.05032   1.07862    0.010
 6955.00    1.01267   1.06873    0.010
 6956.00    0.96513   1.07464    0.010
 6957.00    0.90665   1.09099    0.010
 6958.00    0.84563   1.09688    0.010
 6959.00    0.85472   1.08753    0.010
 6960.00    0.87682   1.07253    0.010
 6961.00    0.93770   1.07232    0.010
 6962.00    1.00413   1.08614    0.010
 6963.00    1.03369   1.08660    0.010
 6964.00    1.05943   1.06998    0.010
 6965.00    1.06504   1.05111    0.011
 6966.00    1.06930   1.02629    0.011
 6967.00    1.01653   0.98842    0.011
 6968.00    0.96195   0.97034    0.011
 6969.00    1.02019   1.00045    0.011
 6970.00    1.07637   1.04509    0.011
 6971.00    1.06971   1.07267    0.011
 6972.00    1.05918   1.08703    0.010
 6973.00    0.99108   1.09245    0.010
 6974.00    0.93040   1.09157    0.010
 6975.00    0.94098   1.08922    0.010
 6976.00    0.95025   1.08580    0.010
 6977.00    0.95046   1.07648    0.010
 6978.00    0.94481   1.06301    0.010
 6979.00    0.90773   1.06001    0.010
 6980.00    0.89803   1.07220    0.010
 6981.00    1.00632   1.08591    0.010
 6982.00    1.07377   1.08930    0.011
 6983.00    0.99621   1.08176    0.010
 6984.00    0.94490   1.07659    0.010
 6985.00    0.97186   1.08052    0.010
 6986.00    1.00681   1.08469    0.010
 6987.00    1.06202   1.07791    0.011
 6988.00    1.08471   1.05528    0.011
 6989.00    1.03630   1.03648    0.011
 6990.00    1.02220   1.04461    0.011
 6991.00    1.07316   1.06632    0.010
 6992.00    1.09674   1.07153    0.010
 6993.00    1.07500   1.05568    0.010
 6994.00    1.07076   1.04251    0.010
 6995.00    1.09194   1.04314    0.010
 6996.00    1.11075   1.05128    0.010
 6997.00    1.12652   1.06206    0.010
 6998.00    1.08270   1.07334    0.010
 6999.00    0.97185   1.07481    0.010
 7000.00    0.93076   1.06584    0.010
 7001.00    0.95888   1.06399    0.010
 7002.00    1.03240   1.07307    0.010
 7003.00    1.14563   1.07255    0.011
 7004.00    1.17378   1.04123    0.011
 7005.00    1.13636   0.99538    0.011
 7006.00    1.10309   0.99060    0.011
 7007.00    1.07264   1.03570    0.011
 7008.00    1.06439   1.07654    0.011
 7009.00    1.06933   1.09159    0.011
 7010.00    1.00577   1.09274    0.011
 7011.00    0.90674   1.07804    0.011
 7012.00    0.88102   1.04649    0.010
 7013.00    0.88821   1.02323    0.010
 7014.00    0.97208   1.02881    0.010
 7015.00    1.08554   1.05147    0.010
 7016.00    1.05422   1.06419    0.010
 7017.00    0.97538   1.06692    0.010
 7018.00    0.97702   1.06973    0.010
 7019.00    1.00080   1.07511    0.010
 7020.00    1.02175   1.07783    0.010
 7021.00    1.04206   1.07401    0.010
 7022.00    1.03734   1.06932    0.010
 7023.00    1.02810   1.06743    0.010
 7024.00    1.04589   1.07126    0.011
 7025.00    1.06742   1.08182    0.011
 7026.00    1.04418   1.07094    0.011
 7027.00    1.01650   1.03474    0.011
 7028.00    0.97663   1.02806    0.011
 7029.00    0.93601   1.06941    0.011
 7030.00    1.01031   1.11078    0.011
 7031.00    1.08729   1.12810    0.011
 7032.00    1.00803   1.12686    0.011
 7033.00    0.93264   1.10919    0.011
 7034.00    0.96370   1.08836    0.011
 7035.00    0.99236   1.08933    0.011
 7036.00    0.98744   1.10769    0.010
 7037.00    0.98841   1.12435    0.010
 7038.00    1.04367   1.13028    0.011
 7039.00    1.07834   1.12423    0.011
 7040.00    0.97430   1.10788    0.011
 7041.00    0.89629   1.07359    0.011
 7042.00    0.95439   1.03371    0.011
 7043.00    0.98745   1.01359    0.011
 7044.00    0.91510   1.01531    0.011
 7045.00    0.89439   1.03261    0.011
 7046.00    1.05329   1.05139    0.011
 7047.00    1.18383   1.05350    0.011
 7048.00    1.23134   1.03256    0.012
 7049.00    1.24875   1.00833    0.012
 7050.00    1.19098   1.00530   -2.000
 7051.00    1.11555   1.01675   -2.000
 7052.00    1.00211   1.02599   -2.000
 7053.00    0.96698   1.03652   -2.000
 7054.00    1.07808   1.04001   -2.000
 7055.00    1.13144   1.02390   -2.000
 7056.00    1.09062   1.00005   -2.000
 7057.00    1.07115   0.98026   -2.000
 7058.00    1.08225   0.98432   -2.000
 7059.00    1.09675   1.01568   -2.000
 7060.00    1.11555   1.04324   -2.000
 7061.00    1.14035   1.04937   -2.000
 7062.00    1.17179   1.04909   -2.000
 7063.00    1.18109   1.05061   -2.000
 7064.00    1.16875   1.04866   -2.000
 7065.00    1.14043   1.04576   -2.000
 7066.00    1.09833   1.04696   -2.000
 7067.00    1.06751   1.05244   -2.000
 7068.00    1.04526   1.05596   -2.000
 7069.00    1.07256   1.06072   -2.000
 7070.00    1.13294   1.06420   -2.000
 7071.00    1.21608   1.05200   -2.000
 7072.00    1.31254   1.02032   -2.000
 7073.00    1.31588   0.98179   -2.000
 7074.00    1.27175   0.96554   -2.000
 7075.00    1.15737   0.97914   -2.000
 7076.00    1.01198   0.98616   -2.000
 7077.00    1.10801   0.97793   -2.000
 7078.00    1.29561   0.97046   -2.000
 7079.00    1.24327   0.96365   -2.000
 7080.00    1.11367   0.96419   -2.000
 7081.00    1.08666   0.97106   -2.000
 7082.00    1.08728   0.97034   -2.000
 7083.00    0.98674   0.97065   -2.000
 7084.00    0.86387   0.97119   -2.000
 7085.00    1.00462   0.97106   -2.000
 7086.00    1.19172   0.97521   -2.000
 7087.00    1.19259   0.98444   -2.000
 7088.00    1.16851   1.00304   -2.000
 7089.00    1.10444   1.00912   -2.000
 7090.00    1.03656   1.00338   -2.000
 7091.00    1.02872   0.99188   -2.000
 7092.00    1.02440   0.98772   -2.000
 7093.00    1.12715   0.99883   -2.000
 7094.00    1.23078   1.01250   -2.000
 7095.00    1.09495   1.00890   -2.000
 7096.00    0.96581   0.99632   -2.000
 7097.00    1.00282   0.99407   -2.000
 7098.00    1.04075   0.99833   -2.000
 7099.00    1.09093   0.98893   -2.000
 7100.00    1.12456   0.97183   -2.000
 7101.00    1.01139   0.97076   -2.000
 7102.00    0.92102   0.98596   -2.000
 7103.00    0.97967   0.99920   -2.000
 7104.00    1.02353   1.00398   -2.000
 7105.00    0.99215   1.00797   -2.000
 7106.00    0.96113   1.00891   -2.000
 7107.00    0.93162   1.00596   -2.000
 7108.00    0.92782   1.00318   -2.000
 7109.00    1.01163   0.99970   -2.000
 7110.00    1.09695   0.99359   -2.000
 7111.00    1.18659   0.98486   -2.000
 7112.00    1.24796   0.99112   -2.000
 7113.00    1.23995   1.00170   -2.000
 7114.00    1.24122   0.99116   -2.000
 7115.00    1.26211   0.97245   -2.000
 7116.00    1.30442   0.96775   -2.000
 7117.00    1.38609   0.97472   -2.000
 7118.00    1.40924   0.96972   -2.000
 7119.00    1.33836   0.94761   -2.000
 7120.00    1.25701   0.93463   -2.000
 7121.00    1.16088   0.94831   -2.000
 7122.00    1.16945   0.97070   -2.000
 7123.00    1.30788   0.98831   -2.000
 7124.00    1.37032   0.99530   -2.000
 7125.00    1.34969   0.99688   -2.000
 7126.00    1.29279   1.00197   -2.000
 7127.00    1.20091   0.99729   -2.000
 7128.00    1.12255   0.98332   -2.000
 7129.00    1.05570   0.98310   -2.000
 7130.00    1.12250   0.99647   -2.000
 7131.00    1.28940   1.00122   -2.000
 7132.00    1.26608   0.99793   -2.000
 7133.00    1.11761   0.99601   -2.000
 7134.00    1.04033   0.99420   -2.000
 7135.00    1.00406   0.99034   -2.000
 7136.00    0.96093   0.97206   -2.000
 7137.00    0.91436   0.94754   -2.000
 7138.00    0.99276   0.95129   -2.000
 7139.00    1.12543   0.97215   -2.000
 7140.00    1.02490   0.98663   -2.000
 7141.00    0.83752   1.00212   -2.000
 7142.00    0.88668   1.01612   -2.000
 7143.00    1.01056   1.01243   -2.000
 7144.00    0.94914   0.99894   -2.000
 7145.00    0.83885   1.00195   -2.000
 7146.00    0.96557   1.01940   -2.000
 7147.00    1.14337   1.01971   -2.000
 7148.00    1.06025   1.00412   -2.000
 7149.00    0.93253   0.99379   -2.000
 7150.00    0.91520   0.99845   -2.000
 7151.00    0.91216   1.00657   -2.000
 7152.00    0.91666   0.99290   -2.000
 7153.00    0.92185   0.95775   -2.000
 7154.00    1.10621   0.93969   -2.000
 7155.00    1.30037   0.96122   -2.000
 7156.00    1.23969   0.99578   -2.000
 7157.00    1.17408   1.01480   -2.000
 7158.00    1.14668   1.01437   -2.000
 7159.00    1.12434   1.00932   -2.000
 7160.00    1.21692   1.01449   -2.000
 7161.00    1.29911   1.02644   -2.000
 7162.00    1.25044   1.03132   -2.000
 7163.00    1.19875   1.02452   -2.000
 7164.00    1.12131   1.00853   -2.000
 7165.00    1.03565   0.99460   -2.000
 7166.00    0.89791   1.00118   -2.000
 7167.00    0.83058   1.01637   -2.000
 7168.00    1.11283   1.00780   -2.000
 7169.00    1.30819   0.97598   -2.000
 7170.00    1.15379   0.95517   -2.000
 7171.00    1.02915   0.97096   -2.000
 7172.00    1.00397   1.00704   -2.000
 7173.00    0.98243   1.02505   -2.000
 7174.00    0.97120   1.01716   -2.000
 7175.00    0.99612   0.99289   -2.000
 7176.00    1.10826   0.96132   -2.000
 7177.00    1.14556   0.94652   -2.000
 7178.00    1.02706   0.95490   -2.000
 7179.00    1.02934   0.97395   -2.000
 7180.00    1.25034   0.99005   -2.000
 7181.00    1.24953   0.98814   -2.000
 7182.00    0.89765   0.98004   -2.000
 7183.00    0.74356   0.98621   -2.000
 7184.00    0.86426   0.99988   -2.000
 7185.00    0.92723   0.99819   -2.000
 7186.00    0.91962   0.98681   -2.000
 7187.00    0.91296   0.99068   -2.000
 7188.00    0.90731   1.00401   -2.000
 7189.00    0.90884   1.00622   -2.000
 7190.00    0.91719   0.99580   -2.000
 7191.00    0.96090   0.99008   -2.000
 7192.00    1.03425   1.00426   -2.000
 7193.00    1.00527   1.02286   -2.000
 7194.00    0.90075   1.01918   -2.000
 7195.00    0.91610   0.98479   -2.000
 7196.00    1.00917   0.94561   -2.000
 7197.00    0.96287   0.94101   -2.000
 7198.00    0.83751   0.96574   -2.000
 7199.00    0.88827   0.99722   -2.000
 7200.00    1.02600   1.02055   -2.000
 7201.00    1.17255   1.01941   -2.000
 7202.00    1.32288   1.00288   -2.000
 7203.00    1.17814   0.99074   -2.000
 7204.00    0.92545   0.98886   -2.000
 7205.00    0.82414   0.99633   -2.000
 7206.00    0.76974   1.01258   -2.000
 7207.00    0.77046   1.02534   -2.000
 7208.00    0.78540   1.02276   -2.000
 7209.00    0.86061   1.01295   -2.000
 7210.00    0.94849   1.00557   -2.000
 7211.00    0.94893   1.00026   -2.000
 7212.00    0.93485   0.99695   -2.000
 7213.00    0.95961   1.00568   -2.000
 7214.00    0.98922   1.02481   -2.000
 7215.00    1.09228   1.03760   -2.000
 7216.00    1.20170   1.03826   -2.000
 7217.00    1.06764   1.02676   -2.000
 7218.00    0.92122   1.01851   -2.000
